###################################################################
## OUTPUT of StarlightChains_v04.for    [Cid@UFSC - 01/Apr/2007] ##
###################################################################

## Some input info
1948B.txt                                [arq_obs]
Base.CB07.vall.4m                        [arq_base]
Masks.EmLines.NEW.gm                     [arq_masks]
StCv04.C11.config                        [arq_config]
   66                                    [N_base]
    0                                    [N_YAV_components = # of components with extra extinction!]
    0                                    [i_FitPowerLaw (1/0 = Yes/No)]
-9.99                                    [alpha_PowerLaw]
CCM                                      [red_law_option]
 1.458241                                [q_norm = A(l_norm)/A(V)]

## (Re)Sampling Parameters
 3741.00                                 [l_ini (A)]
 7218.00                                 [l_fin (A)]
    1.00                                 [dl    (A)]     (OBS: dl_cushion =    50.00 A)

## Normalization info
 4020.00                                 [l_norm (A) - for base]
 4010.00                                 [llow_norm (A) - window for f_obs]
 4060.00                                 [lupp_norm (A) - window for f_obs]
1.001302E-17                             [fobs_norm (in input units)]

## S/N
 3691.00                                 [llow_SN (A) - window for S/N]
 7268.00                                 [lupp_SN (A) - window for S/N]
   4.751                                 [S/N in S/N window]
   6.580                                 [S/N in norm. window]
  10.000                                 [S/N_err in S/N window]
  13.848                                 [S/N_err in norm. window]
  1.0000                                 [fscale_chi2]

## etc...
    -2007200                             [idum_orig]
  2378                                   [NOl_eff]
  2265                                   [Nl_eff]
   113    NSIGMA                         [Ntot_cliped & clip_method]
  1081290                                [Nglobal_steps]
   7                                     [N_chains]
  21                                     [NEX0s_base = N_base in EX0s-fits]
 0   0   1        6   2.0   4.151E+01    [Clip-Bug, RC-Crash & Burn-In warning-flags, n_censored_weights, wei_nsig_threshold & wei_limit]
    12     11.546     10.939      0.607  [idt_all, wdt_TotTime, wdt_UsrTime & wdt_SysTime (sec)]

## Synthesis Results - Best model ##

 7.99295E-01                             [chi2/Nl_eff]
     6.94155                             [adev (%)]

    93.06201                             [sum-of-x (%)]
 1.74976E-17                             [Flux_tot (units of input spectrum!)]
 8.36784E-14                             [Mini_tot (???)]
 4.49179E-14                             [Mcor_tot (???)]

 -31.78                                  [v0_min  (km/s)]
 195.05                                  [vd_min  (km/s)]
 0.4691                                  [AV_min  (mag)]
 0.0000                                  [YAV_min (mag)]

# j     x_j(%)      Mini_j(%)     Mcor_j(%)     age_j(yr)     Z_j      (L/M)_j    YAV?  Mstars   component_j        a/Fe...       SSP_chi2r SSP_adev(%)   SSP_AV   SSP_x(%)
  1      0.0000     0.0000E+00    0.0000E+00    1.000000E+06  0.00400  1.094E-02    0   1.0000   age020_m42            0.0000     1.3545E+00     8.4687   2.5108    78.3305
  2      0.0000     0.0000E+00    0.0000E+00    3.160000E+06  0.00400  4.007E-02    0   0.9999   age045_m42            0.0000     1.0383E+00     7.7684   1.7754    84.0842
  3      0.0000     0.0000E+00    0.0000E+00    5.010000E+06  0.00400  2.539E-02    0   0.9488   age055_m42            0.0000     1.1373E+00     7.9769   2.0961    82.0053
  4      0.0000     0.0000E+00    0.0000E+00    6.610000E+06  0.00400  2.620E-02    0   0.9220   age061_m42            0.0000     9.8994E-01     7.5945   1.6969    84.4732
  5      0.0000     0.0000E+00    0.0000E+00    1.000000E+07  0.00400  1.322E-02    0   0.8862   age070_m42            0.0000     9.5876E-01     7.2388   1.4045    86.6496
  6      0.0000     0.0000E+00    0.0000E+00    1.445000E+07  0.00400  7.883E-03    0   0.8571   age078_m42            0.0000     1.0320E+00     7.4271   1.7353    84.3102
  7      0.0000     0.0000E+00    0.0000E+00    2.512000E+07  0.00400  5.251E-03    0   0.8174   age090_m42            0.0000     9.4614E-01     7.1857   1.2720    87.2271
  8      0.0000     0.0000E+00    0.0000E+00    4.000000E+07  0.00400  3.649E-03    0   0.7851   age104_m42            0.0000     9.0636E-01     7.1069   1.0442    87.9873
  9      0.0084     6.0877E-04    8.6519E-04    5.500000E+07  0.00400  3.098E-03    0   0.7629   age110_m42            0.0000     8.6917E-01     7.0974   1.2003    87.9079
 10      0.0000     0.0000E+00    0.0000E+00    1.015200E+08  0.00400  2.228E-03    0   0.7207   age116_m42            0.0000     8.5563E-01     7.1361   1.2218    88.0416
 11     44.2317     9.0930E+00    1.1261E+01    2.861200E+08  0.00400  1.093E-03    0   0.6648   age125_m42            0.0000     8.1067E-01     6.9484   0.6467    90.9151
 12      0.0766     2.6083E-02    3.0928E-02    5.088000E+08  0.00400  6.597E-04    0   0.6365   age130_m42            0.0000     8.1327E-01     7.0283   0.6413    91.5205
 13      6.1404     6.4715E+00    6.9900E+00    1.434000E+09  0.00400  2.132E-04    0   0.5798   age139_m42            0.0000     8.6899E-01     7.3041  -0.3218    93.0232
 14      0.0000     0.0000E+00    0.0000E+00    4.250000E+09  0.00400  5.895E-05    0   0.5377   age158_m42            0.0000     1.0691E+00     7.9667  -0.7489    88.9385
 15      0.0000     0.0000E+00    0.0000E+00    7.500000E+09  0.00400  3.510E-05    0   0.5212   age171_m42            0.0000     1.1715E+00     8.2654  -0.9314    88.1543
 16      0.0000     0.0000E+00    0.0000E+00    1.300000E+10  0.00400  2.005E-05    0   0.5034   age193_m42            0.0000     1.3086E+00     8.5639  -1.0000    84.4719
 17      0.0000     0.0000E+00    0.0000E+00    1.800000E+10  0.00400  1.525E-05    0   0.4967   age213_m42            0.0000     1.3180E+00     8.5807  -1.0000    83.3472
 18      0.0000     0.0000E+00    0.0000E+00    1.000000E+06  0.00800  1.238E-02    0   1.0000   age020_m52            0.0000     1.3568E+00     8.4747   2.5063    78.5070
 19      0.0000     0.0000E+00    0.0000E+00    3.160000E+06  0.00800  3.074E-02    0   0.9966   age045_m52            0.0000     1.3342E+00     8.4447   2.4301    79.1968
 20      0.0000     0.0000E+00    0.0000E+00    5.010000E+06  0.00800  2.668E-02    0   0.9443   age055_m52            0.0000     1.1822E+00     8.0634   2.1797    81.2220
 21      0.0000     0.0000E+00    0.0000E+00    6.610000E+06  0.00800  2.136E-02    0   0.9177   age061_m52            0.0000     1.0293E+00     7.4186   0.9107    87.3935
 22      0.0000     0.0000E+00    0.0000E+00    1.000000E+07  0.00800  1.215E-02    0   0.8827   age070_m52            0.0000     1.0112E+00     7.3073   1.5831    86.4587
 23      0.0000     0.0000E+00    0.0000E+00    1.445000E+07  0.00800  8.717E-03    0   0.8552   age078_m52            0.0000     1.0073E+00     7.3571   1.7000    85.5048
 24      0.0000     0.0000E+00    0.0000E+00    2.512000E+07  0.00800  5.592E-03    0   0.8162   age090_m52            0.0000     9.3244E-01     7.1535   1.3361    88.2596
 25      0.0000     0.0000E+00    0.0000E+00    4.000000E+07  0.00800  3.896E-03    0   0.7841   age104_m52            0.0000     8.8234E-01     7.0496   1.2483    88.9569
 26      0.4905     5.1309E-02    6.9069E-02    1.015200E+08  0.00800  2.148E-03    0   0.7226   age116_m52            0.0000     8.4779E-01     7.0323   1.1893    88.7342
 27      0.0119     2.6967E-03    3.3574E-03    2.861200E+08  0.00800  9.925E-04    0   0.6683   age125_m52            0.0000     8.1075E-01     7.0143   0.7048    92.4121
 28      0.0000     0.0000E+00    0.0000E+00    9.047900E+08  0.00800  3.141E-04    0   0.6138   age135_m52            0.0000     9.0818E-01     7.4103  -0.0791    95.6649
 29      1.0628     1.3892E+00    1.5147E+00    1.434000E+09  0.00800  1.719E-04    0   0.5853   age139_m52            0.0000     9.7913E-01     7.6827  -0.6537    93.5163
 30      1.1452     3.2689E+00    3.4102E+00    2.500000E+09  0.00800  7.872E-05    0   0.5600   age150_m52            0.0000     1.1646E+00     8.3116  -0.9115    90.6327
 31      0.0000     0.0000E+00    0.0000E+00    4.250000E+09  0.00800  4.336E-05    0   0.5426   age158_m52            0.0000     1.2032E+00     8.3808  -0.9256    89.7455
 32      0.0000     0.0000E+00    0.0000E+00    6.250000E+09  0.00800  3.159E-05    0   0.5319   age166_m52            0.0000     1.4046E+00     8.8292  -1.0000    85.4135
 33      0.0000     0.0000E+00    0.0000E+00    1.300000E+10  0.00800  1.361E-05    0   0.5073   age193_m52            0.0000     2.6744E+00    11.6328  -1.0000    69.8047
 34      0.0000     0.0000E+00    0.0000E+00    1.800000E+10  0.00800  9.886E-06    0   0.4990   age213_m52            0.0000     3.1996E+00    12.6323  -1.0000    66.2454
 35      0.0000     0.0000E+00    0.0000E+00    1.000000E+06  0.02000  1.544E-02    0   1.0000   age020_m62            0.0000     1.3695E+00     8.5016   2.5040    78.6328
 36      0.0000     0.0000E+00    0.0000E+00    3.160000E+06  0.02000  3.762E-02    0   0.9858   age045_m62            0.0000     1.3641E+00     8.5075   2.4419    79.3608
 37      0.0000     0.0000E+00    0.0000E+00    5.010000E+06  0.02000  3.296E-02    0   0.9342   age055_m62            0.0000     1.0881E+00     7.9100   2.0532    83.1303
 38      0.0000     0.0000E+00    0.0000E+00    8.710000E+06  0.02000  1.154E-02    0   0.8861   age067_m62            0.0000     1.4072E+00     8.2174   1.0208    89.3149
 39      0.0000     0.0000E+00    0.0000E+00    1.445000E+07  0.02000  7.663E-03    0   0.8472   age078_m62            0.0000     1.0673E+00     7.3861   1.2255    88.5815
 40      0.0000     0.0000E+00    0.0000E+00    2.512000E+07  0.02000  4.532E-03    0   0.8099   age090_m62            0.0000     1.0512E+00     7.3842   1.2136    88.5101
 41      0.0000     0.0000E+00    0.0000E+00    5.500000E+07  0.02000  2.733E-03    0   0.7595   age110_m62            0.0000     8.9531E-01     7.0756   1.2300    88.3665
 42      0.1023     1.6797E-02    2.1858E-02    1.609000E+08  0.02000  1.369E-03    0   0.6985   age120_m62            0.0000     8.2057E-01     6.9876   1.0682    90.8499
 43     15.7790     3.9337E+00    4.9202E+00    2.861200E+08  0.02000  9.013E-04    0   0.6714   age125_m62            0.0000     8.2221E-01     7.0503   0.8184    93.4444
 44      0.0000     0.0000E+00    0.0000E+00    5.088000E+08  0.02000  5.028E-04    0   0.6449   age130_m62            0.0000     8.9264E-01     7.3762   0.4522    95.4659
 45      0.0000     0.0000E+00    0.0000E+00    9.047900E+08  0.02000  2.428E-04    0   0.6179   age135_m62            0.0000     9.8594E-01     7.7334  -0.1249    94.5547
 46      0.0000     0.0000E+00    0.0000E+00    1.434000E+09  0.02000  1.263E-04    0   0.5908   age139_m62            0.0000     1.1047E+00     8.1072  -0.5644    93.0047
 47      0.0000     0.0000E+00    0.0000E+00    2.500000E+09  0.02000  5.985E-05    0   0.5673   age150_m62            0.0000     1.3185E+00     8.7823  -0.9223    91.4455
 48      0.0000     0.0000E+00    0.0000E+00    4.250000E+09  0.02000  3.271E-05    0   0.5468   age158_m62            0.0000     1.7458E+00     9.7095  -1.0000    82.9240
 49      0.0000     0.0000E+00    0.0000E+00    1.000000E+10  0.02000  1.360E-05    0   0.5167   age181_m62            0.0000     2.8694E+00    11.8797  -1.0000    71.3532
 50      0.0000     0.0000E+00    0.0000E+00    1.800000E+10  0.02000  7.124E-06    0   0.5013   age213_m62            0.0000     3.8305E+00    13.6184  -1.0000    64.5294
 51      0.0000     0.0000E+00    0.0000E+00    1.000000E+06  0.05000  2.592E-02    0   0.9998   age020_m72            0.0000     1.4150E+00     8.5783   2.4967    78.5964
 52      0.0000     0.0000E+00    0.0000E+00    3.160000E+06  0.05000  4.845E-02    0   0.9577   age045_m72            0.0000     1.2566E+00     8.3263   2.3208    80.5835
 53      0.0000     0.0000E+00    0.0000E+00    5.010000E+06  0.05000  3.072E-02    0   0.9147   age055_m72            0.0000     1.1312E+00     7.6182   1.8234    84.8076
 54      0.0447     6.9034E-04    1.1416E-03    6.610000E+06  0.05000  1.455E-02    0   0.8877   age061_m72            0.0000     1.8899E+00     9.7196   1.0609    90.3728
 55      0.0000     0.0000E+00    0.0000E+00    1.000000E+07  0.05000  9.074E-03    0   0.8524   age070_m72            0.0000     1.2250E+00     7.9929   2.0052    84.6356
 56      0.1948     1.0298E-02    1.5159E-02    2.512000E+07  0.05000  4.250E-03    0   0.7902   age090_m72            0.0000     1.0149E+00     7.4271   1.6969    86.5429
 57      2.4926     1.8143E-01    2.5748E-01    4.000000E+07  0.05000  3.087E-03    0   0.7618   age104_m72            0.0000     9.7465E-01     7.3561   1.4643    88.1775
 58      0.0000     0.0000E+00    0.0000E+00    1.015200E+08  0.05000  1.700E-03    0   0.7096   age116_m72            0.0000     8.2540E-01     6.9493   1.2085    90.5497
 59     19.8808     6.0497E+00    7.4755E+00    2.861200E+08  0.05000  7.384E-04    0   0.6633   age125_m72            0.0000     8.4755E-01     7.1893   0.6910    94.5428
 60      0.0000     0.0000E+00    0.0000E+00    5.088000E+08  0.05000  3.819E-04    0   0.6372   age130_m72            0.0000     9.4965E-01     7.6450   0.2100    95.6262
 61      0.0000     0.0000E+00    0.0000E+00    9.047900E+08  0.05000  1.676E-04    0   0.6110   age135_m72            0.0000     1.2398E+00     8.6273  -0.4707    93.4030
 62      0.0000     0.0000E+00    0.0000E+00    1.434000E+09  0.05000  8.837E-05    0   0.5874   age139_m72            0.0000     1.3696E+00     8.9408  -0.9227    92.7886
 63      0.0000     0.0000E+00    0.0000E+00    2.500000E+09  0.05000  4.233E-05    0   0.5598   age150_m72            0.0000     1.8272E+00     9.9157  -1.0000    83.6313
 64      0.0000     0.0000E+00    0.0000E+00    6.250000E+09  0.05000  1.435E-05    0   0.5249   age166_m72            0.0000     3.2729E+00    12.7170  -1.0000    68.1194
 65      0.0000     0.0000E+00    0.0000E+00    1.300000E+10  0.05000  6.513E-06    0   0.5036   age193_m72            0.0000     4.6683E+00    15.0930  -1.0000    60.6095
 66      1.4003     6.9504E+01    6.4028E+01    1.800000E+10  0.05000  4.527E-06    0   0.4945   age213_m72            0.0000     5.5740E+00    16.5075  -1.0000    56.1334


## Synthesis Results - Average & Chains ##

# j      x_j: min, <> & last-chain-values for 1 ...  7 chains
  1      0.0000      0.1231      0.0000      0.0000      0.0000      0.0000      0.0000      0.0000      0.6303
  2      0.0000      0.1309      0.7432      0.0000      0.0000      0.0000      0.0000      0.0000      0.0000
  3      0.0000      0.1262      0.0000      0.0000      0.0000      0.0000      0.0000      0.0000      0.0000
  4      0.0000      0.2668      0.0000      0.0000      0.0000      0.0000      0.0000      0.0000      2.5325
  5      0.0000      0.2580      0.0000      0.0272      0.0000      0.2506      0.0000      0.0000      0.0000
  6      0.0000      0.2830      0.0171      0.6789      0.0000      0.3593      0.0000      0.0000      0.2834
  7      0.0000      0.5877      0.0000      0.0000      0.3965      0.0000      0.0000      0.0000      0.0000
  8      0.0000      0.9133      3.3088      0.0000      2.5814      1.1098      2.4373      0.0000      0.0000
  9      0.0084      1.2586      0.0000      0.7967      0.0000      1.9678      0.0000      0.6538      2.7279
 10      0.0000      0.8491      0.0000      0.0000      1.1711      3.2912      2.8711      0.7649      0.5707
 11     44.2317     14.7273     14.7456     20.9647     20.4225     18.2913     16.4155     13.4656     16.2832
 12      0.0766     10.5777     20.2997     11.6071     11.1429      8.8732     11.0132     11.2175     17.0383
 13      6.1404      5.1327      7.0448      6.4934      5.2591      5.0323      5.4326      7.6263      8.3311
 14      0.0000      0.5585      0.8800      0.0000      0.0000      0.0000      0.2080      0.0000      0.0000
 15      0.0000      0.5342      0.0000      1.2198      1.8134      1.0186      0.0000      0.0000      0.0000
 16      0.0000      0.1617      0.0000      0.0000      0.0247      0.0000      0.0000      0.2288      0.0000
 17      0.0000      0.2256      0.0000      0.0000      0.0000      0.4190      1.1609      0.0000      0.0000
 18      0.0000      0.1101      0.0000      0.0000      0.0000      0.0000      0.0000      0.5970      0.2062
 19      0.0000      0.0676      0.0000      0.0000      0.0237      0.0000      0.0000      0.0000      0.0000
 20      0.0000      0.1275      0.0000      0.0000      0.0000      0.0000      0.0000      0.0000      0.0000
 21      0.0000      0.3824      0.0000      0.3328      0.1169      0.0000      0.0000      0.0000      0.0000
 22      0.0000      0.2775      0.0000      0.0000      0.0167      0.0000      0.0000      0.7629      0.5759
 23      0.0000      0.2462      0.0000      0.0000      0.0000      0.2105      0.0000      0.2719      0.0000
 24      0.0000      0.5455      0.0000      1.7653      0.0000      1.5603      0.0000      0.0000      0.4822
 25      0.0000      0.7832      1.7903      0.0000      0.0000      1.0829      1.0507      1.7703      0.0000
 26      0.4905      0.7871      0.0371      0.7863      0.0000      0.0000      0.4767      3.6069      2.2470
 27      0.0119      3.1701      0.0000      4.1733      4.5368      3.0255      0.7874      2.8114      2.2190
 28      0.0000     12.6676     10.0376     12.2680     21.1730     14.1570     12.2576     13.4084     14.7560
 29      1.0628      0.8281      0.9271      1.3115      0.0000      1.6045      1.4741      0.2939      1.4610
 30      1.1452      0.3742      1.0427      0.9165      1.2029      0.8358      0.0000      0.0000      0.0146
 31      0.0000      0.1635      0.0000      0.2478      0.0000      0.0000      0.0000      0.0741      0.0000
 32      0.0000      0.1681      0.0000      0.0000      0.1254      0.0000      0.0000      0.0000      1.4523
 33      0.0000      0.0628      0.3584      0.0000      0.0000      0.0000      0.2509      0.0000      0.4193
 34      0.0000      0.1831      0.6772      0.0000      0.0000      0.0000      0.3552      0.0660      0.1460
 35      0.0000      0.0726      0.0000      0.0000      0.0000      0.4320      0.0000      0.0000      0.0000
 36      0.0000      0.1220      0.0000      0.0000      0.0000      0.0000      0.0000      0.0000      0.0000
 37      0.0000      0.1346      0.0000      0.3981      0.0000      0.0000      0.0000      0.0000      0.0000
 38      0.0000      0.6703      0.0629      0.0000      0.0000      0.0000      0.0000      2.9181      0.0000
 39      0.0000      0.3165      0.0000      0.0000      0.0000      0.0000      0.0000      0.0000      0.0000
 40      0.0000      0.5950      0.0000      0.0000      0.0000      0.0000      0.0000      0.0000      0.2803
 41      0.0000      0.4365      0.0000      0.0000      0.0000      0.0000      2.9920      0.0000      0.0000
 42      0.1023      3.7678      9.0921      7.0400      3.6691      1.7601      2.9109      4.5959      0.0000
 43     15.7790      4.4310      2.2058      6.2657     10.2416      7.0174      4.9232      4.9752      9.7662
 44      0.0000     12.5732     10.3817      2.9381      0.0000      3.8259     17.7423     12.6302      2.0341
 45      0.0000      1.0075      0.0747      0.0000      0.1402      0.7787      0.0000      0.0000      0.0000
 46      0.0000      0.3203      0.0000      0.0000      0.0000      0.7401      0.0000      0.0000      0.0000
 47      0.0000      0.2076      0.6478      0.0000      0.6073      0.0000      0.0000      0.0000      0.0000
 48      0.0000      0.0614      0.0000      0.0000      0.0000      0.0000      0.6214      0.0000      0.0000
 49      0.0000      0.1584      0.0000      0.0192      0.0000      0.0000      0.0000      0.0000      0.2128
 50      0.0000      0.0243      0.0474      0.0000      0.0000      0.0000      0.1849      0.0000      0.0000
 51      0.0000      0.0718      0.0000      0.0000      0.0000      0.0000      0.0602      0.0000      0.0000
 52      0.0000      0.1390      0.0000      0.0000      0.0000      0.0000      0.0000      0.0000      0.3333
 53      0.0000      0.2507      0.0000      0.0000      0.0000      1.3282      0.2000      0.0000      0.0000
 54      0.0447      0.9695      0.0000      1.1156      2.0773      0.7554      2.9430      2.4832      2.0164
 55      0.0000      0.1627      0.0000      0.0000      0.0000      0.0000      0.0000      0.0000      0.0000
 56      0.1948      0.5375      0.0000      1.8228      0.0000      0.0000      0.0000      0.0000      0.0000
 57      2.4926      0.4947      0.0000      0.5348      0.0000      0.0000      0.0000      0.0000      0.0000
 58      0.0000      1.2846      5.5128      0.1467      5.8324      4.2560      0.0000      0.5557      1.3566
 59     19.8808      4.5311      3.6179      7.2851      0.4277      9.2698      4.5609      5.7572      4.7942
 60      0.0000      1.4123      0.0000      0.2366      0.0000      0.1238      0.0000      0.0000      0.0000
 61      0.0000      0.5330      0.0000      0.0000      0.0000      0.0000      0.0000      0.7128      0.0000
 62      0.0000      0.1374      0.0000      0.8711      0.0000      0.0000      0.2513      0.0000      0.0000
 63      0.0000      0.0464      0.0000      0.0000      0.0000      0.0000      0.0000      0.1698      0.0000
 64      0.0000      0.1768      0.0000      0.0000      0.0000      0.0000      0.0000      0.7237      0.0382
 65      0.0000      0.0748      0.0000      0.0000      0.0000      0.0000      0.0000      0.0000      0.0000
 66      1.4003      0.1393      0.0000      0.7884      0.0000      0.0000      0.0000      0.0000      0.0000

# j      m_j: min, <> & last-chain-values for 1 ...  7 chains
  1  0.0000E+00  6.1627E-03  0.0000E+00  0.0000E+00  0.0000E+00  0.0000E+00  0.0000E+00  0.0000E+00  3.6417E-02
  2  0.0000E+00  1.7887E-03  1.0949E-02  0.0000E+00  0.0000E+00  0.0000E+00  0.0000E+00  0.0000E+00  0.0000E+00
  3  0.0000E+00  2.5830E-03  0.0000E+00  0.0000E+00  0.0000E+00  0.0000E+00  0.0000E+00  0.0000E+00  0.0000E+00
  4  0.0000E+00  5.1431E-03  0.0000E+00  0.0000E+00  0.0000E+00  0.0000E+00  0.0000E+00  0.0000E+00  5.6334E-02
  5  0.0000E+00  9.4708E-03  0.0000E+00  8.5478E-04  0.0000E+00  1.2680E-02  0.0000E+00  0.0000E+00  0.0000E+00
  6  0.0000E+00  1.6855E-02  1.0945E-03  3.4557E-02  0.0000E+00  2.9490E-02  0.0000E+00  0.0000E+00  1.9476E-02
  7  0.0000E+00  5.0108E-02  0.0000E+00  0.0000E+00  4.4189E-02  0.0000E+00  0.0000E+00  0.0000E+00  0.0000E+00
  8  0.0000E+00  1.0762E-01  4.2026E-01  0.0000E+00  3.9760E-01  1.8026E-01  2.7343E-01  0.0000E+00  0.0000E+00
  9  8.6519E-04  1.6976E-01  0.0000E+00  9.1848E-02  0.0000E+00  3.6583E-01  0.0000E+00  1.1475E-01  4.2463E-01
 10  0.0000E+00  1.5042E-01  0.0000E+00  0.0000E+00  2.7120E-01  8.0370E-01  4.8424E-01  1.7636E-01  1.1670E-01
 11  1.1261E+01  4.9061E+00  5.2946E+00  5.9694E+00  8.8927E+00  8.3989E+00  5.2059E+00  5.8375E+00  6.2604E+00
 12  3.0928E-02  5.5897E+00  1.1562E+01  5.2426E+00  7.6966E+00  6.4630E+00  5.5404E+00  7.7140E+00  1.0391E+01
 13  6.9900E+00  7.6451E+00  1.1310E+01  8.2668E+00  1.0239E+01  1.0332E+01  7.7032E+00  1.4782E+01  1.4321E+01
 14  0.0000E+00  2.7903E+00  4.7383E+00  0.0000E+00  0.0000E+00  0.0000E+00  9.8900E-01  0.0000E+00  0.0000E+00
 15  0.0000E+00  4.3447E+00  0.0000E+00  8.4790E+00  1.9277E+01  1.1418E+01  0.0000E+00  0.0000E+00  0.0000E+00
 16  0.0000E+00  2.2231E+00  0.0000E+00  0.0000E+00  4.4415E-01  0.0000E+00  0.0000E+00  4.0936E+00  0.0000E+00
 17  0.0000E+00  4.0244E+00  0.0000E+00  0.0000E+00  0.0000E+00  1.0302E+01  1.9714E+01  0.0000E+00  0.0000E+00
 18  0.0000E+00  4.8715E-03  0.0000E+00  0.0000E+00  0.0000E+00  0.0000E+00  0.0000E+00  3.4368E-02  1.0527E-02
 19  0.0000E+00  1.1998E-03  0.0000E+00  0.0000E+00  5.5106E-04  0.0000E+00  0.0000E+00  0.0000E+00  0.0000E+00
 20  0.0000E+00  2.4725E-03  0.0000E+00  0.0000E+00  0.0000E+00  0.0000E+00  0.0000E+00  0.0000E+00  0.0000E+00
 21  0.0000E+00  8.9981E-03  0.0000E+00  6.6942E-03  3.5944E-03  0.0000E+00  0.0000E+00  0.0000E+00  0.0000E+00
 22  0.0000E+00  1.1041E-02  0.0000E+00  0.0000E+00  8.6894E-04  0.0000E+00  0.0000E+00  3.9501E-02  2.6446E-02
 23  0.0000E+00  1.3228E-02  0.0000E+00  0.0000E+00  0.0000E+00  1.5589E-02  0.0000E+00  1.9012E-02  0.0000E+00
 24  0.0000E+00  4.3608E-02  0.0000E+00  1.2062E-01  0.0000E+00  1.7192E-01  0.0000E+00  0.0000E+00  4.4489E-02
 25  0.0000E+00  8.6332E-02  2.1271E-01  0.0000E+00  0.0000E+00  1.6453E-01  1.1026E-01  2.5395E-01  0.0000E+00
 26  6.9069E-02  1.4502E-01  7.3771E-03  1.2383E-01  0.0000E+00  0.0000E+00  8.3620E-02  8.6482E-01  4.7782E-01
 27  3.3574E-03  1.1691E+00  0.0000E+00  1.3155E+00  2.1870E+00  1.5380E+00  2.7644E-01  1.3492E+00  9.4445E-01
 28  0.0000E+00  1.3558E+01  1.1580E+01  1.1223E+01  2.9621E+01  2.0885E+01  1.2489E+01  1.8675E+01  1.8227E+01
 29  1.5147E+00  1.5444E+00  1.8635E+00  2.0905E+00  0.0000E+00  4.1242E+00  2.6170E+00  7.1329E-01  3.1444E+00
 30  3.4102E+00  1.4580E+00  4.3789E+00  3.0521E+00  6.1263E+00  4.4884E+00  0.0000E+00  0.0000E+00  6.5466E-02
 31  0.0000E+00  1.1203E+00  0.0000E+00  1.4516E+00  0.0000E+00  0.0000E+00  0.0000E+00  6.6048E-01  0.0000E+00
 32  0.0000E+00  1.5498E+00  0.0000E+00  0.0000E+00  1.5117E+00  0.0000E+00  0.0000E+00  0.0000E+00  1.5457E+01
 33  0.0000E+00  1.2821E+00  7.8861E+00  0.0000E+00  0.0000E+00  0.0000E+00  4.8762E+00  0.0000E+00  9.8804E+00
 34  0.0000E+00  5.0615E+00  2.0180E+01  0.0000E+00  0.0000E+00  0.0000E+00  9.3482E+00  2.3729E+00  4.6591E+00
 35  0.0000E+00  2.5761E-03  0.0000E+00  0.0000E+00  0.0000E+00  2.1120E-02  0.0000E+00  0.0000E+00  0.0000E+00
 36  0.0000E+00  1.7509E-03  0.0000E+00  0.0000E+00  0.0000E+00  0.0000E+00  0.0000E+00  0.0000E+00  0.0000E+00
 37  0.0000E+00  2.0897E-03  0.0000E+00  5.2818E-03  0.0000E+00  0.0000E+00  0.0000E+00  0.0000E+00  0.0000E+00
 38  0.0000E+00  2.8188E-02  2.8509E-03  0.0000E+00  0.0000E+00  0.0000E+00  0.0000E+00  1.5970E-01  0.0000E+00
 39  0.0000E+00  1.9165E-02  0.0000E+00  0.0000E+00  0.0000E+00  0.0000E+00  0.0000E+00  0.0000E+00  0.0000E+00
 40  0.0000E+00  5.8238E-02  0.0000E+00  0.0000E+00  0.0000E+00  0.0000E+00  0.0000E+00  0.0000E+00  3.1662E-02
 41  0.0000E+00  6.6445E-02  0.0000E+00  0.0000E+00  0.0000E+00  0.0000E+00  4.3353E-01  0.0000E+00  0.0000E+00
 42  2.1858E-02  1.0529E+00  2.7386E+00  1.6816E+00  1.3402E+00  6.7798E-01  7.7438E-01  1.6713E+00  0.0000E+00
 43  4.9202E+00  1.8078E+00  9.7003E-01  2.1850E+00  5.4618E+00  3.9463E+00  1.9122E+00  2.6415E+00  4.5986E+00
 44  0.0000E+00  8.8326E+00  7.8608E+00  1.7642E+00  0.0000E+00  3.7046E+00  1.1865E+01  1.1546E+01  1.6492E+00
 45  0.0000E+00  1.4042E+00  1.1215E-01  0.0000E+00  2.5535E-01  1.4961E+00  0.0000E+00  0.0000E+00  0.0000E+00
 46  0.0000E+00  8.2057E-01  0.0000E+00  0.0000E+00  0.0000E+00  2.6135E+00  0.0000E+00  0.0000E+00  0.0000E+00
 47  0.0000E+00  1.0778E+00  3.6246E+00  0.0000E+00  4.1208E+00  0.0000E+00  0.0000E+00  0.0000E+00  0.0000E+00
 48  0.0000E+00  5.6223E-01  0.0000E+00  0.0000E+00  0.0000E+00  0.0000E+00  5.4158E+00  0.0000E+00  0.0000E+00
 49  0.0000E+00  3.2968E+00  0.0000E+00  3.4139E-01  0.0000E+00  0.0000E+00  0.0000E+00  0.0000E+00  5.1101E+00
 50  0.0000E+00  9.3827E-01  1.9681E+00  0.0000E+00  0.0000E+00  0.0000E+00  6.7822E+00  0.0000E+00  0.0000E+00
 51  0.0000E+00  1.5171E-03  0.0000E+00  0.0000E+00  0.0000E+00  0.0000E+00  1.2106E-03  0.0000E+00  0.0000E+00
 52  0.0000E+00  1.5052E-03  0.0000E+00  0.0000E+00  0.0000E+00  0.0000E+00  0.0000E+00  0.0000E+00  4.1642E-03
 53  0.0000E+00  4.0886E-03  0.0000E+00  0.0000E+00  0.0000E+00  2.9855E-02  3.1048E-03  0.0000E+00  0.0000E+00
 54  1.1416E-03  3.2397E-02  0.0000E+00  3.1864E-02  9.0729E-02  3.4792E-02  9.3620E-02  1.0798E-01  7.7764E-02
 55  0.0000E+00  8.3716E-03  0.0000E+00  0.0000E+00  0.0000E+00  0.0000E+00  0.0000E+00  0.0000E+00  0.0000E+00
 56  1.5159E-02  5.4738E-02  0.0000E+00  1.5866E-01  0.0000E+00  0.0000E+00  0.0000E+00  0.0000E+00  0.0000E+00
 57  2.5748E-01  6.6864E-02  0.0000E+00  6.1779E-02  0.0000E+00  0.0000E+00  0.0000E+00  0.0000E+00  0.0000E+00
 58  0.0000E+00  2.9368E-01  1.3584E+00  2.8675E-02  1.7429E+00  1.3411E+00  0.0000E+00  1.6534E-01  3.5795E-01
 59  7.4755E+00  2.2293E+00  1.9185E+00  3.0636E+00  2.7504E-01  6.2863E+00  2.1362E+00  3.6861E+00  2.7222E+00
 60  0.0000E+00  1.2906E+00  0.0000E+00  1.8481E-01  0.0000E+00  1.5589E-01  0.0000E+00  0.0000E+00  0.0000E+00
 61  0.0000E+00  1.0642E+00  0.0000E+00  0.0000E+00  0.0000E+00  0.0000E+00  0.0000E+00  1.8520E+00  0.0000E+00
 62  0.0000E+00  5.0010E-01  0.0000E+00  2.7105E+00  0.0000E+00  0.0000E+00  8.7099E-01  0.0000E+00  0.0000E+00
 63  0.0000E+00  3.3580E-01  0.0000E+00  0.0000E+00  0.0000E+00  0.0000E+00  0.0000E+00  1.6007E+00  0.0000E+00
 64  0.0000E+00  3.5411E+00  0.0000E+00  0.0000E+00  0.0000E+00  0.0000E+00  0.0000E+00  1.8868E+01  8.8437E-01
 65  0.0000E+00  3.1694E+00  0.0000E+00  0.0000E+00  0.0000E+00  0.0000E+00  0.0000E+00  0.0000E+00  0.0000E+00
 66  6.4028E+01  8.3312E+00  0.0000E+00  4.0314E+01  0.0000E+00  0.0000E+00  0.0000E+00  0.0000E+00  0.0000E+00

# AV, chi2 & Mass for <> & i_chain = 1 ...  7 solutions
AV       0.4691      0.3812      0.3887      0.3774      0.3770      0.4362      0.3705      0.4309      0.3881
chi2 7.9929E-01  8.0905E-01  8.0520E-01  8.0511E-01  8.0586E-01  8.0587E-01  8.0694E-01  8.0651E-01  8.0607E-01
Mass 4.4918E-14  3.0505E-14  2.8590E-14  3.5509E-14  2.3206E-14  2.3827E-14  3.1588E-14  2.5061E-14  2.6676E-14
 -31.78                                  [v0_min (km/s) before EX0s...]
 195.05                                  [vd_min (km/s) before EX0s...]


## Synthetic spectrum (Best Model) ##l_obs f_obs f_syn wei
 3478    [Nl_obs]
 3741.00    0.00000   0.53198   -2.000
 3742.00    0.00000   0.53225   -2.000
 3743.00    0.00000   0.52122   -2.000
 3744.00    0.00000   0.50093   -2.000
 3745.00    0.00000   0.47405   -2.000
 3746.00    0.00000   0.44399   -2.000
 3747.00    0.00000   0.41521   -2.000
 3748.00    0.00000   0.39297   -2.000
 3749.00    0.00000   0.38225   -2.000
 3750.00    0.80401   0.38604   -1.000
 3751.00    0.34906   0.40408   28.648
 3752.00   -0.31184   0.43294   -2.000
 3753.00   -0.48488   0.46714   -2.000
 3754.00   -0.08354   0.50109   -2.000
 3755.00    0.32616   0.53062   -1.000
 3756.00    0.49541   0.55378   20.185
 3757.00    0.63433   0.57078   15.765
 3758.00    0.86725   0.58297   -1.000
 3759.00    1.10640   0.59162   -1.000
 3760.00    1.21836   0.59696   -1.000
 3761.00    1.12039   0.59795   -1.000
 3762.00    0.90305   0.59292   -1.000
 3763.00    0.77006   0.58042   -1.000
 3764.00    0.73492   0.55995   -1.000
 3765.00    0.60021   0.53245   16.661
 3766.00    0.19878   0.50029   -1.000
 3767.00   -0.46136   0.46724   -2.000
 3768.00   -1.00260   0.43803   -2.000
 3769.00   -0.86831   0.41764   -2.000
 3770.00   -0.08968   0.41015   -2.000
 3771.00    0.70653   0.41746   -1.000
 3772.00    1.03727   0.43862   -1.000
 3773.00    0.80951   0.47022   -1.000
 3774.00    0.32593   0.50778   -1.000
 3775.00    0.10679   0.54720   -1.000
 3776.00    0.34954   0.58561   -1.000
 3777.00    0.85212   0.62128   -1.000
 3778.00    1.31626   0.65313   -1.000
 3779.00    1.49109   0.68038   -1.000
 3780.00    1.30386   0.70239   -1.000
 3781.00    0.85909   0.71863   11.640
 3782.00    0.30836   0.72863   -1.000
 3783.00   -0.16296   0.73206   -2.000
 3784.00   -0.24922   0.72885   -2.000
 3785.00    0.32736   0.71954   -1.000
 3786.00    1.28736   0.70521   -1.000
 3787.00    1.88275   0.68721   -1.000
 3788.00    1.68513   0.66646   -1.000
 3789.00    0.83120   0.64306   -1.000
 3790.00   -0.01943   0.61631   -2.000
 3791.00   -0.05649   0.58525   -2.000
 3792.00    0.61098   0.54958   16.367
 3793.00    1.06069   0.51037   -1.000
 3794.00    0.92164   0.47050   -1.000
 3795.00    0.57397   0.43430   -1.000
 3796.00    0.40870   0.40689   24.468
 3797.00    0.56456   0.39286   -1.000
 3798.00    0.86895   0.39499   -1.000
 3799.00    0.98113   0.41326   -1.000
 3800.00    0.87445   0.44476   -1.000
 3801.00    0.81989   0.48461   -1.000
 3802.00    0.86787   0.52751   -1.000
 3803.00    0.81294   0.56919   -1.000
 3804.00    0.59395   0.60722   16.836
 3805.00    0.35645   0.64090   -1.000
 3806.00    0.24789   0.67064   -1.000
 3807.00    0.32366   0.69691   -1.000
 3808.00    0.46802   0.71959   -1.000
 3809.00    0.47846   0.73788   -1.000
 3810.00    0.39245   0.75094   -1.000
 3811.00    0.46462   0.75863   -1.000
 3812.00    0.78214   0.76195   12.785
 3813.00    1.18939   0.76267   -1.000
 3814.00    1.43779   0.76248   -1.000
 3815.00    1.32584   0.76224   -1.000
 3816.00    0.96882   0.76175   -1.000
 3817.00    0.70502   0.76025   14.184
 3818.00    0.55873   0.75712   17.898
 3819.00    0.28460   0.75220   -1.000
 3820.00    0.01552   0.74551   -1.000
 3821.00    0.19076   0.73678   -1.000
 3822.00    0.71950   0.72522   13.899
 3823.00    1.01511   0.70994   -1.000
 3824.00    0.90221   0.69045   -1.000
 3825.00    0.69923   0.66691   14.302
 3826.00    0.59012   0.63991   16.946
 3827.00    0.50635   0.60989   19.749
 3828.00    0.38213   0.57700   26.169
 3829.00    0.23978   0.54116   -1.000
 3830.00    0.19522   0.50272   -1.000
 3831.00    0.38176   0.46312   26.195
 3832.00    0.72066   0.42534   -1.000
 3833.00    0.94712   0.39360   -1.000
 3834.00    0.90694   0.37237   -1.000
 3835.00    0.64666   0.36506   -1.000
 3836.00    0.39531   0.37289   25.297
 3837.00    0.44474   0.39468   22.485
 3838.00    0.81434   0.42740   -1.000
 3839.00    1.24759   0.46726   -1.000
 3840.00    1.52161   0.51062   -1.000
 3841.00    1.54455   0.55449   -1.000
 3842.00    1.34814   0.59658   -1.000
 3843.00    1.05642   0.63522   -1.000
 3844.00    0.80082   0.66940   12.487
 3845.00    0.66647   0.69872   15.004
 3846.00    0.61497   0.72339   16.261
 3847.00    0.52933   0.74397    0.000
 3848.00    0.41910   0.76117    0.000
 3849.00    0.41300   0.77560    0.000
 3850.00    0.54292   0.78763    0.000
 3851.00    0.71663   0.79732    0.000
 3852.00    0.84204   0.80458    0.000
 3853.00    0.86928   0.80936    0.000
 3854.00    0.79690   0.81198    0.000
 3855.00    0.67714   0.81309    0.000
 3856.00    0.62480   0.81355    0.000
 3857.00    0.73111   0.81419    0.000
 3858.00    0.80442   0.81564    0.000
 3859.00    0.51753   0.81827    0.000
 3860.00    0.08149   0.82205    0.000
 3861.00    0.10947   0.82648    0.000
 3862.00    0.58602   0.83078    0.000
 3863.00    0.88270   0.83415    0.000
 3864.00    0.77261   0.83609    0.000
 3865.00    0.56413   0.83651    0.000
 3866.00    0.53914   0.83543    0.000
 3867.00    0.75986   0.83273    0.000
 3868.00    1.03319   0.82810    0.000
 3869.00    1.04968   0.82131    0.000
 3870.00    0.82145   0.81258    0.000
 3871.00    0.65140   0.80261    0.000
 3872.00    0.63504   0.79217    0.000
 3873.00    0.61859   0.78155    0.000
 3874.00    0.54170   0.77021    0.000
 3875.00    0.49088   0.75710    0.000
 3876.00    0.53490   0.74128    0.000
 3877.00    0.66367   0.72247    0.000
 3878.00    0.76489   0.70096    0.000
 3879.00    0.69904   0.67712    0.000
 3880.00    0.53847   0.65089    0.000
 3881.00    0.51862   0.62171   19.282
 3882.00    0.67465   0.58888   14.823
 3883.00    0.82232   0.55222   -1.000
 3884.00    0.84025   0.51269   -1.000
 3885.00    0.73845   0.47280   -1.000
 3886.00    0.59566   0.43661   -1.000
 3887.00    0.50304   0.40899   -1.000
 3888.00    0.45928   0.39443   21.773
 3889.00    0.39559   0.39543   25.279
 3890.00    0.34417   0.41161   29.055
 3891.00    0.41046   0.43987   24.363
 3892.00    0.53762   0.47561   18.601
 3893.00    0.54744   0.51428   18.267
 3894.00    0.47549   0.55247   21.031
 3895.00    0.53871   0.58823   18.563
 3896.00    0.73311   0.62075   13.640
 3897.00    0.83775   0.64989   -1.000
 3898.00    0.79621   0.67582   12.559
 3899.00    0.74715   0.69887   13.384
 3900.00    0.76186   0.71934   13.126
 3901.00    0.80224   0.73742   12.465
 3902.00    0.83993   0.75328   11.906
 3903.00    0.86867   0.76726   11.512
 3904.00    0.83081   0.78002   12.036
 3905.00    0.65497   0.79245   15.268
 3906.00    0.43173   0.80527   -1.000
 3907.00    0.37693   0.81854   -1.000
 3908.00    0.56445   0.83157   -1.000
 3909.00    0.88504   0.84314   11.299
 3910.00    1.17178   0.85208   -1.000
 3911.00    1.28111   0.85784   -1.000
 3912.00    1.21181   0.86063   -1.000
 3913.00    1.08778   0.86118   -1.000
 3914.00    1.00015   0.86036    9.998
 3915.00    0.97095   0.85877   10.299
 3916.00    0.99166   0.85671   10.084
 3917.00    1.03335   0.85435    9.677
 3918.00    1.04066   0.85198    9.609
 3919.00    0.95129   0.85000   10.512
 3920.00    0.75795   0.84874   13.193
 3921.00    0.52600   0.84813   -1.000
 3922.00    0.38732   0.84751   -1.000
 3923.00    0.46490   0.84582   -1.000
 3924.00    0.66278   0.84187   15.088
 3925.00    0.73782   0.83473   13.553
 3926.00    0.69492   0.82383   14.390
 3927.00    0.75472   0.80892   13.250
 3928.00    0.90501   0.79008   -1.000
 3929.00    0.91119   0.76792   -1.000
 3930.00    0.75059   0.74411   -1.000
 3931.00    0.62790   0.72166   15.926
 3932.00    0.62801   0.70463   -1.000
 3933.00    0.67287   0.69695   -1.000
 3934.00    0.71072   0.70074   -1.000
 3935.00    0.74881   0.71521   -1.000
 3936.00    0.77672   0.73692   12.875
 3937.00    0.76852   0.76111   13.012
 3938.00    0.75754   0.78350   13.201
 3939.00    0.81153   0.80146   12.322
 3940.00    0.89457   0.81421   11.179
 3941.00    0.88892   0.82240   11.250
 3942.00    0.78095   0.82736   12.805
 3943.00    0.67428   0.83050   14.831
 3944.00    0.66087   0.83281   15.132
 3945.00    0.76945   0.83466   12.996
 3946.00    0.93427   0.83586   10.704
 3947.00    1.03721   0.83602   -1.000
 3948.00    1.05563   0.83478   -1.000
 3949.00    1.05854   0.83204   -1.000
 3950.00    1.06434   0.82781   -1.000
 3951.00    1.03244   0.82212   -1.000
 3952.00    0.96592   0.81489   10.353
 3953.00    0.91386   0.80589   10.943
 3954.00    0.88645   0.79481   11.281
 3955.00    0.85175   0.78139   11.741
 3956.00    0.80177   0.76542   12.472
 3957.00    0.77119   0.74671   12.967
 3958.00    0.83112   0.72494   12.032
 3959.00    1.02960   0.69971   -1.000
 3960.00    1.22932   0.67067    0.000
 3961.00    1.19002   0.63762    0.000
 3962.00    0.94528   0.60053    0.000
 3963.00    0.76475   0.55955    0.000
 3964.00    0.71465   0.51529    0.000
 3965.00    0.64084   0.46930    0.000
 3966.00    0.50821   0.42463    0.000
 3967.00    0.42197   0.38570    0.000
 3968.00    0.38898   0.35752    0.000
 3969.00    0.32690   0.34426    0.000
 3970.00    0.29956   0.34799    0.000
 3971.00    0.47526   0.36805    0.000
 3972.00    0.80214   0.40130    0.000
 3973.00    1.02864   0.44329    0.000
 3974.00    1.04679   0.48938    0.000
 3975.00    0.94026   0.53574    0.000
 3976.00    0.81890   0.57976    0.000
 3977.00    0.76092   0.61992    0.000
 3978.00    0.79399   0.65551    0.000
 3979.00    0.88433   0.68640    0.000
 3980.00    0.92255   0.71284    0.000
 3981.00    0.79412   0.73540   12.593
 3982.00    0.58979   0.75489   16.955
 3983.00    0.54898   0.77215   18.216
 3984.00    0.71639   0.78786   13.959
 3985.00    0.92142   0.80239   10.853
 3986.00    1.01965   0.81584    9.807
 3987.00    0.97247   0.82817   10.283
 3988.00    0.86061   0.83930   11.620
 3989.00    0.82245   0.84925   12.159
 3990.00    0.86943   0.85799   11.502
 3991.00    0.89054   0.86541   11.229
 3992.00    0.82549   0.87125   12.114
 3993.00    0.70913   0.87527   14.102
 3994.00    0.64561   0.87754   15.489
 3995.00    0.74168   0.87860   13.483
 3996.00    0.94237   0.87935   10.612
 3997.00    1.06341   0.88065    9.404
 3998.00    1.02448   0.88289    9.761
 3999.00    0.88458   0.88573   11.305
 4000.00    0.73962   0.88828   13.520
 4001.00    0.66986   0.88962   14.928
 4002.00    0.68110   0.88936   14.682
 4003.00    0.72091   0.88791   13.871
 4004.00    0.77437   0.88639   12.914
 4005.00    0.86371   0.88601   11.578
 4006.00    0.96537   0.88753   10.359
 4007.00    1.02394   0.89091    9.766
 4008.00    1.06210   0.89541    9.415
 4009.00    1.15081   0.90003    8.690
 4010.00    1.23198   0.90400   -1.000
 4011.00    1.16269   0.90699    8.601
 4012.00    0.99014   0.90907   10.100
 4013.00    0.91635   0.91056   10.913
 4014.00    0.96451   0.91177   10.368
 4015.00    0.98735   0.91293   10.128
 4016.00    0.97550   0.91412   10.251
 4017.00    1.04195   0.91526    9.597
 4018.00    1.11647   0.91603    8.957
 4019.00    0.99860   0.91598   10.014
 4020.00    0.76553   0.91470   13.063
 4021.00    0.71081   0.91207   14.069
 4022.00    0.82640   0.90841   12.101
 4023.00    0.82898   0.90446   12.063
 4024.00    0.67375   0.90106   14.842
 4025.00    0.58298   0.89872   -1.000
 4026.00    0.68763   0.89737   14.543
 4027.00    0.93839   0.89641   10.657
 4028.00    1.16378   0.89515    8.593
 4029.00    1.17437   0.89329    8.515
 4030.00    1.00233   0.89128    9.977
 4031.00    0.86232   0.89007   11.597
 4032.00    0.83981   0.89069   11.907
 4033.00    0.86317   0.89367   11.585
 4034.00    0.88939   0.89884   11.244
 4035.00    0.93435   0.90531   10.703
 4036.00    1.00000   0.91181   10.000
 4037.00    1.06588   0.91710    9.382
 4038.00    1.12734   0.92023    8.870
 4039.00    1.18376   0.92067    8.448
 4040.00    1.17459   0.91830    8.514
 4041.00    1.03022   0.91335    9.707
 4042.00    0.86579   0.90650   11.550
 4043.00    0.90899   0.89892   11.001
 4044.00    1.13758   0.89224    8.791
 4045.00    1.30561   0.88802   -1.000
 4046.00    1.32013   0.88716   -1.000
 4047.00    1.27538   0.88948   -1.000
 4048.00    1.23126   0.89372   -1.000
 4049.00    1.17774   0.89812    8.491
 4050.00    1.12215   0.90119    8.911
 4051.00    1.09482   0.90221    9.134
 4052.00    1.09154   0.90126    9.161
 4053.00    1.07350   0.89905    9.315
 4054.00    1.01573   0.89648    9.845
 4055.00    0.92215   0.89429   10.844
 4056.00    0.82700   0.89285   12.092
 4057.00    0.78697   0.89202   12.707
 4058.00    0.85793   0.89121   11.656
 4059.00    1.06201   0.88965    9.416
 4060.00    1.31651   0.88675   -1.000
 4061.00    1.46972   0.88252   -1.000
 4062.00    1.45876   0.87769   -1.000
 4063.00    1.33153   0.87342   -1.000
 4064.00    1.17547   0.87074   -1.000
 4065.00    1.06426   0.87008    9.396
 4066.00    0.97067   0.87101   10.302
 4067.00    0.81041   0.87252   12.339
 4068.00    0.63394   0.87347   15.774
 4069.00    0.59812   0.87313   -1.000
 4070.00    0.72953   0.87132   13.708
 4071.00    0.91314   0.86826   10.951
 4072.00    1.05726   0.86428    9.458
 4073.00    1.13320   0.85961   -1.000
 4074.00    1.14834   0.85448   -1.000
 4075.00    1.12794   0.84935   -1.000
 4076.00    1.08796   0.84499   -1.000
 4077.00    1.03136   0.84217    9.696
 4078.00    0.96022   0.84119   10.414
 4079.00    0.88542   0.84152   11.294
 4080.00    0.84277   0.84196   11.866
 4081.00    0.86753   0.84122   11.527
 4082.00    0.91221   0.83856   10.962
 4083.00    0.88408   0.83401   11.311
 4084.00    0.81510   0.82813   12.268
 4085.00    0.83176   0.82145   12.023
 4086.00    0.93414   0.81400   10.705
 4087.00    0.99791   0.80522   10.021
 4088.00    0.96112   0.79427   10.405
 4089.00    0.85878   0.78037   11.644
 4090.00    0.76430   0.76311   13.084
 4091.00    0.74134   0.74243   13.489
 4092.00    0.76096   0.71843    0.000
 4093.00    0.73520   0.69114    0.000
 4094.00    0.67561   0.66056    0.000
 4095.00    0.66888   0.62678    0.000
 4096.00    0.68210   0.59028    0.000
 4097.00    0.60189   0.55236    0.000
 4098.00    0.49812   0.51534    0.000
 4099.00    0.57124   0.48261    0.000
 4100.00    0.79471   0.45808    0.000
 4101.00    0.93673   0.44529    0.000
 4102.00    0.90912   0.44625    0.000
 4103.00    0.80584   0.46069    0.000
 4104.00    0.72439   0.48610    0.000
 4105.00    0.70774   0.51856    0.000
 4106.00    0.73133   0.55397    0.000
 4107.00    0.73034   0.58911    0.000
 4108.00    0.68407   0.62212    0.000
 4109.00    0.63235   0.65234    0.000
 4110.00    0.65158   0.67984    0.000
 4111.00    0.80164   0.70487    0.000
 4112.00    1.00211   0.72757    0.000
 4113.00    1.08200   0.74780   -1.000
 4114.00    1.01420   0.76533    9.860
 4115.00    0.91609   0.77993   10.916
 4116.00    0.86267   0.79166   11.592
 4117.00    0.85531   0.80093   11.692
 4118.00    0.88737   0.80840   11.269
 4119.00    0.94906   0.81487   10.537
 4120.00    0.98848   0.82097   10.116
 4121.00    0.94535   0.82700   10.578
 4122.00    0.87297   0.83282   11.455
 4123.00    0.89471   0.83789   11.177
 4124.00    0.98898   0.84155   10.111
 4125.00    1.01366   0.84327    9.865
 4126.00    0.94375   0.84291   10.596
 4127.00    0.87725   0.84085   11.399
 4128.00    0.86142   0.83794   11.609
 4129.00    0.87313   0.83530   11.453
 4130.00    0.90429   0.83406   11.058
 4131.00    0.96223   0.83501   10.393
 4132.00    1.00306   0.83848    9.970
 4133.00    0.95969   0.84423   10.420
 4134.00    0.86978   0.85150   11.497
 4135.00    0.84060   0.85919   11.896
 4136.00    0.85310   0.86610   11.722
 4137.00    0.79171   0.87114   12.631
 4138.00    0.67924   0.87354   14.722
 4139.00    0.66246   0.87302   15.095
 4140.00    0.78665   0.86996   12.712
 4141.00    0.96465   0.86541   10.366
 4142.00    1.07260   0.86089    9.323
 4143.00    1.01739   0.85792    9.829
 4144.00    0.84167   0.85740   11.881
 4145.00    0.69446   0.85929   14.400
 4146.00    0.66922   0.86269   14.943
 4147.00    0.76355   0.86635   13.097
 4148.00    0.89921   0.86917   11.121
 4149.00    0.96981   0.87063   10.311
 4150.00    0.95277   0.87071   10.496
 4151.00    0.90820   0.86980   11.011
 4152.00    0.88765   0.86843   11.266
 4153.00    0.90527   0.86720   11.046
 4154.00    0.93252   0.86660   10.724
 4155.00    0.92485   0.86702   10.813
 4156.00    0.89695   0.86861   11.149
 4157.00    0.90995   0.87119   10.990
 4158.00    0.97819   0.87431   10.223
 4159.00    1.06190   0.87737    9.417
 4160.00    1.12055   0.87983    8.924
 4161.00    1.13307   0.88134    8.826
 4162.00    1.10990   0.88183    9.010
 4163.00    1.07385   0.88146    9.312
 4164.00    1.00026   0.88046    9.997
 4165.00    0.85115   0.87901   11.749
 4166.00    0.71202   0.87711   14.044
 4167.00    0.73829   0.87453   13.545
 4168.00    0.90636   0.87098   11.033
 4169.00    1.03455   0.86631    9.666
 4170.00    1.03278   0.86080    9.683
 4171.00    0.94033   0.85515   10.635
 4172.00    0.83190   0.85034   12.021
 4173.00    0.76900   0.84715   13.004
 4174.00    0.74390   0.84593   13.443
 4175.00    0.70655   0.84644   14.153
 4176.00    0.67894   0.84819   14.729
 4177.00    0.73533   0.85065   13.599
 4178.00    0.86123   0.85345   11.611
 4179.00    0.95841   0.85639   10.434
 4180.00    0.96773   0.85927   10.333
 4181.00    0.90308   0.86189   11.073
 4182.00    0.84585   0.86398   11.822
 4183.00    0.88857   0.86531   11.254
 4184.00    0.99022   0.86589   10.099
 4185.00    1.01728   0.86589    9.830
 4186.00    0.96398   0.86575   10.374
 4187.00    0.94283   0.86600   10.606
 4188.00    0.99023   0.86696   10.099
 4189.00    1.04715   0.86865    9.550
 4190.00    1.05770   0.87072    9.455
 4191.00    0.99950   0.87248   10.005
 4192.00    0.88857   0.87319   11.254
 4193.00    0.77600   0.87231   12.887
 4194.00    0.73498   0.86960   13.606
 4195.00    0.81774   0.86530   12.229
 4196.00    0.95246   0.86012   10.499
 4197.00    0.99275   0.85498   10.073
 4198.00    0.92670   0.85070   10.791
 4199.00    0.86401   0.84789   11.574
 4200.00    0.84214   0.84683   11.874
 4201.00    0.81755   0.84751   12.232
 4202.00    0.79011   0.84964   12.656
 4203.00    0.80410   0.85285   12.436
 4204.00    0.85587   0.85675   11.684
 4205.00    0.89301   0.86091   11.198
 4206.00    0.88275   0.86492   11.328
 4207.00    0.83443   0.86847   11.984
 4208.00    0.80610   0.87125   12.405
 4209.00    0.85990   0.87301   11.629
 4210.00    0.94046   0.87356   10.633
 4211.00    0.92278   0.87286   10.837
 4212.00    0.82989   0.87106   12.050
 4213.00    0.80660   0.86872   12.398
 4214.00    0.88571   0.86665   11.290
 4215.00    0.98097   0.86572   10.194
 4216.00    1.04542   0.86640    9.566
 4217.00    1.08811   0.86845    9.190
 4218.00    1.09854   0.87092    9.103
 4219.00    1.04709   0.87227    9.550
 4220.00    0.94319   0.87103   10.602
 4221.00    0.84151   0.86627   11.883
 4222.00    0.81347   0.85813   12.293
 4223.00    0.90405   0.84787   11.061
 4224.00    1.04048   0.83769    9.611
 4225.00    1.08337   0.82994    9.230
 4226.00    1.02877   0.82635    9.720
 4227.00    0.98164   0.82735   10.187
 4228.00    0.93543   0.83205   10.690
 4229.00    0.80553   0.83853   12.414
 4230.00    0.68066   0.84463   14.692
 4231.00    0.75420   0.84886   13.259
 4232.00    0.95769   0.85080   10.442
 4233.00    1.02475   0.85094    9.759
 4234.00    0.93176   0.85040   10.732
 4235.00    0.88020   0.85032   11.361
 4236.00    0.92144   0.85127   10.853
 4237.00    0.93891   0.85334   10.651
 4238.00    0.88165   0.85638   11.342
 4239.00    0.80293   0.85987   12.454
 4240.00    0.78593   0.86327   12.724
 4241.00    0.88389   0.86615   11.314
 4242.00    1.02025   0.86803    9.801
 4243.00    1.04389   0.86838    9.580
 4244.00    0.94689   0.86689   10.561
 4245.00    0.85134   0.86362   11.746
 4246.00    0.81341   0.85903   12.294
 4247.00    0.80480   0.85392   12.425
 4248.00    0.81000   0.84921   12.346
 4249.00    0.83970   0.84561   11.909
 4250.00    0.89390   0.84363   11.187
 4251.00    0.95621   0.84337   10.458
 4252.00    1.00670   0.84445    9.933
 4253.00    1.02343   0.84620    9.771
 4254.00    0.97742   0.84795   10.231
 4255.00    0.86155   0.84915   11.607
 4256.00    0.76814   0.84947   13.019
 4257.00    0.81996   0.84891   12.196
 4258.00    0.93530   0.84797   10.692
 4259.00    0.90490   0.84755   11.051
 4260.00    0.76348   0.84846   13.098
 4261.00    0.73945   0.85100   13.524
 4262.00    0.85243   0.85488   11.731
 4263.00    0.92661   0.85921   10.792
 4264.00    0.92076   0.86257   10.861
 4265.00    0.93197   0.86348   10.730
 4266.00    0.96369   0.86112   10.377
 4267.00    0.93078   0.85551   10.744
 4268.00    0.84205   0.84747   11.876
 4269.00    0.79667   0.83850   12.552
 4270.00    0.84070   0.83034   11.895
 4271.00    0.93932   0.82448   10.646
 4272.00    1.01045   0.82196    9.897
 4273.00    0.97033   0.82302   10.306
 4274.00    0.82676   0.82706   12.095
 4275.00    0.67595   0.83290   14.794
 4276.00    0.62568   0.83916   -1.000
 4277.00    0.73328   0.84445   13.637
 4278.00    0.90279   0.84778   11.077
 4279.00    0.95414   0.84900   10.481
 4280.00    0.87605   0.84843   11.415
 4281.00    0.80816   0.84653   12.374
 4282.00    0.81122   0.84379   12.327
 4283.00    0.84664   0.84050   11.811
 4284.00    0.89011   0.83661   11.235
 4285.00    0.94097   0.83201   10.627
 4286.00    0.96440   0.82681   10.369
 4287.00    0.91739   0.82149   10.900
 4288.00    0.85649   0.81670   11.676
 4289.00    0.89281   0.81310   11.201
 4290.00    0.99914   0.81116   10.009
 4291.00    1.04186   0.81071    9.598
 4292.00    1.00181   0.81095    9.982
 4293.00    0.97064   0.81077   10.302
 4294.00    0.98234   0.80909   10.180
 4295.00    0.99778   0.80526   10.022
 4296.00    0.98673   0.79912   10.134
 4297.00    0.95096   0.79128   10.516
 4298.00    0.92410   0.78303   10.821
 4299.00    0.94108   0.77574   10.626
 4300.00    0.96065   0.77026   10.410
 4301.00    0.90103   0.76691   11.098
 4302.00    0.78634   0.76541   12.717
 4303.00    0.72513   0.76506   13.791
 4304.00    0.75045   0.76514   13.325
 4305.00    0.80834   0.76497   12.371
 4306.00    0.84322   0.76437   11.859
 4307.00    0.83484   0.76385   11.978
 4308.00    0.83115   0.76405   12.032
 4309.00    0.90006   0.76550   11.110
 4310.00    0.98393   0.76875   10.163
 4311.00    0.94725   0.77405   10.557
 4312.00    0.80204   0.78125   12.468
 4313.00    0.69190   0.78978   14.453
 4314.00    0.69068   0.79880   14.478
 4315.00    0.77244   0.80725   12.946
 4316.00    0.87823   0.81397   11.386
 4317.00    0.94892   0.81780   10.538
 4318.00    0.96145   0.81768   10.401
 4319.00    0.93235   0.81298   10.726
 4320.00    0.90070   0.80366   11.103
 4321.00    0.90374   0.79065   11.065
 4322.00    0.92745   0.77579   10.782
 4323.00    0.92369   0.76096   10.826
 4324.00    0.88909   0.74764   11.248
 4325.00    0.86297   0.73674   11.588
 4326.00    0.86647   0.72839   11.541
 4327.00    0.88803   0.72185   11.261
 4328.00    0.89010   0.71581   11.235
 4329.00    0.83661   0.70866   11.953
 4330.00    0.75755   0.69876    0.000
 4331.00    0.71954   0.68464    0.000
 4332.00    0.70609   0.66532    0.000
 4333.00    0.64967   0.64077    0.000
 4334.00    0.59609   0.61141    0.000
 4335.00    0.65981   0.57815    0.000
 4336.00    0.79608   0.54310    0.000
 4337.00    0.83951   0.50957    0.000
 4338.00    0.76145   0.48142    0.000
 4339.00    0.66859   0.46233    0.000
 4340.00    0.61875   0.45504    0.000
 4341.00    0.60284   0.46058    0.000
 4342.00    0.62748   0.47783    0.000
 4343.00    0.70753   0.50400    0.000
 4344.00    0.79022   0.53552    0.000
 4345.00    0.78561   0.56848    0.000
 4346.00    0.69657   0.59929    0.000
 4347.00    0.61243   0.62596    0.000
 4348.00    0.60156   0.64826    0.000
 4349.00    0.67155   0.66672    0.000
 4350.00    0.74435   0.68235   -2.000
 4351.00    0.72584   0.69663   -2.000
 4352.00    0.69684   0.71069   -2.000
 4353.00    0.82600   0.72495   -2.000
 4354.00    1.01928   0.73943   -2.000
 4355.00    1.00595   0.75388   -2.000
 4356.00    0.79783   0.76771   -2.000
 4357.00    0.66359   0.78004   -2.000
 4358.00    0.74478   0.79058   -2.000
 4359.00    0.97550   0.79978   -2.000
 4360.00    1.14814   0.80811   -2.000
 4361.00    1.05658   0.81563   -2.000
 4362.00    0.80941   0.82212   -2.000
 4363.00    0.72093   0.82727   -2.000
 4364.00    0.82231   0.83072   -2.000
 4365.00    0.89370   0.83234   -2.000
 4366.00    0.88132   0.83245   11.347
 4367.00    0.90209   0.83164   11.085
 4368.00    0.96868   0.83027   10.323
 4369.00    0.99244   0.82844   10.076
 4370.00    0.97967   0.82637   10.208
 4371.00    1.00803   0.82453    9.920
 4372.00    1.03384   0.82332    9.673
 4373.00    0.94215   0.82295   10.614
 4374.00    0.80330   0.82357   12.449
 4375.00    0.81081   0.82524   12.333
 4376.00    0.95059   0.82747   10.520
 4377.00    1.03025   0.82919    9.706
 4378.00    0.97897   0.82896   10.215
 4379.00    0.87254   0.82569   11.461
 4380.00    0.79064   0.81925   12.648
 4381.00    0.77147   0.81065   12.962
 4382.00    0.79630   0.80173   12.558
 4383.00    0.81079   0.79459   12.334
 4384.00    0.78929   0.79075   12.670
 4385.00    0.74405   0.79073   13.440
 4386.00    0.70475   0.79417   14.189
 4387.00    0.70055   0.80025   14.275
 4388.00    0.72939   0.80750   13.710
 4389.00    0.75967   0.81410   13.164
 4390.00    0.75550   0.81903   13.236
 4391.00    0.70495   0.82261   14.185
 4392.00    0.67224   0.82565   14.876
 4393.00    0.74730   0.82855   13.381
 4394.00    0.88549   0.83132   11.293
 4395.00    0.94988   0.83373   10.528
 4396.00    0.92471   0.83546   10.814
 4397.00    0.90313   0.83648   11.073
 4398.00    0.91275   0.83675   10.956
 4399.00    0.91659   0.83584   10.910
 4400.00    0.93269   0.83340   10.722
 4401.00    1.00635   0.82983    9.937
 4402.00    1.06204   0.82614    9.416
 4403.00    0.96946   0.82312   10.315
 4404.00    0.80613   0.82148   12.405
 4405.00    0.78497   0.82166   12.739
 4406.00    0.89878   0.82357   11.126
 4407.00    0.95454   0.82715   10.476
 4408.00    0.89721   0.83231   11.146
 4409.00    0.82099   0.83784   12.180
 4410.00    0.77987   0.84183   12.823
 4411.00    0.76364   0.84353   13.095
 4412.00    0.76532   0.84324   13.066
 4413.00    0.79038   0.84135   12.652
 4414.00    0.83403   0.83863   11.990
 4415.00    0.87881   0.83641   11.379
 4416.00    0.90403   0.83553   11.062
 4417.00    0.89440   0.83611   11.181
 4418.00    0.85531   0.83809   11.692
 4419.00    0.80702   0.84106   12.391
 4420.00    0.76058   0.84396   13.148
 4421.00    0.72194   0.84595   13.852
 4422.00    0.71785   0.84681   13.930
 4423.00    0.77494   0.84669   12.904
 4424.00    0.85140   0.84609   11.745
 4425.00    0.87174   0.84546   11.471
 4426.00    0.85732   0.84507   11.664
 4427.00    0.89156   0.84482   11.216
 4428.00    0.94836   0.84432   10.544
 4429.00    0.91989   0.84324   10.871
 4430.00    0.79880   0.84155   12.519
 4431.00    0.68296   0.83949   14.642
 4432.00    0.66548   0.83740   15.027
 4433.00    0.78033   0.83586   12.815
 4434.00    0.94217   0.83565   10.614
 4435.00    1.00691   0.83685    9.931
 4436.00    0.96021   0.83884   10.414
 4437.00    0.90039   0.84098   11.106
 4438.00    0.87218   0.84275   11.466
 4439.00    0.85661   0.84362   11.674
 4440.00    0.85557   0.84337   11.688
 4441.00    0.89088   0.84238   11.225
 4442.00    0.94675   0.84129   10.562
 4443.00    0.97150   0.84080   10.293
 4444.00    0.92079   0.84150   10.860
 4445.00    0.79457   0.84334   12.585
 4446.00    0.69806   0.84561   14.325
 4447.00    0.76116   0.84763   13.138
 4448.00    0.90261   0.84867   11.079
 4449.00    0.91475   0.84792   10.932
 4450.00    0.82412   0.84526   12.134
 4451.00    0.83349   0.84139   11.998
 4452.00    0.94473   0.83701   10.585
 4453.00    0.98320   0.83245   10.171
 4454.00    0.90337   0.82820   11.070
 4455.00    0.80459   0.82449   12.429
 4456.00    0.76942   0.82142   12.997
 4457.00    0.81369   0.81916   12.290
 4458.00    0.87054   0.81811   11.487
 4459.00    0.84754   0.81846   11.799
 4460.00    0.77559   0.81954   12.893
 4461.00    0.76483   0.82093    0.000
 4462.00    0.80133   0.82263    0.000
 4463.00    0.78421   0.82436    0.000
 4464.00    0.74729   0.82557    0.000
 4465.00    0.81588   0.82612    0.000
 4466.00    0.95862   0.82614    0.000
 4467.00    1.02531   0.82572    0.000
 4468.00    0.99919   0.82558    0.000
 4469.00    0.98051   0.82669    0.000
 4470.00    0.98390   0.82941    0.000
 4471.00    0.94289   0.83358    0.000
 4472.00    0.85165   0.83881    0.000
 4473.00    0.77188   0.84433    0.000
 4474.00    0.75743   0.84889    0.000
 4475.00    0.82181   0.85111    0.000
 4476.00    0.90837   0.84980    0.000
 4477.00    0.93008   0.84498    0.000
 4478.00    0.88516   0.83839    0.000
 4479.00    0.84302   0.83217    0.000
 4480.00    0.83581   0.82767    0.000
 4481.00    0.84552   0.82576    0.000
 4482.00    0.84252   0.82685   11.869
 4483.00    0.81098   0.83059   12.331
 4484.00    0.78502   0.83591   12.739
 4485.00    0.82123   0.84139   12.177
 4486.00    0.90903   0.84517   11.001
 4487.00    0.97729   0.84649   10.232
 4488.00    0.96821   0.84600   10.328
 4489.00    0.86677   0.84453   11.537
 4490.00    0.72461   0.84268   13.801
 4491.00    0.63401   0.84111   -1.000
 4492.00    0.64956   0.84044   15.395
 4493.00    0.76595   0.84066   13.056
 4494.00    0.91470   0.84160   10.933
 4495.00    1.00053   0.84300    9.995
 4496.00    0.99139   0.84442   10.087
 4497.00    0.92090   0.84583   10.859
 4498.00    0.83679   0.84782   11.950
 4499.00    0.77979   0.85066   12.824
 4500.00    0.76522   0.85396   13.068
 4501.00    0.78245   0.85723   12.780
 4502.00    0.80529   0.86011   12.418
 4503.00    0.80845   0.86232   12.369
 4504.00    0.80029   0.86402   12.496
 4505.00    0.80860   0.86535   12.367
 4506.00    0.82610   0.86605   12.105
 4507.00    0.82683   0.86572   12.094
 4508.00    0.83932   0.86447   11.914
 4509.00    0.91179   0.86282   10.967
 4510.00    0.98355   0.86096   10.167
 4511.00    0.93730   0.85895   10.669
 4512.00    0.80535   0.85689   12.417
 4513.00    0.73542   0.85462   13.598
 4514.00    0.77861   0.85207   12.843
 4515.00    0.87174   0.84969   11.471
 4516.00    0.92902   0.84788   10.764
 4517.00    0.90076   0.84654   11.102
 4518.00    0.85535   0.84516   11.691
 4519.00    0.90746   0.84339   11.020
 4520.00    0.99615   0.84120   10.039
 4521.00    0.95647   0.83851   10.455
 4522.00    0.82902   0.83525   12.062
 4523.00    0.79972   0.83136   12.504
 4524.00    0.86327   0.82690   11.584
 4525.00    0.86148   0.82242   11.608
 4526.00    0.78486   0.81864   12.741
 4527.00    0.75587   0.81577   13.230
 4528.00    0.80101   0.81367   12.484
 4529.00    0.84540   0.81214   11.829
 4530.00    0.84209   0.81104   11.875
 4531.00    0.79845   0.81079   12.524
 4532.00    0.75808   0.81199   13.191
 4533.00    0.76467   0.81478   13.078
 4534.00    0.78747   0.81867   12.699
 4535.00    0.75898   0.82309   13.176
 4536.00    0.71018   0.82761   14.081
 4537.00    0.73460   0.83228   13.613
 4538.00    0.81939   0.83700   12.204
 4539.00    0.87138   0.84080   11.476
 4540.00    0.88343   0.84259   11.320
 4541.00    0.91522   0.84235   10.926
 4542.00    0.94540   0.84100   10.578
 4543.00    0.89841   0.83914   11.131
 4544.00    0.79906   0.83669   12.515
 4545.00    0.74840   0.83314   13.362
 4546.00    0.77116   0.82889   12.968
 4547.00    0.81303   0.82518   12.300
 4548.00    0.82881   0.82250   12.065
 4549.00    0.80937   0.82057   12.355
 4550.00    0.79087   0.81907    0.000
 4551.00    0.81966   0.81804    0.000
 4552.00    0.86393   0.81825    0.000
 4553.00    0.84994   0.82015    0.000
 4554.00    0.80162   0.82288    0.000
 4555.00    0.80850   0.82577    0.000
 4556.00    0.86457   0.82924    0.000
 4557.00    0.88848   0.83337    0.000
 4558.00    0.86993   0.83770    0.000
 4559.00    0.86341   0.84122    0.000
 4560.00    0.88385   0.84289    0.000
 4561.00    0.90441   0.84290    0.000
 4562.00    0.91467   0.84227    0.000
 4563.00    0.92274   0.84174    0.000
 4564.00    0.92485   0.84159    0.000
 4565.00    0.90864   0.84179    0.000
 4566.00    0.87951   0.84233    0.000
 4567.00    0.85765   0.84303    0.000
 4568.00    0.85463   0.84354    0.000
 4569.00    0.87105   0.84384    0.000
 4570.00    0.90460   0.84387    0.000
 4571.00    0.94753   0.84339    0.000
 4572.00    0.97561   0.84267    0.000
 4573.00    0.95962   0.84219    0.000
 4574.00    0.89903   0.84202    0.000
 4575.00    0.82261   0.84179    0.000
 4576.00    0.76896   0.84063    0.000
 4577.00    0.76644   0.83818    0.000
 4578.00    0.79814   0.83505    0.000
 4579.00    0.82103   0.83175    0.000
 4580.00    0.83200   0.82847    0.000
 4581.00    0.85902   0.82568    0.000
 4582.00    0.90045   0.82407    0.000
 4583.00    0.92728   0.82382    0.000
 4584.00    0.92508   0.82463    0.000
 4585.00    0.90187   0.82607    0.000
 4586.00    0.88114   0.82786    0.000
 4587.00    0.88513   0.82973    0.000
 4588.00    0.89996   0.83119    0.000
 4589.00    0.89112   0.83191    0.000
 4590.00    0.86051   0.83205    0.000
 4591.00    0.84249   0.83179    0.000
 4592.00    0.86003   0.83129    0.000
 4593.00    0.91244   0.83079    0.000
 4594.00    0.97294   0.83063    0.000
 4595.00    1.00165   0.83106    0.000
 4596.00    0.97751   0.83177    0.000
 4597.00    0.90854   0.83231    0.000
 4598.00    0.83610   0.83279    0.000
 4599.00    0.81390   0.83335    0.000
 4600.00    0.85603   0.83399    0.000
 4601.00    0.92928   0.83465    0.000
 4602.00    0.96719   0.83536    0.000
 4603.00    0.91479   0.83658    0.000
 4604.00    0.82368   0.83866    0.000
 4605.00    0.80412   0.84141    0.000
 4606.00    0.85682   0.84441    0.000
 4607.00    0.89220   0.84710    0.000
 4608.00    0.87551   0.84919    0.000
 4609.00    0.84041   0.85069    0.000
 4610.00    0.83414   0.85146    0.000
 4611.00    0.88560   0.85142    0.000
 4612.00    0.96352   0.85056    0.000
 4613.00    1.00100   0.84912    0.000
 4614.00    0.97726   0.84769    0.000
 4615.00    0.91821   0.84632    0.000
 4616.00    0.84958   0.84507    0.000
 4617.00    0.79226   0.84437    0.000
 4618.00    0.77884   0.84423    0.000
 4619.00    0.83604   0.84455    0.000
 4620.00    0.93421   0.84519    0.000
 4621.00    1.00552   0.84589    0.000
 4622.00    1.01620   0.84669    0.000
 4623.00    0.97526   0.84738    0.000
 4624.00    0.91247   0.84728    0.000
 4625.00    0.86481   0.84616    0.000
 4626.00    0.85790   0.84448    0.000
 4627.00    0.89598   0.84284    0.000
 4628.00    0.95006   0.84145    0.000
 4629.00    0.97565   0.84003    0.000
 4630.00    0.96092   0.83835    0.000
 4631.00    0.92526   0.83667    0.000
 4632.00    0.88769   0.83546    0.000
 4633.00    0.86224   0.83436    0.000
 4634.00    0.86517   0.83272    0.000
 4635.00    0.89834   0.83072    0.000
 4636.00    0.90748   0.82897    0.000
 4637.00    0.83059   0.82794    0.000
 4638.00    0.73312   0.82761    0.000
 4639.00    0.74756   0.82741    0.000
 4640.00    0.85561   0.82707    0.000
 4641.00    0.92123   0.82663    0.000
 4642.00    0.89369   0.82570    0.000
 4643.00    0.82514   0.82413    0.000
 4644.00    0.79228   0.82218    0.000
 4645.00    0.84448   0.82020    0.000
 4646.00    0.93030   0.81878    0.000
 4647.00    0.94885   0.81829    0.000
 4648.00    0.90995   0.81863    0.000
 4649.00    0.90493   0.81991    0.000
 4650.00    0.94654   0.82180    0.000
 4651.00    0.97171   0.82352    0.000
 4652.00    0.94097   0.82477    0.000
 4653.00    0.86138   0.82577    0.000
 4654.00    0.78185   0.82689    0.000
 4655.00    0.76180   0.82852    0.000
 4656.00    0.80234   0.83057    0.000
 4657.00    0.85738   0.83275    0.000
 4658.00    0.89913   0.83463    0.000
 4659.00    0.91902   0.83564    0.000
 4660.00    0.89298   0.83526    0.000
 4661.00    0.80311   0.83327    0.000
 4662.00    0.70640   0.82946    0.000
 4663.00    0.69365   0.82379    0.000
 4664.00    0.75616   0.81735    0.000
 4665.00    0.81323   0.81178    0.000
 4666.00    0.85122   0.80812    0.000
 4667.00    0.90824   0.80655    0.000
 4668.00    0.96023   0.80666    0.000
 4669.00    0.94510   0.80823    0.000
 4670.00    0.88260   0.81131    0.000
 4671.00    0.85262   0.81544    0.000
 4672.00    0.87714   0.81966    0.000
 4673.00    0.91787   0.82325    0.000
 4674.00    0.93836   0.82557    0.000
 4675.00    0.92178   0.82638    0.000
 4676.00    0.87597   0.82619    0.000
 4677.00    0.82588   0.82544    0.000
 4678.00    0.79348   0.82429    0.000
 4679.00    0.79263   0.82298    0.000
 4680.00    0.82853   0.82180    0.000
 4681.00    0.89119   0.82115    0.000
 4682.00    0.94120   0.82123    0.000
 4683.00    0.93253   0.82171    0.000
 4684.00    0.87264   0.82237    0.000
 4685.00    0.81380   0.82311    0.000
 4686.00    0.79880   0.82363    0.000
 4687.00    0.83906   0.82370    0.000
 4688.00    0.89597   0.82352    0.000
 4689.00    0.90963   0.82357    0.000
 4690.00    0.87485   0.82411    0.000
 4691.00    0.83424   0.82505    0.000
 4692.00    0.81949   0.82613    0.000
 4693.00    0.83731   0.82705    0.000
 4694.00    0.87075   0.82729    0.000
 4695.00    0.89181   0.82641    0.000
 4696.00    0.88945   0.82472    0.000
 4697.00    0.87091   0.82259    0.000
 4698.00    0.84877   0.81976    0.000
 4699.00    0.83352   0.81624    0.000
 4700.00    0.82402   0.81283    0.000
 4701.00    0.81599   0.81077    0.000
 4702.00    0.82608   0.80996    0.000
 4703.00    0.87438   0.80936    0.000
 4704.00    0.93175   0.80870    0.000
 4705.00    0.94094   0.80848    0.000
 4706.00    0.89412   0.80897    0.000
 4707.00    0.83219   0.81000    0.000
 4708.00    0.79946   0.81117    0.000
 4709.00    0.81981   0.81222    0.000
 4710.00    0.86792   0.81329    0.000
 4711.00    0.88966   0.81449    0.000
 4712.00    0.86424   0.81611    0.000
 4713.00    0.81200   0.81827    0.000
 4714.00    0.77692   0.82034    0.000
 4715.00    0.79741   0.82209    0.000
 4716.00    0.85047   0.82414    0.000
 4717.00    0.87851   0.82677    0.000
 4718.00    0.88052   0.82943    0.000
 4719.00    0.89685   0.83137    0.000
 4720.00    0.92452   0.83249    0.000
 4721.00    0.92399   0.83310    0.000
 4722.00    0.88139   0.83297    0.000
 4723.00    0.81737   0.83141    0.000
 4724.00    0.77230   0.82831    0.000
 4725.00    0.78610   0.82449    0.000
 4726.00    0.86077   0.82068    0.000
 4727.00    0.95531   0.81691    0.000
 4728.00    0.99603   0.81339    0.000
 4729.00    0.92484   0.81084    0.000
 4730.00    0.80122   0.80993    0.000
 4731.00    0.74971   0.81072    0.000
 4732.00    0.78600   0.81235    0.000
 4733.00    0.83171   0.81383    0.000
 4734.00    0.84357   0.81536    0.000
 4735.00    0.82832   0.81727    0.000
 4736.00    0.80542   0.81895    0.000
 4737.00    0.79375   0.82000    0.000
 4738.00    0.80219   0.82046    0.000
 4739.00    0.82843   0.82132    0.000
 4740.00    0.86143   0.82302    0.000
 4741.00    0.88288   0.82448    0.000
 4742.00    0.86950   0.82543    0.000
 4743.00    0.81203   0.82656    0.000
 4744.00    0.75585   0.82797    0.000
 4745.00    0.76737   0.82918    0.000
 4746.00    0.83700   0.82982    0.000
 4747.00    0.89671   0.83014    0.000
 4748.00    0.91264   0.83021    0.000
 4749.00    0.89668   0.82957    0.000
 4750.00    0.88165   0.82818    0.000
 4751.00    0.89358   0.82635    0.000
 4752.00    0.90379   0.82434    0.000
 4753.00    0.85776   0.82202    0.000
 4754.00    0.76528   0.81964    0.000
 4755.00    0.68753   0.81775    0.000
 4756.00    0.65934   0.81616    0.000
 4757.00    0.68306   0.81458    0.000
 4758.00    0.75653   0.81254    0.000
 4759.00    0.85845   0.80988    0.000
 4760.00    0.90229   0.80702    0.000
 4761.00    0.80917   0.80386   12.358
 4762.00    0.69270   0.80062   14.436
 4763.00    0.74734   0.79791   13.381
 4764.00    0.90225   0.79614   11.083
 4765.00    0.92041   0.79598   10.865
 4766.00    0.80435   0.79739   12.432
 4767.00    0.74432   0.79957   13.435
 4768.00    0.78501   0.80196   12.739
 4769.00    0.82911   0.80434   12.061
 4770.00    0.82451   0.80692   12.128
 4771.00    0.78987   0.80953   12.660
 4772.00    0.77038   0.81145   12.981
 4773.00    0.80281   0.81268   12.456
 4774.00    0.86195   0.81379   11.602
 4775.00    0.88375   0.81476   11.315
 4776.00    0.84541   0.81512   11.829
 4777.00    0.76924   0.81473   13.000
 4778.00    0.68825   0.81379   14.530
 4779.00    0.63445   0.81241   15.762
 4780.00    0.63088   0.81045   15.851
 4781.00    0.68185   0.80851   14.666
 4782.00    0.75592   0.80691   13.229
 4783.00    0.80735   0.80524   12.386
 4784.00    0.83224   0.80385   12.016
 4785.00    0.85280   0.80307   11.726
 4786.00    0.85325   0.80293   11.720
 4787.00    0.80309   0.80341   12.452
 4788.00    0.74169   0.80441   13.483
 4789.00    0.74223   0.80631   13.473
 4790.00    0.78785   0.80911   12.693
 4791.00    0.80194   0.81211   12.470
 4792.00    0.78046   0.81494   12.813
 4793.00    0.77609   0.81723   12.885
 4794.00    0.79359   0.81855   12.601
 4795.00    0.79439   0.81880   12.588
 4796.00    0.76234   0.81792   13.118
 4797.00    0.71308   0.81620   14.024
 4798.00    0.67970   0.81445   14.712
 4799.00    0.69440   0.81304   14.401
 4800.00    0.75552   0.81164   13.236
 4801.00    0.83133   0.81018   12.029
 4802.00    0.88608   0.80884   11.286
 4803.00    0.89328   0.80801   11.195
 4804.00    0.85156   0.80724   11.743
 4805.00    0.78483   0.80577   12.742
 4806.00    0.73384   0.80404   13.627
 4807.00    0.73286   0.80278   13.645
 4808.00    0.76321   0.80217   13.103
 4809.00    0.77371   0.80185   12.925
 4810.00    0.75018   0.80181   13.330
 4811.00    0.71612   0.80229   13.964
 4812.00    0.69774   0.80325   14.332
 4813.00    0.70916   0.80436   14.101
 4814.00    0.73866   0.80562   13.538
 4815.00    0.76327   0.80704   13.102
 4816.00    0.78788   0.80798   12.692
 4817.00    0.82934   0.80807   12.058
 4818.00    0.86182   0.80749   11.603
 4819.00    0.83862   0.80594   11.924
 4820.00    0.76833   0.80287   13.015
 4821.00    0.70287   0.79905   14.227
 4822.00    0.67193   0.79584   14.883
 4823.00    0.67853   0.79339   14.738
 4824.00    0.72341   0.79100   13.823
 4825.00    0.80010   0.78860   12.499
 4826.00    0.87196   0.78725   11.468
 4827.00    0.89300   0.78712   11.198
 4828.00    0.86489   0.78666   11.562
 4829.00    0.82636   0.78535   12.101
 4830.00    0.80041   0.78392   12.494
 4831.00    0.79146   0.78279   12.635
 4832.00    0.80603   0.78157   12.407
 4833.00    0.84427   0.77977   11.845
 4834.00    0.87142   0.77750   11.476
 4835.00    0.84480   0.77511   11.837
 4836.00    0.78692   0.77206   12.708
 4837.00    0.76158   0.76804   13.131
 4838.00    0.78381   0.76381   12.758
 4839.00    0.81895   0.75954   12.211
 4840.00    0.82736   0.75501   12.087
 4841.00    0.79199   0.75036   12.626
 4842.00    0.75454   0.74606   13.253
 4843.00    0.77305   0.74181   12.936
 4844.00    0.81206   0.73651   12.314
 4845.00    0.78580   0.72980   12.726
 4846.00    0.70753   0.72236   14.134
 4847.00    0.66516   0.71437   15.034
 4848.00    0.69129   0.70479    0.000
 4849.00    0.75010   0.69327    0.000
 4850.00    0.77625   0.68050    0.000
 4851.00    0.72132   0.66648    0.000
 4852.00    0.63353   0.65034    0.000
 4853.00    0.61263   0.63194    0.000
 4854.00    0.67137   0.61199    0.000
 4855.00    0.74832   0.59074    0.000
 4856.00    0.80623   0.56777    0.000
 4857.00    0.84521   0.54378    0.000
 4858.00    0.88072   0.52162    0.000
 4859.00    0.92438   0.50467    0.000
 4860.00    0.95374   0.49460    0.000
 4861.00    0.93091   0.49132    0.000
 4862.00    0.85808   0.49500    0.000
 4863.00    0.77316   0.50636    0.000
 4864.00    0.71154   0.52482    0.000
 4865.00    0.68839   0.54687    0.000
 4866.00    0.68001   0.56890    0.000
 4867.00    0.64780   0.58944    0.000
 4868.00    0.59917   0.60770    0.000
 4869.00    0.57815   0.62375    0.000
 4870.00    0.61374   0.63851    0.000
 4871.00    0.69977   0.65221    0.000
 4872.00    0.77854   0.66441    0.000
 4873.00    0.78163   0.67581    0.000
 4874.00    0.72578   0.68764    0.000
 4875.00    0.68465   0.69948   14.606
 4876.00    0.67998   0.71033   14.706
 4877.00    0.68788   0.71961   14.538
 4878.00    0.70654   0.72719   14.153
 4879.00    0.74977   0.73340   13.337
 4880.00    0.79910   0.73848   12.514
 4881.00    0.81379   0.74242   12.288
 4882.00    0.77653   0.74467   12.878
 4883.00    0.71041   0.74570   14.076
 4884.00    0.69100   0.74673   14.472
 4885.00    0.78438   0.74805   12.749
 4886.00    0.90997   0.74910   10.989
 4887.00    0.91548   0.74974   10.923
 4888.00    0.80572   0.75071   12.411
 4889.00    0.70523   0.75331   14.180
 4890.00    0.66424   0.75781   15.055
 4891.00    0.65713   0.76322   15.218
 4892.00    0.67536   0.76914   14.807
 4893.00    0.72480   0.77562   13.797
 4894.00    0.77428   0.78261   12.915
 4895.00    0.78058   0.78865   12.811
 4896.00    0.76653   0.79242   13.046
 4897.00    0.79166   0.79435   12.632
 4898.00    0.85097   0.79506   11.751
 4899.00    0.88789   0.79474   11.263
 4900.00    0.87269   0.79365   11.459
 4901.00    0.81703   0.79241   12.239
 4902.00    0.76539   0.79200   13.065
 4903.00    0.76490   0.79234   13.074
 4904.00    0.80527   0.79249   12.418
 4905.00    0.83370   0.79205   11.995
 4906.00    0.81700   0.79126   12.240
 4907.00    0.76078   0.79028   13.144
 4908.00    0.71862   0.78904   13.915
 4909.00    0.74529   0.78788   13.418
 4910.00    0.79359   0.78684   12.601
 4911.00    0.76763   0.78607   13.027
 4912.00    0.68634   0.78577   14.570
 4913.00    0.64873   0.78549   15.415
 4914.00    0.67983   0.78445   14.709
 4915.00    0.73328   0.78151   13.637
 4916.00    0.77261   0.77675   12.943
 4917.00    0.78442   0.77117   12.748
 4918.00    0.76667   0.76573   13.044
 4919.00    0.73022   0.76144   13.695
 4920.00    0.70714   0.75840   14.141
 4921.00    0.72679   0.75726   13.759
 4922.00    0.76153   0.75901   13.131
 4923.00    0.75768   0.76383   13.198
 4924.00    0.72702   0.77037   13.755
 4925.00    0.72254   0.77681   13.840
 4926.00    0.74257   0.78285   13.467
 4927.00    0.74554   0.78862   13.413
 4928.00    0.72776   0.79329   13.741
 4929.00    0.71796   0.79557   13.928
 4930.00    0.72775   0.79509   13.741
 4931.00    0.74945   0.79291   13.343
 4932.00    0.77533   0.79024   12.898
 4933.00    0.79689   0.78734   12.549
 4934.00    0.79472   0.78365   12.583
 4935.00    0.75524   0.77965   13.241
 4936.00    0.71062   0.77724   14.072
 4937.00    0.71629   0.77728   13.961
 4938.00    0.78347   0.77876   12.764
 4939.00    0.87125   0.78068   11.478
 4940.00    0.90373   0.78352    0.000
 4941.00    0.82607   0.78769    0.000
 4942.00    0.71307   0.79225    0.000
 4943.00    0.69813   0.79607    0.000
 4944.00    0.77189   0.79901    0.000
 4945.00    0.82539   0.80147    0.000
 4946.00    0.83759   0.80315    0.000
 4947.00    0.85582   0.80392    0.000
 4948.00    0.86521   0.80438    0.000
 4949.00    0.82053   0.80406    0.000
 4950.00    0.77435   0.80209    0.000
 4951.00    0.82353   0.79903    0.000
 4952.00    0.93592   0.79563    0.000
 4953.00    0.99430   0.79127    0.000
 4954.00    0.97204   0.78516    0.000
 4955.00    0.92983   0.77925    0.000
 4956.00    0.92393   0.77636    0.000
 4957.00    0.96677   0.77576    0.000
 4958.00    0.98957   0.77530    0.000
 4959.00    0.91024   0.77537    0.000
 4960.00    0.79240   0.77779    0.000
 4961.00    0.77357   0.78132    0.000
 4962.00    0.83963   0.78279    0.000
 4963.00    0.86671   0.78228    0.000
 4964.00    0.81677   0.78165    0.000
 4965.00    0.73905   0.78108    0.000
 4966.00    0.67994   0.78010    0.000
 4967.00    0.66422   0.77939    0.000
 4968.00    0.69808   0.77988    0.000
 4969.00    0.76384   0.78133    0.000
 4970.00    0.80861   0.78304    0.000
 4971.00    0.78218   0.78494    0.000
 4972.00    0.72111   0.78665    0.000
 4973.00    0.71113   0.78750    0.000
 4974.00    0.76860   0.78713    0.000
 4975.00    0.84018   0.78531    0.000
 4976.00    0.85942   0.78218    0.000
 4977.00    0.79336   0.77801    0.000
 4978.00    0.71178   0.77291    0.000
 4979.00    0.72258   0.76695    0.000
 4980.00    0.80483   0.76097    0.000
 4981.00    0.85047   0.75645    0.000
 4982.00    0.82984   0.75374    0.000
 4983.00    0.78926   0.75248    0.000
 4984.00    0.76759   0.75299    0.000
 4985.00    0.77448   0.75565    0.000
 4986.00    0.78481   0.75941    0.000
 4987.00    0.77135   0.76299    0.000
 4988.00    0.77422   0.76610    0.000
 4989.00    0.84833   0.76880    0.000
 4990.00    0.92318   0.77073    0.000
 4991.00    0.87733   0.77167    0.000
 4992.00    0.75722   0.77218    0.000
 4993.00    0.71008   0.77264    0.000
 4994.00    0.74283   0.77288    0.000
 4995.00    0.75683   0.77233    0.000
 4996.00    0.73222   0.77085    0.000
 4997.00    0.71932   0.76857    0.000
 4998.00    0.73483   0.76549    0.000
 4999.00    0.75967   0.76188    0.000
 5000.00    0.78268   0.75816    0.000
 5001.00    0.80757   0.75472    0.000
 5002.00    0.84649   0.75158    0.000
 5003.00    0.90969   0.74893    0.000
 5004.00    0.98692   0.74749    0.000
 5005.00    1.05286   0.74752    0.000
 5006.00    1.08715   0.74795    0.000
 5007.00    1.08344   0.74796    0.000
 5008.00    1.05843   0.74796    0.000
 5009.00    1.02956   0.74793    0.000
 5010.00    0.96583   0.74681    0.000
 5011.00    0.83244   0.74426    0.000
 5012.00    0.70399   0.74127    0.000
 5013.00    0.69523   0.73866    0.000
 5014.00    0.76714   0.73618    0.000
 5015.00    0.78797   0.73381    0.000
 5016.00    0.74836   0.73259    0.000
 5017.00    0.73309   0.73333    0.000
 5018.00    0.76380   0.73514    0.000
 5019.00    0.80008   0.73681    0.000
 5020.00    0.81416   0.73895    0.000
 5021.00    0.80017   0.74251    0.000
 5022.00    0.75944   0.74652    0.000
 5023.00    0.70484   0.74957    0.000
 5024.00    0.67565   0.75176    0.000
 5025.00    0.70518   0.75404    0.000
 5026.00    0.74838   0.75669    0.000
 5027.00    0.73357   0.75903    0.000
 5028.00    0.70033   0.76060    0.000
 5029.00    0.73752   0.76195   13.559
 5030.00    0.79459   0.76381   12.585
 5031.00    0.75295   0.76521   13.281
 5032.00    0.65743   0.76463   15.211
 5033.00    0.65068   0.76223   15.369
 5034.00    0.73387   0.75923   13.626
 5035.00    0.79912   0.75570   12.514
 5036.00    0.80510   0.75089   12.421
 5037.00    0.78130   0.74526   12.799
 5038.00    0.75664   0.74049   13.216
 5039.00    0.74474   0.73809   13.428
 5040.00    0.74594   0.73829   13.406
 5041.00    0.74994   0.74006   13.334
 5042.00    0.74064   0.74284   13.502
 5043.00    0.70861   0.74729   14.112
 5044.00    0.67422   0.75277   14.832
 5045.00    0.67247   0.75677   14.871
 5046.00    0.71136   0.75841   14.058
 5047.00    0.76915   0.75903   13.001
 5048.00    0.80822   0.75891   12.373
 5049.00    0.80279   0.75762   12.457
 5050.00    0.78823   0.75626   12.687
 5051.00    0.82057   0.75619   12.187
 5052.00    0.87240   0.75694   11.463
 5053.00    0.87269   0.75789   11.459
 5054.00    0.83426   0.75968   11.987
 5055.00    0.82461   0.76251   12.127
 5056.00    0.84923   0.76518   11.775
 5057.00    0.86257   0.76694   11.593
 5058.00    0.84293   0.76834   11.863
 5059.00    0.80082   0.76956   12.487
 5060.00    0.76191   0.76973   13.125
 5061.00    0.75356   0.76804   13.270
 5062.00    0.78458   0.76520   12.746
 5063.00    0.83814   0.76249   11.931
 5064.00    0.86731   0.76005   11.530
 5065.00    0.82633   0.75699   12.102
 5066.00    0.73610   0.75397   13.585
 5067.00    0.66459   0.75253   15.047
 5068.00    0.65716   0.75226   15.217
 5069.00    0.71242   0.75147   14.037
 5070.00    0.76581   0.75059   13.058
 5071.00    0.74635   0.75076   13.398
 5072.00    0.69781   0.75084   14.330
 5073.00    0.71183   0.74964   14.048
 5074.00    0.74042   0.74832   13.506
 5075.00    0.67255   0.74752   14.869
 5076.00    0.57067   0.74565   17.523
 5077.00    0.59174   0.74258   16.899
 5078.00    0.72304   0.74039   13.830
 5079.00    0.82892   0.73953   12.064
 5080.00    0.86244   0.73877   11.595
 5081.00    0.86052   0.73846   11.621
 5082.00    0.84081   0.74000   11.893
 5083.00    0.80183   0.74300   12.471
 5084.00    0.76823   0.74604   13.017
 5085.00    0.77061   0.74891   12.977
 5086.00    0.78573   0.75206   12.727
 5087.00    0.76984   0.75515   12.990
 5088.00    0.75135   0.75743   13.309
 5089.00    0.78545   0.75898   12.732
 5090.00    0.82347   0.76025   12.144
 5091.00    0.77735   0.76094   12.864
 5092.00    0.70530   0.76033   14.178
 5093.00    0.73376   0.75840   13.628
 5094.00    0.81999   0.75584   12.195
 5095.00    0.82181   0.75281   12.168
 5096.00    0.74157   0.74908   13.485
 5097.00    0.69159   0.74539   14.460
 5098.00    0.71723   0.74296   13.942
 5099.00    0.78327   0.74182   12.767
 5100.00    0.82472   0.74118   12.125
 5101.00    0.79095   0.74098   12.643
 5102.00    0.71173   0.74157   14.050
 5103.00    0.66602   0.74234   15.014
 5104.00    0.69005   0.74222   14.492
 5105.00    0.76638   0.74152   13.048
 5106.00    0.84299   0.74123   11.863
 5107.00    0.86474   0.74116   11.564
 5108.00    0.82849   0.74109   12.070
 5109.00    0.77442   0.74198   12.913
 5110.00    0.74400   0.74398   13.441
 5111.00    0.75486   0.74623   13.248
 5112.00    0.76973   0.74869   12.992
 5113.00    0.73691   0.75157   13.570
 5114.00    0.68417   0.75422   14.616
 5115.00    0.68269   0.75608   14.648
 5116.00    0.73450   0.75694   13.615
 5117.00    0.78724   0.75664   12.703
 5118.00    0.81257   0.75518   12.307
 5119.00    0.80939   0.75268   12.355
 5120.00    0.77665   0.74909   12.876
 5121.00    0.72319   0.74466   13.828
 5122.00    0.69774   0.74024   14.332
 5123.00    0.74810   0.73655   13.367
 5124.00    0.82762   0.73351   12.083
 5125.00    0.84277   0.73112   11.866
 5126.00    0.78836   0.72982   12.685
 5127.00    0.73130   0.72964   13.674
 5128.00    0.71928   0.73032   13.903
 5129.00    0.75398   0.73165   13.263
 5130.00    0.77841   0.73306   12.847
 5131.00    0.73491   0.73435   13.607
 5132.00    0.68468   0.73583   14.605
 5133.00    0.73550   0.73711   13.596
 5134.00    0.84790   0.73726   11.794
 5135.00    0.89032   0.73645   11.232
 5136.00    0.83233   0.73513   12.014
 5137.00    0.74245   0.73342   13.469
 5138.00    0.69993   0.73184   14.287
 5139.00    0.74580   0.73006   13.408
 5140.00    0.82415   0.72774   12.134
 5141.00    0.83554   0.72631   11.968
 5142.00    0.76837   0.72615   13.015
 5143.00    0.68872   0.72555   14.520
 5144.00    0.66317   0.72451   15.079
 5145.00    0.71872   0.72416   13.914
 5146.00    0.79724   0.72421   12.543
 5147.00    0.81106   0.72407   12.330
 5148.00    0.77210   0.72369   12.952
 5149.00    0.75501   0.72330   13.245
 5150.00    0.76965   0.72347   12.993
 5151.00    0.77194   0.72426   12.954
 5152.00    0.73993   0.72537   13.515
 5153.00    0.68608   0.72720   14.576
 5154.00    0.64888   0.73006   15.411
 5155.00    0.66505   0.73338   15.036
 5156.00    0.71831   0.73640   13.921
 5157.00    0.76143   0.73883   13.133
 5158.00    0.78129   0.74034   12.799
 5159.00    0.79445   0.73991   12.587
 5160.00    0.81060   0.73678   12.336
 5161.00    0.82509   0.73142   12.120
 5162.00    0.81992   0.72406   12.196
 5163.00    0.78267   0.71439   12.777
 5164.00    0.74239   0.70305   13.470
 5165.00    0.73716   0.69124   13.566
 5166.00    0.73605   0.68021   13.586
 5167.00    0.68625   0.67149   14.572
 5168.00    0.63712   0.66547   15.696
 5169.00    0.67632   0.66129   14.786
 5170.00    0.75379   0.65968   13.266
 5171.00    0.75230   0.66272   13.293
 5172.00    0.69874   0.66915   14.312
 5173.00    0.70726   0.67573   14.139
 5174.00    0.77952   0.68232   12.828
 5175.00    0.83038   0.69028   12.043
 5176.00    0.82219   0.69734   12.163
 5177.00    0.77637   0.70033   12.880
 5178.00    0.73929   0.70022   13.526
 5179.00    0.74456   0.69885   13.431
 5180.00    0.75424   0.69516   13.258
 5181.00    0.70723   0.68945   14.140
 5182.00    0.63769   0.68565   15.682
 5183.00    0.62971   0.68546   15.880
 5184.00    0.67969   0.68685   14.712
 5185.00    0.72095   0.68919   13.871
 5186.00    0.72921   0.69396   13.713
 5187.00    0.72273   0.70066   13.836
 5188.00    0.71832   0.70619   13.921
 5189.00    0.71675   0.70871   13.952
 5190.00    0.69309   0.71032    0.000
 5191.00    0.63171   0.71263    0.000
 5192.00    0.59679   0.71392    0.000
 5193.00    0.66587   0.71389    0.000
 5194.00    0.77252   0.71514    0.000
 5195.00    0.78395   0.71789    0.000
 5196.00    0.71668   0.72023    0.000
 5197.00    0.68627   0.72215    0.000
 5198.00    0.72043   0.72399    0.000
 5199.00    0.76695   0.72467    0.000
 5200.00    0.78658   0.72376    0.000
 5201.00    0.77095   0.72160    0.000
 5202.00    0.73904   0.71783    0.000
 5203.00    0.72018   0.71306    0.000
 5204.00    0.72200   0.70880    0.000
 5205.00    0.73235   0.70525    0.000
 5206.00    0.73648   0.70238    0.000
 5207.00    0.72737   0.70171    0.000
 5208.00    0.71851   0.70357    0.000
 5209.00    0.72790   0.70664    0.000
 5210.00    0.74216   0.71072    0.000
 5211.00    0.73251   0.71581   13.652
 5212.00    0.70037   0.72075   14.278
 5213.00    0.67140   0.72461   14.894
 5214.00    0.66495   0.72793   15.039
 5215.00    0.68642   0.73118   14.568
 5216.00    0.72485   0.73368   13.796
 5217.00    0.76220   0.73523   13.120
 5218.00    0.79217   0.73649   12.623
 5219.00    0.81373   0.73723   12.289
 5220.00    0.81137   0.73603   12.325
 5221.00    0.77277   0.73300   12.940
 5222.00    0.73008   0.72928   13.697
 5223.00    0.72774   0.72455   13.741
 5224.00    0.74424   0.71888   13.436
 5225.00    0.72474   0.71451   13.798
 5226.00    0.67574   0.71260   14.799
 5227.00    0.64705   0.71192   15.455
 5228.00    0.65833   0.71239   15.190
 5229.00    0.69407   0.71496   14.408
 5230.00    0.72411   0.71820   13.810
 5231.00    0.72766   0.72072   13.743
 5232.00    0.73064   0.72335   13.687
 5233.00    0.77291   0.72641   12.938
 5234.00    0.83043   0.72929   12.042
 5235.00    0.84597   0.73212   11.821
 5236.00    0.81955   0.73539   12.202
 5237.00    0.79392   0.73866   12.596
 5238.00    0.79004   0.74155   12.658
 5239.00    0.80251   0.74406   12.461
 5240.00    0.81670   0.74553   12.244
 5241.00    0.81615   0.74567   12.253
 5242.00    0.79053   0.74550   12.650
 5243.00    0.74486   0.74471   13.425
 5244.00    0.71327   0.74185   14.020
 5245.00    0.72737   0.73824   13.748
 5246.00    0.75084   0.73585   13.318
 5247.00    0.72421   0.73323   13.808
 5248.00    0.67608   0.72956   14.791
 5249.00    0.68057   0.72741   14.694
 5250.00    0.73171   0.72741   13.667
 5251.00    0.76864   0.72754   13.010
 5252.00    0.77409   0.72788   12.918
 5253.00    0.77007   0.72948   12.986
 5254.00    0.77038   0.73185   12.981
 5255.00    0.77316   0.73370   12.934
 5256.00    0.76574   0.73454   13.059
 5257.00    0.73858   0.73420   13.539
 5258.00    0.70981   0.73228   14.088
 5259.00    0.70978   0.72829   14.089
 5260.00    0.74152   0.72221   13.486
 5261.00    0.77742   0.71502   12.863
 5262.00    0.76982   0.70743   12.990
 5263.00    0.69643   0.69935   14.359
 5264.00    0.64080   0.69211   15.605
 5265.00    0.70296   0.68769   14.226
 5266.00    0.79935   0.68469   12.510
 5267.00    0.76792   0.68154   13.022
 5268.00    0.64636   0.68121   15.471
 5269.00    0.59119   0.68447   16.915
 5270.00    0.61440   0.68787   16.276
 5271.00    0.62469   0.69142   16.008
 5272.00    0.60958   0.69738   16.405
 5273.00    0.62027   0.70395   16.122
 5274.00    0.67113   0.70964   14.900
 5275.00    0.73431   0.71556   13.618
 5276.00    0.76952   0.72106   12.995
 5277.00    0.75152   0.72491   13.306
 5278.00    0.71008   0.72767   14.083
 5279.00    0.69653   0.72999   14.357
 5280.00    0.70485   0.73153   14.187
 5281.00    0.69879   0.73211   14.311
 5282.00    0.69340   0.73293   14.422
 5283.00    0.72538   0.73537   13.786
 5284.00    0.76557   0.73850   13.062
 5285.00    0.75686   0.74131   13.212
 5286.00    0.71951   0.74453   13.898
 5287.00    0.71757   0.74821   13.936
 5288.00    0.75420   0.75102   13.259
 5289.00    0.78397   0.75221   12.756
 5290.00    0.77756   0.75216   12.861
 5291.00    0.73695   0.75098   13.570
 5292.00    0.69846   0.74863   14.317
 5293.00    0.70248   0.74505   14.235
 5294.00    0.73522   0.74073   13.601
 5295.00    0.75313   0.73613   13.278
 5296.00    0.75163   0.73205   13.304
 5297.00    0.75008   0.72957   13.332
 5298.00    0.73761   0.72833   13.557
 5299.00    0.69573   0.72793   14.373
 5300.00    0.66122   0.72938   15.124
 5301.00    0.69012   0.73256   14.490
 5302.00    0.76581   0.73596   13.058
 5303.00    0.82335   0.73918   12.145
 5304.00    0.83123   0.74246   12.030
 5305.00    0.79782   0.74514   12.534
 5306.00    0.75175   0.74694   13.302
 5307.00    0.72509   0.74820   13.791
 5308.00    0.72890   0.74880   13.719
 5309.00    0.75006   0.74846   13.332
 5310.00    0.75576   0.74748   13.232
 5311.00    0.72051   0.74612   13.879
 5312.00    0.67467   0.74446   14.822
 5313.00    0.67314   0.74226   14.856
 5314.00    0.71765   0.73960   13.934
 5315.00    0.76655   0.73764   13.045
 5316.00    0.78368   0.73646   12.760
 5317.00    0.75912   0.73487   13.173
 5318.00    0.72871   0.73298   13.723
 5319.00    0.73900   0.73161   13.532
 5320.00    0.77426   0.73000   12.916
 5321.00    0.78349   0.72687   12.763
 5322.00    0.75885   0.72248   13.178
 5323.00    0.72577   0.71851   13.778
 5324.00    0.69447   0.71493   14.399
 5325.00    0.66453   0.71067   15.048
 5326.00    0.65125   0.70677   15.355
 5327.00    0.67053   0.70575   14.914
 5328.00    0.70106   0.70752   14.264
 5329.00    0.70964   0.71055   14.092
 5330.00    0.71224   0.71350   14.040
 5331.00    0.74391   0.71762   13.443
 5332.00    0.77993   0.72312   12.822
 5333.00    0.76745   0.72672   13.030
 5334.00    0.71426   0.72776   14.001
 5335.00    0.67076   0.72839   14.908
 5336.00    0.66241   0.72903   15.096
 5337.00    0.68394   0.72785   14.621
 5338.00    0.71457   0.72532   13.994
 5339.00    0.73684   0.72400   13.571
 5340.00    0.76537   0.72396   13.066
 5341.00    0.81757   0.72359   12.231
 5342.00    0.84947   0.72349   11.772
 5343.00    0.80249   0.72439   12.461
 5344.00    0.71413   0.72575   14.003
 5345.00    0.67457   0.72723   14.824
 5346.00    0.70390   0.72870   14.207
 5347.00    0.75624   0.73033   13.223
 5348.00    0.77509   0.73275   12.902
 5349.00    0.73428   0.73592   13.619
 5350.00    0.69221   0.73883   14.447
 5351.00    0.72859   0.74173   13.725
 5352.00    0.80739   0.74545   12.386
 5353.00    0.83312   0.74887   12.003
 5354.00    0.80623   0.75108   12.403
 5355.00    0.79105   0.75267   12.641
 5356.00    0.79816   0.75362   12.529
 5357.00    0.79298   0.75334   12.611
 5358.00    0.75602   0.75185   13.227
 5359.00    0.69790   0.74922   14.329
 5360.00    0.66358   0.74584   15.070
 5361.00    0.69337   0.74225   14.422
 5362.00    0.74974   0.73815   13.338
 5363.00    0.76283   0.73360   13.109
 5364.00    0.74125   0.72938   13.491
 5365.00    0.73730   0.72544   13.563
 5366.00    0.74180   0.72161   13.481
 5367.00    0.71418   0.71840   14.002
 5368.00    0.67613   0.71595   14.790
 5369.00    0.67878   0.71454   14.732
 5370.00    0.70773   0.71499   14.130
 5371.00    0.71127   0.71716   14.059
 5372.00    0.68737   0.72016   14.548
 5373.00    0.66895   0.72420   14.949
 5374.00    0.66438   0.72854   15.052
 5375.00    0.65974   0.73206   15.157
 5376.00    0.64505   0.73504   15.503
 5377.00    0.62496   0.73690   16.001
 5378.00    0.62805   0.73731   15.922
 5379.00    0.68002   0.73711   14.705
 5380.00    0.75142   0.73658   13.308
 5381.00    0.78408   0.73529   12.754
 5382.00    0.75951   0.73420   13.166
 5383.00    0.70379   0.73368   14.209
 5384.00    0.67015   0.73273   14.922
 5385.00    0.69624   0.73163   14.363
 5386.00    0.73314   0.73076   13.640
 5387.00    0.70485   0.72931   14.188
 5388.00    0.64272   0.72711   15.559
 5389.00    0.63234   0.72497   15.814
 5390.00    0.66692   0.72253   14.994
 5391.00    0.68030   0.71945   14.699
 5392.00    0.66131   0.71662   15.121
 5393.00    0.64907   0.71448   15.407
 5394.00    0.68168   0.71215   14.670
 5395.00    0.76367   0.70975   13.095
 5396.00    0.82649   0.70910   12.099
 5397.00    0.79128   0.70918   12.638
 5398.00    0.69748   0.70818   14.337
 5399.00    0.64825   0.70749   15.426
 5400.00    0.66352   0.70748   15.071
 5401.00    0.69401   0.70613   14.409
 5402.00    0.70120   0.70371   14.261
 5403.00    0.67871   0.70155   14.734
 5404.00    0.66164   0.69966   15.114
 5405.00    0.69003   0.69835   14.492
 5406.00    0.73904   0.69798   13.531
 5407.00    0.75326   0.69834   13.276
 5408.00    0.73433   0.69973   13.618
 5409.00    0.72072   0.70263   13.875
 5410.00    0.71918   0.70627   13.905
 5411.00    0.71345   0.70986   14.016
 5412.00    0.70473   0.71355   14.190
 5413.00    0.70547   0.71748   14.175
 5414.00    0.71344   0.72113   14.017
 5415.00    0.71499   0.72382   13.986
 5416.00    0.70041   0.72575   14.277
 5417.00    0.67286   0.72726   14.862
 5418.00    0.65860   0.72777   15.184
 5419.00    0.68600   0.72746   14.577
 5420.00    0.74387   0.72714   13.443
 5421.00    0.79437   0.72621   12.589
 5422.00    0.81181   0.72470   12.318
 5423.00    0.78954   0.72353   12.666
 5424.00    0.73849   0.72225   13.541
 5425.00    0.68130   0.72075   14.678
 5426.00    0.64148   0.71886   15.589
 5427.00    0.63170   0.71603   15.830
 5428.00    0.63668   0.71363   15.707
 5429.00    0.63381   0.71205   15.778
 5430.00    0.63620   0.70982   15.718
 5431.00    0.66975   0.70786   14.931
 5432.00    0.71691   0.70774   13.949
 5433.00    0.73885   0.70860   13.534
 5434.00    0.73575   0.71006   13.592
 5435.00    0.73467   0.71283   13.612
 5436.00    0.74609   0.71674   13.403
 5437.00    0.76435   0.72069   13.083
 5438.00    0.78376   0.72427   12.759
 5439.00    0.79926   0.72724   12.512
 5440.00    0.80223   0.72880   12.465
 5441.00    0.78492   0.72883   12.740
 5442.00    0.75033   0.72752   13.328
 5443.00    0.71013   0.72498   14.082
 5444.00    0.67761   0.72142   14.758
 5445.00    0.66463   0.71799   15.046
 5446.00    0.67843   0.71581   14.740
 5447.00    0.71511   0.71403   13.984
 5448.00    0.74949   0.71260   13.342
 5449.00    0.75266   0.71212   13.286
 5450.00    0.72732   0.71176   13.749
 5451.00    0.69839   0.71121   14.319
 5452.00    0.68346   0.71041   14.631
 5453.00    0.68563   0.70899   -2.000
 5454.00    0.69132   0.70802   -2.000
 5455.00    0.68591   0.70802   -2.000
 5456.00    0.68215   0.70787   -2.000
 5457.00    0.69956   0.70785   -2.000
 5458.00    0.71815   0.70852   -2.000
 5459.00    0.70925   0.70924   -2.000
 5460.00    0.70576   0.70962   -2.000
 5461.00    0.75229   0.70953   -2.000
 5462.00    0.79261   0.70987   -2.000
 5463.00    0.74103   0.71072   -2.000
 5464.00    0.64847   0.71080   -2.000
 5465.00    0.62865   0.71087   -2.000
 5466.00    0.66855   0.71182   -2.000
 5467.00    0.68366   0.71201   -2.000
 5468.00    0.68225   0.71096   14.657
 5469.00    0.72219   0.71024   13.847
 5470.00    0.77730   0.70909   12.865
 5471.00    0.77779   0.70619   12.857
 5472.00    0.72881   0.70355   13.721
 5473.00    0.68602   0.70167   14.577
 5474.00    0.67063   0.69871   14.911
 5475.00    0.67405   0.69623   14.836
 5476.00    0.69520   0.69582   14.384
 5477.00    0.73093   0.69593   13.681
 5478.00    0.74703   0.69606   13.386
 5479.00    0.71265   0.69718   14.032
 5480.00    0.67050   0.69955   14.914
 5481.00    0.68645   0.70197   14.568
 5482.00    0.73578   0.70397   13.591
 5483.00    0.74669   0.70665   13.393
 5484.00    0.71695   0.70957   13.948
 5485.00    0.69220   0.71121   14.447
 5486.00    0.68665   0.71249   14.564
 5487.00    0.68492   0.71514   14.600
 5488.00    0.67279   0.71636   14.864
 5489.00    0.64888   0.71581   15.411
 5490.00    0.63432   0.71669   15.765
 5491.00    0.64830   0.71678   15.425
 5492.00    0.66225   0.71507   15.100
 5493.00    0.63853   0.71433   15.661
 5494.00    0.61365   0.71371   16.296
 5495.00    0.64589   0.71164   15.483
 5496.00    0.69476   0.71013   14.393
 5497.00    0.68007   0.70975   14.704
 5498.00    0.62718   0.70831   15.944
 5499.00    0.61547   0.70646   16.248
 5500.00    0.63799   0.70557   15.674
 5501.00    0.64380   0.70439   15.533
 5502.00    0.65979   0.70301   15.156
 5503.00    0.73603   0.70204   13.586
 5504.00    0.80951   0.70075   12.353
 5505.00    0.78171   0.69988   12.793
 5506.00    0.70093   0.69970   14.267
 5507.00    0.68545   0.69900   14.589
 5508.00    0.72572   0.69827   13.779
 5509.00    0.73583   0.69820   13.590
 5510.00    0.71138   0.69807   14.057
 5511.00    0.70487   0.69787   14.187
 5512.00    0.72841   0.69840   13.728
 5513.00    0.75507   0.69975   13.244
 5514.00    0.75486   0.70135   13.248
 5515.00    0.71506   0.70331   13.985
 5516.00    0.66371   0.70603   15.067
 5517.00    0.64503   0.70864   15.503
 5518.00    0.66775   0.71058   14.976
 5519.00    0.70660   0.71211   14.152
 5520.00    0.72324   0.71295   13.827
 5521.00    0.69512   0.71283   14.386
 5522.00    0.65867   0.71171   15.182
 5523.00    0.67231   0.70980   14.874
 5524.00    0.73645   0.70787   13.579
 5525.00    0.80316   0.70568   12.451
 5526.00    0.82124   0.70317   12.177
 5527.00    0.76768   0.70183   13.026
 5528.00    0.68694   0.70141   14.557
 5529.00    0.64903   0.70087   15.408
 5530.00    0.66227   0.70095   15.100
 5531.00    0.68814   0.70197   14.532
 5532.00    0.69734   0.70277   14.340
 5533.00    0.68191   0.70321   14.665
 5534.00    0.65793   0.70437   15.199
 5535.00    0.65212   0.70569   15.335
 5536.00    0.67690   0.70639   14.773
 5537.00    0.72268   0.70753   13.837
 5538.00    0.75376   0.70893   13.267
 5539.00    0.73906   0.70977   13.531
 5540.00    0.70688   0.71042   14.147
 5541.00    0.71090   0.71091   14.067
 5542.00    0.75220   0.71126   13.294
 5543.00    0.79112   0.71156   12.640
 5544.00    0.79481   0.71174   12.582
 5545.00    0.75314   0.71223   13.278
 5546.00    0.69045   0.71295   14.483
 5547.00    0.64836   0.71350   15.424
 5548.00    0.65090   0.71399   15.363
 5549.00    0.69544   0.71429   14.379
 5550.00    0.74881   0.71414   13.355
 5551.00    0.76859   0.71356   13.011
 5552.00    0.74200   0.71254   13.477
 5553.00    0.68635   0.71144   14.570
 5554.00    0.63615   0.71031   15.720
 5555.00    0.62096   0.70895   16.104
 5556.00    0.63121   0.70780   15.842
 5557.00    0.63621   0.70683   15.718
 5558.00    0.62707   0.70564   15.947
 5559.00    0.61282   0.70463   16.318
 5560.00    0.59955   0.70351   16.679
 5561.00    0.59249   0.70202   16.878
 5562.00    0.60598   0.70095   16.502
 5563.00    0.64891   0.69984   15.410
 5564.00    0.69660   0.69823   14.355
 5565.00    0.71437   0.69723   -2.000
 5566.00    0.70751   0.69674   -2.000
 5567.00    0.70318   0.69555   -2.000
 5568.00    0.70252   0.69476   -2.000
 5569.00    0.68988   0.69518   -2.000
 5570.00    0.66421   0.69492   -2.000
 5571.00    0.63094   0.69455   -2.000
 5572.00    0.57766   0.69568   -2.000
 5573.00    0.47808   0.69660   -2.000
 5574.00    0.30883   0.69697   -2.000
 5575.00    0.10252   0.69829   -2.000
 5576.00    0.03035   0.69949   -2.000
 5577.00    0.27037   0.69992   -2.000
 5578.00    0.75187   0.70035   -2.000
 5579.00    1.22600   0.70022   -2.000
 5580.00    1.47585   0.69910   -2.000
 5581.00    1.40375   0.69735   -2.000
 5582.00    1.11322   0.69499   -2.000
 5583.00    0.81489   0.69197   -2.000
 5584.00    0.63402   0.68847   -2.000
 5585.00    0.59092   0.68517   -2.000
 5586.00    0.63043   0.68247   -2.000
 5587.00    0.67439   0.68020   -2.000
 5588.00    0.70330   0.67898   -2.000
 5589.00    0.73197   0.67892   13.662
 5590.00    0.74190   0.67952   13.479
 5591.00    0.70657   0.68095   14.153
 5592.00    0.65610   0.68241   15.242
 5593.00    0.64143   0.68366   15.590
 5594.00    0.65225   0.68528   15.332
 5595.00    0.64571   0.68597   15.487
 5596.00    0.62248   0.68563   16.065
 5597.00    0.61049   0.68569   16.380
 5598.00    0.61276   0.68558   16.320
 5599.00    0.61699   0.68511   16.208
 5600.00    0.62830   0.68544   15.916
 5601.00    0.65511   0.68674   15.265
 5602.00    0.67510   0.68871   14.813
 5603.00    0.66106   0.69132   15.127
 5604.00    0.63574   0.69452   15.730
 5605.00    0.64107   0.69782   15.599
 5606.00    0.66809   0.70067   14.968
 5607.00    0.68104   0.70280   14.683
 5608.00    0.68100   0.70406   14.684
 5609.00    0.69230   0.70413   14.445
 5610.00    0.71878   0.70273   13.912
 5611.00    0.74457   0.70074   13.431
 5612.00    0.74989   0.69832   13.335
 5613.00    0.72424   0.69476   13.807
 5614.00    0.68366   0.69162   14.627
 5615.00    0.65428   0.68967   15.284
 5616.00    0.63875   0.68765   15.656
 5617.00    0.62685   0.68624   15.953
 5618.00    0.62421   0.68617   16.020
 5619.00    0.64249   0.68622   15.564
 5620.00    0.67371   0.68632   14.843
 5621.00    0.69754   0.68692   14.336
 5622.00    0.70216   0.68726   14.242
 5623.00    0.68742   0.68760   14.547
 5624.00    0.66364   0.68858   15.069
 5625.00    0.64710   0.68944   15.453
 5626.00    0.65251   0.69037   15.326
 5627.00    0.68350   0.69202   14.631
 5628.00    0.71963   0.69344   13.896
 5629.00    0.73519   0.69441   13.602
 5630.00    0.73545   0.69536   13.597
 5631.00    0.74126   0.69568   13.490
 5632.00    0.75154   0.69526   13.306
 5633.00    0.74984   0.69447   13.336
 5634.00    0.72773   0.69335   13.741
 5635.00    0.69095   0.69187   14.473
 5636.00    0.66201   0.69025   15.105
 5637.00    0.66107   0.68909   15.127
 5638.00    0.67306   0.68809   14.858
 5639.00    0.67152   0.68705   14.892
 5640.00    0.66909   0.68681   14.946
 5641.00    0.69457   0.68693   14.397
 5642.00    0.73821   0.68699   13.546
 5643.00    0.76692   0.68762   13.039
 5644.00    0.76747   0.68847   13.030
 5645.00    0.75192   0.68919   13.299
 5646.00    0.75236   0.69012   13.292
 5647.00    0.78925   0.69096   12.670
 5648.00    0.82075   0.69155   12.184
 5649.00    0.79203   0.69192   12.626
 5650.00    0.73388   0.69183   13.626
 5651.00    0.71496   0.69155   13.987
 5652.00    0.73020   0.69064   13.695
 5653.00    0.73042   0.68874   13.691
 5654.00    0.70680   0.68709   14.148
 5655.00    0.67866   0.68535   14.735
 5656.00    0.64684   0.68259   15.460
 5657.00    0.60674   0.68058   16.481
 5658.00    0.58396   0.67975   17.125
 5659.00    0.60619   0.67867   16.496
 5660.00    0.64568   0.67820   15.487
 5661.00    0.65619   0.67903   15.239
 5662.00    0.65258   0.68007   15.324
 5663.00    0.67575   0.68120   14.798
 5664.00    0.70936   0.68266   14.097
 5665.00    0.70864   0.68416   14.111
 5666.00    0.67491   0.68566   14.817
 5667.00    0.64397   0.68701   15.529
 5668.00    0.64309   0.68835   15.550
 5669.00    0.67758   0.68980   14.758
 5670.00    0.72178   0.69115   13.855
 5671.00    0.74021   0.69254   13.510
 5672.00    0.72636   0.69386   13.767
 5673.00    0.69649   0.69473   14.358
 5674.00    0.66715   0.69540   14.989
 5675.00    0.64842   0.69579   15.422
 5676.00    0.63948   0.69549   15.638
 5677.00    0.63467   0.69474   15.756
 5678.00    0.63497   0.69380   15.749
 5679.00    0.64602   0.69259   15.479
 5680.00    0.67101   0.69099   14.903
 5681.00    0.70841   0.68940   14.116
 5682.00    0.75032   0.68821   13.328
 5683.00    0.78385   0.68698   12.757
 5684.00    0.79451   0.68596   12.586
 5685.00    0.77555   0.68570   12.894
 5686.00    0.74250   0.68572   13.468
 5687.00    0.72077   0.68612   13.874
 5688.00    0.72024   0.68721   13.884
 5689.00    0.73361   0.68836   13.631
 5690.00    0.74209   0.68953   13.476
 5691.00    0.73031   0.69090   13.693
 5692.00    0.70933   0.69168   14.098
 5693.00    0.69818   0.69168   14.323
 5694.00    0.68653   0.69159   14.566
 5695.00    0.65574   0.69085   15.250
 5696.00    0.62495   0.68907   16.001
 5697.00    0.63134   0.68746   15.839
 5698.00    0.68260   0.68586   14.650
 5699.00    0.75258   0.68364   13.288
 5700.00    0.78954   0.68177   12.666
 5701.00    0.75625   0.68024   13.223
 5702.00    0.69321   0.67853   14.426
 5703.00    0.66812   0.67690   14.967
 5704.00    0.67285   0.67521   14.862
 5705.00    0.66037   0.67377   15.143
 5706.00    0.63674   0.67247   15.705
 5707.00    0.63534   0.67102   15.740
 5708.00    0.64678   0.67066   15.461
 5709.00    0.64338   0.67108   15.543
 5710.00    0.64018   0.67158   15.620
 5711.00    0.66849   0.67353   14.959
 5712.00    0.71385   0.67625   14.008
 5713.00    0.73697   0.67866   13.569
 5714.00    0.72730   0.68179   13.749
 5715.00    0.70237   0.68498   14.237
 5716.00    0.68968   0.68740   14.499
 5717.00    0.70479   0.68982   14.189
 5718.00    0.72099   0.69189   13.870
 5719.00    0.70144   0.69317   14.256
 5720.00    0.66117   0.69426   15.125
 5721.00    0.64124   0.69490   15.595
 5722.00    0.64731   0.69479   15.448
 5723.00    0.65985   0.69450   15.155
 5724.00    0.66934   0.69394   14.940
 5725.00    0.67649   0.69291   14.782
 5726.00    0.68201   0.69198   14.663
 5727.00    0.68578   0.69131   14.582
 5728.00    0.68857   0.69077   14.523
 5729.00    0.69325   0.69043   14.425
 5730.00    0.70598   0.69061   14.165
 5731.00    0.72861   0.69111   13.725
 5732.00    0.74607   0.69159   13.404
 5733.00    0.73903   0.69218   13.531
 5734.00    0.70890   0.69281   14.106
 5735.00    0.67451   0.69320   14.826
 5736.00    0.65864   0.69338   15.183
 5737.00    0.67266   0.69340   14.866
 5738.00    0.69564   0.69336   14.375
 5739.00    0.69906   0.69320   14.305
 5740.00    0.69322   0.69297    0.000
 5741.00    0.70604   0.69292    0.000
 5742.00    0.73436   0.69279    0.000
 5743.00    0.75396   0.69250    0.000
 5744.00    0.75067   0.69243    0.000
 5745.00    0.72615   0.69216    0.000
 5746.00    0.69786   0.69145    0.000
 5747.00    0.68715   0.69100    0.000
 5748.00    0.69915   0.69037    0.000
 5749.00    0.72026   0.68924    0.000
 5750.00    0.72084   0.68848    0.000
 5751.00    0.68257   0.68780    0.000
 5752.00    0.64164   0.68691    0.000
 5753.00    0.64550   0.68655    0.000
 5754.00    0.67010   0.68644    0.000
 5755.00    0.66570   0.68619    0.000
 5756.00    0.65506   0.68626    0.000
 5757.00    0.68706   0.68626    0.000
 5758.00    0.73296   0.68587    0.000
 5759.00    0.73307   0.68566    0.000
 5760.00    0.70310   0.68533    0.000
 5761.00    0.69936   0.68491    0.000
 5762.00    0.73055   0.68510    0.000
 5763.00    0.76348   0.68550    0.000
 5764.00    0.75901   0.68595    0.000
 5765.00    0.69853   0.68692    0.000
 5766.00    0.61614   0.68787    0.000
 5767.00    0.56790   0.68844    0.000
 5768.00    0.57128   0.68901    0.000
 5769.00    0.60851   0.68933    0.000
 5770.00    0.64992   0.68911    0.000
 5771.00    0.67010   0.68878    0.000
 5772.00    0.66751   0.68833    0.000
 5773.00    0.65613   0.68734    0.000
 5774.00    0.64585   0.68624    0.000
 5775.00    0.64272   0.68496    0.000
 5776.00    0.65456   0.68293    0.000
 5777.00    0.68533   0.68069    0.000
 5778.00    0.72446   0.67841    0.000
 5779.00    0.75161   0.67555    0.000
 5780.00    0.74819   0.67286    0.000
 5781.00    0.70947   0.67102    0.000
 5782.00    0.66052   0.66936    0.000
 5783.00    0.63983   0.66825    0.000
 5784.00    0.66690   0.66862    0.000
 5785.00    0.72830   0.66948    0.000
 5786.00    0.76607   0.67043    0.000
 5787.00    0.73161   0.67240    0.000
 5788.00    0.67491   0.67451    0.000
 5789.00    0.67629   0.67608    0.000
 5790.00    0.71093   0.67803    0.000
 5791.00    0.70731   0.67992    0.000
 5792.00    0.68029   0.68120    0.000
 5793.00    0.68825   0.68256    0.000
 5794.00    0.72580   0.68396    0.000
 5795.00    0.74650   0.68500    0.000
 5796.00    0.73067   0.68590    0.000
 5797.00    0.69112   0.68703    0.000
 5798.00    0.66222   0.68805    0.000
 5799.00    0.67139   0.68863    0.000
 5800.00    0.69650   0.68937    0.000
 5801.00    0.70032   0.69002    0.000
 5802.00    0.69755   0.68998    0.000
 5803.00    0.72159   0.68997    0.000
 5804.00    0.75238   0.68993    0.000
 5805.00    0.74730   0.68952    0.000
 5806.00    0.71155   0.68923    0.000
 5807.00    0.68288   0.68904    0.000
 5808.00    0.68638   0.68875    0.000
 5809.00    0.71864   0.68850    0.000
 5810.00    0.73646   0.68819    0.000
 5811.00    0.70081   0.68773    0.000
 5812.00    0.65001   0.68730    0.000
 5813.00    0.64863   0.68694    0.000
 5814.00    0.68498   0.68659    0.000
 5815.00    0.70430   0.68652    0.000
 5816.00    0.69177   0.68684    0.000
 5817.00    0.66958   0.68721    0.000
 5818.00    0.66816   0.68774    0.000
 5819.00    0.70153   0.68854    0.000
 5820.00    0.73662   0.68910    0.000
 5821.00    0.73260   0.68957    0.000
 5822.00    0.71191   0.69003    0.000
 5823.00    0.72120   0.69034    0.000
 5824.00    0.74899   0.69059    0.000
 5825.00    0.75342   0.69081    0.000
 5826.00    0.73011   0.69109    0.000
 5827.00    0.70367   0.69126    0.000
 5828.00    0.69486   0.69139    0.000
 5829.00    0.70761   0.69147    0.000
 5830.00    0.71821   0.69133    0.000
 5831.00    0.70046   0.69116    0.000
 5832.00    0.66872   0.69087    0.000
 5833.00    0.65334   0.69045    0.000
 5834.00    0.64966   0.69016    0.000
 5835.00    0.63859   0.68990    0.000
 5836.00    0.63305   0.68965    0.000
 5837.00    0.65604   0.68956    0.000
 5838.00    0.69312   0.68959    0.000
 5839.00    0.71469   0.68954    0.000
 5840.00    0.72442   0.68930    0.000
 5841.00    0.74111   0.68902    0.000
 5842.00    0.75644   0.68839    0.000
 5843.00    0.75035   0.68735    0.000
 5844.00    0.72715   0.68620    0.000
 5845.00    0.70547   0.68467    0.000
 5846.00    0.69222   0.68297    0.000
 5847.00    0.68504   0.68127    0.000
 5848.00    0.68308   0.67921    0.000
 5849.00    0.68484   0.67723    0.000
 5850.00    0.68196   0.67527    0.000
 5851.00    0.66888   0.67296    0.000
 5852.00    0.65930   0.67082    0.000
 5853.00    0.66965   0.66892    0.000
 5854.00    0.68856   0.66695    0.000
 5855.00    0.69254   0.66536    0.000
 5856.00    0.67944   0.66437    0.000
 5857.00    0.66159   0.66378    0.000
 5858.00    0.64560   0.66364    0.000
 5859.00    0.63463   0.66410    0.000
 5860.00    0.63690   0.66491    0.000
 5861.00    0.65642   0.66589    0.000
 5862.00    0.67651   0.66704    0.000
 5863.00    0.67895   0.66821    0.000
 5864.00    0.67818   0.66930    0.000
 5865.00    0.69671   0.67029    0.000
 5866.00    0.71717   0.67130    0.000
 5867.00    0.70969   0.67211    0.000
 5868.00    0.68783   0.67263    0.000
 5869.00    0.68540   0.67317    0.000
 5870.00    0.70433   0.67332    0.000
 5871.00    0.72555   0.67300    0.000
 5872.00    0.74036   0.67255    0.000
 5873.00    0.74826   0.67175    0.000
 5874.00    0.74541   0.67060    0.000
 5875.00    0.72841   0.66933    0.000
 5876.00    0.70336   0.66797    0.000
 5877.00    0.68206   0.66643    0.000
 5878.00    0.67311   0.66470    0.000
 5879.00    0.67603   0.66282    0.000
 5880.00    0.67487   0.66058    0.000
 5881.00    0.65545   0.65763    0.000
 5882.00    0.63366   0.65379    0.000
 5883.00    0.63294   0.64911   -2.000
 5884.00    0.64131   0.64323   -2.000
 5885.00    0.62944   0.63598   -2.000
 5886.00    0.59119   0.62846   -2.000
 5887.00    0.54370   0.62070   -2.000
 5888.00    0.51602   0.61260   -2.000
 5889.00    0.53084   0.60646   -2.000
 5890.00    0.57867   0.60168   -2.000
 5891.00    0.62732   0.59749   -2.000
 5892.00    0.64495   0.59667   -2.000
 5893.00    0.61806   0.59738   -2.000
 5894.00    0.57318   0.59834   -2.000
 5895.00    0.55139   0.60246   -2.000
 5896.00    0.56196   0.60768   -2.000
 5897.00    0.58774   0.61255   -2.000
 5898.00    0.60661   0.61945   -2.000
 5899.00    0.60594   0.62666   -2.000
 5900.00    0.59950   0.63263   -2.000
 5901.00    0.61055   0.63889   -2.000
 5902.00    0.64053   0.64465   -2.000
 5903.00    0.67181   0.64878   14.885
 5904.00    0.68112   0.65214   14.682
 5905.00    0.65778   0.65485   15.203
 5906.00    0.62804   0.65653   15.923
 5907.00    0.62691   0.65752   15.951
 5908.00    0.64795   0.65798   15.433
 5909.00    0.66326   0.65800   15.077
 5910.00    0.66853   0.65760   14.958
 5911.00    0.67638   0.65683   14.785
 5912.00    0.69395   0.65608   14.410
 5913.00    0.71834   0.65550   13.921
 5914.00    0.73567   0.65478   13.593
 5915.00    0.73104   0.65445   13.679
 5916.00    0.70434   0.65472   14.198
 5917.00    0.66753   0.65483   14.981
 5918.00    0.63580   0.65536   15.728
 5919.00    0.62106   0.65619   16.102
 5920.00    0.62398   0.65665   16.026
 5921.00    0.63706   0.65744   15.697
 5922.00    0.65161   0.65807   15.347
 5923.00    0.66080   0.65822   15.133
 5924.00    0.66284   0.65866   15.087
 5925.00    0.66181   0.65879   15.110
 5926.00    0.66776   0.65860   14.975
 5927.00    0.68691   0.65866   14.558
 5928.00    0.70667   0.65850   14.151
 5929.00    0.70752   0.65837   14.134
 5930.00    0.68550   0.65847   14.588
 5931.00    0.64991   0.65846   15.387
 5932.00    0.61361   0.65865   16.297
 5933.00    0.58982   0.65897   16.954
 5934.00    0.58926   0.65918   16.970
 5935.00    0.61370   0.65939   16.295
 5936.00    0.64699   0.65954   15.456
 5937.00    0.66721   0.65960   14.988
 5938.00    0.66807   0.65952   14.969
 5939.00    0.65636   0.65915   15.236
 5940.00    0.64234   0.65890   15.568
 5941.00    0.63720   0.65873   15.694
 5942.00    0.65107   0.65815   15.359
 5943.00    0.68291   0.65782   14.643
 5944.00    0.70630   0.65765   14.158
 5945.00    0.69592   0.65709   14.369
 5946.00    0.67178   0.65661   14.886
 5947.00    0.67233   0.65623   14.874
 5948.00    0.70099   0.65566   14.265
 5949.00    0.73254   0.65505   13.651
 5950.00    0.73769   0.65452   13.556
 5951.00    0.70206   0.65404   14.244
 5952.00    0.64875   0.65376   15.414
 5953.00    0.61554   0.65362   16.246
 5954.00    0.61345   0.65346   16.301
 5955.00    0.63117   0.65388   15.844
 5956.00    0.65290   0.65462   15.316
 5957.00    0.66710   0.65514   14.990
 5958.00    0.67541   0.65619   14.806
 5959.00    0.68606   0.65751   14.576
 5960.00    0.70125   0.65858   14.260
 5961.00    0.71586   0.65963   13.969
 5962.00    0.71913   0.66063   13.906
 5963.00    0.70394   0.66146   14.206
 5964.00    0.68037   0.66197   14.698
 5965.00    0.66494   0.66247   15.039
 5966.00    0.66037   0.66285   15.143
 5967.00    0.66085   0.66294   15.132
 5968.00    0.66520   0.66312   15.033
 5969.00    0.67360   0.66306   14.846
 5970.00    0.67938   0.66262   14.719
 5971.00    0.67463   0.66207   14.823
 5972.00    0.66097   0.66120   15.129
 5973.00    0.64929   0.66001   15.401
 5974.00    0.65570   0.65874   15.251
 5975.00    0.68767   0.65747   14.542
 5976.00    0.72411   0.65622   13.810
 5977.00    0.73714   0.65510   13.566
 5978.00    0.73025   0.65430   13.694
 5979.00    0.72412   0.65354   13.810
 5980.00    0.72485   0.65289   13.796
 5981.00    0.72533   0.65257   13.787
 5982.00    0.71580   0.65215   13.970
 5983.00    0.69212   0.65191   14.448
 5984.00    0.66546   0.65205   15.027
 5985.00    0.65021   0.65216   15.380
 5986.00    0.64316   0.65269   15.548
 5987.00    0.63548   0.65361   15.736
 5988.00    0.63580   0.65442   15.728
 5989.00    0.65476   0.65539   15.273
 5990.00    0.67600   0.65645   14.793
 5991.00    0.67400   0.65724   14.837
 5992.00    0.64885   0.65773   15.412
 5993.00    0.61928   0.65795   16.148
 5994.00    0.60286   0.65796   16.588
 5995.00    0.60511   0.65760   16.526
 5996.00    0.60864   0.65697   16.430
 5997.00    0.59477   0.65632   16.813
 5998.00    0.57879   0.65550   17.278
 5999.00    0.58767   0.65462   17.016
 6000.00    0.61755   0.65388   16.193
 6001.00    0.64757   0.65302   15.442
 6002.00    0.67168   0.65221   14.888
 6003.00    0.69147   0.65152   14.462
 6004.00    0.69767   0.65069   14.333
 6005.00    0.68278   0.65013   14.646
 6006.00    0.66413   0.64966   15.057
 6007.00    0.66406   0.64923   15.059
 6008.00    0.67442   0.64916   14.828
 6009.00    0.67217   0.64901   14.877
 6010.00    0.65229   0.64902   15.331
 6011.00    0.62686   0.64923   15.952
 6012.00    0.61480   0.64916   16.265
 6013.00    0.62820   0.64911   15.918
 6014.00    0.65437   0.64892   15.282
 6015.00    0.67102   0.64864   14.903
 6016.00    0.67385   0.64857   14.840
 6017.00    0.67148   0.64813   14.893
 6018.00    0.67053   0.64779   14.914
 6019.00    0.67406   0.64797   14.835
 6020.00    0.68251   0.64796   14.652
 6021.00    0.69359   0.64825   14.418
 6022.00    0.70196   0.64891   14.246
 6023.00    0.70188   0.64975   14.247
 6024.00    0.69150   0.65101   14.461
 6025.00    0.67478   0.65214   14.820
 6026.00    0.66293   0.65363   15.085
 6027.00    0.66435   0.65531   15.052
 6028.00    0.66948   0.65651   14.937
 6029.00    0.66247   0.65793   15.095
 6030.00    0.64271   0.65924   15.559
 6031.00    0.62055   0.66014   16.115
 6032.00    0.60515   0.66088   16.525
 6033.00    0.60206   0.66140   16.610
 6034.00    0.61218   0.66169   16.335
 6035.00    0.63049   0.66171   15.861
 6036.00    0.64475   0.66161   15.510
 6037.00    0.64552   0.66143   15.492
 6038.00    0.64119   0.66122   15.596
 6039.00    0.64682   0.66111   15.460
 6040.00    0.66349   0.66111   15.072
 6041.00    0.68392   0.66126   14.622
 6042.00    0.70562   0.66154   14.172
 6043.00    0.72532   0.66195   13.787
 6044.00    0.72790   0.66242   13.738
 6045.00    0.70072   0.66272   14.271
 6046.00    0.65770   0.66301   15.204
 6047.00    0.62562   0.66310   15.984
 6048.00    0.61734   0.66287   16.199
 6049.00    0.63141   0.66255   15.837
 6050.00    0.65811   0.66188   15.195
 6051.00    0.68442   0.66104   14.611
 6052.00    0.70051   0.66026   14.275
 6053.00    0.70307   0.65928   14.223
 6054.00    0.69857   0.65831   14.315
 6055.00    0.69456   0.65758   14.398
 6056.00    0.68603   0.65688   14.577
 6057.00    0.66645   0.65623   15.005
 6058.00    0.64713   0.65555   15.453
 6059.00    0.64366   0.65497   15.536
 6060.00    0.65112   0.65445   15.358
 6061.00    0.65488   0.65368   15.270
 6062.00    0.65254   0.65320   15.325
 6063.00    0.64798   0.65292   15.433
 6064.00    0.63757   0.65284   15.685
 6065.00    0.62014   0.65348   16.125
 6066.00    0.61444   0.65416   16.275
 6067.00    0.63735   0.65527   15.690
 6068.00    0.66785   0.65701   14.973
 6069.00    0.67366   0.65830   14.844
 6070.00    0.65936   0.65946   15.166
 6071.00    0.65056   0.66043   15.371
 6072.00    0.65844   0.66072   15.187
 6073.00    0.67724   0.66071   14.766
 6074.00    0.68974   0.66000   14.498
 6075.00    0.68056   0.65878   14.694
 6076.00    0.65477   0.65755   15.272
 6077.00    0.62902   0.65592   15.898
 6078.00    0.61364   0.65425   16.296
 6079.00    0.61160   0.65283   16.351
 6080.00    0.62112   0.65151   16.100
 6081.00    0.63669   0.65069   15.706
 6082.00    0.65041   0.65008   15.375
 6083.00    0.65874   0.64950   15.181
 6084.00    0.67160   0.64949   14.890
 6085.00    0.69590   0.64959   14.370
 6086.00    0.70956   0.64950   14.093
 6087.00    0.68694   0.64965   14.557
 6088.00    0.64227   0.64984   15.570
 6089.00    0.60933   0.64999   16.411
 6090.00    0.60052   0.65019   16.652
 6091.00    0.60761   0.65042   16.458
 6092.00    0.61307   0.65071   16.311
 6093.00    0.60297   0.65113   16.584
 6094.00    0.58349   0.65126   17.138
 6095.00    0.57193   0.65101   17.485
 6096.00    0.57909   0.65073   17.268
 6097.00    0.60370   0.65009   16.565
 6098.00    0.62894   0.64885   15.900
 6099.00    0.63716   0.64756   15.695
 6100.00    0.63236   0.64633   15.814
 6101.00    0.62944   0.64517   15.887
 6102.00    0.63280   0.64468   15.803
 6103.00    0.63812   0.64433   15.671
 6104.00    0.64007   0.64435   15.623
 6105.00    0.63424   0.64559   15.767
 6106.00    0.61839   0.64686   16.171
 6107.00    0.59575   0.64800   16.786
 6108.00    0.57899   0.64949   17.271
 6109.00    0.57824   0.65064   17.294
 6110.00    0.58293   0.65167   17.155
 6111.00    0.57892   0.65265   17.273
 6112.00    0.57733   0.65281   17.321
 6113.00    0.59547   0.65274   16.793
 6114.00    0.62231   0.65255   16.069
 6115.00    0.63438   0.65150   15.763
 6116.00    0.62733   0.65036   15.940
 6117.00    0.61138   0.64885   16.356
 6118.00    0.59700   0.64681   16.751
 6119.00    0.59120   0.64533   16.915
 6120.00    0.59531   0.64377   16.798
 6121.00    0.60666   0.64234   16.484
 6122.00    0.62188   0.64173   16.080
 6123.00    0.63907   0.64130   15.648
 6124.00    0.66003   0.64145   15.151
 6125.00    0.68419   0.64225   14.616
 6126.00    0.69950   0.64285   14.296
 6127.00    0.69327   0.64338   14.424
 6128.00    0.67021   0.64393   14.921
 6129.00    0.64645   0.64386   15.469
 6130.00    0.63596   0.64309   15.724
 6131.00    0.64185   0.64214   15.580
 6132.00    0.64724   0.64057   15.450
 6133.00    0.63381   0.63828   15.778
 6134.00    0.61066   0.63626   16.376
 6135.00    0.59855   0.63455   16.707
 6136.00    0.60012   0.63330   16.663
 6137.00    0.60501   0.63272   16.529
 6138.00    0.60471   0.63279   16.537
 6139.00    0.60007   0.63396   16.665
 6140.00    0.60822   0.63600   16.441
 6141.00    0.64365   0.63804   15.536
 6142.00    0.68942   0.63970   14.505
 6143.00    0.71509   0.64146   13.984
 6144.00    0.70991   0.64300   14.086
 6145.00    0.68308   0.64383   14.639
 6146.00    0.65585   0.64417   15.247
 6147.00    0.64614   0.64393   15.477
 6148.00    0.64817   0.64342   15.428
 6149.00    0.64416   0.64280   15.524
 6150.00    0.62639   0.64172   15.964
 6151.00    0.59789   0.64055   16.726
 6152.00    0.56815   0.63938   17.601
 6153.00    0.54880   0.63773   18.221
 6154.00    0.54776   0.63578   18.256
 6155.00    0.56486   0.63332   17.704
 6156.00    0.58725   0.63025   17.028
 6157.00    0.59954   0.62695   16.679
 6158.00    0.59959   0.62333   16.678
 6159.00    0.59400   0.61952   16.835
 6160.00    0.58779   0.61626   17.013
 6161.00    0.58548   0.61359   17.080
 6162.00    0.59432   0.61102   16.826
 6163.00    0.61599   0.60958   16.234
 6164.00    0.63435   0.60924   15.764
 6165.00    0.63237   0.60920   15.814
 6166.00    0.61921   0.60986   16.149
 6167.00    0.61492   0.61072   16.262
 6168.00    0.62208   0.61193   16.075
 6169.00    0.63204   0.61348   15.822
 6170.00    0.64048   0.61462   15.613
 6171.00    0.64776   0.61603   15.438
 6172.00    0.65592   0.61799   15.246
 6173.00    0.66551   0.61978   15.026
 6174.00    0.67180   0.62135   14.885
 6175.00    0.66916   0.62298   14.944
 6176.00    0.65828   0.62447   15.191
 6177.00    0.64362   0.62577   15.537
 6178.00    0.62813   0.62684   15.920
 6179.00    0.61530   0.62762   16.252
 6180.00    0.61285   0.62810   16.317
 6181.00    0.62601   0.62814   15.974
 6182.00    0.64719   0.62772   15.451
 6183.00    0.66486   0.62704   15.041
 6184.00    0.67845   0.62575   14.740
 6185.00    0.69216   0.62417   14.448
 6186.00    0.70285   0.62276   14.228
 6187.00    0.70363   0.62087   14.212
 6188.00    0.69197   0.61935   14.452
 6189.00    0.67200   0.61845   14.881
 6190.00    0.65563   0.61784   15.252
 6191.00    0.65237   0.61793   15.329
 6192.00    0.65488   0.61802   15.270
 6193.00    0.65155   0.61864   15.348
 6194.00    0.64750   0.62002   15.444
 6195.00    0.65190   0.62091   15.340
 6196.00    0.65554   0.62159   15.254
 6197.00    0.64382   0.62254   15.532
 6198.00    0.62029   0.62329   16.122
 6199.00    0.59766   0.62403   16.732
 6200.00    0.57983   0.62472   17.247
 6201.00    0.56610   0.62524   17.665
 6202.00    0.56121   0.62619   17.819
 6203.00    0.57117   0.62701   17.508
 6204.00    0.59523   0.62741   16.800
 6205.00    0.62558   0.62768   15.985
 6206.00    0.64919   0.62733   15.404
 6207.00    0.65332   0.62658   15.306
 6208.00    0.63345   0.62543   15.787
 6209.00    0.59665   0.62348   16.760
 6210.00    0.56411   0.62137   17.727
 6211.00    0.55726   0.61896   17.945
 6212.00    0.57731   0.61636   17.322
 6213.00    0.61021   0.61435   16.388
 6214.00    0.63860   0.61228   15.659
 6215.00    0.64715   0.61060   15.452
 6216.00    0.62808   0.60966   15.921
 6217.00    0.58801   0.60899   17.007
 6218.00    0.55546   0.60899   18.003
 6219.00    0.55814   0.60924   17.917
 6220.00    0.58890   0.60927   16.981
 6221.00    0.62228   0.60955   16.070
 6222.00    0.64557   0.60988   15.490
 6223.00    0.65611   0.60997   15.241
 6224.00    0.65084   0.60987   15.365
 6225.00    0.63095   0.60938   15.849
 6226.00    0.61026   0.60859   16.386
 6227.00    0.60279   0.60790   16.590
 6228.00    0.60346   0.60726   16.571
 6229.00    0.59925   0.60658   16.688
 6230.00    0.58921   0.60638   16.972
 6231.00    0.57963   0.60622   17.252
 6232.00    0.57282   0.60640   17.458
 6233.00    0.56896   0.60705   17.576
 6234.00    0.57116   0.60736   17.508
 6235.00    0.58317   0.60768   17.148
 6236.00    0.60482   0.60761   16.534
 6237.00    0.62993   0.60727   15.875
 6238.00    0.64471   0.60657   15.511
 6239.00    0.63886   0.60535   15.653
 6240.00    0.62138   0.60452   16.093
 6241.00    0.60800   0.60345   16.447
 6242.00    0.60023   0.60263   16.660
 6243.00    0.59210   0.60239   16.889
 6244.00    0.58427   0.60188   17.115
 6245.00    0.58029   0.60194   17.233
 6246.00    0.57837   0.60221   17.290
 6247.00    0.57370   0.60201   17.431
 6248.00    0.56370   0.60182   17.740
 6249.00    0.55116   0.60150   18.144
 6250.00    0.54676   0.60076   18.290
 6251.00    0.55440   0.59973   18.037
 6252.00    0.55083   0.59862   18.154
 6253.00    0.51374   0.59733   19.465
 6254.00    0.46526   0.59628   21.494
 6255.00    0.44517   0.59587   -1.000
 6256.00    0.46349   0.59599   21.575
 6257.00    0.50501   0.59641   19.801
 6258.00    0.54640   0.59753   18.302
 6259.00    0.56846   0.59914   17.592
 6260.00    0.56987   0.60099   17.548
 6261.00    0.56096   0.60327   17.826
 6262.00    0.55174   0.60527   18.125
 6263.00    0.54969   0.60714   18.192
 6264.00    0.55906   0.60914   17.887
 6265.00    0.57912   0.61042   17.268
 6266.00    0.60198   0.61141   16.612
 6267.00    0.61817   0.61247   16.177
 6268.00    0.62477   0.61327   16.006
 6269.00    0.62345   0.61400   16.040
 6270.00    0.61596   0.61445   16.235
 6271.00    0.60454   0.61466   16.542
 6272.00    0.59326   0.61505   16.856
 6273.00    0.58405   0.61519   17.122
 6274.00    0.57108   0.61510   17.511
 6275.00    0.54925   0.61485   18.207
 6276.00    0.52696   0.61440   18.977
 6277.00    0.51809   0.61417   19.302
 6278.00    0.52792   0.61398   18.942
 6279.00    0.55180   0.61396   18.122
 6280.00    0.57676   0.61418    0.000
 6281.00    0.58998   0.61446    0.000
 6282.00    0.59066   0.61533    0.000
 6283.00    0.58839   0.61630    0.000
 6284.00    0.59794   0.61727    0.000
 6285.00    0.62559   0.61839    0.000
 6286.00    0.65199   0.61884    0.000
 6287.00    0.65384   0.61932    0.000
 6288.00    0.63750   0.61956    0.000
 6289.00    0.62306   0.61913    0.000
 6290.00    0.61517   0.61870    0.000
 6291.00    0.61049   0.61768    0.000
 6292.00    0.61409   0.61639    0.000
 6293.00    0.63265   0.61512    0.000
 6294.00    0.66143   0.61365   -2.000
 6295.00    0.68347   0.61254   -2.000
 6296.00    0.67236   0.61140   -2.000
 6297.00    0.61458   0.61007   -2.000
 6298.00    0.53923   0.60931   -2.000
 6299.00    0.48750   0.60895   -2.000
 6300.00    0.46437   0.60909   -2.000
 6301.00    0.45784   0.60955   -2.000
 6302.00    0.47520   0.60998   -2.000
 6303.00    0.52293   0.61110   -2.000
 6304.00    0.57246   0.61250   -2.000
 6305.00    0.58910   0.61373   -2.000
 6306.00    0.57906   0.61481    0.000
 6307.00    0.56895   0.61545    0.000
 6308.00    0.56732   0.61599    0.000
 6309.00    0.56930   0.61626    0.000
 6310.00    0.57112   0.61580    0.000
 6311.00    0.57298   0.61491    0.000
 6312.00    0.57997   0.61409    0.000
 6313.00    0.59558   0.61317    0.000
 6314.00    0.61274   0.61219    0.000
 6315.00    0.62070   0.61146    0.000
 6316.00    0.61655   0.61093    0.000
 6317.00    0.60406   0.61097    0.000
 6318.00    0.58967   0.61145    0.000
 6319.00    0.58127   0.61189    0.000
 6320.00    0.58693   0.61293    0.000
 6321.00    0.60973   0.61435   16.401
 6322.00    0.64089   0.61569   15.603
 6323.00    0.66490   0.61684   15.040
 6324.00    0.66839   0.61802   14.961
 6325.00    0.64781   0.61914   15.437
 6326.00    0.61761   0.61978   16.191
 6327.00    0.59721   0.62020   16.744
 6328.00    0.59102   0.62022   16.920
 6329.00    0.59210   0.62010   16.889
 6330.00    0.59169   0.61976   16.901
 6331.00    0.58487   0.61868   17.098
 6332.00    0.57638   0.61757   17.350
 6333.00    0.57338   0.61670   17.440
 6334.00    0.57443   0.61583   17.408
 6335.00    0.57485   0.61490   17.396
 6336.00    0.57618   0.61412   17.356
 6337.00    0.58160   0.61355   17.194
 6338.00    0.58779   0.61344   17.013
 6339.00    0.58883   0.61344   16.983
 6340.00    0.58342   0.61305   17.140
 6341.00    0.57591   0.61308   17.364
 6342.00    0.57575   0.61288   17.369
 6343.00    0.58833   0.61265   16.997
 6344.00    0.60286   0.61253   16.588
 6345.00    0.60454   0.61240   16.542
 6346.00    0.59393   0.61263   16.837
 6347.00    0.58154   0.61285   17.196
 6348.00    0.57633   0.61311   17.351
 6349.00    0.58221   0.61334   17.176
 6350.00    0.59571   0.61339   16.787
 6351.00    0.61034   0.61303   16.384
 6352.00    0.62310   0.61242   16.049
 6353.00    0.63346   0.61142   15.786
 6354.00    0.64040   0.60994   15.615
 6355.00    0.64196   0.60822   15.577
 6356.00    0.63520   0.60654   15.743
 6357.00    0.62064   0.60505   16.112
 6358.00    0.60782   0.60370   16.452
 6359.00    0.60643   0.60256   16.490
 6360.00    0.61295   0.60201   16.315
 6361.00    0.61653   0.60220   16.220
 6362.00    0.61003   0.60262   16.393
 6363.00    0.59420   0.60363   16.829
 6364.00    0.58082   0.60500   17.217
 6365.00    0.58041   0.60669   17.229
 6366.00    0.58552   0.60842   17.079
 6367.00    0.58563   0.61001   17.076
 6368.00    0.59049   0.61183   16.935
 6369.00    0.61523   0.61347   16.254
 6370.00    0.65527   0.61489   15.261
 6371.00    0.69230   0.61579   14.445
 6372.00    0.70800   0.61666   14.124
 6373.00    0.69564   0.61744   14.375
 6374.00    0.67250   0.61780   14.870
 6375.00    0.66242   0.61783   15.096
 6376.00    0.66931   0.61748   14.941
 6377.00    0.68231   0.61714   14.656
 6378.00    0.68845   0.61680   14.525
 6379.00    0.68071   0.61628   14.691
 6380.00    0.66627   0.61569   15.009
 6381.00    0.65667   0.61536   15.228
 6382.00    0.65274   0.61516   15.320
 6383.00    0.64824   0.61512   15.426
 6384.00    0.63805   0.61496   15.673
 6385.00    0.62317   0.61462   16.047
 6386.00    0.61529   0.61444   16.252
 6387.00    0.62537   0.61411   15.991
 6388.00    0.64725   0.61358   15.450
 6389.00    0.66684   0.61276   14.996
 6390.00    0.67782   0.61191   14.753
 6391.00    0.68102   0.61140   14.684
 6392.00    0.68029   0.61093   14.700
 6393.00    0.67787   0.61049   14.752
 6394.00    0.66923   0.61008   14.942
 6395.00    0.65132   0.60980   15.353
 6396.00    0.63429   0.60991   15.766
 6397.00    0.63089   0.61044   15.851
 6398.00    0.63976   0.61109   15.631
 6399.00    0.64978   0.61170   15.390
 6400.00    0.64964   0.61226   15.393
 6401.00    0.63522   0.61280   15.743
 6402.00    0.61741   0.61368   16.197
 6403.00    0.61131   0.61455   16.358
 6404.00    0.61997   0.61486   16.130
 6405.00    0.63479   0.61514   15.753
 6406.00    0.63994   0.61515   15.626
 6407.00    0.62489   0.61475   16.003
 6408.00    0.59997   0.61445   16.668
 6409.00    0.58348   0.61401   17.139
 6410.00    0.58086   0.61389   17.216
 6411.00    0.58668   0.61376   17.045
 6412.00    0.59166   0.61328   16.902
 6413.00    0.58852   0.61318   16.992
 6414.00    0.57851   0.61320   17.286
 6415.00    0.56762   0.61332   17.617
 6416.00    0.55997   0.61325   17.858
 6417.00    0.55579   0.61310   17.992
 6418.00    0.55034   0.61350   18.171
 6419.00    0.54219   0.61395   18.444
 6420.00    0.54393   0.61441   18.385
 6421.00    0.56549   0.61483   17.684
 6422.00    0.59063   0.61524   16.931
 6423.00    0.59943   0.61620   16.683
 6424.00    0.60239   0.61690   16.600
 6425.00    0.61898   0.61709   16.156
 6426.00    0.64246   0.61687   15.565
 6427.00    0.65309   0.61627   15.312
 6428.00    0.64296   0.61610   15.553
 6429.00    0.61891   0.61564   16.157
 6430.00    0.60093   0.61504   16.641
 6431.00    0.60489   0.61450   16.532
 6432.00    0.62025   0.61393   16.123
 6433.00    0.62672   0.61411   15.956
 6434.00    0.62110   0.61419   16.101
 6435.00    0.61213   0.61428   16.337
 6436.00    0.60827   0.61488   16.440
 6437.00    0.61480   0.61547   16.266
 6438.00    0.63195   0.61627   15.824
 6439.00    0.65237   0.61696   15.329
 6440.00    0.65901   0.61744   15.174
 6441.00    0.64203   0.61835   15.576
 6442.00    0.62100   0.61907   16.103
 6443.00    0.62138   0.61914   16.093
 6444.00    0.63911   0.61868   15.647
 6445.00    0.65401   0.61743   15.290
 6446.00    0.65490   0.61598   15.270
 6447.00    0.64377   0.61473   15.534
 6448.00    0.63578   0.61336   15.729
 6449.00    0.64179   0.61201   15.581
 6450.00    0.64588   0.61067   15.483
 6451.00    0.62971   0.60962   15.880
 6452.00    0.60863   0.60959   16.430
 6453.00    0.60949   0.61004   16.407
 6454.00    0.63413   0.61050   15.770
 6455.00    0.66466   0.61096   15.045
 6456.00    0.67809   0.61120   14.747
 6457.00    0.66078   0.61152   15.134
 6458.00    0.62460   0.61176   16.010
 6459.00    0.59457   0.61196   16.819
 6460.00    0.58862   0.61235   16.989
 6461.00    0.61043   0.61247   16.382
 6462.00    0.64409   0.61272   15.526
 6463.00    0.66890   0.61281   14.950
 6464.00    0.67987   0.61313   14.709
 6465.00    0.68222   0.61396   14.658
 6466.00    0.67992   0.61441   14.708
 6467.00    0.67367   0.61475   14.844
 6468.00    0.66053   0.61476   15.139
 6469.00    0.64077   0.61468   15.606
 6470.00    0.62641   0.61430   15.964
 6471.00    0.62831   0.61366   15.916
 6472.00    0.63780   0.61306   15.679
 6473.00    0.63886   0.61239   15.653
 6474.00    0.62779   0.61183   15.929
 6475.00    0.61060   0.61100   16.377
 6476.00    0.59567   0.61005   16.788
 6477.00    0.58904   0.60914   16.977
 6478.00    0.58967   0.60823   16.959
 6479.00    0.59401   0.60729   16.835
 6480.00    0.60283   0.60633   16.589
 6481.00    0.61722   0.60545   16.202
 6482.00    0.63218   0.60455   15.818
 6483.00    0.64089   0.60361   15.603
 6484.00    0.64160   0.60290   15.586
 6485.00    0.63624   0.60210   15.717
 6486.00    0.62716   0.60096   15.945
 6487.00    0.61499   0.59929   16.260
 6488.00    0.59676   0.59700   16.757
 6489.00    0.57198   0.59434   17.483
 6490.00    0.55076   0.59096   18.157
 6491.00    0.54422   0.58749   18.375
 6492.00    0.55076   0.58420   18.157
 6493.00    0.56249   0.58119   17.778
 6494.00    0.57644   0.57913   17.348
 6495.00    0.59172   0.57745   16.900
 6496.00    0.60412   0.57719   16.553
 6497.00    0.60975   0.57827   16.400
 6498.00    0.61072   0.58006   16.374
 6499.00    0.61193   0.58291   16.342
 6500.00    0.61569   0.58574   16.242
 6501.00    0.62238   0.58896   16.067
 6502.00    0.63219   0.59218   15.818
 6503.00    0.64203   0.59489   15.575
 6504.00    0.64174   0.59728   15.583
 6505.00    0.62341   0.59901   16.041
 6506.00    0.59429   0.60035   16.827
 6507.00    0.57023   0.60123   17.537
 6508.00    0.56417   0.60156   17.725
 6509.00    0.57962   0.60150   17.253
 6510.00    0.60464   0.60114   16.539
 6511.00    0.62242   0.60059   16.066
 6512.00    0.62656   0.59989   15.960
 6513.00    0.62037   0.59910   16.119
 6514.00    0.61285   0.59831   16.317
 6515.00    0.61213   0.59770   16.336
 6516.00    0.61766   0.59722   16.190
 6517.00    0.62586   0.59696   15.978
 6518.00    0.63870   0.59706   15.657
 6519.00    0.65856   0.59726   15.185
 6520.00    0.68023   0.59765   14.701
 6521.00    0.69543   0.59821   14.380
 6522.00    0.70039   0.59867   14.278
 6523.00    0.69606   0.59899   14.366
 6524.00    0.68685   0.59911   14.559
 6525.00    0.67670   0.59914   14.778
 6526.00    0.66444   0.59909   15.050
 6527.00    0.64941   0.59872   15.399
 6528.00    0.63930   0.59819    0.000
 6529.00    0.64217   0.59771    0.000
 6530.00    0.65464   0.59730    0.000
 6531.00    0.66530   0.59689    0.000
 6532.00    0.66201   0.59637    0.000
 6533.00    0.64162   0.59575    0.000
 6534.00    0.62052   0.59521    0.000
 6535.00    0.61496   0.59468    0.000
 6536.00    0.61439   0.59399    0.000
 6537.00    0.60259   0.59304    0.000
 6538.00    0.58948   0.59167    0.000
 6539.00    0.59533   0.58997    0.000
 6540.00    0.62436   0.58789    0.000
 6541.00    0.66800   0.58547    0.000
 6542.00    0.71425   0.58258    0.000
 6543.00    0.75244   0.57947    0.000
 6544.00    0.77768   0.57617    0.000
 6545.00    0.78650   0.57272    0.000
 6546.00    0.77076   0.56907    0.000
 6547.00    0.72646   0.56505    0.000
 6548.00    0.66608   0.56108    0.000
 6549.00    0.61139   0.55674    0.000
 6550.00    0.58135   0.55187    0.000
 6551.00    0.58483   0.54626    0.000
 6552.00    0.61409   0.53989    0.000
 6553.00    0.65820   0.53290    0.000
 6554.00    0.72234   0.52506    0.000
 6555.00    0.83113   0.51641    0.000
 6556.00    1.02743   0.50700    0.000
 6557.00    1.33461   0.49727    0.000
 6558.00    1.70792   0.48766    0.000
 6559.00    2.05157   0.47907    0.000
 6560.00    2.25285   0.47252    0.000
 6561.00    2.23507   0.46808    0.000
 6562.00    2.01945   0.46589    0.000
 6563.00    1.69012   0.46588    0.000
 6564.00    1.33616   0.46894    0.000
 6565.00    1.03074   0.47564    0.000
 6566.00    0.81365   0.48401    0.000
 6567.00    0.69199   0.49268    0.000
 6568.00    0.64488   0.50158    0.000
 6569.00    0.63641   0.51020    0.000
 6570.00    0.63268   0.51857    0.000
 6571.00    0.61297   0.52632    0.000
 6572.00    0.58100   0.53341    0.000
 6573.00    0.55602   0.53973    0.000
 6574.00    0.55877   0.54531    0.000
 6575.00    0.60293   0.55046    0.000
 6576.00    0.68662   0.55517    0.000
 6577.00    0.79718   0.55960    0.000
 6578.00    0.91885   0.56361    0.000
 6579.00    1.03262   0.56711    0.000
 6580.00    1.11503   0.57011    0.000
 6581.00    1.14476   0.57265    0.000
 6582.00    1.11173   0.57477    0.000
 6583.00    1.02151   0.57673    0.000
 6584.00    0.89889   0.57840    0.000
 6585.00    0.77740   0.57956    0.000
 6586.00    0.68441   0.58038    0.000
 6587.00    0.63331   0.58073    0.000
 6588.00    0.61639   0.58082    0.000
 6589.00    0.61585   0.58088    0.000
 6590.00    0.61936   0.58071    0.000
 6591.00    0.61885   0.58075    0.000
 6592.00    0.60670   0.58072    0.000
 6593.00    0.58075   0.58071    0.000
 6594.00    0.55107   0.58112    0.000
 6595.00    0.53190   0.58194    0.000
 6596.00    0.53000   0.58326    0.000
 6597.00    0.54407   0.58456    0.000
 6598.00    0.56638   0.58561    0.000
 6599.00    0.58889   0.58668    0.000
 6600.00    0.61065   0.58747    0.000
 6601.00    0.63246   0.58822    0.000
 6602.00    0.64883   0.58875    0.000
 6603.00    0.65246   0.58881    0.000
 6604.00    0.64137   0.58888    0.000
 6605.00    0.62045   0.58873    0.000
 6606.00    0.60166   0.58874    0.000
 6607.00    0.59631   0.58892    0.000
 6608.00    0.60534   0.58911    0.000
 6609.00    0.62400   0.58957   16.026
 6610.00    0.64960   0.59005   15.394
 6611.00    0.67779   0.59084   14.754
 6612.00    0.69718   0.59180   14.344
 6613.00    0.69792   0.59259   14.328
 6614.00    0.68337   0.59320   14.633
 6615.00    0.66344   0.59373   15.073
 6616.00    0.64411   0.59423   15.525
 6617.00    0.62799   0.59447   15.924
 6618.00    0.61683   0.59446   16.212
 6619.00    0.61084   0.59412   16.371
 6620.00    0.60761   0.59370   16.458
 6621.00    0.60349   0.59301   16.570
 6622.00    0.59575   0.59225   16.786
 6623.00    0.58465   0.59142   17.104
 6624.00    0.57532   0.59044   17.382
 6625.00    0.57183   0.58956   17.488
 6626.00    0.56967   0.58862   17.554
 6627.00    0.56341   0.58787   17.749
 6628.00    0.55750   0.58730   17.937
 6629.00    0.55995   0.58665   17.859
 6630.00    0.57252   0.58625   17.467
 6631.00    0.59057   0.58584   16.933
 6632.00    0.60496   0.58566   16.530
 6633.00    0.60911   0.58562   16.417
 6634.00    0.60739   0.58550   16.464
 6635.00    0.60925   0.58578   16.414
 6636.00    0.61998   0.58599   16.130
 6637.00    0.63558   0.58633   15.734
 6638.00    0.63874   0.58653   15.656
 6639.00    0.61645   0.58653   16.222
 6640.00    0.58226   0.58661   17.174
 6641.00    0.56041   0.58643   17.844
 6642.00    0.56150   0.58648   17.810
 6643.00    0.57968   0.58643   17.251
 6644.00    0.59432   0.58619   16.826
 6645.00    0.58894   0.58621   16.980
 6646.00    0.57425   0.58628   17.414
 6647.00    0.57060   0.58642   17.525
 6648.00    0.58184   0.58643   17.187
 6649.00    0.59958   0.58645   16.678
 6650.00    0.61353   0.58641   16.299
 6651.00    0.62102   0.58631   16.103
 6652.00    0.63607   0.58608   15.722
 6653.00    0.66906   0.58566   14.946
 6654.00    0.70051   0.58526   14.275
 6655.00    0.70524   0.58463   14.180
 6656.00    0.68680   0.58399   14.560
 6657.00    0.66275   0.58307   15.089
 6658.00    0.64029   0.58216   15.618
 6659.00    0.61900   0.58123   16.155
 6660.00    0.59818   0.58032   16.717
 6661.00    0.57936   0.57956   17.260
 6662.00    0.56778   0.57890   17.613
 6663.00    0.56746   0.57862   17.622
 6664.00    0.57486   0.57840   17.396
 6665.00    0.58289   0.57868   17.156
 6666.00    0.58723   0.57919   17.029
 6667.00    0.58632   0.57977   17.056
 6668.00    0.58053   0.58039   17.226
 6669.00    0.57384   0.58089   17.426
 6670.00    0.57555   0.58131   17.375
 6671.00    0.59130   0.58134   16.912
 6672.00    0.61213   0.58111   16.336
 6673.00    0.62560   0.58056   15.985
 6674.00    0.63149   0.57991   15.836
 6675.00    0.63587   0.57909   15.727
 6676.00    0.64094   0.57838   15.602
 6677.00    0.64488   0.57771   15.507
 6678.00    0.64343   0.57716   15.542
 6679.00    0.63455   0.57690   15.759
 6680.00    0.62345   0.57707   16.040
 6681.00    0.61533   0.57760   16.251
 6682.00    0.60582   0.57800   16.506
 6683.00    0.58831   0.57864   16.998
 6684.00    0.56465   0.57911   17.710
 6685.00    0.54225   0.57968   18.442
 6686.00    0.52839   0.58006   18.925
 6687.00    0.52842   0.58028   18.924
 6688.00    0.54401   0.58049   18.382
 6689.00    0.57146   0.58041   17.499
 6690.00    0.60009   0.58030   16.664
 6691.00    0.61875   0.58002   16.162
 6692.00    0.62396   0.57968   16.027
 6693.00    0.61690   0.57931   16.210
 6694.00    0.59848   0.57903   16.709
 6695.00    0.57348   0.57871   17.437
 6696.00    0.55583   0.57854    0.000
 6697.00    0.55875   0.57830    0.000
 6698.00    0.58161   0.57822    0.000
 6699.00    0.61479   0.57826    0.000
 6700.00    0.64810   0.57827    0.000
 6701.00    0.67339   0.57838    0.000
 6702.00    0.68659   0.57829    0.000
 6703.00    0.68695   0.57822    0.000
 6704.00    0.67597   0.57795    0.000
 6705.00    0.65732   0.57762    0.000
 6706.00    0.63723   0.57730    0.000
 6707.00    0.62588   0.57677    0.000
 6708.00    0.63868   0.57611    0.000
 6709.00    0.68764   0.57518    0.000
 6710.00    0.77032   0.57415    0.000
 6711.00    0.86896   0.57278    0.000
 6712.00    0.95219   0.57147    0.000
 6713.00    0.99217   0.57023    0.000
 6714.00    0.98528   0.56903    0.000
 6715.00    0.94356   0.56798    0.000
 6716.00    0.88050   0.56716    0.000
 6717.00    0.80904   0.56675    0.000
 6718.00    0.74107   0.56654    0.000
 6719.00    0.68461   0.56679    0.000
 6720.00    0.64068   0.56736    0.000
 6721.00    0.60932   0.56810    0.000
 6722.00    0.59725   0.56876    0.000
 6723.00    0.61131   0.56950    0.000
 6724.00    0.64912   0.57035    0.000
 6725.00    0.70357   0.57102    0.000
 6726.00    0.76937   0.57164    0.000
 6727.00    0.83735   0.57211    0.000
 6728.00    0.88715   0.57253    0.000
 6729.00    0.89874   0.57280    0.000
 6730.00    0.86801   0.57303    0.000
 6731.00    0.80570   0.57315    0.000
 6732.00    0.73296   0.57306    0.000
 6733.00    0.67174   0.57289    0.000
 6734.00    0.63333   0.57256    0.000
 6735.00    0.61748   0.57227    0.000
 6736.00    0.61355   0.57181    0.000
 6737.00    0.61027   0.57140    0.000
 6738.00    0.60719   0.57101    0.000
 6739.00    0.60676   0.57053    0.000
 6740.00    0.60332   0.57013    0.000
 6741.00    0.59153   0.56978    0.000
 6742.00    0.57813   0.56947    0.000
 6743.00    0.57343   0.56914    0.000
 6744.00    0.57889   0.56878    0.000
 6745.00    0.58724   0.56858    0.000
 6746.00    0.58525   0.56842    0.000
 6747.00    0.56499   0.56817    0.000
 6748.00    0.53671   0.56808    0.000
 6749.00    0.51869   0.56807    0.000
 6750.00    0.52197   0.56822    0.000
 6751.00    0.54408   0.56852    0.000
 6752.00    0.56454   0.56902    0.000
 6753.00    0.56338   0.56969   17.750
 6754.00    0.54423   0.57029   18.375
 6755.00    0.52587   0.57110   19.016
 6756.00    0.52728   0.57179   18.965
 6757.00    0.55587   0.57243   17.990
 6758.00    0.59619   0.57295   16.773
 6759.00    0.62763   0.57327   15.933
 6760.00    0.64737   0.57332   15.447
 6761.00    0.65961   0.57313   15.160
 6762.00    0.65924   0.57282   15.169
 6763.00    0.64228   0.57232   15.570
 6764.00    0.62034   0.57184   16.120
 6765.00    0.60729   0.57128   16.467
 6766.00    0.60086   0.57092   16.643
 6767.00    0.59100   0.57061   16.920
 6768.00    0.57306   0.57058   17.450
 6769.00    0.54970   0.57078   18.192
 6770.00    0.53090   0.57119   18.836
 6771.00    0.52716   0.57183   18.970
 6772.00    0.54119   0.57242   18.478
 6773.00    0.56890   0.57317   17.578
 6774.00    0.60190   0.57376   16.614
 6775.00    0.62874   0.57420   15.905
 6776.00    0.63673   0.57436   15.705
 6777.00    0.62256   0.57417   16.063
 6778.00    0.60400   0.57365   16.556
 6779.00    0.60047   0.57290   16.654
 6780.00    0.60820   0.57196   16.442
 6781.00    0.61129   0.57089   16.359
 6782.00    0.59952   0.56979   16.680
 6783.00    0.57188   0.56880   17.486
 6784.00    0.53812   0.56790   18.583
 6785.00    0.51399   0.56719   19.455
 6786.00    0.51439   0.56681   19.440
 6787.00    0.54233   0.56656   18.439
 6788.00    0.57769   0.56652   17.310
 6789.00    0.59801   0.56662   16.722
 6790.00    0.60490   0.56676   16.532
 6791.00    0.61076   0.56686   16.373
 6792.00    0.61851   0.56702   16.168
 6793.00    0.62303   0.56723   16.051
 6794.00    0.61668   0.56744   16.216
 6795.00    0.59897   0.56769   16.695
 6796.00    0.58652   0.56809   17.050
 6797.00    0.59511   0.56843   16.804
 6798.00    0.61687   0.56878   16.211
 6799.00    0.63359   0.56917   15.783
 6800.00    0.63648   0.56948   15.712
 6801.00    0.62706   0.56976   15.947
 6802.00    0.61478   0.56997   16.266
 6803.00    0.60742   0.57012   16.463
 6804.00    0.60043   0.57013   16.655
 6805.00    0.58748   0.57009   17.022
 6806.00    0.57445   0.57004   17.408
 6807.00    0.57139   0.56993   17.501
 6808.00    0.58063   0.56971   17.223
 6809.00    0.59758   0.56958   16.734
 6810.00    0.61378   0.56945   16.292
 6811.00    0.62298   0.56925   16.052
 6812.00    0.62756   0.56919   15.935
 6813.00    0.63114   0.56906   15.844
 6814.00    0.62910   0.56903   15.896
 6815.00    0.61645   0.56901   16.222
 6816.00    0.59850   0.56912   16.709
 6817.00    0.58677   0.56935   17.042
 6818.00    0.59177   0.56960   16.898
 6819.00    0.61365   0.56993   16.296
 6820.00    0.63317   0.57017   15.793
 6821.00    0.63095   0.57041   15.849
 6822.00    0.61164   0.57055   16.349
 6823.00    0.59495   0.57075   16.808
 6824.00    0.60008   0.57078   16.664
 6825.00    0.63051   0.57078   15.860
 6826.00    0.65963   0.57065   15.160
 6827.00    0.65832   0.57048   15.190
 6828.00    0.63004   0.57031   15.872
 6829.00    0.59802   0.57005   16.722
 6830.00    0.58389   0.56986   17.126
 6831.00    0.59684   0.56957   16.755
 6832.00    0.62422   0.56927   16.020
 6833.00    0.64448   0.56876   15.516
 6834.00    0.64439   0.56810   15.519
 6835.00    0.62387   0.56737   16.029
 6836.00    0.59828   0.56659   16.715
 6837.00    0.58469   0.56580   17.103
 6838.00    0.58521   0.56512   17.088
 6839.00    0.59107   0.56454   16.919
 6840.00    0.59072   0.56412   16.928
 6841.00    0.57772   0.56404   17.309
 6842.00    0.55860   0.56409   17.902
 6843.00    0.54389   0.56447   18.386
 6844.00    0.53638   0.56500   18.643
 6845.00    0.53438   0.56564   18.713
 6846.00    0.53746   0.56618   18.606
 6847.00    0.54637   0.56655   18.302
 6848.00    0.56189   0.56670   17.797
 6849.00    0.58119   0.56666   17.206
 6850.00    0.59445   0.56640   16.822
 6851.00    0.59648   0.56601   16.765
 6852.00    0.59989   0.56545   16.670
 6853.00    0.61526   0.56477   16.253
 6854.00    0.62680   0.56411   15.954
 6855.00    0.61518   0.56340   16.255
 6856.00    0.58774   0.56284   17.014
 6857.00    0.56559   0.56244   17.681
 6858.00    0.56312   0.56226   17.758
 6859.00    0.57948   0.56217   17.257
 6860.00    0.59276   0.56221   16.870
 6861.00    0.58316   0.56234   17.148
 6862.00    0.56058   0.56240   17.839
 6863.00    0.54626   0.56267   18.306
 6864.00    0.54675   0.56284   18.290
 6865.00    0.55596   0.56304   17.987
 6866.00    0.56204   0.56312   17.792
 6867.00    0.55907   0.56312   17.887
 6868.00    0.55890   0.56319   17.892
 6869.00    0.57324   0.56318   17.445
 6870.00    0.59160   0.56340   16.903
 6871.00    0.60091   0.56362   16.641
 6872.00    0.61074   0.56394   16.373
 6873.00    0.63329   0.56433   15.790
 6874.00    0.65680   0.56467   15.225
 6875.00    0.66287   0.56516   15.086
 6876.00    0.65056   0.56540   15.371
 6877.00    0.62998   0.56576   15.874
 6878.00    0.61083   0.56584   16.371
 6879.00    0.59770   0.56602   16.731
 6880.00    0.58645   0.56598   17.052
 6881.00    0.57188   0.56600   17.486
 6882.00    0.55743   0.56615   17.940
 6883.00    0.55237   0.56626   18.104
 6884.00    0.56665   0.56675   17.648
 6885.00    0.60107   0.56730   16.637
 6886.00    0.63733   0.56809   15.690
 6887.00    0.65241   0.56882   15.328
 6888.00    0.63761   0.56964   15.684
 6889.00    0.60181   0.57040   16.617
 6890.00    0.57146   0.57108   17.499
 6891.00    0.57006   0.57158   17.542
 6892.00    0.59427   0.57201   16.827
 6893.00    0.62432   0.57216   16.017
 6894.00    0.64061   0.57224   15.610
 6895.00    0.63686   0.57224   15.702
 6896.00    0.63152   0.57218   15.835
 6897.00    0.64107   0.57215   15.599
 6898.00    0.64875   0.57213   15.414
 6899.00    0.63651   0.57221   15.711
 6900.00    0.62521   0.57230   15.995
 6901.00    0.64144   0.57246   15.590
 6902.00    0.67374   0.57260   14.843
 6903.00    0.69358   0.57289   14.418
 6904.00    0.68655   0.57308   14.566
 6905.00    0.65352   0.57325   15.302
 6906.00    0.60733   0.57329   16.465
 6907.00    0.56595   0.57320   17.669
 6908.00    0.54428   0.57306   18.373
 6909.00    0.54821   0.57268   18.241
 6910.00    0.56945   0.57225   17.561
 6911.00    0.59596   0.57166   16.780
 6912.00    0.62464   0.57110   16.009
 6913.00    0.65193   0.57053   15.339
 6914.00    0.66219   0.57008   15.101
 6915.00    0.64396   0.56966   15.529
 6916.00    0.60983   0.56940   16.398
 6917.00    0.58176   0.56929   17.189
 6918.00    0.57085   0.56910   17.518
 6919.00    0.57813   0.56914   17.297
 6920.00    0.59836   0.56900   16.712
 6921.00    0.62298   0.56895   16.052
 6922.00    0.64311   0.56885   15.549
 6923.00    0.65082   0.56871   15.365
 6924.00    0.64041   0.56869   15.615
 6925.00    0.61070   0.56851   16.375
 6926.00    0.56741   0.56858   17.624
 6927.00    0.52147   0.56859   19.177
 6928.00    0.48622   0.56873   20.567
 6929.00    0.47134   0.56892   21.216
 6930.00    0.47624   0.56897   20.998
 6931.00    0.49256   0.56917   20.302
 6932.00    0.50853   0.56918   19.664
 6933.00    0.51610   0.56931   19.376
 6934.00    0.51828   0.56932   19.295
 6935.00    0.52305   0.56938   19.119
 6936.00    0.53509   0.56948   18.688
 6937.00    0.55529   0.56935   18.009
 6938.00    0.58128   0.56935   17.204
 6939.00    0.60768   0.56916   16.456
 6940.00    0.62646   0.56902   15.963
 6941.00    0.62788   0.56884   15.927
 6942.00    0.60236   0.56863   16.601
 6943.00    0.55120   0.56844   18.142
 6944.00    0.49744   0.56828   20.103
 6945.00    0.46719   0.56819   21.405
 6946.00    0.46634   0.56816   21.444
 6947.00    0.48691   0.56819   20.538
 6948.00    0.51770   0.56837   19.316
 6949.00    0.54680   0.56845   18.288
 6950.00    0.56368   0.56858   17.740
 6951.00    0.56594   0.56865   17.670
 6952.00    0.56567   0.56867   17.678
 6953.00    0.57331   0.56881   17.443
 6954.00    0.57874   0.56896   17.279
 6955.00    0.56844   0.56925   17.592
 6956.00    0.54742   0.56956   18.268
 6957.00    0.53171   0.57002   18.807
 6958.00    0.53569   0.57046   18.668
 6959.00    0.56054   0.57094   17.840
 6960.00    0.58420   0.57143   17.117
 6961.00    0.58541   0.57185   17.082
 6962.00    0.57220   0.57227   17.476
 6963.00    0.56628   0.57252   17.659
 6964.00    0.58031   0.57282   17.232
 6965.00    0.60939   0.57292   16.410
 6966.00    0.62606   0.57296   15.973
 6967.00    0.60938   0.57280   16.410
 6968.00    0.57755   0.57251   17.315
 6969.00    0.55932   0.57210   17.879
 6970.00    0.55708   0.57137   17.951
 6971.00    0.55805   0.57057   17.919
 6972.00    0.55257   0.56956   18.097
 6973.00    0.53678   0.56858   18.630
 6974.00    0.51339   0.56758   19.478
 6975.00    0.49173   0.56675   20.336
 6976.00    0.48656   0.56612   20.553
 6977.00    0.50407   0.56582   19.839
 6978.00    0.52717   0.56590   18.969
 6979.00    0.53758   0.56635   18.602
 6980.00    0.54206   0.56717   18.448
 6981.00    0.55250   0.56826   18.100
 6982.00    0.56031   0.56951   17.847
 6983.00    0.55249   0.57071   18.100
 6984.00    0.53295   0.57182   18.763
 6985.00    0.51263   0.57267   19.507
 6986.00    0.49554   0.57325   20.180
 6987.00    0.48487   0.57369   20.624
 6988.00    0.49096   0.57385   20.368
 6989.00    0.51991   0.57397   19.234
 6990.00    0.56005   0.57383   17.856
 6991.00    0.59412   0.57370   16.832
 6992.00    0.61481   0.57344   16.265
 6993.00    0.62110   0.57317   16.100
 6994.00    0.61209   0.57275   16.337
 6995.00    0.59008   0.57225   16.947
 6996.00    0.56449   0.57165   17.715
 6997.00    0.54699   0.57097   18.282
 6998.00    0.54497   0.57035   18.350
 6999.00    0.55651   0.56967   17.969
 7000.00    0.56653   0.56911   17.651
 7001.00    0.56276   0.56856   -2.000
 7002.00    0.55347   0.56824   -2.000
 7003.00    0.54980   0.56797   -2.000
 7004.00    0.54430   0.56792   -2.000
 7005.00    0.52750   0.56783   -2.000
 7006.00    0.50911   0.56787   -2.000
 7007.00    0.50460   0.56784   -2.000
 7008.00    0.51708   0.56778   -2.000
 7009.00    0.53793   0.56767   -2.000
 7010.00    0.55104   0.56749   -2.000
 7011.00    0.54736   0.56719   -2.000
 7012.00    0.53968   0.56686   -2.000
 7013.00    0.54270   0.56648   -2.000
 7014.00    0.54919   0.56626   -2.000
 7015.00    0.54714   0.56610   -2.000
 7016.00    0.54179   0.56614   -2.000
 7017.00    0.54437   0.56633   -2.000
 7018.00    0.55664   0.56668   -2.000
 7019.00    0.57475   0.56731   -2.000
 7020.00    0.59560   0.56790   -2.000
 7021.00    0.61463   0.56864   -2.000
 7022.00    0.62296   0.56928   -2.000
 7023.00    0.61393   0.56989   -2.000
 7024.00    0.59087   0.57046   -2.000
 7025.00    0.56271   0.57099   -2.000
 7026.00    0.53788   0.57156   -2.000
 7027.00    0.52031   0.57209   -2.000
 7028.00    0.50634   0.57258   -2.000
 7029.00    0.49353   0.57300   -2.000
 7030.00    0.49040   0.57334   -2.000
 7031.00    0.50707   0.57360   -2.000
 7032.00    0.54302   0.57388   -2.000
 7033.00    0.58553   0.57411   -2.000
 7034.00    0.61084   0.57443   -2.000
 7035.00    0.60462   0.57482   -2.000
 7036.00    0.58340   0.57542   -2.000
 7037.00    0.56973   0.57616   -2.000
 7038.00    0.56201   0.57709   -2.000
 7039.00    0.55123   0.57802   -2.000
 7040.00    0.54308   0.57904   -2.000
 7041.00    0.54712   0.58001   -2.000
 7042.00    0.56190   0.58076   -2.000
 7043.00    0.57892   0.58129   -2.000
 7044.00    0.58931   0.58136   -2.000
 7045.00    0.58725   0.58098   -2.000
 7046.00    0.57275   0.58015   -2.000
 7047.00    0.54816   0.57904   -2.000
 7048.00    0.51444   0.57745   -2.000
 7049.00    0.47895   0.57582   -2.000
 7050.00    0.46322   0.57370   -2.000
 7051.00    0.48085   0.57166   -2.000
 7052.00    0.51295   0.56947   -2.000
 7053.00    0.53183   0.56739   -2.000
 7054.00    0.53096   0.56532   -2.000
 7055.00    0.52236   0.56353   -2.000
 7056.00    0.52828   0.56173   -2.000
 7057.00    0.55868   0.56031   -2.000
 7058.00    0.58876   0.55903   -2.000
 7059.00    0.58915   0.55800   -2.000
 7060.00    0.56218   0.55710   -2.000
 7061.00    0.52897   0.55643   -2.000
 7062.00    0.50947   0.55584   -2.000
 7063.00    0.51116   0.55556   -2.000
 7064.00    0.52012   0.55531   -2.000
 7065.00    0.52125   0.55541   -2.000
 7066.00    0.52106   0.55549   -2.000
 7067.00    0.53123   0.55583   -2.000
 7068.00    0.54759   0.55629   -2.000
 7069.00    0.55937   0.55682   -2.000
 7070.00    0.56217   0.55753   -2.000
 7071.00    0.55692   0.55824   -2.000
 7072.00    0.54711   0.55894   -2.000
 7073.00    0.54034   0.55951   -2.000
 7074.00    0.54916   0.55986   -2.000
 7075.00    0.57547   0.55993   -2.000
 7076.00    0.59503   0.55970   -2.000
 7077.00    0.58842   0.55910   -2.000
 7078.00    0.57539   0.55814   -2.000
 7079.00    0.57882   0.55681   -2.000
 7080.00    0.58196   0.55513   -2.000
 7081.00    0.56082   0.55309   -2.000
 7082.00    0.52457   0.55090   -2.000
 7083.00    0.49467   0.54838   -2.000
 7084.00    0.47681   0.54590   -2.000
 7085.00    0.46993   0.54336   -2.000
 7086.00    0.47883   0.54098   -2.000
 7087.00    0.50241   0.53889   -2.000
 7088.00    0.52062   0.53704   -2.000
 7089.00    0.51808   0.53565   -2.000
 7090.00    0.51037   0.53454   -2.000
 7091.00    0.51665   0.53390   -2.000
 7092.00    0.52735   0.53354   -2.000
 7093.00    0.52541   0.53372   -2.000
 7094.00    0.51350   0.53405   -2.000
 7095.00    0.50251   0.53480   -2.000
 7096.00    0.49567   0.53567   -2.000
 7097.00    0.49256   0.53664   -2.000
 7098.00    0.49550   0.53780   -2.000
 7099.00    0.50539   0.53872   -2.000
 7100.00    0.51690   0.53985   -2.000
 7101.00    0.52445   0.54054   -2.000
 7102.00    0.52890   0.54137   -2.000
 7103.00    0.52914   0.54178   -2.000
 7104.00    0.51323   0.54217   -2.000
 7105.00    0.47597   0.54236   -2.000
 7106.00    0.43811   0.54250   -2.000
 7107.00    0.42360   0.54260   -2.000
 7108.00    0.43235   0.54266   -2.000
 7109.00    0.44882   0.54279   -2.000
 7110.00    0.45588   0.54294   -2.000
 7111.00    0.44670   0.54319   -2.000
 7112.00    0.43528   0.54350   -2.000
 7113.00    0.44049   0.54384   -2.000
 7114.00    0.46688   0.54419   -2.000
 7115.00    0.50439   0.54447   -2.000
 7116.00    0.53182   0.54465   -2.000
 7117.00    0.53635   0.54464   -2.000
 7118.00    0.53291   0.54441   -2.000
 7119.00    0.53711   0.54392   -2.000
 7120.00    0.53471   0.54320   -2.000
 7121.00    0.51034   0.54221   -2.000
 7122.00    0.48138   0.54106   -2.000
 7123.00    0.47251   0.53971   -2.000
 7124.00    0.48391   0.53836   -2.000
 7125.00    0.50112   0.53695   -2.000
 7126.00    0.51055   0.53566   -2.000
 7127.00    0.50771   0.53452   -2.000
 7128.00    0.50346   0.53362   -2.000
 7129.00    0.50890   0.53302   -2.000
 7130.00    0.51875   0.53272   -2.000
 7131.00    0.52451   0.53280   -2.000
 7132.00    0.53026   0.53306   -2.000
 7133.00    0.54117   0.53361   -2.000
 7134.00    0.54978   0.53422   -2.000
 7135.00    0.54861   0.53495   -2.000
 7136.00    0.54469   0.53568   -2.000
 7137.00    0.54495   0.53622   -2.000
 7138.00    0.53942   0.53676   -2.000
 7139.00    0.51690   0.53699   -2.000
 7140.00    0.48381   0.53721   -2.000
 7141.00    0.45537   0.53718   -2.000
 7142.00    0.44339   0.53713   -2.000
 7143.00    0.45295   0.53695   -2.000
 7144.00    0.48014   0.53684   -2.000
 7145.00    0.51140   0.53672   -2.000
 7146.00    0.52457   0.53675   -2.000
 7147.00    0.50977   0.53691   -2.000
 7148.00    0.48984   0.53733   -2.000
 7149.00    0.48804   0.53786   -2.000
 7150.00    0.49232   0.53867   -2.000
 7151.00    0.48905   0.53950   -2.000
 7152.00    0.50111   0.54046   -2.000
 7153.00    0.54284   0.54136   -2.000
 7154.00    0.57043   0.54214   -2.000
 7155.00    0.54387   0.54263   -2.000
 7156.00    0.49700   0.54297   -2.000
 7157.00    0.47780   0.54293   -2.000
 7158.00    0.47708   0.54279   -2.000
 7159.00    0.46771   0.54234   -2.000
 7160.00    0.45459   0.54189   -2.000
 7161.00    0.45153   0.54136   -2.000
 7162.00    0.45119   0.54083   -2.000
 7163.00    0.44376   0.54054   -2.000
 7164.00    0.43957   0.54031   -2.000
 7165.00    0.44996   0.54046   -2.000
 7166.00    0.46495   0.54061   -2.000
 7167.00    0.46950   0.54109   -2.000
 7168.00    0.46383   0.54157   -2.000
 7169.00    0.45844   0.54222   -2.000
 7170.00    0.46539   0.54277   -2.000
 7171.00    0.48624   0.54321   -2.000
 7172.00    0.50172   0.54345   -2.000
 7173.00    0.49654   0.54353   -2.000
 7174.00    0.48579   0.54343   -2.000
 7175.00    0.48773   0.54317   -2.000
 7176.00    0.49217   0.54279   -2.000
 7177.00    0.48083   0.54226   -2.000
 7178.00    0.45309   0.54176   -2.000
 7179.00    0.42279   0.54116   -2.000
 7180.00    0.41039   0.54067   -2.000
 7181.00    0.42646   0.54013   -2.000
 7182.00    0.45619   0.53968   -2.000
 7183.00    0.48243   0.53915   -2.000
 7184.00    0.51083   0.53876   -2.000
 7185.00    0.54433   0.53840   -2.000
 7186.00    0.55544   0.53816   -2.000
 7187.00    0.52571   0.53796   -2.000
 7188.00    0.48869   0.53783   -2.000
 7189.00    0.48380   0.53783   -2.000
 7190.00    0.50307   0.53794   -2.000
 7191.00    0.52096   0.53815   -2.000
 7192.00    0.53218   0.53854   -2.000
 7193.00    0.53738   0.53888   -2.000
 7194.00    0.52485   0.53928   -2.000
 7195.00    0.49029   0.53957   -2.000
 7196.00    0.45852   0.53977   -2.000
 7197.00    0.45605   0.53995   -2.000
 7198.00    0.47961   0.53998   -2.000
 7199.00    0.50973   0.54001   -2.000
 7200.00    0.52953   0.53979   -2.000
 7201.00    0.52891   0.53963   -2.000
 7202.00    0.50726   0.53937   -2.000
 7203.00    0.47649   0.53912   -2.000
 7204.00    0.46222   0.53883   -2.000
 7205.00    0.48159   0.53861   -2.000
 7206.00    0.52047   0.53851   -2.000
 7207.00    0.55300   0.53858   -2.000
 7208.00    0.56568   0.53879   -2.000
 7209.00    0.55658   0.53913   -2.000
 7210.00    0.53179   0.53966   -2.000
 7211.00    0.50406   0.54033   -2.000
 7212.00    0.49076   0.54126   -2.000
 7213.00    0.50098   0.54214   -2.000
 7214.00    0.52284   0.54313   -2.000
 7215.00    0.53788   0.54405   -2.000
 7216.00    0.53823   0.54489   -2.000
 7217.00    0.52793   0.54580   -2.000
 7218.00    0.52112   0.54657   -2.000
