###################################################################
## OUTPUT of StarlightChains_v04.for    [Cid@UFSC - 01/Apr/2007] ##
###################################################################

## Some input info
1963J.txt                                [arq_obs]
Base.CB07.vall.4m                        [arq_base]
Masks.EmLines.NEW.gm                     [arq_masks]
StCv04.C11.config                        [arq_config]
   66                                    [N_base]
    0                                    [N_YAV_components = # of components with extra extinction!]
    0                                    [i_FitPowerLaw (1/0 = Yes/No)]
-9.99                                    [alpha_PowerLaw]
CCM                                      [red_law_option]
 1.458241                                [q_norm = A(l_norm)/A(V)]

## (Re)Sampling Parameters
 3741.00                                 [l_ini (A)]
 7218.00                                 [l_fin (A)]
    1.00                                 [dl    (A)]     (OBS: dl_cushion =    50.00 A)

## Normalization info
 4020.00                                 [l_norm (A) - for base]
 4010.00                                 [llow_norm (A) - window for f_obs]
 4060.00                                 [lupp_norm (A) - window for f_obs]
1.523338E-15                             [fobs_norm (in input units)]

## S/N
 3691.00                                 [llow_SN (A) - window for S/N]
 7268.00                                 [lupp_SN (A) - window for S/N]
   8.797                                 [S/N in S/N window]
  10.363                                 [S/N in norm. window]
   7.886                                 [S/N_err in S/N window]
   9.290                                 [S/N_err in norm. window]
  1.0000                                 [fscale_chi2]

## etc...
    -2007204                             [idum_orig]
  2404                                   [NOl_eff]
  2397                                   [Nl_eff]
     7    NSIGMA                         [Ntot_cliped & clip_method]
  1562400                                [Nglobal_steps]
   7                                     [N_chains]
  30                                     [NEX0s_base = N_base in EX0s-fits]
 0   0   1       32   2.0   1.689E+01    [Clip-Bug, RC-Crash & Burn-In warning-flags, n_censored_weights, wei_nsig_threshold & wei_limit]
    13     13.115     12.574      0.541  [idt_all, wdt_TotTime, wdt_UsrTime & wdt_SysTime (sec)]

## Synthesis Results - Best model ##

 2.63308E-01                             [chi2/Nl_eff]
     3.62802                             [adev (%)]

   102.04421                             [sum-of-x (%)]
 2.11104E-15                             [Flux_tot (units of input spectrum!)]
 1.97624E-11                             [Mini_tot (???)]
 1.06248E-11                             [Mcor_tot (???)]

 -96.37                                  [v0_min  (km/s)]
 184.52                                  [vd_min  (km/s)]
 0.2279                                  [AV_min  (mag)]
 0.0000                                  [YAV_min (mag)]

# j     x_j(%)      Mini_j(%)     Mcor_j(%)     age_j(yr)     Z_j      (L/M)_j    YAV?  Mstars   component_j        a/Fe...       SSP_chi2r SSP_adev(%)   SSP_AV   SSP_x(%)
  1      7.8720     7.5325E-02    1.4011E-01    1.000000E+06  0.00400  1.094E-02    0   1.0000   age020_m42            0.0000     7.1535E-01     6.1325   2.8722    82.9527
  2      0.0000     0.0000E+00    0.0000E+00    3.160000E+06  0.00400  4.007E-02    0   0.9999   age045_m42            0.0000     4.7446E-01     5.1331   2.0998    90.6656
  3      0.0000     0.0000E+00    0.0000E+00    5.010000E+06  0.00400  2.539E-02    0   0.9488   age055_m42            0.0000     5.7272E-01     5.4893   2.4419    87.4878
  4      0.0000     0.0000E+00    0.0000E+00    6.610000E+06  0.00400  2.620E-02    0   0.9220   age061_m42            0.0000     4.7924E-01     4.9951   2.0244    90.9001
  5      0.0000     0.0000E+00    0.0000E+00    1.000000E+07  0.00400  1.322E-02    0   0.8862   age070_m42            0.0000     4.9298E-01     4.7636   1.7562    91.8068
  6      0.0000     0.0000E+00    0.0000E+00    1.445000E+07  0.00400  7.883E-03    0   0.8571   age078_m42            0.0000     5.4848E-01     5.0421   2.0947    89.0430
  7      0.0000     0.0000E+00    0.0000E+00    2.512000E+07  0.00400  5.251E-03    0   0.8174   age090_m42            0.0000     4.9412E-01     4.7910   1.6247    92.3006
  8      0.0000     0.0000E+00    0.0000E+00    4.000000E+07  0.00400  3.649E-03    0   0.7851   age104_m42            0.0000     4.4780E-01     4.5608   1.3867    93.6022
  9      0.0000     0.0000E+00    0.0000E+00    5.500000E+07  0.00400  3.098E-03    0   0.7629   age110_m42            0.0000     4.3920E-01     4.4754   1.5270    94.4034
 10      0.0000     0.0000E+00    0.0000E+00    1.015200E+08  0.00400  2.228E-03    0   0.7207   age116_m42            0.0000     4.5950E-01     4.5254   1.5380    95.1322
 11      0.0000     0.0000E+00    0.0000E+00    2.861200E+08  0.00400  1.093E-03    0   0.6648   age125_m42            0.0000     4.3916E-01     4.3289   0.9578    98.3900
 12      0.0000     0.0000E+00    0.0000E+00    5.088000E+08  0.00400  6.597E-04    0   0.6365   age130_m42            0.0000     4.6310E-01     4.3470   0.9330   100.1404
 13      2.7746     1.3623E+00    1.4692E+00    1.434000E+09  0.00400  2.132E-04    0   0.5798   age139_m42            0.0000     3.5567E-01     4.0531  -0.0627   103.4642
 14      0.0000     0.0000E+00    0.0000E+00    4.250000E+09  0.00400  5.895E-05    0   0.5377   age158_m42            0.0000     3.7496E-01     4.7234  -0.5020    99.7954
 15      2.2014     6.5654E+00    6.3647E+00    7.500000E+09  0.00400  3.510E-05    0   0.5212   age171_m42            0.0000     4.4724E-01     5.2198  -0.6939    99.4763
 16      6.0262     3.1463E+01    2.9460E+01    1.300000E+10  0.00400  2.005E-05    0   0.5034   age193_m42            0.0000     5.2878E-01     5.6952  -0.8610    99.1818
 17      2.8110     1.9296E+01    1.7827E+01    1.800000E+10  0.00400  1.525E-05    0   0.4967   age213_m42            0.0000     5.1753E-01     5.6056  -0.8821    98.6123
 18      5.5311     4.6769E-02    8.6991E-02    1.000000E+06  0.00800  1.238E-02    0   1.0000   age020_m52            0.0000     7.1755E-01     6.1427   2.8685    83.1169
 19      0.0000     0.0000E+00    0.0000E+00    3.160000E+06  0.00800  3.074E-02    0   0.9966   age045_m52            0.0000     7.0165E-01     6.0972   2.7886    83.9958
 20      0.0000     0.0000E+00    0.0000E+00    5.010000E+06  0.00800  2.668E-02    0   0.9443   age055_m52            0.0000     6.0045E-01     5.5931   2.5300    86.4540
 21      0.0040     1.9834E-05    3.3855E-05    6.610000E+06  0.00800  2.136E-02    0   0.9177   age061_m52            0.0000     4.2959E-01     4.4541   1.2551    92.9853
 22      0.0000     0.0000E+00    0.0000E+00    1.000000E+07  0.00800  1.215E-02    0   0.8827   age070_m52            0.0000     5.3466E-01     4.9855   1.9440    91.1087
 23      0.0000     0.0000E+00    0.0000E+00    1.445000E+07  0.00800  8.717E-03    0   0.8552   age078_m52            0.0000     5.2171E-01     4.8921   2.0554    90.4584
 24      0.0000     0.0000E+00    0.0000E+00    2.512000E+07  0.00800  5.592E-03    0   0.8162   age090_m52            0.0000     4.8159E-01     4.7191   1.6850    93.5315
 25      0.0000     0.0000E+00    0.0000E+00    4.000000E+07  0.00800  3.896E-03    0   0.7841   age104_m52            0.0000     4.4084E-01     4.4827   1.5840    94.9716
 26      0.0000     0.0000E+00    0.0000E+00    1.015200E+08  0.00800  2.148E-03    0   0.7226   age116_m52            0.0000     4.1517E-01     4.3197   1.5069    95.7520
 27      0.0000     0.0000E+00    0.0000E+00    2.861200E+08  0.00800  9.925E-04    0   0.6683   age125_m52            0.0000     4.5776E-01     4.2501   0.9939   101.2408
 28     26.2900     8.7618E+00    1.0003E+01    9.047900E+08  0.00800  3.141E-04    0   0.6138   age135_m52            0.0000     4.2392E-01     4.5139   0.1555   107.8654
 29      1.0699     6.5154E-01    7.0931E-01    1.434000E+09  0.00800  1.719E-04    0   0.5853   age139_m52            0.0000     3.5921E-01     4.5213  -0.4179   105.4300
 30      1.4470     1.9242E+00    2.0042E+00    2.500000E+09  0.00800  7.872E-05    0   0.5600   age150_m52            0.0000     4.6251E-01     5.4890  -0.6934   103.3146
 31      6.2817     1.5166E+01    1.5306E+01    4.250000E+09  0.00800  4.336E-05    0   0.5426   age158_m52            0.0000     4.8846E-01     5.5728  -0.7063   102.2553
 32      0.0000     0.0000E+00    0.0000E+00    6.250000E+09  0.00800  3.159E-05    0   0.5319   age166_m52            0.0000     6.1868E-01     6.3620  -0.9206   103.0509
 33      0.0000     0.0000E+00    0.0000E+00    1.300000E+10  0.00800  1.361E-05    0   0.5073   age193_m52            0.0000     1.4026E+00     8.3167  -1.0000    87.6721
 34      0.0000     0.0000E+00    0.0000E+00    1.800000E+10  0.00800  9.886E-06    0   0.4990   age213_m52            0.0000     1.9245E+00     9.6892  -1.0000    83.4095
 35      3.8897     2.6372E-02    4.9052E-02    1.000000E+06  0.02000  1.544E-02    0   1.0000   age020_m62            0.0000     7.2657E-01     6.1803   2.8662    83.2451
 36      0.2434     6.7740E-04    1.2421E-03    3.160000E+06  0.02000  3.762E-02    0   0.9858   age045_m62            0.0000     7.2387E-01     6.1892   2.8041    84.0326
 37      0.0000     0.0000E+00    0.0000E+00    5.010000E+06  0.02000  3.296E-02    0   0.9342   age055_m62            0.0000     5.3824E-01     5.3623   2.3903    89.1158
 38      0.0000     0.0000E+00    0.0000E+00    8.710000E+06  0.02000  1.154E-02    0   0.8861   age067_m62            0.0000     9.4671E-01     7.8480   1.4296    91.1431
 39      0.0000     0.0000E+00    0.0000E+00    1.445000E+07  0.02000  7.663E-03    0   0.8472   age078_m62            0.0000     5.8114E-01     5.4730   1.5955    92.6970
 40      0.0000     0.0000E+00    0.0000E+00    2.512000E+07  0.02000  4.532E-03    0   0.8099   age090_m62            0.0000     6.1115E-01     5.6768   1.5859    92.4718
 41      0.0000     0.0000E+00    0.0000E+00    5.500000E+07  0.02000  2.733E-03    0   0.7595   age110_m62            0.0000     4.6270E-01     4.5039   1.5713    94.0794
 42      0.0007     5.0610E-05    6.5753E-05    1.609000E+08  0.02000  1.369E-03    0   0.6985   age120_m62            0.0000     4.7918E-01     4.3340   1.3776    98.4449
 43      0.0000     0.0000E+00    0.0000E+00    2.861200E+08  0.02000  9.013E-04    0   0.6714   age125_m62            0.0000     5.3855E-01     4.4270   1.1040   102.5188
 44      9.0547     1.8852E+00    2.2613E+00    5.088000E+08  0.02000  5.028E-04    0   0.6449   age130_m62            0.0000     5.4954E-01     4.8844   0.6950   107.1941
 45     13.0740     5.6368E+00    6.4784E+00    9.047900E+08  0.02000  2.428E-04    0   0.6179   age135_m62            0.0000     4.4066E-01     4.9823   0.0950   107.5450
 46      8.1777     6.7779E+00    7.4483E+00    1.434000E+09  0.02000  1.263E-04    0   0.5908   age139_m62            0.0000     4.5590E-01     5.3278  -0.3496   106.1291
 47      0.0000     0.0000E+00    0.0000E+00    2.500000E+09  0.02000  5.985E-05    0   0.5673   age150_m62            0.0000     5.9878E-01     6.3846  -0.7245   105.4178
 48      0.1012     3.2377E-01    3.2929E-01    4.250000E+09  0.02000  3.271E-05    0   0.5468   age158_m62            0.0000     8.3648E-01     7.4813  -1.0000   103.7856
 49      0.0000     0.0000E+00    0.0000E+00    1.000000E+10  0.02000  1.360E-05    0   0.5167   age181_m62            0.0000     1.7602E+00     9.4198  -1.0000    89.9909
 50      0.0000     0.0000E+00    0.0000E+00    1.800000E+10  0.02000  7.124E-06    0   0.5013   age213_m62            0.0000     2.7343E+00    11.4909  -1.0000    81.5667
 51      0.0374     1.5106E-04    2.8092E-04    1.000000E+06  0.05000  2.592E-02    0   0.9998   age020_m72            0.0000     7.6096E-01     6.2882   2.8626    83.0586
 52      0.0000     0.0000E+00    0.0000E+00    3.160000E+06  0.05000  4.845E-02    0   0.9577   age045_m72            0.0000     6.5120E-01     5.9436   2.6726    85.7864
 53      0.0000     0.0000E+00    0.0000E+00    5.010000E+06  0.05000  3.072E-02    0   0.9147   age055_m72            0.0000     6.1850E-01     5.4349   2.1921    89.1359
 54      5.1542     3.7083E-02    6.1229E-02    6.610000E+06  0.05000  1.455E-02    0   0.8877   age061_m72            0.0000     1.4302E+00    10.3648   1.4891    91.1637
 55      0.0000     0.0000E+00    0.0000E+00    1.000000E+07  0.05000  9.074E-03    0   0.8524   age070_m72            0.0000     7.1057E-01     6.0597   2.3784    88.8983
 56      0.0000     0.0000E+00    0.0000E+00    2.512000E+07  0.05000  4.250E-03    0   0.7902   age090_m72            0.0000     5.7993E-01     5.3751   2.0546    91.4468
 57      0.0000     0.0000E+00    0.0000E+00    4.000000E+07  0.05000  3.087E-03    0   0.7618   age104_m72            0.0000     5.7322E-01     5.4110   1.8175    93.2885
 58      0.0000     0.0000E+00    0.0000E+00    1.015200E+08  0.05000  1.700E-03    0   0.7096   age116_m72            0.0000     4.8440E-01     4.4244   1.5278    97.5394
 59      0.0000     0.0000E+00    0.0000E+00    2.861200E+08  0.05000  7.384E-04    0   0.6633   age125_m72            0.0000     5.4950E-01     4.5962   0.9519   105.1239
 60      0.0024     6.4550E-04    7.6505E-04    5.088000E+08  0.05000  3.819E-04    0   0.6372   age130_m72            0.0000     4.9011E-01     5.0936   0.4335   108.4991
 61      0.0000     0.0000E+00    0.0000E+00    9.047900E+08  0.05000  1.676E-04    0   0.6110   age135_m72            0.0000     5.7828E-01     6.4151  -0.2768   107.8448
 62      0.0000     0.0000E+00    0.0000E+00    1.434000E+09  0.05000  8.837E-05    0   0.5874   age139_m72            0.0000     6.5713E-01     6.6795  -0.7352   107.5221
 63      0.0000     0.0000E+00    0.0000E+00    2.500000E+09  0.05000  4.233E-05    0   0.5598   age150_m72            0.0000     9.3052E-01     7.9365  -1.0000   104.8539
 64      0.0000     0.0000E+00    0.0000E+00    6.250000E+09  0.05000  1.435E-05    0   0.5249   age166_m72            0.0000     2.1165E+00    10.2903  -1.0000    86.0008
 65      0.0000     0.0000E+00    0.0000E+00    1.300000E+10  0.05000  6.513E-06    0   0.5036   age193_m72            0.0000     3.5495E+00    13.0658  -1.0000    76.6127
 66      0.0000     0.0000E+00    0.0000E+00    1.800000E+10  0.05000  4.527E-06    0   0.4945   age213_m72            0.0000     4.4898E+00    14.6811  -1.0000    70.9384


## Synthesis Results - Average & Chains ##

# j      x_j: min, <> & last-chain-values for 1 ...  7 chains
  1      7.8720      2.5936      2.8474      2.3358      2.9237      0.7526      2.5266      2.8467      2.2468
  2      0.0000      1.0653      0.0882      0.0000      1.6851      1.2665      0.0000      1.9912      0.9076
  3      0.0000      0.3563      0.0000      0.0000      0.0000      0.2698      0.0000      0.0000      0.3316
  4      0.0000      0.2442      0.9889      0.0000      1.4424      0.0000      0.0000      0.0000      0.0868
  5      0.0000      0.5042      0.0000      0.0000      0.0000      0.0000      0.0000      0.2731      1.2535
  6      0.0000      0.5122      0.9142      0.0000      0.0927      0.0000      0.0000      0.0000      0.0000
  7      0.0000      0.4408      0.0028      0.0000      0.0000      0.0000      0.0000      0.0000      0.0000
  8      0.0000      0.5526      1.3038      0.3932      0.0000      0.5589      0.0000      0.5138      0.0857
  9      0.0000      0.5861      0.8212      0.0000      0.0000      0.0000      0.0000      0.0000      0.0000
 10      0.0000      0.3237      0.0000      0.0000      0.0000      0.0000      0.0000      0.0000      0.0000
 11      0.0000      0.6682      0.0000      0.0000      0.0000      0.1436      0.8406      0.0000      0.2495
 12      0.0000      0.9102      0.0000      0.0000      0.0000      0.4207      0.0000      0.0000      0.0000
 13      2.7746      3.2684      4.1345      6.2978      0.0000      1.0019      0.7527      0.0000      0.0000
 14      0.0000      3.3466      0.0000      5.8309      5.8934      3.1111      5.2850      2.0335      3.1815
 15      2.2014      1.7271      2.2043      0.0000      0.0000      1.4940      0.0000      0.0000      2.1253
 16      6.0262      2.6587      4.5074      0.6099      1.5751      3.6785      2.2007      4.0256      2.7228
 17      2.8110      0.5838      2.0620      1.3605      0.0000      1.0973      0.9633      0.7790      1.2416
 18      5.5311      1.6693      3.6175      3.5926      0.3105      4.9077      0.1675      1.8258      3.2509
 19      0.0000      0.8754      0.6649      0.0000      0.6297      2.2934      2.1354      4.5480      0.4108
 20      0.0000      0.8530      1.1881      1.3632      0.0000      0.0000      0.5353      0.0000      0.0000
 21      0.0040      2.4280      0.7709      2.6044      5.4107      6.7429      7.3200      4.5083      0.0000
 22      0.0000      0.7651      0.3860      0.0000      0.0000      0.0000      2.8581      0.0000      0.0000
 23      0.0000      0.4076      0.0000      0.6213      0.0000      2.0749      0.0000      0.0000      0.0000
 24      0.0000      0.5113      0.2116      0.0000      0.0000      0.0000      0.2399      0.0000      0.0000
 25      0.0000      0.4402      0.0000      0.0000      0.0000      0.0000      0.0000      0.0000      0.0000
 26      0.0000      0.7267      0.0000      2.5964      0.0000      0.7774      0.0000      0.0000      0.0000
 27      0.0000      0.8513      0.0000      0.0000      1.0960      0.0000      0.3940      1.3912      3.3008
 28     26.2900     20.8292     21.1469     25.4457     29.1306     23.1263     26.1869     30.5233     24.6496
 29      1.0699      3.0910      4.1675      1.3652      3.8685      2.9053      2.3053      7.3652      2.1372
 30      1.4470      0.9554      1.1862      0.0000      0.0000      0.0000      1.7012      0.0000      0.0000
 31      6.2817      2.7636      5.2854      7.7556      3.5536      1.3501      1.6900      0.0000      5.4449
 32      0.0000      0.3943      0.0000      0.0000      0.0111      0.0000      0.0000      0.0000      0.0000
 33      0.0000      0.1493      0.0000      0.0000      0.6120      0.0000      0.0000      0.0000      0.0000
 34      0.0000      0.0579      0.0000      0.0000      0.5976      0.0000      0.0000      0.0000      0.0000
 35      3.8897      0.4855      2.6142      1.2441      1.5194      1.3205      0.0591      0.0000      0.0000
 36      0.2434      1.7922      3.0973      2.8074      5.7906      2.3126      0.6438      1.0182      1.6634
 37      0.0000      0.3813      0.7103      0.0000      0.0000      0.0000      0.0000      0.0000      0.2104
 38      0.0000      0.9603      0.5168      2.2347      0.0000      1.2034      3.3152      1.6493      2.2932
 39      0.0000      1.0722      1.6248      0.0558      0.0000      0.0000      2.4374      0.0000      4.6129
 40      0.0000      0.4304      0.0000      0.0000      0.0000      0.2916      0.0000      0.7672      1.0405
 41      0.0000      0.4231      0.0000      0.0000      0.2933      1.2228      0.0000      0.0000      0.0000
 42      0.0007      0.3506      0.8983      0.0000      0.0000      0.0000      0.0000      0.3297      0.0000
 43      0.0000      0.4708      0.3783      0.0000      0.0000      0.0000      0.0000      0.0000      1.7379
 44      9.0547      1.1877      1.5780      0.0000      0.9067      3.6519      4.3205      0.0000      0.0000
 45     13.0740     13.9973     15.6613     18.3477     18.5899     16.5761     10.6706     15.9691     17.9404
 46      8.1777      7.2718      7.0466      5.8123      8.5105      6.8124     10.7354      6.5440      8.3506
 47      0.0000      1.9328      1.6569      0.1338      0.0000      1.5427      3.3365      2.1154      0.0000
 48      0.1012      0.3751      0.5972      0.0000      0.0000      2.3739      0.0000      0.0000      0.0000
 49      0.0000      0.1644      0.0000      0.0000      0.0000      0.9571      0.0000      0.0000      0.3326
 50      0.0000      0.1765      0.0000      0.0000      0.0000      0.0000      0.0000      1.1784      0.9957
 51      0.0374      0.4983      2.0830      2.0141      0.6385      0.0000      0.0000      1.0343      1.4282
 52      0.0000      1.1090      0.0000      1.2849      0.0000      0.1982      2.8823      0.0000      0.7240
 53      0.0000      0.5564      0.0000      0.0000      0.8180      0.0000      0.6071      0.0000      0.0000
 54      5.1542      2.8306      1.2790      3.5971      4.6317      2.5687      3.0946      5.1790      5.6420
 55      0.0000      0.4090      0.0000      0.0000      0.0252      0.0000      0.0000      1.0477      0.0000
 56      0.0000      0.4196      0.0000      0.0000      0.0000      0.0000      0.0000      0.0000      0.0000
 57      0.0000      0.3122      0.0000      0.0000      0.0000      0.0000      0.0000      0.0000      0.0000
 58      0.0000      0.8353      0.0000      0.0000      0.0000      0.4569      0.1545      0.1136      0.4403
 59      0.0000      0.8473      0.0000      0.0000      0.0000      1.6968      0.0000      0.0000      0.0000
 60      0.0024      1.5953      3.6360      0.0000      0.0000      0.0000      0.0000      0.0000      0.4528
 61      0.0000      1.4190      0.0000      0.7379      0.0000      0.0000      0.0000      0.7585      0.0000
 62      0.0000      0.9133      0.0000      0.3851      0.9826      0.0000      0.0000      1.9932      0.0000
 63      0.0000      0.3569      0.0000      0.1098      0.3519      0.7317      1.7651      0.0000      0.0000
 64      0.0000      0.2416      0.0000      0.0000      0.5909      0.0000      0.0000      0.0000      0.0000
 65      0.0000      0.0854      0.0000      0.3204      0.0000      0.0000      0.0000      0.0000      0.0000
 66      0.0000      0.0354      0.0000      0.1819      0.0000      0.0000      0.0000      0.0000      0.1030

# j      m_j: min, <> & last-chain-values for 1 ...  7 chains
  1  1.4011E-01  5.6863E-02  5.6129E-02  5.2052E-02  6.9567E-02  1.5745E-02  6.2491E-02  6.1548E-02  4.2947E-02
  2  0.0000E+00  6.3761E-03  4.7477E-04  0.0000E+00  1.0946E-02  7.2336E-03  0.0000E+00  1.1753E-02  4.7362E-03
  3  0.0000E+00  3.1937E-03  0.0000E+00  0.0000E+00  0.0000E+00  2.3080E-03  0.0000E+00  0.0000E+00  2.5911E-03
  4  0.0000E+00  2.0615E-03  7.5044E-03  0.0000E+00  1.3213E-02  0.0000E+00  0.0000E+00  0.0000E+00  6.3900E-04
  5  0.0000E+00  8.1075E-03  0.0000E+00  0.0000E+00  0.0000E+00  0.0000E+00  0.0000E+00  4.3296E-03  1.7571E-02
  6  0.0000E+00  1.3359E-02  2.1435E-02  0.0000E+00  2.6245E-03  0.0000E+00  0.0000E+00  0.0000E+00  0.0000E+00
  7  0.0000E+00  1.6460E-02  9.5085E-05  0.0000E+00  0.0000E+00  0.0000E+00  0.0000E+00  0.0000E+00  0.0000E+00
  8  0.0000E+00  2.8520E-02  6.0494E-02  2.0622E-02  0.0000E+00  2.7525E-02  0.0000E+00  2.6149E-02  3.8553E-03
  9  0.0000E+00  3.4616E-02  4.3613E-02  0.0000E+00  0.0000E+00  0.0000E+00  0.0000E+00  0.0000E+00  0.0000E+00
 10  0.0000E+00  2.5117E-02  0.0000E+00  0.0000E+00  0.0000E+00  0.0000E+00  0.0000E+00  0.0000E+00  0.0000E+00
 11  0.0000E+00  9.7480E-02  0.0000E+00  0.0000E+00  0.0000E+00  1.9985E-02  1.3834E-01  0.0000E+00  3.1736E-02
 12  0.0000E+00  2.1065E-01  0.0000E+00  0.0000E+00  0.0000E+00  9.2909E-02  0.0000E+00  0.0000E+00  0.0000E+00
 13  1.4692E+00  2.1319E+00  2.4247E+00  4.1753E+00  0.0000E+00  6.2361E-01  5.5386E-01  0.0000E+00  0.0000E+00
 14  0.0000E+00  7.3215E+00  0.0000E+00  1.2966E+01  1.3993E+01  6.4951E+00  1.3044E+01  4.3873E+00  6.0685E+00
 15  6.3647E+00  6.1513E+00  7.0586E+00  0.0000E+00  0.0000E+00  5.0777E+00  0.0000E+00  0.0000E+00  6.5995E+00
 16  2.9460E+01  1.6010E+01  2.4405E+01  3.7330E+00  1.0294E+01  2.1139E+01  1.4951E+01  2.3906E+01  1.4295E+01
 17  1.7827E+01  4.5605E+00  1.4483E+01  1.0802E+01  0.0000E+00  8.1803E+00  8.4891E+00  6.0012E+00  8.4567E+00
 18  8.6991E-02  3.2341E-02  6.3014E-02  7.0746E-02  6.5294E-03  9.0736E-02  3.6609E-03  3.4884E-02  5.4913E-02
 19  0.0000E+00  6.8075E-03  4.6486E-03  0.0000E+00  5.3139E-03  1.7018E-02  1.8732E-02  3.4875E-02  2.7852E-03
 20  0.0000E+00  7.2412E-03  9.0682E-03  1.1763E-02  0.0000E+00  0.0000E+00  5.1268E-03  0.0000E+00  0.0000E+00
 21  3.3855E-05  2.5020E-02  7.1421E-03  2.7279E-02  6.0512E-02  6.6307E-02  8.5095E-02  4.5813E-02  0.0000E+00
 22  0.0000E+00  1.3333E-02  6.0477E-03  0.0000E+00  0.0000E+00  0.0000E+00  5.6184E-02  0.0000E+00  0.0000E+00
 23  0.0000E+00  9.5902E-03  0.0000E+00  1.4860E-02  0.0000E+00  4.6592E-02  0.0000E+00  0.0000E+00  0.0000E+00
 24  0.0000E+00  1.7901E-02  6.6619E-03  0.0000E+00  0.0000E+00  0.0000E+00  9.4737E-03  0.0000E+00  0.0000E+00
 25  0.0000E+00  2.1252E-02  0.0000E+00  0.0000E+00  0.0000E+00  0.0000E+00  0.0000E+00  0.0000E+00  0.0000E+00
 26  0.0000E+00  5.8638E-02  0.0000E+00  2.1293E-01  0.0000E+00  5.9861E-02  0.0000E+00  0.0000E+00  0.0000E+00
 27  0.0000E+00  1.3750E-01  0.0000E+00  0.0000E+00  1.9211E-01  0.0000E+00  7.1783E-02  2.2156E-01  4.6478E-01
 28  1.0003E+01  9.7628E+00  8.9117E+00  1.2122E+01  1.4818E+01  1.0344E+01  1.3846E+01  1.4108E+01  1.0073E+01
 29  7.0931E-01  2.5243E+00  3.0601E+00  1.1332E+00  3.4287E+00  2.2642E+00  2.1239E+00  5.9315E+00  1.5218E+00
 30  2.0042E+00  1.6302E+00  1.8198E+00  0.0000E+00  0.0000E+00  0.0000E+00  3.2745E+00  0.0000E+00  0.0000E+00
 31  1.5306E+01  8.2950E+00  1.4263E+01  2.3660E+01  1.1575E+01  3.8671E+00  5.7222E+00  0.0000E+00  1.4248E+01
 32  0.0000E+00  1.5923E+00  0.0000E+00  0.0000E+00  4.8589E-02  0.0000E+00  0.0000E+00  0.0000E+00  0.0000E+00
 33  0.0000E+00  1.3345E+00  0.0000E+00  0.0000E+00  5.9381E+00  0.0000E+00  0.0000E+00  0.0000E+00  0.0000E+00
 34  0.0000E+00  7.0126E-01  0.0000E+00  0.0000E+00  7.8519E+00  0.0000E+00  0.0000E+00  0.0000E+00  0.0000E+00
 35  4.9052E-02  7.5420E-03  3.6513E-02  1.9643E-02  2.5616E-02  1.9575E-02  1.0361E-03  0.0000E+00  0.0000E+00
 36  1.2421E-03  1.1264E-02  1.7503E-02  1.7934E-02  3.9498E-02  1.3870E-02  4.5648E-03  6.3109E-03  9.1148E-03
 37  0.0000E+00  2.5919E-03  4.3415E-03  0.0000E+00  0.0000E+00  0.0000E+00  0.0000E+00  0.0000E+00  1.2471E-03
 38  0.0000E+00  1.7687E-02  8.5583E-03  4.1832E-02  0.0000E+00  2.1150E-02  6.8879E-02  2.9955E-02  3.6822E-02
 39  0.0000E+00  2.8431E-02  3.8739E-02  1.5049E-03  0.0000E+00  0.0000E+00  7.2915E-02  0.0000E+00  1.0665E-01
 40  0.0000E+00  1.8446E-02  0.0000E+00  0.0000E+00  0.0000E+00  1.1929E-02  0.0000E+00  3.2431E-02  3.8884E-02
 41  0.0000E+00  2.8203E-02  0.0000E+00  0.0000E+00  2.1217E-02  7.7777E-02  0.0000E+00  0.0000E+00  0.0000E+00
 42  6.5753E-05  4.2909E-02  9.8846E-02  0.0000E+00  0.0000E+00  0.0000E+00  0.0000E+00  3.9792E-02  0.0000E+00
 43  0.0000E+00  8.4117E-02  6.0771E-02  0.0000E+00  0.0000E+00  0.0000E+00  0.0000E+00  0.0000E+00  2.7073E-01
 44  2.2613E+00  3.6537E-01  4.3647E-01  0.0000E+00  3.0272E-01  1.0721E+00  1.4994E+00  0.0000E+00  0.0000E+00
 45  6.4784E+00  8.5439E+00  8.5951E+00  1.1383E+01  1.2315E+01  9.6554E+00  7.3478E+00  9.6124E+00  9.5475E+00
 46  7.4483E+00  8.1588E+00  7.1084E+00  6.6282E+00  1.0363E+01  7.2938E+00  1.3588E+01  7.2404E+00  8.1685E+00
 47  0.0000E+00  4.3941E+00  3.3868E+00  3.0923E-01  0.0000E+00  3.3470E+00  8.5573E+00  4.7428E+00  0.0000E+00
 48  3.2929E-01  1.5040E+00  2.1529E+00  0.0000E+00  0.0000E+00  9.0830E+00  0.0000E+00  0.0000E+00  0.0000E+00
 49  0.0000E+00  1.4979E+00  0.0000E+00  0.0000E+00  0.0000E+00  8.3228E+00  0.0000E+00  0.0000E+00  2.6422E+00
 50  0.0000E+00  2.9789E+00  0.0000E+00  0.0000E+00  0.0000E+00  0.0000E+00  0.0000E+00  1.9614E+01  1.4652E+01
 51  2.8092E-04  4.6099E-03  1.7327E-02  1.8940E-02  6.4110E-03  0.0000E+00  0.0000E+00  9.4362E-03  1.1520E-02
 52  0.0000E+00  5.2581E-03  0.0000E+00  6.1918E-03  0.0000E+00  8.9667E-04  1.5416E-02  0.0000E+00  2.9928E-03
 53  0.0000E+00  3.9735E-03  0.0000E+00  0.0000E+00  6.3404E-03  0.0000E+00  4.8909E-03  0.0000E+00  0.0000E+00
 54  6.1229E-02  4.1422E-02  1.6827E-02  5.3502E-02  7.3558E-02  3.5870E-02  5.1087E-02  7.4736E-02  7.1982E-02
 55  0.0000E+00  9.2161E-03  0.0000E+00  0.0000E+00  6.1603E-04  0.0000E+00  0.0000E+00  2.3279E-02  0.0000E+00
 56  0.0000E+00  1.8711E-02  0.0000E+00  0.0000E+00  0.0000E+00  0.0000E+00  0.0000E+00  0.0000E+00  0.0000E+00
 57  0.0000E+00  1.8480E-02  0.0000E+00  0.0000E+00  0.0000E+00  0.0000E+00  0.0000E+00  0.0000E+00  0.0000E+00
 58  0.0000E+00  8.3629E-02  0.0000E+00  0.0000E+00  0.0000E+00  4.3651E-02  1.7450E-02  1.1214E-02  3.8432E-02
 59  0.0000E+00  1.8255E-01  0.0000E+00  0.0000E+00  0.0000E+00  3.4888E-01  0.0000E+00  0.0000E+00  0.0000E+00
 60  7.6505E-04  6.3845E-01  1.3083E+00  0.0000E+00  0.0000E+00  0.0000E+00  0.0000E+00  0.0000E+00  1.5799E-01
 61  0.0000E+00  1.2408E+00  0.0000E+00  6.5577E-01  0.0000E+00  0.0000E+00  0.0000E+00  6.5400E-01  0.0000E+00
 62  0.0000E+00  1.4561E+00  0.0000E+00  6.2398E-01  1.7002E+00  0.0000E+00  0.0000E+00  3.1337E+00  0.0000E+00
 63  0.0000E+00  1.1320E+00  0.0000E+00  3.5401E-01  1.2113E+00  2.2149E+00  6.3161E+00  0.0000E+00  0.0000E+00
 64  0.0000E+00  2.1196E+00  0.0000E+00  0.0000E+00  5.6260E+00  0.0000E+00  0.0000E+00  0.0000E+00  0.0000E+00
 65  0.0000E+00  1.5847E+00  0.0000E+00  6.0400E+00  0.0000E+00  0.0000E+00  0.0000E+00  0.0000E+00  0.0000E+00
 66  0.0000E+00  9.2797E-01  0.0000E+00  4.8436E+00  0.0000E+00  0.0000E+00  0.0000E+00  0.0000E+00  2.3535E+00

# AV, chi2 & Mass for <> & i_chain = 1 ...  7 solutions
AV       0.2279      0.2616      0.2417      0.2625      0.2490      0.2707      0.2533      0.2565      0.2624
chi2 2.6331E-01  2.6805E-01  2.6559E-01  2.6635E-01  2.6624E-01  2.6655E-01  2.6686E-01  2.6609E-01  2.6688E-01
Mass 1.0625E-11  9.0250E-12  9.7734E-12  8.8900E-12  8.1763E-12  9.5737E-12  7.9118E-12  9.0895E-12  1.0362E-11
 -96.37                                  [v0_min (km/s) before EX0s...]
 184.52                                  [vd_min (km/s) before EX0s...]


## Synthetic spectrum (Best Model) ##l_obs f_obs f_syn wei
 3478    [Nl_obs]
 3741.00    0.24445   0.66978    0.000
 3742.00    0.22101   0.65621    0.000
 3743.00    0.27928   0.63513    0.000
 3744.00    0.35161   0.60927    0.000
 3745.00    0.39851   0.58147   16.885
 3746.00    0.42876   0.55591   16.885
 3747.00    0.50379   0.53805   16.885
 3748.00    0.65809   0.53294   15.196
 3749.00    0.81162   0.54317   -1.000
 3750.00    0.87337   0.56755   -1.000
 3751.00    0.86882   0.60091   -1.000
 3752.00    0.86103   0.63560   11.614
 3753.00    0.84712   0.66406   11.805
 3754.00    0.81552   0.68179   12.262
 3755.00    0.81794   0.68870   12.226
 3756.00    0.88495   0.68838   11.300
 3757.00    0.93123   0.68584   10.739
 3758.00    0.86872   0.68503   11.511
 3759.00    0.73766   0.68708   13.556
 3760.00    0.63289   0.69050   15.801
 3761.00    0.60688   0.69241   16.478
 3762.00    0.65314   0.68992   15.311
 3763.00    0.70475   0.68135   14.189
 3764.00    0.70438   0.66672   14.197
 3765.00    0.67418   0.64730   14.833
 3766.00    0.66015   0.62573   15.148
 3767.00    0.66852   0.60624   14.958
 3768.00    0.69082   0.59357   14.476
 3769.00    0.73372   0.59118   13.629
 3770.00    0.79061   0.60018   12.648
 3771.00    0.81521   0.61912   12.267
 3772.00    0.78255   0.64467   12.779
 3773.00    0.74529   0.67299   13.418
 3774.00    0.75014   0.70126   13.331
 3775.00    0.75692   0.72816   13.211
 3776.00    0.71859   0.75319   13.916
 3777.00    0.66110   0.77584   15.126
 3778.00    0.62334   0.79534   16.043
 3779.00    0.59667   0.81082   -1.000
 3780.00    0.57022   0.82126   -1.000
 3781.00    0.57439   0.82547   -1.000
 3782.00    0.63229   0.82270   15.816
 3783.00    0.71420   0.81320   14.002
 3784.00    0.77301   0.79827   12.936
 3785.00    0.78126   0.78027   12.800
 3786.00    0.73719   0.76198   13.565
 3787.00    0.66583   0.74530   15.019
 3788.00    0.60303   0.73030   16.583
 3789.00    0.57797   0.71520   16.885
 3790.00    0.58589   0.69746   16.885
 3791.00    0.57273   0.67499   16.885
 3792.00    0.50817   0.64717   16.885
 3793.00    0.44244   0.61559   16.885
 3794.00    0.43171   0.58431   16.885
 3795.00    0.47154   0.55916   16.885
 3796.00    0.51316   0.54599   16.885
 3797.00    0.49113   0.54878   16.885
 3798.00    0.40590   0.56806   16.885
 3799.00    0.37371   0.60037   -1.000
 3800.00    0.47106   0.63928   16.885
 3801.00    0.61803   0.67781   16.180
 3802.00    0.70909   0.71082   14.103
 3803.00    0.72384   0.73639   13.815
 3804.00    0.70099   0.75568   14.266
 3805.00    0.70421   0.77150   14.200
 3806.00    0.76530   0.78620   13.067
 3807.00    0.84874   0.80009   11.782
 3808.00    0.91630   0.81116   10.913
 3809.00    0.97472   0.81657   10.259
 3810.00    1.03690   0.81471    9.644
 3811.00    1.09166   0.80656    9.160
 3812.00    1.12042   0.79543    8.925
 3813.00    1.11249   0.78510    8.989
 3814.00    1.07226   0.77765    9.326
 3815.00    1.02016   0.77275    9.802
 3816.00    0.96369   0.76866   10.377
 3817.00    0.88269   0.76381   11.329
 3818.00    0.77980   0.75778   12.824
 3819.00    0.70733   0.75107   14.138
 3820.00    0.68923   0.74405   14.509
 3821.00    0.67715   0.73602   14.768
 3822.00    0.64749   0.72577   15.444
 3823.00    0.65699   0.71280   15.221
 3824.00    0.73404   0.69781   13.623
 3825.00    0.81309   0.68191   12.299
 3826.00    0.82476   0.66539   12.125
 3827.00    0.75873   0.64726   13.180
 3828.00    0.64942   0.62594   15.398
 3829.00    0.55702   0.60031   16.885
 3830.00    0.52144   0.57093   16.885
 3831.00    0.53465   0.54067   16.885
 3832.00    0.55835   0.51404   16.885
 3833.00    0.54725   0.49575   16.885
 3834.00    0.51746   0.48915   16.885
 3835.00    0.56413   0.49522   16.885
 3836.00    0.69428   0.51274   14.403
 3837.00    0.75504   0.53927   13.244
 3838.00    0.66476   0.57203   15.043
 3839.00    0.53465   0.60836   16.885
 3840.00    0.49619   0.64561   16.885
 3841.00    0.58647   0.68122   16.885
 3842.00    0.73423   0.71304   13.620
 3843.00    0.78654   0.73974   12.714
 3844.00    0.69926   0.76096   14.301
 3845.00    0.61550   0.77718   16.247
 3846.00    0.64739   0.78939   15.447
 3847.00    0.76063   0.79877    0.000
 3848.00    0.88101   0.80654    0.000
 3849.00    0.96079   0.81353    0.000
 3850.00    0.97902   0.81960    0.000
 3851.00    0.93965   0.82379    0.000
 3852.00    0.86957   0.82504    0.000
 3853.00    0.81238   0.82301    0.000
 3854.00    0.80028   0.81854    0.000
 3855.00    0.83742   0.81329    0.000
 3856.00    0.89566   0.80920    0.000
 3857.00    0.92169   0.80808    0.000
 3858.00    0.88489   0.81114    0.000
 3859.00    0.80190   0.81843    0.000
 3860.00    0.72691   0.82849    0.000
 3861.00    0.72910   0.83881    0.000
 3862.00    0.80659   0.84698    0.000
 3863.00    0.86704   0.85175    0.000
 3864.00    0.86145   0.85316    0.000
 3865.00    0.83845   0.85179    0.000
 3866.00    0.85748   0.84784    0.000
 3867.00    0.93485   0.84107    0.000
 3868.00    1.00726   0.83145    0.000
 3869.00    0.95606   0.81998    0.000
 3870.00    0.80962   0.80882    0.000
 3871.00    0.77445   0.80011    0.000
 3872.00    0.89488   0.79447    0.000
 3873.00    0.96064   0.79045    0.000
 3874.00    0.87746   0.78549    0.000
 3875.00    0.79097   0.77776    0.000
 3876.00    0.80425   0.76733    0.000
 3877.00    0.86695   0.75554    0.000
 3878.00    0.90806   0.74346    0.000
 3879.00    0.89901   0.73073    0.000
 3880.00    0.84274   0.71576    0.000
 3881.00    0.76344   0.69657   13.099
 3882.00    0.68880   0.67181   14.518
 3883.00    0.64028   0.64165   15.618
 3884.00    0.62667   0.60831   15.957
 3885.00    0.64046   0.57625   15.614
 3886.00    0.65456   0.55137   15.277
 3887.00    0.63574   0.53915   15.730
 3888.00    0.60671   0.54260   16.482
 3889.00    0.64218   0.56077   15.572
 3890.00    0.73887   0.58932   13.534
 3891.00    0.79643   0.62230   12.556
 3892.00    0.77404   0.65457   12.919
 3893.00    0.72993   0.68318   13.700
 3894.00    0.70478   0.70738   14.189
 3895.00    0.68734   0.72766   14.549
 3896.00    0.67803   0.74495   14.749
 3897.00    0.70322   0.76007   14.220
 3898.00    0.76429   0.77352   13.084
 3899.00    0.82839   0.78522   12.072
 3900.00    0.87529   0.79474   11.425
 3901.00    0.91031   0.80180   10.985
 3902.00    0.93975   0.80703   10.641
 3903.00    0.96027   0.81219   10.414
 3904.00    0.95691   0.81950   10.450
 3905.00    0.91432   0.83049   10.937
 3906.00    0.86005   0.84499   11.627
 3907.00    0.85596   0.86106   11.683
 3908.00    0.90636   0.87589   11.033
 3909.00    0.94714   0.88699   10.558
 3910.00    0.93380   0.89306   10.709
 3911.00    0.87431   0.89421   11.438
 3912.00    0.82485   0.89144   12.123
 3913.00    0.85784   0.88598   11.657
 3914.00    0.95887   0.87876   10.429
 3915.00    1.03016   0.87037    9.707
 3916.00    1.03225   0.86133    9.688
 3917.00    1.00589   0.85237    9.941
 3918.00    0.97186   0.84448   10.290
 3919.00    0.91386   0.83842   10.943
 3920.00    0.84221   0.83407   11.874
 3921.00    0.79737   0.83009   12.541
 3922.00    0.78728   0.82410   12.702
 3923.00    0.78301   0.81348   12.771
 3924.00    0.77528   0.79617   12.899
 3925.00    0.77997   0.77120   12.821
 3926.00    0.79408   0.73875   12.593
 3927.00    0.79158   0.69993   12.633
 3928.00    0.75752   0.65682   13.201
 3929.00    0.69515   0.61279   14.385
 3930.00    0.61244   0.57277   16.328
 3931.00    0.52067   0.54291   16.885
 3932.00    0.44378   0.52898   16.885
 3933.00    0.41525   0.53437   16.885
 3934.00    0.45963   0.55842   16.885
 3935.00    0.57580   0.59648   16.885
 3936.00    0.70603   0.64146   14.164
 3937.00    0.76450   0.68609   13.081
 3938.00    0.74720   0.72488   13.383
 3939.00    0.72504   0.75504   13.792
 3940.00    0.72710   0.77659   13.753
 3941.00    0.72869   0.79159   13.723
 3942.00    0.71879   0.80290   13.912
 3943.00    0.71456   0.81280   13.995
 3944.00    0.74417   0.82215   13.438
 3945.00    0.82468   0.83060   12.126
 3946.00    0.91660   0.83748   10.910
 3947.00    0.94888   0.84246   10.539
 3948.00    0.92139   0.84574   10.853
 3949.00    0.89661   0.84757   11.153
 3950.00    0.89948   0.84801   11.118
 3951.00    0.90475   0.84677   11.053
 3952.00    0.87906   0.84348   11.376
 3953.00    0.80638   0.83784   12.401
 3954.00    0.72218   0.82984   13.847
 3955.00    0.68996   0.81951   14.494
 3956.00    0.71842   0.80653   13.919
 3957.00    0.76528   0.78989   13.067
 3958.00    0.80318   0.76824   12.451
 3959.00    0.82604   0.74070   12.106
 3960.00    0.82099   0.70736    0.000
 3961.00    0.77331   0.66892    0.000
 3962.00    0.69591   0.62620    0.000
 3963.00    0.62110   0.57998    0.000
 3964.00    0.56248   0.53189    0.000
 3965.00    0.51559   0.48538    0.000
 3966.00    0.48215   0.44589    0.000
 3967.00    0.46666   0.41966    0.000
 3968.00    0.45466   0.41164    0.000
 3969.00    0.42889   0.42356    0.000
 3970.00    0.41805   0.45336    0.000
 3971.00    0.47091   0.49603    0.000
 3972.00    0.57183   0.54546    0.000
 3973.00    0.65161   0.59626    0.000
 3974.00    0.65806   0.64466    0.000
 3975.00    0.58944   0.68863    0.000
 3976.00    0.52896   0.72720    0.000
 3977.00    0.57797   0.75983    0.000
 3978.00    0.69631   0.78624    0.000
 3979.00    0.75795   0.80665    0.000
 3980.00    0.74695   0.82210    0.000
 3981.00    0.73636   0.83437   13.580
 3982.00    0.75069   0.84538   13.321
 3983.00    0.76978   0.85648   12.991
 3984.00    0.79989   0.86810   12.502
 3985.00    0.85873   0.87994   11.645
 3986.00    0.91386   0.89140   10.943
 3987.00    0.91447   0.90201   10.935
 3988.00    0.88097   0.91153   11.351
 3989.00    0.87642   0.91981   11.410
 3990.00    0.91234   0.92641   10.961
 3991.00    0.95950   0.93064   10.422
 3992.00    1.00705   0.93195    9.930
 3993.00    1.05327   0.93060    9.494
 3994.00    1.06485   0.92803    9.391
 3995.00    1.00863   0.92650    9.914
 3996.00    0.92603   0.92799   10.799
 3997.00    0.89338   0.93313   11.193
 3998.00    0.92001   0.94066   10.870
 3999.00    0.95918   0.94789   10.426
 4000.00    0.96645   0.95201   10.347
 4001.00    0.92680   0.95148   10.790
 4002.00    0.88204   0.94687   11.337
 4003.00    0.88905   0.94078   11.248
 4004.00    0.93652   0.93660   10.678
 4005.00    0.96877   0.93682   10.322
 4006.00    0.95613   0.94185   10.459
 4007.00    0.90671   0.95010   11.029
 4008.00    0.86287   0.95915   11.589
 4009.00    0.87169   0.96707   11.472
 4010.00    0.93531   0.97312   10.692
 4011.00    1.01564   0.97752    9.846
 4012.00    1.05925   0.98092    9.441
 4013.00    1.03803   0.98388    9.634
 4014.00    1.00696   0.98677    9.931
 4015.00    1.03751   0.98969    9.638
 4016.00    1.09382   0.99251    9.142
 4017.00    1.09766   0.99470    9.110
 4018.00    1.06646   0.99537    9.377
 4019.00    1.06674   0.99370    9.374
 4020.00    1.10321   0.98951    9.064
 4021.00    1.14118   0.98368    8.763
 4022.00    1.17075   0.97790    8.542
 4023.00    1.19693   0.97381    8.355
 4024.00    1.20849   0.97197    8.275
 4025.00    1.18389   0.97122    8.447
 4026.00    1.10908   0.96928    9.016
 4027.00    0.99779   0.96409   10.022
 4028.00    0.91494   0.95540   10.930
 4029.00    0.91684   0.94528   10.907
 4030.00    0.95980   0.93730   10.419
 4031.00    0.97121   0.93490   10.296
 4032.00    0.97170   0.93991   10.291
 4033.00    1.01234   0.95179    9.878
 4034.00    1.06002   0.96799    9.434
 4035.00    1.06099   0.98480    9.425
 4036.00    1.05264   0.99856    9.500
 4037.00    1.09330   1.00669    9.147
 4038.00    1.14393   1.00816    8.742
 4039.00    1.13725   1.00323    8.793
 4040.00    1.09423   0.99292    9.139
 4041.00    1.05748   0.97884    9.456
 4042.00    0.98274   0.96351   10.176
 4043.00    0.83570   0.95049   11.966
 4044.00    0.73478   0.94349   13.609
 4045.00    0.80133   0.94462   12.479
 4046.00    0.94207   0.95309   10.615
 4047.00    1.00000   0.96538   10.000
 4048.00    0.98607   0.97687   10.141
 4049.00    0.98514   0.98394   10.151
 4050.00    0.99688   0.98510   10.031
 4051.00    0.98338   0.98109   10.169
 4052.00    0.95473   0.97398   10.474
 4053.00    0.94019   0.96619   10.636
 4054.00    0.93891   0.95969   10.651
 4055.00    0.93358   0.95558   10.711
 4056.00    0.91582   0.95392   10.919
 4057.00    0.89405   0.95368   11.185
 4058.00    0.89659   0.95304   11.153
 4059.00    0.93087   0.95022   10.743
 4060.00    0.93910   0.94461   10.648
 4061.00    0.88165   0.93746   11.342
 4062.00    0.83491   0.93126   11.977
 4063.00    0.87618   0.92835   11.413
 4064.00    0.94269   0.92954   10.608
 4065.00    0.95163   0.93373   10.508
 4066.00    0.95019   0.93867   10.524
 4067.00    1.00034   0.94208    9.997
 4068.00    1.03577   0.94265    9.655
 4069.00    0.97925   0.94031   10.212
 4070.00    0.88632   0.93581   11.283
 4071.00    0.85080   0.92983   11.754
 4072.00    0.88358   0.92240   11.318
 4073.00    0.93825   0.91341   10.658
 4074.00    0.95732   0.90370   10.446
 4075.00    0.91784   0.89559   10.895
 4076.00    0.86992   0.89202   11.495
 4077.00    0.86175   0.89471   11.604
 4078.00    0.86170   0.90268   11.605
 4079.00    0.83794   0.91266   11.934
 4080.00    0.84273   0.92087   11.866
 4081.00    0.91431   0.92508   10.937
 4082.00    0.97578   0.92556   10.248
 4083.00    0.95220   0.92434   10.502
 4084.00    0.89264   0.92358   11.203
 4085.00    0.87233   0.92411   11.464
 4086.00    0.88637   0.92506   11.282
 4087.00    0.90422   0.92454   11.059
 4088.00    0.93056   0.92071   10.746
 4089.00    0.96548   0.91251   10.358
 4090.00    0.96602   0.89974   10.352
 4091.00    0.91400   0.88256   10.941
 4092.00    0.87575   0.86115    0.000
 4093.00    0.89970   0.83551    0.000
 4094.00    0.92311   0.80568    0.000
 4095.00    0.87833   0.77200    0.000
 4096.00    0.79447   0.73543    0.000
 4097.00    0.72967   0.69809    0.000
 4098.00    0.70068   0.66363    0.000
 4099.00    0.69305   0.63713    0.000
 4100.00    0.67949   0.62366    0.000
 4101.00    0.65490   0.62637    0.000
 4102.00    0.66028   0.64476    0.000
 4103.00    0.72139   0.67463    0.000
 4104.00    0.79812   0.70970    0.000
 4105.00    0.84276   0.74405    0.000
 4106.00    0.85230   0.77391    0.000
 4107.00    0.84200   0.79820    0.000
 4108.00    0.82041   0.81800    0.000
 4109.00    0.80297   0.83522    0.000
 4110.00    0.82145   0.85148    0.000
 4111.00    0.88828   0.86737    0.000
 4112.00    0.96976   0.88231    0.000
 4113.00    1.02177   0.89497    9.787
 4114.00    1.02214   0.90408    9.783
 4115.00    0.97879   0.90911   10.217
 4116.00    0.92999   0.91067   10.753
 4117.00    0.90636   0.91035   11.033
 4118.00    0.90349   0.91010   11.068
 4119.00    0.91313   0.91139   10.951
 4120.00    0.94532   0.91476   10.578
 4121.00    0.99325   0.91968   10.068
 4122.00    1.01164   0.92486    9.885
 4123.00    0.97603   0.92876   10.246
 4124.00    0.92318   0.93018   10.832
 4125.00    0.89590   0.92870   11.162
 4126.00    0.90042   0.92473   11.106
 4127.00    0.92130   0.91929   10.854
 4128.00    0.93672   0.91366   10.676
 4129.00    0.93294   0.90918   10.719
 4130.00    0.91337   0.90730   10.949
 4131.00    0.89044   0.90933   11.230
 4132.00    0.87785   0.91601   11.391
 4133.00    0.88079   0.92698   11.353
 4134.00    0.89171   0.94059   11.214
 4135.00    0.90918   0.95427   10.999
 4136.00    0.94737   0.96515   10.556
 4137.00    1.00619   0.97082    9.938
 4138.00    1.05467   0.96992    9.482
 4139.00    1.06525   0.96272    9.387
 4140.00    1.03700   0.95141    9.643
 4141.00    0.98498   0.93971   10.152
 4142.00    0.93153   0.93155   10.735
 4143.00    0.90226   0.92930   11.083
 4144.00    0.91759   0.93277   10.898
 4145.00    0.95234   0.93954   10.500
 4146.00    0.92794   0.94644   10.777
 4147.00    0.83627   0.95107   11.958
 4148.00    0.79438   0.95256   12.588
 4149.00    0.86737   0.95126   11.529
 4150.00    0.97365   0.94813   10.271
 4151.00    1.02755   0.94425    9.732
 4152.00    1.02696   0.94074    9.737
 4153.00    1.00813   0.93871    9.919
 4154.00    1.00820   0.93910    9.919
 4155.00    1.02803   0.94232    9.727
 4156.00    1.02286   0.94810    9.777
 4157.00    0.97954   0.95550   10.209
 4158.00    0.95119   0.96333   10.513
 4159.00    0.97849   0.97050   10.220
 4160.00    1.04659   0.97618    9.555
 4161.00    1.11863   0.97983    8.939
 4162.00    1.15925   0.98114    8.626
 4163.00    1.14681   0.98003    8.720
 4164.00    1.08169   0.97671    9.245
 4165.00    0.99531   0.97152   10.047
 4166.00    0.94454   0.96467   10.587
 4167.00    0.95342   0.95608   10.489
 4168.00    0.98988   0.94565   10.102
 4169.00    1.02123   0.93378    9.792
 4170.00    1.04159   0.92184    9.601
 4171.00    1.04676   0.91189    9.553
 4172.00    1.02408   0.90570    9.765
 4173.00    0.97643   0.90392   10.241
 4174.00    0.93109   0.90590   10.740
 4175.00    0.91564   0.91026   10.921
 4176.00    0.94328   0.91575   10.601
 4177.00    1.00627   0.92156    9.938
 4178.00    1.07522   0.92720    9.300
 4179.00    1.11239   0.93229    8.990
 4180.00    1.08571   0.93650    9.211
 4181.00    1.00377   0.93956    9.962
 4182.00    0.92184   0.94139   10.848
 4183.00    0.88398   0.94204   11.312
 4184.00    0.89615   0.94187   11.159
 4185.00    0.94056   0.94163   10.632
 4186.00    0.98741   0.94238   10.127
 4187.00    1.01348   0.94501    9.867
 4188.00    1.01133   0.94965    9.888
 4189.00    0.98987   0.95544   10.102
 4190.00    0.96921   0.96063   10.318
 4191.00    0.95664   0.96320   10.453
 4192.00    0.94000   0.96147   10.638
 4193.00    0.91044   0.95482   10.984
 4194.00    0.87276   0.94406   11.458
 4195.00    0.84253   0.93125   11.869
 4196.00    0.83934   0.91905   11.914
 4197.00    0.86359   0.90980   11.580
 4198.00    0.89300   0.90487   11.198
 4199.00    0.91319   0.90449   10.951
 4200.00    0.92929   0.90812   10.761
 4201.00    0.95501   0.91482   10.471
 4202.00    1.00198   0.92365    9.980
 4203.00    1.05656   0.93367    9.465
 4204.00    1.08272   0.94390    9.236
 4205.00    1.07573   0.95334    9.296
 4206.00    1.06916   0.96118    9.353
 4207.00    1.06770   0.96686    9.366
 4208.00    1.03752   0.97015    9.638
 4209.00    0.98456   0.97094   10.157
 4210.00    0.96542   0.96918   10.358
 4211.00    0.99864   0.96506   10.014
 4212.00    1.04203   0.95946    9.597
 4213.00    1.05027   0.95412    9.521
 4214.00    1.00573   0.95111    9.943
 4215.00    0.94323   0.95188   10.602
 4216.00    0.93101   0.95615   10.741
 4217.00    0.96326   0.96179   10.381
 4218.00    0.95659   0.96543   10.454
 4219.00    0.89707   0.96379   11.147
 4220.00    0.86302   0.95485   11.587
 4221.00    0.89483   0.93866   11.175
 4222.00    0.95801   0.91772   10.438
 4223.00    0.99496   0.89654   10.051
 4224.00    0.96204   0.88058   10.395
 4225.00    0.88780   0.87427   11.264
 4226.00    0.86112   0.87917   11.613
 4227.00    0.91374   0.89314   10.944
 4228.00    0.99656   0.91105   10.035
 4229.00    1.04971   0.92717    9.526
 4230.00    1.03828   0.93746    9.631
 4231.00    0.98388   0.94091   10.164
 4232.00    0.95031   0.93916   10.523
 4233.00    0.95831   0.93513   10.435
 4234.00    0.97400   0.93154   10.267
 4235.00    0.97130   0.93016   10.295
 4236.00    0.95126   0.93167   10.512
 4237.00    0.93204   0.93597   10.729
 4238.00    0.93410   0.94246   10.706
 4239.00    0.94444   0.95014   10.588
 4240.00    0.92603   0.95768   10.799
 4241.00    0.88523   0.96357   11.297
 4242.00    0.87042   0.96640   11.489
 4243.00    0.89755   0.96530   11.142
 4244.00    0.93951   0.96028   10.644
 4245.00    0.97010   0.95241   10.308
 4246.00    0.97689   0.94350   10.237
 4247.00    0.95630   0.93556   10.458
 4248.00    0.91696   0.93005   10.904
 4249.00    0.89432   0.92758   11.179
 4250.00    0.92946   0.92787   10.763
 4251.00    0.99472   0.93009   10.058
 4252.00    1.01299   0.93323    9.863
 4253.00    0.97996   0.93632   10.190
 4254.00    0.95862   0.93845   10.459
 4255.00    0.95687   0.93887   10.493
 4256.00    0.92946   0.93741   10.677
 4257.00    0.88747   0.93492   11.136
 4258.00    0.88813   0.93329   11.519
 4259.00    0.91686   0.93473   11.260
 4260.00    0.90176   0.94045   10.440
 4261.00    0.84725   0.94978   10.794
 4262.00    0.83037   0.96019   14.890
 4263.00    0.88633   0.96828   15.265
 4264.00    0.98623   0.97108    6.384
 4265.00    1.06606   0.96705    3.358
 4266.00    1.06540   0.95638    2.720
 4267.00    1.00525   0.94075    2.858
 4268.00    0.96288   0.92288    3.058
 4269.00    0.95251   0.90600    3.010
 4270.00    0.92973   0.89322    2.956
 4271.00    0.88509   0.88685    3.006
 4272.00    0.84859   0.88780    3.066
 4273.00    0.83763   0.89533    3.087
 4274.00    0.84896   0.90722    3.100
 4275.00    0.87336   0.92039    3.121
 4276.00    0.89917   0.93177    3.131
 4277.00    0.91181   0.93922    3.126
 4278.00    0.90214   0.94203    3.118
 4279.00    0.88621   0.94084    3.123
 4280.00    0.88843   0.93707    3.152
 4281.00    0.89127   0.93201    3.201
 4282.00    0.85958   0.92623    3.255
 4283.00    0.82499   0.91954    3.311
 4284.00    0.85291   0.91150    3.373
 4285.00    0.92085   0.90210    3.437
 4286.00    0.94390   0.89222    3.492
 4287.00    0.89830   0.88362    3.538
 4288.00    0.82509   0.87821    3.582
 4289.00    0.77208   0.87710    3.618
 4290.00    0.77080   0.87978    3.629
 4291.00    0.81665   0.88412    3.628
 4292.00    0.87576   0.88711    3.639
 4293.00    0.91033   0.88602    3.660
 4294.00    0.89694   0.87936    3.666
 4295.00    0.85260   0.86728    3.650
 4296.00    0.81515   0.85140    3.618
 4297.00    0.79053   0.83431    3.566
 4298.00    0.76160   0.81885    3.486
 4299.00    0.73010   0.80731    3.396
 4300.00    0.71081   0.80064    3.325
 4301.00    0.70127   0.79826    3.274
 4302.00    0.68936   0.79838    3.231
 4303.00    0.68114   0.79900    3.199
 4304.00    0.69280   0.79886    3.187
 4305.00    0.72310   0.79804    3.189
 4306.00    0.75933   0.79781    3.193
 4307.00    0.79980   0.79994    3.209
 4308.00    0.84837   0.80577    3.257
 4309.00    0.89540   0.81572    3.331
 4310.00    0.92420   0.82940    3.397
 4311.00    0.93063   0.84606    3.404
 4312.00    0.92479   0.86489    3.325
 4313.00    0.92621   0.88490    3.215
 4314.00    0.94902   0.90455    3.148
 4315.00    0.97676   0.92161    3.120
 4316.00    0.97553   0.93356    3.092
 4317.00    0.92713   0.93838    3.065
 4318.00    0.84493   0.93515    3.065
 4319.00    0.78891   0.92430    3.112
 4320.00    0.81217   0.90753    3.204
 4321.00    0.86455   0.88758    3.302
 4322.00    0.86110   0.86795    3.362
 4323.00    0.82927   0.85228    3.434
 4324.00    0.84744   0.84342    3.562
 4325.00    0.89621   0.84225    3.536
 4326.00    0.90605   0.84732    3.268
 4327.00    0.88138   0.85532    3.330
 4328.00    0.87152   0.86242    4.653
 4329.00    0.88615   0.86552    9.470
 4330.00    0.89911   0.86276    0.000
 4331.00    0.87969   0.85317    0.000
 4332.00    0.81952   0.83608    0.000
 4333.00    0.76532   0.81100    0.000
 4334.00    0.76813   0.77827    0.000
 4335.00    0.79631   0.73995    0.000
 4336.00    0.79554   0.70033    0.000
 4337.00    0.80236   0.66532   -2.000
 4338.00    0.87430   0.64116   -2.000
 4339.00    0.95640   0.63230   -2.000
 4340.00    0.95544   0.63999   -2.000
 4341.00    0.88352   0.66201   -2.000
 4342.00    0.80652   0.69357   -2.000
 4343.00    0.73432   0.72895   -2.000
 4344.00    0.66017   0.76298   -2.000
 4345.00    0.64079   0.79191   -2.000
 4346.00    0.72640   0.81370   -2.000
 4347.00    0.84474   0.82791   -2.000
 4348.00    0.88711   0.83568   -2.000
 4349.00    0.85568   0.83957   -2.000
 4350.00    0.81970   0.84275   -2.000
 4351.00    0.82098   0.84807   -2.000
 4352.00    0.85650   0.85704   -2.000
 4353.00    0.87630   0.86932    3.262
 4354.00    0.84181   0.88324    3.297
 4355.00    0.80278   0.89683    3.317
 4356.00    0.81814   0.90894    3.331
 4357.00    0.83842   0.91946    3.352
 4358.00    0.79984   0.92902    3.385
 4359.00    0.76694   0.93827    3.412
 4360.00    0.82731   0.94726    3.409
 4361.00    0.93116   0.95524    3.385
 4362.00    0.97843   0.96097    3.363
 4363.00    0.95960   0.96350    3.354
 4364.00    0.92582   0.96257    3.363
 4365.00    0.92457   0.95880    3.392
 4366.00    0.96663   0.95341    3.442
 4367.00    0.99896   0.94766    3.513
 4368.00    0.97456   0.94229    3.598
 4369.00    0.93973   0.93737    3.669
 4370.00    0.95584   0.93267    3.698
 4371.00    0.99276   0.92838    3.688
 4372.00    0.99080   0.92537    3.660
 4373.00    0.95067   0.92479    3.626
 4374.00    0.90742   0.92729    3.592
 4375.00    0.88563   0.93218    3.569
 4376.00    0.89462   0.93717    3.565
 4377.00    0.92859   0.93903    3.568
 4378.00    0.96135   0.93502    3.567
 4379.00    0.94389   0.92426    3.573
 4380.00    0.85531   0.90845    3.592
 4381.00    0.75722   0.89137    3.596
 4382.00    0.72530   0.87753    3.577
 4383.00    0.76585   0.87051    3.604
 4384.00    0.83887   0.87157    3.675
 4385.00    0.89696   0.87941    3.576
 4386.00    0.91719   0.89108    3.343
 4387.00    0.92805   0.90347    3.574
 4388.00    0.95916   0.91444    5.211
 4389.00    0.98692   0.92306    9.923
 4390.00    0.98363   0.92942   12.958
 4391.00    0.97287   0.93423   10.336
 4392.00    0.98189   0.93832    9.466
 4393.00    0.98830   0.94219   10.103
 4394.00    0.96140   0.94581   10.700
 4395.00    0.90981   0.94869   10.996
 4396.00    0.86447   0.95013   11.440
 4397.00    0.85409   0.94950   11.707
 4398.00    0.88218   0.94666   11.380
 4399.00    0.91044   0.94203   10.984
 4400.00    0.90963   0.93641   10.978
 4401.00    0.90696   0.93070   11.026
 4402.00    0.92451   0.92585   10.823
 4403.00    0.92011   0.92291   10.868
 4404.00    0.86055   0.92282   11.616
 4405.00    0.79312   0.92621   12.609
 4406.00    0.78532   0.93299   12.742
 4407.00    0.85920   0.94210   11.638
 4408.00    0.98059   0.95175   10.185
 4409.00    1.06243   0.95975    9.413
 4410.00    1.04799   0.96404    9.573
 4411.00    0.98179   0.96373   10.182
 4412.00    0.93688   0.95967   10.567
 4413.00    0.94134   0.95418   10.635
 4414.00    0.97694   0.95000   10.518
 4415.00    0.99032   0.94926   10.064
 4416.00    0.95837   0.95254    9.699
 4417.00    0.93679   0.95855   10.795
 4418.00    0.96584   0.96503   13.175
 4419.00    0.99307   0.96995    9.708
 4420.00    0.97007   0.97229    5.205
 4421.00    0.93497   0.97221    3.654
 4422.00    0.93899   0.97078    3.464
 4423.00    0.97958   0.96915    3.710
 4424.00    1.02301   0.96796    3.784
 4425.00    1.03141   0.96722    3.699
 4426.00    0.99376   0.96657    3.695
 4427.00    0.94521   0.96545    3.754
 4428.00    0.92311   0.96338    3.780
 4429.00    0.92998   0.96018    3.767
 4430.00    0.94074   0.95616    3.747
 4431.00    0.91657   0.95218    3.736
 4432.00    0.85332   0.94949    3.735
 4433.00    0.81047   0.94937    3.736
 4434.00    0.83208   0.95248    3.739
 4435.00    0.88901   0.95825    3.755
 4436.00    0.93405   0.96478    3.789
 4437.00    0.94815   0.96971    3.825
 4438.00    0.93781   0.97130    3.851
 4439.00    0.92723   0.96931    3.879
 4440.00    0.93128   0.96524    3.919
 4441.00    0.93842   0.96156    3.961
 4442.00    0.93573   0.96051    3.993
 4443.00    0.92832   0.96303    4.017
 4444.00    0.93703   0.96839    4.030
 4445.00    0.98866   0.97472    4.022
 4446.00    1.06229   0.97986    3.991
 4447.00    1.06801   0.98219    3.961
 4448.00    0.97653   0.98096    3.950
 4449.00    0.89227   0.97614    3.949
 4450.00    0.89605   0.96827    3.945
 4451.00    0.94413   0.95837    3.942
 4452.00    0.97100   0.94767    3.946
 4453.00    0.96278   0.93744    3.962
 4454.00    0.93560   0.92896    3.983
 4455.00    0.91353   0.92305    3.993
 4456.00    0.90140   0.91988    3.982
 4457.00    0.87458   0.91922    3.961
 4458.00    0.83165   0.92070    3.941
 4459.00    0.81972   0.92395    3.932
 4460.00    0.86508   0.92849    3.932
 4461.00    0.93306   0.93368    0.000
 4462.00    0.97378   0.93880    0.000
 4463.00    0.95719   0.94298    0.000
 4464.00    0.89504   0.94547    0.000
 4465.00    0.84400   0.94628    0.000
 4466.00    0.84268   0.94629    0.000
 4467.00    0.87646   0.94681    0.000
 4468.00    0.90991   0.94930    0.000
 4469.00    0.91248   0.95474    0.000
 4470.00    0.88370   0.96310    0.000
 4471.00    0.86073   0.97331    0.000
 4472.00    0.87457   0.98362    0.000
 4473.00    0.92410   0.99201    0.000
 4474.00    0.98272   0.99664    0.000
 4475.00    1.01082   0.99636    0.000
 4476.00    1.00011   0.99125    0.000
 4477.00    0.98796   0.98256    0.000
 4478.00    0.99022   0.97274    0.000
 4479.00    0.97371   0.96483    0.000
 4480.00    0.92573   0.96126    0.000
 4481.00    0.88407   0.96286    0.000
 4482.00    0.87650   0.96863    4.043
 4483.00    0.89081   0.97619    4.042
 4484.00    0.90468   0.98269    4.039
 4485.00    0.90526   0.98607    4.027
 4486.00    0.89996   0.98573    4.008
 4487.00    0.91383   0.98260    3.993
 4488.00    0.94590   0.97852    3.984
 4489.00    0.95784   0.97517    3.965
 4490.00    0.93813   0.97333    3.933
 4491.00    0.92308   0.97305    3.908
 4492.00    0.92516   0.97409    3.899
 4493.00    0.91004   0.97620    3.896
 4494.00    0.87473   0.97919    3.888
 4495.00    0.87079   0.98309    3.879
 4496.00    0.91397   0.98792    3.876
 4497.00    0.95480   0.99356    3.879
 4498.00    0.96505   0.99990    3.875
 4499.00    0.96959   1.00672    3.853
 4500.00    0.98411   1.01373    3.850
 4501.00    0.99236   1.02060    3.941
 4502.00    0.98909   1.02674    4.026
 4503.00    0.99340   1.03153    3.848
 4504.00    1.00950   1.03443    3.682
 4505.00    1.01691   1.03534    4.298
 4506.00    1.01467   1.03444    6.806
 4507.00    1.02979   1.03210   11.107
 4508.00    1.05930   1.02883   10.681
 4509.00    1.05930   1.02495    9.043
 4510.00    1.01910   1.02045    9.350
 4511.00    0.98040   1.01537   10.456
 4512.00    0.96857   1.01010   10.737
 4513.00    0.96983   1.00521   10.015
 4514.00    0.97130   1.00130    9.638
 4515.00    0.97536   0.99867   11.009
 4516.00    0.98212   0.99716   12.420
 4517.00    0.98306   0.99616    8.284
 4518.00    0.96873   0.99478    4.950
 4519.00    0.93583   0.99219    4.011
 4520.00    0.90227   0.98771    4.109
 4521.00    0.90062   0.98114    4.125
 4522.00    0.92603   0.97271    3.918
 4523.00    0.93165   0.96293    4.566
 4524.00    0.89945   0.95271    7.631
 4525.00    0.85914   0.94317   14.004
 4526.00    0.84406   0.93540   13.651
 4527.00    0.86721   0.92995   10.918
 4528.00    0.90112   0.92672   10.657
 4529.00    0.89208   0.92559   11.402
 4530.00    0.84447   0.92651   11.945
 4531.00    0.82533   0.92941   12.146
 4532.00    0.85376   0.93431   11.907
 4533.00    0.88253   0.94120   11.057
 4534.00    0.89402   0.94971   10.587
 4535.00    0.91816   0.95901   11.764
 4536.00    0.95939   0.96791   12.366
 4537.00    0.98560   0.97520    8.147
 4538.00    0.99084   0.97998    5.027
 4539.00    1.00270   0.98200    4.085
 4540.00    1.02361   0.98177    4.156
 4541.00    1.02378   0.97999    4.408
 4542.00    0.99417   0.97730    4.396
 4543.00    0.95736   0.97389    4.310
 4544.00    0.93663   0.96982    4.311
 4545.00    0.94089   0.96522    4.337
 4546.00    0.95307   0.96028    4.347
 4547.00    0.94071   0.95556    4.372
 4548.00    0.90476   0.95171    4.410
 4549.00    0.87988   0.94910    4.413
 4550.00    0.87875   0.94782    0.000
 4551.00    0.88567   0.94809    0.000
 4552.00    0.89902   0.95022    0.000
 4553.00    0.93082   0.95452    0.000
 4554.00    0.95891   0.96086    0.000
 4555.00    0.93893   0.96879    0.000
 4556.00    0.89208   0.97764    0.000
 4557.00    0.89223   0.98602    0.000
 4558.00    0.93580   0.99235    0.000
 4559.00    0.94639   0.99564    0.000
 4560.00    0.91941   0.99590    0.000
 4561.00    0.92375   0.99418    0.000
 4562.00    0.96581   0.99214    0.000
 4563.00    0.98466   0.99114    0.000
 4564.00    0.96710   0.99168    0.000
 4565.00    0.95548   0.99328    0.000
 4566.00    0.96440   0.99528    0.000
 4567.00    0.97234   0.99711    0.000
 4568.00    0.97276   0.99812    0.000
 4569.00    0.97650   0.99816    0.000
 4570.00    0.97468   0.99781    0.000
 4571.00    0.94537   0.99773    0.000
 4572.00    0.90338   0.99814    0.000
 4573.00    0.89051   0.99845    0.000
 4574.00    0.90851   0.99773    0.000
 4575.00    0.92114   0.99526    0.000
 4576.00    0.91302   0.99053    0.000
 4577.00    0.89484   0.98374    0.000
 4578.00    0.87178   0.97610    0.000
 4579.00    0.84535   0.96902    0.000
 4580.00    0.84152   0.96346    0.000
 4581.00    0.89259   0.96014    0.000
 4582.00    0.97057   0.95950    0.000
 4583.00    1.00686   0.96141    0.000
 4584.00    0.98866   0.96515    0.000
 4585.00    0.95846   0.96957    0.000
 4586.00    0.94622   0.97364    0.000
 4587.00    0.95445   0.97674    0.000
 4588.00    0.96679   0.97838    0.000
 4589.00    0.96192   0.97845    0.000
 4590.00    0.94133   0.97740    0.000
 4591.00    0.92197   0.97594    0.000
 4592.00    0.90139   0.97476    0.000
 4593.00    0.86747   0.97437    0.000
 4594.00    0.84197   0.97472    0.000
 4595.00    0.86090   0.97556    0.000
 4596.00    0.90382   0.97656    0.000
 4597.00    0.91574   0.97736    0.000
 4598.00    0.89743   0.97800    0.000
 4599.00    0.89356   0.97867    0.000
 4600.00    0.91548   0.97965    0.000
 4601.00    0.94053   0.98135    0.000
 4602.00    0.95238   0.98416    0.000
 4603.00    0.94921   0.98833    0.000
 4604.00    0.94017   0.99364    0.000
 4605.00    0.93756   0.99935    0.000
 4606.00    0.94171   1.00465    0.000
 4607.00    0.94471   1.00888    0.000
 4608.00    0.94573   1.01162    0.000
 4609.00    0.94856   1.01275    0.000
 4610.00    0.94945   1.01230    0.000
 4611.00    0.94126   1.01067    0.000
 4612.00    0.92786   1.00842    0.000
 4613.00    0.91820   1.00600    0.000
 4614.00    0.90818   1.00391    0.000
 4615.00    0.89048   1.00252    0.000
 4616.00    0.88192   1.00189    0.000
 4617.00    0.90640   1.00204    0.000
 4618.00    0.95002   1.00294    0.000
 4619.00    0.97871   1.00447    0.000
 4620.00    0.99109   1.00623    0.000
 4621.00    1.00697   1.00773    0.000
 4622.00    1.02426   1.00860    0.000
 4623.00    1.02557   1.00840    0.000
 4624.00    1.00753   1.00697    0.000
 4625.00    0.98004   1.00497    0.000
 4626.00    0.95360   1.00298    0.000
 4627.00    0.93679   1.00106    0.000
 4628.00    0.93622   0.99918    0.000
 4629.00    0.95136   0.99738    0.000
 4630.00    0.96580   0.99540    0.000
 4631.00    0.96039   0.99297    0.000
 4632.00    0.93963   0.99013    0.000
 4633.00    0.92356   0.98698    0.000
 4634.00    0.92435   0.98366    0.000
 4635.00    0.94253   0.98078    0.000
 4636.00    0.96822   0.97910    0.000
 4637.00    0.98803   0.97870    0.000
 4638.00    0.99641   0.97898    0.000
 4639.00    0.99305   0.97925    0.000
 4640.00    0.97523   0.97871    0.000
 4641.00    0.94500   0.97660    0.000
 4642.00    0.92282   0.97277    0.000
 4643.00    0.92898   0.96779    0.000
 4644.00    0.94986   0.96271    0.000
 4645.00    0.95555   0.95873    0.000
 4646.00    0.93801   0.95695    0.000
 4647.00    0.91076   0.95781    0.000
 4648.00    0.89699   0.96079    0.000
 4649.00    0.91142   0.96478    0.000
 4650.00    0.93579   0.96872    0.000
 4651.00    0.94407   0.97188    0.000
 4652.00    0.94705   0.97435    0.000
 4653.00    0.96671   0.97699    0.000
 4654.00    0.98694   0.98063    0.000
 4655.00    0.97993   0.98544    0.000
 4656.00    0.95698   0.99075    0.000
 4657.00    0.94469   0.99554    0.000
 4658.00    0.93839   0.99861    0.000
 4659.00    0.92298   0.99875    0.000
 4660.00    0.91310   0.99506    0.000
 4661.00    0.92881   0.98707    0.000
 4662.00    0.95244   0.97560    0.000
 4663.00    0.95320   0.96290    0.000
 4664.00    0.93127   0.95144    0.000
 4665.00    0.90944   0.94307    0.000
 4666.00    0.91100   0.93887    0.000
 4667.00    0.94123   0.93892    0.000
 4668.00    0.96798   0.94259    0.000
 4669.00    0.95883   0.94921    0.000
 4670.00    0.93398   0.95776    0.000
 4671.00    0.93114   0.96653    0.000
 4672.00    0.94842   0.97366    0.000
 4673.00    0.95964   0.97815    0.000
 4674.00    0.94621   0.97994    0.000
 4675.00    0.91179   0.97950    0.000
 4676.00    0.89351   0.97745    0.000
 4677.00    0.92051   0.97453    0.000
 4678.00    0.96088   0.97152    0.000
 4679.00    0.96930   0.96893    0.000
 4680.00    0.95538   0.96716    0.000
 4681.00    0.94934   0.96672    0.000
 4682.00    0.94878   0.96746    0.000
 4683.00    0.93921   0.96883    0.000
 4684.00    0.92718   0.97039    0.000
 4685.00    0.92732   0.97174    0.000
 4686.00    0.94130   0.97263    0.000
 4687.00    0.95893   0.97344    0.000
 4688.00    0.96358   0.97471    0.000
 4689.00    0.94839   0.97657    0.000
 4690.00    0.93311   0.97895    0.000
 4691.00    0.93997   0.98154    0.000
 4692.00    0.96373   0.98347    0.000
 4693.00    0.98680   0.98385    0.000
 4694.00    1.00062   0.98252    0.000
 4695.00    1.00029   0.97954    0.000
 4696.00    0.97679   0.97480    0.000
 4697.00    0.93097   0.96860    0.000
 4698.00    0.88844   0.96187    0.000
 4699.00    0.87293   0.95601    0.000
 4700.00    0.87653   0.95193    0.000
 4701.00    0.88539   0.94972    0.000
 4702.00    0.90914   0.94882    0.000
 4703.00    0.95052   0.94853    0.000
 4704.00    0.97300   0.94870    0.000
 4705.00    0.95328   0.94976    0.000
 4706.00    0.93580   0.95199    0.000
 4707.00    0.96491   0.95469    0.000
 4708.00    1.01136   0.95717    0.000
 4709.00    1.02556   0.95955    0.000
 4710.00    0.99992   0.96243    0.000
 4711.00    0.95713   0.96611    0.000
 4712.00    0.92955   0.97034    0.000
 4713.00    0.93421   0.97481    0.000
 4714.00    0.95182   0.97959    0.000
 4715.00    0.95642   0.98482    0.000
 4716.00    0.94617   0.99030    0.000
 4717.00    0.93334   0.99550    0.000
 4718.00    0.93068   0.99979    0.000
 4719.00    0.94246   1.00265    0.000
 4720.00    0.95814   1.00388    0.000
 4721.00    0.96547   1.00322    0.000
 4722.00    0.96314   1.00012    0.000
 4723.00    0.95520   0.99467    0.000
 4724.00    0.94501   0.98776    0.000
 4725.00    0.93774   0.98022    0.000
 4726.00    0.94181   0.97278    0.000
 4727.00    0.95506   0.96643    0.000
 4728.00    0.95542   0.96205    0.000
 4729.00    0.93632   0.96021    0.000
 4730.00    0.93359   0.96105    0.000
 4731.00    0.96588   0.96351    0.000
 4732.00    0.98735   0.96637    0.000
 4733.00    0.96646   0.96946    0.000
 4734.00    0.94993   0.97261    0.000
 4735.00    0.97664   0.97516    0.000
 4736.00    1.00654   0.97705    0.000
 4737.00    0.99913   0.97884    0.000
 4738.00    0.97938   0.98080    0.000
 4739.00    0.97791   0.98307    0.000
 4740.00    0.98057   0.98552    0.000
 4741.00    0.97023   0.98772    0.000
 4742.00    0.96126   0.98968    0.000
 4743.00    0.96779   0.99157    0.000
 4744.00    0.97833   0.99341    0.000
 4745.00    0.98070   0.99490    0.000
 4746.00    0.98183   0.99559    0.000
 4747.00    0.98945   0.99521    0.000
 4748.00    0.99767   0.99383    0.000
 4749.00    0.99871   0.99132    0.000
 4750.00    0.99276   0.98783    0.000
 4751.00    0.98669   0.98396    0.000
 4752.00    0.99069   0.98027    0.000
 4753.00    1.00383   0.97706    0.000
 4754.00    1.00644   0.97465    0.000
 4755.00    0.98615   0.97306    0.000
 4756.00    0.95590   0.97150    0.000
 4757.00    0.93689   0.96901    0.000
 4758.00    0.94285   0.96525    0.000
 4759.00    0.96526   0.96040    0.000
 4760.00    0.96915   0.95471    0.000
 4761.00    0.93804   0.94881    5.697
 4762.00    0.90113   0.94386    5.683
 4763.00    0.89108   0.94086    5.685
 4764.00    0.91293   0.94054    5.689
 4765.00    0.94857   0.94294    5.689
 4766.00    0.96593   0.94691    5.716
 4767.00    0.95196   0.95132    5.781
 4768.00    0.93010   0.95610    5.836
 4769.00    0.92353   0.96129    5.845
 4770.00    0.93221   0.96628    5.828
 4771.00    0.95474   0.97060    5.810
 4772.00    0.99978   0.97427    5.798
 4773.00    1.05696   0.97737    5.792
 4774.00    1.08501   0.97978    5.802
 4775.00    1.06491   0.98118    5.821
 4776.00    1.02785   0.98124    5.816
 4777.00    1.00602   0.97968    5.771
 4778.00    1.00112   0.97668    5.720
 4779.00    0.99592   0.97306    5.697
 4780.00    0.96826   0.96935    5.717
 4781.00    0.92556   0.96547    5.763
 4782.00    0.91412   0.96179    5.797
 4783.00    0.94458   0.95885    5.801
 4784.00    0.96018   0.95659    5.808
 4785.00    0.92976   0.95524    5.837
 4786.00    0.89357   0.95556    5.862
 4787.00    0.88749   0.95742    5.864
 4788.00    0.90240   0.96058    5.855
 4789.00    0.92430   0.96552    5.852
 4790.00    0.95524   0.97165    5.863
 4791.00    0.98728   0.97751    5.874
 4792.00    0.99411   0.98232    5.853
 4793.00    0.97384   0.98526    5.800
 4794.00    0.96384   0.98577    5.758
 4795.00    0.98301   0.98431    5.748
 4796.00    1.00642   0.98178    5.747
 4797.00    1.01118   0.97900    5.742
 4798.00    1.00056   0.97658    5.752
 4799.00    0.99006   0.97460    5.774
 4800.00    0.99504   0.97283    5.763
 4801.00    1.00982   0.97127    5.721
 4802.00    1.00491   0.96998    5.720
 4803.00    0.97162   0.96849    5.780
 4804.00    0.93802   0.96661    5.828
 4805.00    0.92511   0.96475    5.824
 4806.00    0.92695   0.96346    5.822
 4807.00    0.93114   0.96318    5.853
 4808.00    0.93106   0.96407    5.888
 4809.00    0.93095   0.96572    5.893
 4810.00    0.94365   0.96794    5.871
 4811.00    0.96775   0.97070    5.843
 4812.00    0.98279   0.97367    5.837
 4813.00    0.98296   0.97653    5.859
 4814.00    0.98647   0.97909    5.881
 4815.00    0.99784   0.98102    5.887
 4816.00    0.99795   0.98177    5.885
 4817.00    0.98609   0.98083    5.884
 4818.00    0.98911   0.97766    5.880
 4819.00    1.00681   0.97235    5.876
 4820.00    1.00076   0.96642    5.881
 4821.00    0.96482   0.96138    5.901
 4822.00    0.94292   0.95741    5.932
 4823.00    0.95613   0.95433    5.960
 4824.00    0.97937   0.95207    5.960
 4825.00    0.99217   0.95079    5.939
 4826.00    0.99795   0.95062    5.933
 4827.00    1.00292   0.95050    5.950
 4828.00    1.00711   0.94947    5.957
 4829.00    1.00888   0.94811    5.943
 4830.00    1.00683   0.94703    5.931
 4831.00    0.99881   0.94622    5.935
 4832.00    0.98323   0.94546    5.936
 4833.00    0.96604   0.94442    5.925
 4834.00    0.95922   0.94271    5.907
 4835.00    0.96222   0.94018    5.895
 4836.00    0.96043   0.93685    5.905
 4837.00    0.95147   0.93309    5.938
 4838.00    0.94871   0.92925    5.985
 4839.00    0.95086   0.92557    6.053
 4840.00    0.93968   0.92251    6.167
 4841.00    0.92061   0.92029    6.308
 4842.00    0.92557   0.91842    6.416
 4843.00    0.95824   0.91589    6.482
 4844.00    0.98422   0.91199    6.568
 4845.00    0.97859   0.90721    6.671
 4846.00    0.94419   0.90212    6.697
 4847.00    0.90683   0.89592    6.624
 4848.00    0.90034   0.88796    0.000
 4849.00    0.91939   0.87817    0.000
 4850.00    0.91940   0.86607    0.000
 4851.00    0.88266   0.85142    0.000
 4852.00    0.83459   0.83451    0.000
 4853.00    0.81019   0.81501    0.000
 4854.00    0.83314   0.79230    0.000
 4855.00    0.88853   0.76614    0.000
 4856.00    0.93296   0.73740    0.000
 4857.00    0.96381   0.70980    0.000
 4858.00    1.02096   0.68902    0.000
 4859.00    1.10565   0.67766    0.000
 4860.00    1.16868   0.67529    0.000
 4861.00    1.17047   0.68216    0.000
 4862.00    1.10429   0.69804    0.000
 4863.00    1.00059   0.72090    0.000
 4864.00    0.91185   0.74721    0.000
 4865.00    0.85902   0.77207    0.000
 4866.00    0.82625   0.79152    0.000
 4867.00    0.80363   0.80529    0.000
 4868.00    0.79585   0.81571    0.000
 4869.00    0.80253   0.82477    0.000
 4870.00    0.81589   0.83315    0.000
 4871.00    0.83440   0.84122    0.000
 4872.00    0.86131   0.84968    0.000
 4873.00    0.88644   0.85928    0.000
 4874.00    0.89026   0.87020    0.000
 4875.00    0.87424   0.88156    6.326
 4876.00    0.86131   0.89126    6.284
 4877.00    0.86800   0.89813    6.226
 4878.00    0.89395   0.90298    6.174
 4879.00    0.91778   0.90632    6.148
 4880.00    0.91178   0.90762    6.154
 4881.00    0.88757   0.90674    6.174
 4882.00    0.88583   0.90417    6.178
 4883.00    0.90707   0.90118    6.166
 4884.00    0.91239   0.89882    6.169
 4885.00    0.88508   0.89685    6.199
 4886.00    0.84261   0.89476    6.243
 4887.00    0.81789   0.89371    6.272
 4888.00    0.83978   0.89645    6.263
 4889.00    0.89595   0.90350    6.237
 4890.00    0.94319   0.91329    6.241
 4891.00    0.96392   0.92470    6.279
 4892.00    0.97041   0.93678    6.311
 4893.00    0.97267   0.94872    6.306
 4894.00    0.97243   0.95915    6.271
 4895.00    0.97160   0.96558    6.278
 4896.00    0.97282   0.96760    6.384
 4897.00    0.97478   0.96714    6.410
 4898.00    0.97295   0.96506    6.161
 4899.00    0.96452   0.96188    6.119
 4900.00    0.95091   0.95913    7.126
 4901.00    0.94015   0.95810    9.591
 4902.00    0.94215   0.95870   11.494
 4903.00    0.95533   0.95949   10.810
 4904.00    0.96781   0.95909   10.053
 4905.00    0.96895   0.95724   10.185
 4906.00    0.95589   0.95454   10.629
 4907.00    0.94196   0.95194   10.739
 4908.00    0.94626   0.94989   10.346
 4909.00    0.96445   0.94839   10.149
 4910.00    0.97459   0.94779   10.808
 4911.00    0.96773   0.94822   10.989
 4912.00    0.95204   0.94854    8.843
 4913.00    0.94438   0.94682    6.789
 4914.00    0.95670   0.94119    6.125
 4915.00    0.97055   0.93152    6.318
 4916.00    0.95422   0.91983    6.561
 4917.00    0.91427   0.90888    6.533
 4918.00    0.88489   0.90066    6.494
 4919.00    0.87814   0.89554    6.550
 4920.00    0.88467   0.89422    6.607
 4921.00    0.90020   0.89830    6.617
 4922.00    0.92644   0.90788    6.605
 4923.00    0.95970   0.92044    6.584
 4924.00    0.99166   0.93324    6.551
 4925.00    1.01622   0.94478    6.513
 4926.00    1.03003   0.95433    6.485
 4927.00    1.03036   0.96139    6.478
 4928.00    1.01648   0.96464    6.494
 4929.00    0.99329   0.96287    6.532
 4930.00    0.97047   0.95794    6.576
 4931.00    0.95891   0.95261    6.584
 4932.00    0.96150   0.94704    6.527
 4933.00    0.95733   0.94069    6.477
 4934.00    0.92290   0.93420    6.517
 4935.00    0.87912   0.92979    6.550
 4936.00    0.86693   0.92980    6.422
 4937.00    0.88225   0.93351    6.244
 4938.00    0.89216   0.93841    6.214
 4939.00    0.89056   0.94429    6.262
 4940.00    0.89340   0.95165    0.000
 4941.00    0.90899   0.95951    0.000
 4942.00    0.93570   0.96653    0.000
 4943.00    0.96868   0.97213    0.000
 4944.00    0.99979   0.97631    0.000
 4945.00    1.01553   0.97929    0.000
 4946.00    1.00695   0.98111    0.000
 4947.00    0.98770   0.98178    0.000
 4948.00    0.98080   0.98102    0.000
 4949.00    0.98935   0.97831    0.000
 4950.00    0.99957   0.97337    0.000
 4951.00    0.99614   0.96625    0.000
 4952.00    0.97504   0.95661    0.000
 4953.00    0.96001   0.94447    0.000
 4954.00    0.97650   0.93330    0.000
 4955.00    1.00393   0.92697    0.000
 4956.00    1.00433   0.92519    0.000
 4957.00    0.98349   0.92589    0.000
 4958.00    0.97199   0.92830    0.000
 4959.00    0.97668   0.93292    0.000
 4960.00    0.98550   0.93889    0.000
 4961.00    0.98893   0.94295    0.000
 4962.00    0.98305   0.94345    0.000
 4963.00    0.96868   0.94180    0.000
 4964.00    0.95044   0.93958    0.000
 4965.00    0.93516   0.93766    0.000
 4966.00    0.92762   0.93650    0.000
 4967.00    0.92446   0.93685    0.000
 4968.00    0.91971   0.93923    0.000
 4969.00    0.91457   0.94288    0.000
 4970.00    0.91328   0.94694    0.000
 4971.00    0.91460   0.95058    0.000
 4972.00    0.91493   0.95281    0.000
 4973.00    0.91480   0.95287    0.000
 4974.00    0.91696   0.95007    0.000
 4975.00    0.92206   0.94455    0.000
 4976.00    0.92675   0.93693    0.000
 4977.00    0.92233   0.92720    0.000
 4978.00    0.90291   0.91570    0.000
 4979.00    0.87686   0.90439    0.000
 4980.00    0.85850   0.89577    0.000
 4981.00    0.85382   0.89112    0.000
 4982.00    0.86004   0.89036    0.000
 4983.00    0.86810   0.89323    0.000
 4984.00    0.87037   0.89897    0.000
 4985.00    0.87023   0.90626    0.000
 4986.00    0.87634   0.91349    0.000
 4987.00    0.89276   0.91954    0.000
 4988.00    0.91535   0.92444    0.000
 4989.00    0.92974   0.92779    0.000
 4990.00    0.92639   0.92927    0.000
 4991.00    0.91965   0.93007    0.000
 4992.00    0.92850   0.93082    0.000
 4993.00    0.94886   0.93105    0.000
 4994.00    0.96430   0.92999    0.000
 4995.00    0.96480   0.92685    0.000
 4996.00    0.95277   0.92186    0.000
 4997.00    0.94622   0.91581    0.000
 4998.00    0.95577   0.90923    0.000
 4999.00    0.95790   0.90299    0.000
 5000.00    0.93171   0.89733    0.000
 5001.00    0.90538   0.89192    0.000
 5002.00    0.91652   0.88735    0.000
 5003.00    0.95877   0.88509    0.000
 5004.00    1.00410   0.88570    0.000
 5005.00    1.03699   0.88759    0.000
 5006.00    1.05225   0.88882    0.000
 5007.00    1.04784   0.88890    0.000
 5008.00    1.02473   0.88800    0.000
 5009.00    0.98781   0.88586    0.000
 5010.00    0.94497   0.88208    0.000
 5011.00    0.90570   0.87734    0.000
 5012.00    0.87630   0.87310    0.000
 5013.00    0.85524   0.86962    0.000
 5014.00    0.84028   0.86703    0.000
 5015.00    0.83644   0.86669    0.000
 5016.00    0.84787   0.86928    0.000
 5017.00    0.86849   0.87348    0.000
 5018.00    0.88711   0.87746    0.000
 5019.00    0.89466   0.88142    0.000
 5020.00    0.89159   0.88670    0.000
 5021.00    0.89302   0.89268    0.000
 5022.00    0.90695   0.89764    0.000
 5023.00    0.91329   0.90096    0.000
 5024.00    0.89601   0.90395    0.000
 5025.00    0.87593   0.90801    0.000
 5026.00    0.87727   0.91237    0.000
 5027.00    0.89187   0.91599    0.000
 5028.00    0.90011   0.91928    0.000
 5029.00    0.89546   0.92271    7.080
 5030.00    0.88301   0.92529    7.119
 5031.00    0.87467   0.92470    7.174
 5032.00    0.87891   0.92040    7.191
 5033.00    0.89193   0.91435    7.199
 5034.00    0.90669   0.90743    7.233
 5035.00    0.92161   0.89873    7.261
 5036.00    0.93044   0.88844    7.247
 5037.00    0.91451   0.87905    7.221
 5038.00    0.86995   0.87417    7.221
 5039.00    0.83027   0.87505    7.235
 5040.00    0.82600   0.87970    7.238
 5041.00    0.84818   0.88649    7.224
 5042.00    0.87679   0.89505    7.203
 5043.00    0.90825   0.90427    7.194
 5044.00    0.94078   0.91148    7.209
 5045.00    0.96085   0.91471    7.238
 5046.00    0.96046   0.91472    7.269
 5047.00    0.95127   0.91316    7.299
 5048.00    0.94313   0.91101    7.329
 5049.00    0.92689   0.90972    7.358
 5050.00    0.89955   0.91080    7.384
 5051.00    0.88405   0.91434    7.410
 5052.00    0.89879   0.91930    7.429
 5053.00    0.93206   0.92500    7.430
 5054.00    0.95910   0.93124    7.416
 5055.00    0.96016   0.93697    7.417
 5056.00    0.93812   0.94099    7.448
 5057.00    0.92702   0.94324    7.480
 5058.00    0.94885   0.94405    7.486
 5059.00    0.98171   0.94286    7.487
 5060.00    0.99661   0.93877    7.507
 5061.00    0.98802   0.93233    7.534
 5062.00    0.96460   0.92590    7.564
 5063.00    0.93914   0.92049    7.617
 5064.00    0.92117   0.91523    7.684
 5065.00    0.91199   0.91046    7.688
 5066.00    0.90807   0.90789    7.620
 5067.00    0.90483   0.90758    7.611
 5068.00    0.90343   0.90742    7.654
 5069.00    0.91345   0.90678    7.482
 5070.00    0.93371   0.90669    7.215
 5071.00    0.94181   0.90652    7.596
 5072.00    0.92603   0.90489    9.191
 5073.00    0.90527   0.90221   11.249
 5074.00    0.89585   0.89916   11.675
 5075.00    0.88986   0.89461   11.168
 5076.00    0.88292   0.88831   11.152
 5077.00    0.89046   0.88301   11.256
 5078.00    0.91398   0.88046   10.998
 5079.00    0.92284   0.87955   10.828
 5080.00    0.90273   0.87972   11.064
 5081.00    0.88341   0.88274   11.319
 5082.00    0.88750   0.88899   11.251
 5083.00    0.89921   0.89614   11.131
 5084.00    0.90239   0.90249   11.147
 5085.00    0.90460   0.90852   11.023
 5086.00    0.91502   0.91443   10.751
 5087.00    0.92988   0.91918   10.842
 5088.00    0.94201   0.92257   11.130
 5089.00    0.94797   0.92518   10.273
 5090.00    0.95045   0.92670    8.553
 5091.00    0.95746   0.92607    7.552
 5092.00    0.96882   0.92310    7.482
 5093.00    0.97057   0.91845    7.718
 5094.00    0.95499   0.91255    7.736
 5095.00    0.93119   0.90581    7.635
 5096.00    0.90982   0.89982    7.600
 5097.00    0.89399   0.89640    7.574
 5098.00    0.88461   0.89546    7.526
 5099.00    0.88347   0.89567    7.572
 5100.00    0.88962   0.89650    7.673
 5101.00    0.89793   0.89800    7.543
 5102.00    0.90430   0.89932    7.344
 5103.00    0.90781   0.89900    7.835
 5104.00    0.90451   0.89709    9.533
 5105.00    0.88684   0.89517   11.631
 5106.00    0.86231   0.89402   12.126
 5107.00    0.85712   0.89380   11.537
 5108.00    0.87502   0.89536   11.233
 5109.00    0.88339   0.89895   11.383
 5110.00    0.86965   0.90377   11.644
 5111.00    0.86365   0.90905   11.503
 5112.00    0.88145   0.91446   11.108
 5113.00    0.90093   0.91963   11.264
 5114.00    0.90408   0.92357   11.702
 5115.00    0.89825   0.92526   10.626
 5116.00    0.90047   0.92430    8.603
 5117.00    0.92428   0.92095    7.529
 5118.00    0.95887   0.91566    7.491
 5119.00    0.96793   0.90852    7.787
 5120.00    0.94029   0.89986    7.880
 5121.00    0.90732   0.89133    7.846
 5122.00    0.89378   0.88446    7.862
 5123.00    0.89559   0.87945    7.917
 5124.00    0.89935   0.87596    7.954
 5125.00    0.89468   0.87423    7.957
 5126.00    0.88231   0.87467    7.930
 5127.00    0.87437   0.87718    7.884
 5128.00    0.87729   0.88077    7.846
 5129.00    0.88499   0.88421    7.850
 5130.00    0.88839   0.88718    7.883
 5131.00    0.88184   0.89008    7.880
 5132.00    0.87084   0.89263    7.832
 5133.00    0.86986   0.89303    7.812
 5134.00    0.87620   0.89074    7.844
 5135.00    0.86672   0.88717    7.877
 5136.00    0.84086   0.88365    7.908
 5137.00    0.82932   0.88085    7.997
 5138.00    0.84191   0.87779    8.041
 5139.00    0.85323   0.87417    7.817
 5140.00    0.84852   0.87219    7.656
 5141.00    0.83901   0.87288    8.392
 5142.00    0.83510   0.87373   10.478
 5143.00    0.83636   0.87306   12.512
 5144.00    0.84222   0.87254   12.343
 5145.00    0.85576   0.87343   11.515
 5146.00    0.87853   0.87437   11.238
 5147.00    0.90720   0.87396   11.080
 5148.00    0.92928   0.87311   10.809
 5149.00    0.92739   0.87334   10.762
 5150.00    0.90390   0.87470   11.043
 5151.00    0.88338   0.87675   11.332
 5152.00    0.87986   0.88016   11.381
 5153.00    0.88755   0.88535   11.254
 5154.00    0.89941   0.89140   11.093
 5155.00    0.91344   0.89697   10.975
 5156.00    0.92681   0.90137   10.850
 5157.00    0.93452   0.90396   10.630
 5158.00    0.93391   0.90290   10.550
 5159.00    0.92556   0.89698   11.013
 5160.00    0.90961   0.88706   11.503
 5161.00    0.88597   0.87376   10.558
 5162.00    0.86064   0.85637    8.937
 5163.00    0.84355   0.83511    8.228
 5164.00    0.83223   0.81283    8.461
 5165.00    0.81188   0.79370    8.886
 5166.00    0.77868   0.77997    8.986
 5167.00    0.74456   0.77071    8.927
 5168.00    0.72215   0.76390    8.874
 5169.00    0.71809   0.76116    8.757
 5170.00    0.72988   0.76681    8.593
 5171.00    0.74810   0.78011    8.505
 5172.00    0.76792   0.79482    8.477
 5173.00    0.79053   0.80786    8.370
 5174.00    0.81372   0.82095    8.228
 5175.00    0.83130   0.83329    8.238
 5176.00    0.84218   0.84062    8.291
 5177.00    0.85012   0.84118    8.038
 5178.00    0.85188   0.83641    7.596
 5179.00    0.83859   0.82725    7.399
 5180.00    0.81364   0.81559    7.480
 5181.00    0.79256   0.80735    7.540
 5182.00    0.78277   0.80637    7.527
 5183.00    0.77982   0.80968    7.690
 5184.00    0.77734   0.81433    8.037
 5185.00    0.77314   0.82151    8.254
 5186.00    0.77728   0.83231    8.250
 5187.00    0.80527   0.84251    8.274
 5188.00    0.84922   0.84702    8.394
 5189.00    0.88002   0.84752    8.433
 5190.00    0.88213   0.84904    0.000
 5191.00    0.86197   0.85165    0.000
 5192.00    0.83945   0.85278    0.000
 5193.00    0.83631   0.85426    0.000
 5194.00    0.85073   0.85857    0.000
 5195.00    0.86194   0.86432    0.000
 5196.00    0.86613   0.86920    0.000
 5197.00    0.87687   0.87228    0.000
 5198.00    0.89470   0.87323    0.000
 5199.00    0.90504   0.87178    0.000
 5200.00    0.89833   0.86771    0.000
 5201.00    0.87638   0.86041    0.000
 5202.00    0.85321   0.85106    0.000
 5203.00    0.84568   0.84291    0.000
 5204.00    0.84829   0.83716    0.000
 5205.00    0.83923   0.83301    0.000
 5206.00    0.81621   0.83219    0.000
 5207.00    0.79684   0.83636    0.000
 5208.00    0.79250   0.84398    0.000
 5209.00    0.80329   0.85293    0.000
 5210.00    0.82410   0.86228    0.000
 5211.00    0.84685   0.87088    8.639
 5212.00    0.86175   0.87730    8.667
 5213.00    0.86202   0.88218    8.667
 5214.00    0.85465   0.88668    8.643
 5215.00    0.85583   0.89075    8.634
 5216.00    0.87241   0.89369    8.643
 5217.00    0.89909   0.89551    8.639
 5218.00    0.92364   0.89634    8.597
 5219.00    0.93260   0.89508    8.515
 5220.00    0.92158   0.89074    8.434
 5221.00    0.89718   0.88366    8.399
 5222.00    0.87499   0.87465    8.407
 5223.00    0.86957   0.86476    8.423
 5224.00    0.87256   0.85688    8.451
 5225.00    0.86319   0.85408    8.526
 5226.00    0.84478   0.85491    8.628
 5227.00    0.83787   0.85723    8.697
 5228.00    0.84404   0.86173    8.703
 5229.00    0.84854   0.86767    8.663
 5230.00    0.84572   0.87301    8.625
 5231.00    0.84186   0.87766    8.640
 5232.00    0.84757   0.88249    8.688
 5233.00    0.86890   0.88761    8.710
 5234.00    0.89229   0.89271    8.703
 5235.00    0.89685   0.89798    8.707
 5236.00    0.88786   0.90339    8.722
 5237.00    0.88684   0.90858    8.716
 5238.00    0.89450   0.91270    8.668
 5239.00    0.89706   0.91454    8.595
 5240.00    0.89636   0.91455    8.573
 5241.00    0.90412   0.91425    8.657
 5242.00    0.91641   0.91290    8.713
 5243.00    0.91854   0.90852    8.612
 5244.00    0.90625   0.90261    8.731
 5245.00    0.88727   0.89837    9.626
 5246.00    0.87519   0.89486   11.086
 5247.00    0.88031   0.88997   11.721
 5248.00    0.89472   0.88618   11.279
 5249.00    0.90125   0.88605   10.970
 5250.00    0.89685   0.88790   11.106
 5251.00    0.88932   0.88942   11.322
 5252.00    0.88203   0.89149   11.378
 5253.00    0.87398   0.89581   11.329
 5254.00    0.86587   0.90042   11.465
 5255.00    0.86067   0.90234   11.919
 5256.00    0.86230   0.90105   11.841
 5257.00    0.87174   0.89692   10.475
 5258.00    0.88053   0.88912    9.063
 5259.00    0.87748   0.87731    8.564
 5260.00    0.86269   0.86337    8.715
 5261.00    0.84396   0.84860    8.902
 5262.00    0.82562   0.83357    8.928
 5263.00    0.80854   0.82075    8.954
 5264.00    0.79393   0.81345    9.008
 5265.00    0.78306   0.80930    9.010
 5266.00    0.77573   0.80470    8.982
 5267.00    0.77318   0.80362    8.996
 5268.00    0.78327   0.81008    9.009
 5269.00    0.81057   0.81934    8.938
 5270.00    0.83883   0.82710    8.828
 5271.00    0.84757   0.83594    8.773
 5272.00    0.84403   0.84713    8.771
 5273.00    0.84783   0.85873    8.767
 5274.00    0.85732   0.86978    8.772
 5275.00    0.86094   0.87890    8.823
 5276.00    0.86429   0.88481    8.886
 5277.00    0.87689   0.88840    8.907
 5278.00    0.88492   0.89141    8.913
 5279.00    0.87103   0.89339    8.957
 5280.00    0.85136   0.89369    9.008
 5281.00    0.85249   0.89438    9.004
 5282.00    0.86738   0.89845    8.969
 5283.00    0.87487   0.90504    8.964
 5284.00    0.87937   0.91149    8.966
 5285.00    0.89377   0.91745    8.931
 5286.00    0.90548   0.92389    8.892
 5287.00    0.89738   0.92973    8.890
 5288.00    0.88538   0.93267    8.854
 5289.00    0.89411   0.93199    8.706
 5290.00    0.91403   0.92870    8.514
 5291.00    0.92288   0.92413    8.405
 5292.00    0.92493   0.91821    8.430
 5293.00    0.93311   0.91018    8.533
 5294.00    0.93630   0.90079    8.498
 5295.00    0.91862   0.89322    8.288
 5296.00    0.89206   0.88981    8.442
 5297.00    0.87873   0.88906    9.530
 5298.00    0.88033   0.88918   11.170
 5299.00    0.88715   0.89176   11.748
 5300.00    0.89614   0.89808   11.216
 5301.00    0.90705   0.90604   10.866
 5302.00    0.91444   0.91279   10.914
 5303.00    0.91405   0.91797   11.020
 5304.00    0.91220   0.92243   10.977
 5305.00    0.91662   0.92655   10.823
 5306.00    0.92319   0.92966   10.809
 5307.00    0.92371   0.93104   11.028
 5308.00    0.91797   0.93088   10.956
 5309.00    0.91047   0.92981   10.208
 5310.00    0.90424   0.92805    9.424
 5311.00    0.90107   0.92578    9.149
 5312.00    0.90255   0.92268    9.218
 5313.00    0.90757   0.91847    9.271
 5314.00    0.90955   0.91472    9.229
 5315.00    0.90450   0.91271    9.174
 5316.00    0.90048   0.91075    9.123
 5317.00    0.90645   0.90751    9.068
 5318.00    0.91802   0.90429    9.041
 5319.00    0.92574   0.90122    9.077
 5320.00    0.92659   0.89553    9.149
 5321.00    0.91969   0.88650    9.204
 5322.00    0.90026   0.87785    9.207
 5323.00    0.86820   0.87071    9.159
 5324.00    0.83757   0.86195    9.106
 5325.00    0.82135   0.85228    9.086
 5326.00    0.81400   0.84853    9.066
 5327.00    0.80681   0.85208    9.002
 5328.00    0.80629   0.85751    8.897
 5329.00    0.82032   0.86269    8.781
 5330.00    0.84154   0.87058    8.677
 5331.00    0.85983   0.88120    8.595
 5332.00    0.87716   0.88971    8.535
 5333.00    0.89744   0.89339    8.488
 5334.00    0.91462   0.89445    8.440
 5335.00    0.92044   0.89518    8.380
 5336.00    0.91389   0.89414    8.318
 5337.00    0.89872   0.89061    8.276
 5338.00    0.87981   0.88777    8.273
 5339.00    0.86211   0.88787    8.311
 5340.00    0.84977   0.88903    8.353
 5341.00    0.84489   0.88966    8.381
 5342.00    0.84645   0.89051    8.448
 5343.00    0.85199   0.89260    8.588
 5344.00    0.85951   0.89545    8.723
 5345.00    0.86882   0.89730    8.773
 5346.00    0.88233   0.89828    8.784
 5347.00    0.90069   0.90096    8.830
 5348.00    0.91882   0.90624    8.906
 5349.00    0.93013   0.91176    8.977
 5350.00    0.93126   0.91671    9.043
 5351.00    0.92526   0.92283    9.107
 5352.00    0.92317   0.92986    9.150
 5353.00    0.93212   0.93528    9.157
 5354.00    0.94504   0.93834    9.142
 5355.00    0.95115   0.93994    9.120
 5356.00    0.94643   0.94013    9.086
 5357.00    0.93368   0.93798    9.041
 5358.00    0.92099   0.93331    9.014
 5359.00    0.91479   0.92716    9.028
 5360.00    0.91402   0.92060    9.071
 5361.00    0.91454   0.91370    9.112
 5362.00    0.91332   0.90619    9.126
 5363.00    0.90840   0.89882    9.118
 5364.00    0.89871   0.89216    9.133
 5365.00    0.88645   0.88644    9.188
 5366.00    0.87820   0.88155    9.218
 5367.00    0.87673   0.87738    9.187
 5368.00    0.87510   0.87496    9.174
 5369.00    0.86808   0.87618    9.238
 5370.00    0.86093   0.88087    9.327
 5371.00    0.85984   0.88694    9.371
 5372.00    0.86413   0.89380    9.367
 5373.00    0.87190   0.90130    9.352
 5374.00    0.88464   0.90818    9.370
 5375.00    0.90253   0.91314    9.428
 5376.00    0.92077   0.91565    9.485
 5377.00    0.93341   0.91586    9.509
 5378.00    0.93669   0.91497    9.534
 5379.00    0.93106   0.91383    9.581
 5380.00    0.92192   0.91217    9.606
 5381.00    0.91598   0.91071    9.583
 5382.00    0.91747   0.91021    9.558
 5383.00    0.92233   0.90972    9.570
 5384.00    0.91677   0.90852    9.597
 5385.00    0.89843   0.90699    9.611
 5386.00    0.88817   0.90471    9.616
 5387.00    0.89737   0.90120    9.629
 5388.00    0.90762   0.89713    9.659
 5389.00    0.90450   0.89257    9.702
 5390.00    0.89918   0.88724    9.742
 5391.00    0.89879   0.88244    9.763
 5392.00    0.88836   0.87903    9.756
 5393.00    0.86264   0.87540    9.723
 5394.00    0.84451   0.87151    9.685
 5395.00    0.84983   0.87029    9.649
 5396.00    0.86585   0.87121    9.599
 5397.00    0.87820   0.87062    9.535
 5398.00    0.88825   0.86876    9.492
 5399.00    0.89751   0.86812    9.491
 5400.00    0.89834   0.86691    9.513
 5401.00    0.88752   0.86276    9.538
 5402.00    0.87365   0.85736    9.576
 5403.00    0.86323   0.85342    9.634
 5404.00    0.85286   0.85158    9.698
 5405.00    0.83998   0.85101    9.742
 5406.00    0.82920   0.85126    9.746
 5407.00    0.82557   0.85328    9.726
 5408.00    0.83019   0.85844    9.733
 5409.00    0.84108   0.86561    9.788
 5410.00    0.85448   0.87239    9.840
 5411.00    0.86782   0.87836    9.848
 5412.00    0.88103   0.88476    9.826
 5413.00    0.89304   0.89154    9.808
 5414.00    0.90028   0.89704    9.815
 5415.00    0.90110   0.90040    9.845
 5416.00    0.89783   0.90221    9.870
 5417.00    0.89320   0.90293    9.860
 5418.00    0.88815   0.90276    9.802
 5419.00    0.88268   0.90216    9.723
 5420.00    0.87641   0.90069    9.682
 5421.00    0.86885   0.89800    9.695
 5422.00    0.86017   0.89550    9.717
 5423.00    0.85508   0.89407    9.713
 5424.00    0.86243   0.89263    9.706
 5425.00    0.88074   0.88951    9.729
 5426.00    0.89368   0.88472    9.800
 5427.00    0.89075   0.88058    9.893
 5428.00    0.87696   0.87842    9.944
 5429.00    0.86227   0.87589    9.931
 5430.00    0.85451   0.87250    9.911
 5431.00    0.85451   0.87148    9.920
 5432.00    0.85574   0.87411    9.931
 5433.00    0.85526   0.87832    9.909
 5434.00    0.85756   0.88341    9.852
 5435.00    0.86421   0.89008    9.790
 5436.00    0.86969   0.89760   -2.000
 5437.00    0.86876   0.90432   -2.000
 5438.00    0.86008   0.90894   -2.000
 5439.00    0.84476   0.91088   -2.000
 5440.00    0.82572   0.90996   -2.000
 5441.00    0.80866   0.90652   -2.000
 5442.00    0.80191   0.90100   -2.000
 5443.00    0.81316   0.89402   -2.000
 5444.00    0.84518   0.88758   -2.000
 5445.00    0.88329   0.88375   -2.000
 5446.00    0.89769   0.88188   -2.000
 5447.00    0.88248   0.88035   -2.000
 5448.00    0.86530   0.87934   -2.000
 5449.00    0.86431   0.87937   -2.000
 5450.00    0.87207   0.87940   -2.000
 5451.00    0.87713   0.87804    9.433
 5452.00    0.87477   0.87525    9.880
 5453.00    0.86799   0.87338   10.933
 5454.00    0.86525   0.87400   11.747
 5455.00    0.86895   0.87527   11.678
 5456.00    0.87280   0.87563   11.392
 5457.00    0.87284   0.87663   11.391
 5458.00    0.87133   0.87885   11.509
 5459.00    0.87189   0.87988   11.515
 5460.00    0.87687   0.87911   11.369
 5461.00    0.88631   0.87905   11.210
 5462.00    0.89727   0.88031   11.221
 5463.00    0.90315   0.88090   11.263
 5464.00    0.89603   0.88116   10.910
 5465.00    0.87708   0.88276   10.272
 5466.00    0.85812   0.88401    9.913
 5467.00    0.84985   0.88309    9.954
 5468.00    0.85603   0.88139   10.078
 5469.00    0.87031   0.87918   10.084
 5470.00    0.87856   0.87480   10.063
 5471.00    0.87258   0.86964   10.099
 5472.00    0.85481   0.86573   10.162
 5473.00    0.83437   0.86147   10.205
 5474.00    0.82226   0.85685   10.209
 5475.00    0.81970   0.85545   10.206
 5476.00    0.81831   0.85708   10.258
 5477.00    0.81767   0.85836   10.340
 5478.00    0.82697   0.85995   10.338
 5479.00    0.84551   0.86418   10.236
 5480.00    0.86024   0.86925   10.145
 5481.00    0.86411   0.87295   10.137
 5482.00    0.86089   0.87617   10.201
 5483.00    0.85745   0.87944   10.282
 5484.00    0.85872   0.88147   10.308
 5485.00    0.86103   0.88274   10.286
 5486.00    0.85438   0.88420   10.299
 5487.00    0.83839   0.88482   10.369
 5488.00    0.82452   0.88478   10.441
 5489.00    0.82363   0.88544   10.472
 5490.00    0.83990   0.88587   10.458
 5491.00    0.86592   0.88524   10.396
 5492.00    0.88602   0.88511   10.303
 5493.00    0.89268   0.88520   10.315
 5494.00    0.88953   0.88351   10.624
 5495.00    0.88237   0.88146   11.154
 5496.00    0.87581   0.88093   11.507
 5497.00    0.87258   0.88003   11.514
 5498.00    0.87338   0.87733   11.416
 5499.00    0.87687   0.87485   11.380
 5500.00    0.88015   0.87366   11.383
 5501.00    0.88040   0.87253   11.383
 5502.00    0.87604   0.87079   11.381
 5503.00    0.86913   0.86894   11.453
 5504.00    0.86409   0.86804   11.663
 5505.00    0.86186   0.86816   11.755
 5506.00    0.86012   0.86772   11.317
 5507.00    0.85907   0.86650   10.623
 5508.00    0.86136   0.86597   10.286
 5509.00    0.86629   0.86605   10.380
 5510.00    0.86959   0.86597   10.573
 5511.00    0.86806   0.86681   10.643
 5512.00    0.86207   0.86918   10.604
 5513.00    0.85861   0.87236   10.538
 5514.00    0.86674   0.87622   10.504
 5515.00    0.88266   0.88098   10.467
 5516.00    0.89254   0.88571   10.364
 5517.00    0.89223   0.88923   10.337
 5518.00    0.88823   0.89132   10.624
 5519.00    0.88465   0.89218   11.139
 5520.00    0.88170   0.89143   11.449
 5521.00    0.88184   0.88875   11.390
 5522.00    0.88860   0.88473   11.215
 5523.00    0.89906   0.88054   11.102
 5524.00    0.90475   0.87651   11.075
 5525.00    0.89951   0.87253   11.135
 5526.00    0.88285   0.87001   11.295
 5527.00    0.86266   0.86991   11.553
 5528.00    0.85130   0.87063   11.834
 5529.00    0.85384   0.87142   11.826
 5530.00    0.86598   0.87362   11.252
 5531.00    0.87680   0.87643   10.534
 5532.00    0.87460   0.87811   10.257
 5533.00    0.85918   0.87978   10.394
 5534.00    0.84073   0.88237   10.547
 5535.00    0.82975   0.88454   10.572
 5536.00    0.83243   0.88608   10.612
 5537.00    0.84627   0.88816   10.679
 5538.00    0.86256   0.89023   10.654
 5539.00    0.87464   0.89107   10.568
 5540.00    0.87921   0.89104   10.559
 5541.00    0.87429   0.89130   10.613
 5542.00    0.86214   0.89193   10.605
 5543.00    0.85628   0.89218   10.509
 5544.00    0.86997   0.89250   10.410
 5545.00    0.88714   0.89390   10.407
 5546.00    0.88205   0.89553   10.516
 5547.00    0.87651   0.89626   10.505
 5548.00    0.90590   0.89654   -2.000
 5549.00    0.91855   0.89667   -2.000
 5550.00    0.83864   0.89586   -2.000
 5551.00    0.74748   0.89405   -2.000
 5552.00    0.79945   0.89228   -2.000
 5553.00    0.95994   0.89094   -2.000
 5554.00    1.04473   0.88939   -2.000
 5555.00    0.92407   0.88767   -2.000
 5556.00    0.55798   0.88635   -2.000
 5557.00   -0.02245   0.88512   -2.000
 5558.00   -0.66131   0.88344   -2.000
 5559.00   -0.96986   0.88119   -2.000
 5560.00   -0.58310   0.87868   -2.000
 5561.00    0.29200   0.87644   -2.000
 5562.00    1.08700   0.87420   -2.000
 5563.00    1.51071   0.87151   -2.000
 5564.00    1.57429   0.86952   -2.000
 5565.00    1.38207   0.86873   -2.000
 5566.00    1.08118   0.86736   -2.000
 5567.00    0.84425   0.86610   -2.000
 5568.00    0.79194   0.86680   -2.000
 5569.00    0.85757   0.86752   -2.000
 5570.00    0.88453   0.86716   -2.000
 5571.00    0.85430   0.86857   -2.000
 5572.00    0.84346   0.87138   11.856
 5573.00    0.86475   0.87273   11.564
 5574.00    0.88106   0.87410   11.350
 5575.00    0.88536   0.87658   11.295
 5576.00    0.89349   0.87794   11.192
 5577.00    0.90481   0.87801   11.052
 5578.00    0.90792   0.87766   11.014
 5579.00    0.90320   0.87574   11.072
 5580.00    0.89863   0.87220   11.128
 5581.00    0.89569   0.86786   11.165
 5582.00    0.89056   0.86232   11.229
 5583.00    0.88078   0.85573   11.354
 5584.00    0.86679   0.84948   11.537
 5585.00    0.85264   0.84434   11.728
 5586.00    0.84319   0.84054   11.860
 5587.00    0.83938   0.83834   11.914
 5588.00    0.83913   0.83801   11.917
 5589.00    0.84027   0.83969   11.901
 5590.00    0.84168   0.84265   11.881
 5591.00    0.84441   0.84538   11.843
 5592.00    0.85020   0.84756   11.762
 5593.00    0.85876   0.85005   11.645
 5594.00    0.86686   0.85167   11.536
 5595.00    0.86790   0.85077   11.522
 5596.00    0.85784   0.84950   11.657
 5597.00    0.84405   0.84963   11.848
 5598.00    0.83760   0.84971   11.939
 5599.00    0.83955   0.84959   11.911
 5600.00    0.84395   0.85160   11.849
 5601.00    0.84569   0.85625   11.825
 5602.00    0.84363   0.86192   11.854
 5603.00    0.84302   0.86774   11.862
 5604.00    0.84971   0.87373   11.769
 5605.00    0.86129   0.87948   11.611
 5606.00    0.87240   0.88367   11.463
 5607.00    0.88387   0.88574   11.314
 5608.00    0.89822   0.88541   11.133
 5609.00    0.91160   0.88272   10.970
 5610.00    0.91669   0.87902   10.909
 5611.00    0.90848   0.87463   11.007
 5612.00    0.88828   0.86877   11.258
 5613.00    0.86739   0.86325   11.529
 5614.00    0.85718   0.86038   11.665
 5615.00    0.85530   0.85882   11.691
 5616.00    0.85361   0.85729   11.719
 5617.00    0.85113   0.85736   11.751
 5618.00    0.85129   0.85871   11.734
 5619.00    0.85602   0.85976   11.678
 5620.00    0.86494   0.86038   11.596
 5621.00    0.87543   0.86043   11.434
 5622.00    0.88395   0.86047   11.177
 5623.00    0.88784   0.86182   10.962
 5624.00    0.88575   0.86376   10.916
 5625.00    0.87813   0.86534   10.983
 5626.00    0.86927   0.86780   11.033
 5627.00    0.86927   0.87115   11.009
 5628.00    0.88518   0.87356   10.937
 5629.00    0.91025   0.87473   10.890
 5630.00    0.93167   0.87509   10.922
 5631.00    0.94163   0.87421   11.004
 5632.00    0.93923   0.87234   11.062
 5633.00    0.93058   0.87010   11.047
 5634.00    0.92194   0.86727   10.978
 5635.00    0.91192   0.86427   10.971
 5636.00    0.89698   0.86236   11.122
 5637.00    0.87896   0.86123   11.375
 5638.00    0.86325   0.86004   11.595
 5639.00    0.85569   0.85978   11.687
 5640.00    0.85994   0.86095   11.622
 5641.00    0.87479   0.86232   11.431
 5642.00    0.89426   0.86353   11.193
 5643.00    0.90838   0.86536   11.010
 5644.00    0.91039   0.86736   10.959
 5645.00    0.90380   0.86892   11.062
 5646.00    0.89513   0.87022   11.247
 5647.00    0.88543   0.87101   11.301
 5648.00    0.87450   0.87092   11.104
 5649.00    0.86612   0.87011   10.869
 5650.00    0.86501   0.86895   10.805
 5651.00    0.87282   0.86638   10.836
 5652.00    0.88631   0.86190   10.797
 5653.00    0.89661   0.85779   10.665
 5654.00    0.89676   0.85464   10.549
 5655.00    0.88924   0.84997   10.647
 5656.00    0.88011   0.84512   11.038
 5657.00    0.87248   0.84377   11.462
 5658.00    0.86720   0.84412   11.604
 5659.00    0.86433   0.84356   11.569
 5660.00    0.86286   0.84447   11.583
 5661.00    0.86055   0.84782   11.620
 5662.00    0.85595   0.85090   11.630
 5663.00    0.85039   0.85298   11.762
 5664.00    0.84760   0.85534   11.982
 5665.00    0.85259   0.85802   11.715
 5666.00    0.86501   0.86054   10.808
 5667.00    0.87431   0.86300   10.059
 5668.00    0.87317   0.86539    9.897
 5669.00    0.86936   0.86785    9.998
 5670.00    0.87296   0.87080    9.967
 5671.00    0.88417   0.87367    9.880
 5672.00    0.89706   0.87538    9.925
 5673.00    0.90455   0.87635   10.073
 5674.00    0.90329   0.87728   10.221
 5675.00    0.89719   0.87710   10.354
 5676.00    0.89213   0.87506   10.492
 5677.00    0.89103   0.87278   10.623
 5678.00    0.89386   0.87080   10.736
 5679.00    0.89811   0.86785   10.841
 5680.00    0.90045   0.86432   10.937
 5681.00    0.89822   0.86168   10.988
 5682.00    0.89024   0.85986   10.985
 5683.00    0.87740   0.85823   10.993
 5684.00    0.86275   0.85740   11.050
 5685.00    0.85106   0.85773   11.090
 5686.00    0.84576   0.85915   11.075
 5687.00    0.84659   0.86128   11.101
 5688.00    0.85161   0.86357   11.222
 5689.00    0.85896   0.86610   11.329
 5690.00    0.86741   0.86886   11.324
 5691.00    0.87647   0.87083   11.269
 5692.00    0.88497   0.87131   11.244
 5693.00    0.89008   0.87123   11.241
 5694.00    0.88935   0.87042   11.225
 5695.00    0.88244   0.86802   11.197
 5696.00    0.87193   0.86496   11.163
 5697.00    0.86322   0.86241   11.120
 5698.00    0.85865   0.85965   11.072
 5699.00    0.85406   0.85613   11.037
 5700.00    0.84578   0.85315   11.027
 5701.00    0.83558   0.85087   11.031
 5702.00    0.82702   0.84792   11.042
 5703.00    0.82232   0.84433   11.073
 5704.00    0.82131   0.84149   11.118
 5705.00    0.82131   0.83915   11.136
 5706.00    0.82101   0.83654   11.121
 5707.00    0.82276   0.83532   11.131
 5708.00    0.82911   0.83636   11.195
 5709.00    0.84002   0.83816   11.254
 5710.00    0.85050   0.84141   11.265
 5711.00    0.85105   0.84683   11.266
 5712.00    0.84053   0.85218   11.289
 5713.00    0.83252   0.85735   11.297
 5714.00    0.83821   0.86320   11.275
 5715.00    0.85544   0.86807   11.265
 5716.00    0.87546   0.87187   11.301
 5717.00    0.88871   0.87548   11.361
 5718.00    0.89114   0.87813   11.409
 5719.00    0.88704   0.87985   11.429
 5720.00    0.88267   0.88112   11.427
 5721.00    0.88174   0.88128   11.435
 5722.00    0.88430   0.88072   11.460
 5723.00    0.88689   0.88006   11.468
 5724.00    0.88674   0.87866   11.440
 5725.00    0.88417   0.87682   11.402
 5726.00    0.88104   0.87581   11.380
 5727.00    0.87946   0.87531   11.378
 5728.00    0.88031   0.87458   11.378
 5729.00    0.88262   0.87447   11.363
 5730.00    0.88437   0.87534   11.343
 5731.00    0.88338   0.87623   11.367
 5732.00    0.87928   0.87672   11.443
 5733.00    0.87426   0.87739   11.505
 5734.00    0.87071   0.87809   11.498
 5735.00    0.86971   0.87838   11.434
 5736.00    0.86974   0.87840   11.353
 5737.00    0.86714   0.87819   11.295
 5738.00    0.86211   0.87796   11.268
 5739.00    0.86074   0.87789   11.248
 5740.00    0.86725   0.87780    0.000
 5741.00    0.88004   0.87752    0.000
 5742.00    0.89476   0.87723    0.000
 5743.00    0.90640   0.87697    0.000
 5744.00    0.91086   0.87639    0.000
 5745.00    0.90610   0.87518    0.000
 5746.00    0.89404   0.87377    0.000
 5747.00    0.88059   0.87248    0.000
 5748.00    0.87064   0.87071    0.000
 5749.00    0.86557   0.86883    0.000
 5750.00    0.86416   0.86761    0.000
 5751.00    0.86392   0.86682    0.000
 5752.00    0.86562   0.86645    0.000
 5753.00    0.87360   0.86669    0.000
 5754.00    0.88591   0.86703    0.000
 5755.00    0.89204   0.86732    0.000
 5756.00    0.88603   0.86762    0.000
 5757.00    0.87217   0.86728    0.000
 5758.00    0.86009   0.86670    0.000
 5759.00    0.85980   0.86629    0.000
 5760.00    0.87036   0.86577    0.000
 5761.00    0.87890   0.86604    0.000
 5762.00    0.88152   0.86763    0.000
 5763.00    0.88881   0.86924    0.000
 5764.00    0.90485   0.87088    0.000
 5765.00    0.91993   0.87311    0.000
 5766.00    0.92363   0.87462    0.000
 5767.00    0.91162   0.87509    0.000
 5768.00    0.88768   0.87517    0.000
 5769.00    0.86249   0.87458    0.000
 5770.00    0.84470   0.87348    0.000
 5771.00    0.83705   0.87228    0.000
 5772.00    0.83702   0.87056    0.000
 5773.00    0.83881   0.86850    0.000
 5774.00    0.84002   0.86634    0.000
 5775.00    0.84310   0.86318    0.000
 5776.00    0.84939   0.85937    0.000
 5777.00    0.85679   0.85568    0.000
 5778.00    0.86111   0.85147    0.000
 5779.00    0.85793   0.84712    0.000
 5780.00    0.84752   0.84423    0.000
 5781.00    0.83518   0.84259    0.000
 5782.00    0.82429   0.84148    0.000
 5783.00    0.81480   0.84207    0.000
 5784.00    0.80871   0.84457    0.000
 5785.00    0.81062   0.84725    0.000
 5786.00    0.82108   0.84999    0.000
 5787.00    0.83534   0.85364    0.000
 5788.00    0.84904   0.85690    0.000
 5789.00    0.86049   0.85950    0.000
 5790.00    0.87031   0.86261    0.000
 5791.00    0.88030   0.86506    0.000
 5792.00    0.89003   0.86675    0.000
 5793.00    0.89640   0.86916    0.000
 5794.00    0.89692   0.87134    0.000
 5795.00    0.89154   0.87261    0.000
 5796.00    0.88446   0.87428    0.000
 5797.00    0.88260   0.87630    0.000
 5798.00    0.88741   0.87728    0.000
 5799.00    0.89386   0.87779    0.000
 5800.00    0.89695   0.87867    0.000
 5801.00    0.89482   0.87878    0.000
 5802.00    0.89071   0.87802    0.000
 5803.00    0.89125   0.87752    0.000
 5804.00    0.89805   0.87705    0.000
 5805.00    0.90609   0.87642    0.000
 5806.00    0.90803   0.87606    0.000
 5807.00    0.89824   0.87584    0.000
 5808.00    0.88083   0.87569    0.000
 5809.00    0.86782   0.87537    0.000
 5810.00    0.86496   0.87460    0.000
 5811.00    0.86865   0.87392    0.000
 5812.00    0.87224   0.87350    0.000
 5813.00    0.86981   0.87301    0.000
 5814.00    0.86135   0.87287    0.000
 5815.00    0.85269   0.87366    0.000
 5816.00    0.85018   0.87486    0.000
 5817.00    0.85705   0.87596    0.000
 5818.00    0.86810   0.87745    0.000
 5819.00    0.87295   0.87919    0.000
 5820.00    0.87074   0.88033    0.000
 5821.00    0.86981   0.88105    0.000
 5822.00    0.87320   0.88177    0.000
 5823.00    0.87686   0.88231    0.000
 5824.00    0.87769   0.88250    0.000
 5825.00    0.87574   0.88260    0.000
 5826.00    0.87307   0.88275    0.000
 5827.00    0.87211   0.88278    0.000
 5828.00    0.87200   0.88257    0.000
 5829.00    0.86935   0.88209    0.000
 5830.00    0.86324   0.88176    0.000
 5831.00    0.85619   0.88146    0.000
 5832.00    0.85293   0.88074    0.000
 5833.00    0.85811   0.88023    0.000
 5834.00    0.87153   0.88032    0.000
 5835.00    0.88810   0.88023    0.000
 5836.00    0.90153   0.88004    0.000
 5837.00    0.90658   0.88049    0.000
 5838.00    0.90214   0.88088    0.000
 5839.00    0.89124   0.88061    0.000
 5840.00    0.87899   0.88019    0.000
 5841.00    0.87015   0.87942    0.000
 5842.00    0.86469   0.87784    0.000
 5843.00    0.85930   0.87572    0.000
 5844.00    0.85424   0.87314    0.000
 5845.00    0.85286   0.87002    0.000
 5846.00    0.85604   0.86676    0.000
 5847.00    0.86133   0.86326    0.000
 5848.00    0.86457   0.85932    0.000
 5849.00    0.86245   0.85560    0.000
 5850.00    0.85774   0.85195    0.000
 5851.00    0.85649   0.84788    0.000
 5852.00    0.85862   0.84439    0.000
 5853.00    0.85863   0.84185    0.000
 5854.00    0.85300   0.83939    0.000
 5855.00    0.84248   0.83773    0.000
 5856.00    0.83328   0.83780    0.000
 5857.00    0.83217   0.83853    0.000
 5858.00    0.83542   0.83953    0.000
 5859.00    0.83403   0.84158    0.000
 5860.00    0.83116   0.84389    0.000
 5861.00    0.83818   0.84601    0.000
 5862.00    0.85689   0.84847    0.000
 5863.00    0.87969   0.85048    0.000
 5864.00    0.89887   0.85196    0.000
 5865.00    0.90621   0.85379   -2.000
 5866.00    0.88777   0.85552   -2.000
 5867.00    0.83383   0.85643   -2.000
 5868.00    0.76182   0.85709   -2.000
 5869.00    0.70723   0.85768   -2.000
 5870.00    0.69414   0.85742   -2.000
 5871.00    0.72590   0.85653   -2.000
 5872.00    0.77976   0.85547   -2.000
 5873.00    0.82224   0.85392   -2.000
 5874.00    0.84205   0.85190   -2.000
 5875.00    0.84639   0.84999   -2.000
 5876.00    0.83985   0.84820   -2.000
 5877.00    0.82484   0.84587   -2.000
 5878.00    0.81085   0.84316   -2.000
 5879.00    0.80906   0.84039   -2.000
 5880.00    0.81852   0.83645   -2.000
 5881.00    0.82966   0.83050   -2.000
 5882.00    0.83651   0.82335   -2.000
 5883.00    0.83694   0.81446   -2.000
 5884.00    0.82871   0.80258   -2.000
 5885.00    0.81104   0.79013    0.000
 5886.00    0.78883   0.77852    0.000
 5887.00    0.76913   0.76582    0.000
 5888.00    0.75344   0.75540    0.000
 5889.00    0.74114   0.75016    0.000
 5890.00    0.73791   0.74539    0.000
 5891.00    0.75000   0.74277    0.000
 5892.00    0.77142   0.74650    0.000
 5893.00    0.78917   0.75063    0.000
 5894.00    0.79658   0.75510    0.000
 5895.00    0.79432   0.76476    0.000
 5896.00    0.78781   0.77454    0.000
 5897.00    0.78354   0.78302    0.000
 5898.00    0.78360   0.79446    0.000
 5899.00    0.78725   0.80550    0.000
 5900.00    0.79493   0.81336    0.000
 5901.00    0.80702   0.82060   11.113
 5902.00    0.82060   0.82693   11.103
 5903.00    0.83158   0.83089   11.049
 5904.00    0.83897   0.83356   11.005
 5905.00    0.84442   0.83570   11.001
 5906.00    0.85030   0.83682   11.019
 5907.00    0.85694   0.83694   11.027
 5908.00    0.85912   0.83655   11.041
 5909.00    0.85148   0.83589   11.076
 5910.00    0.83763   0.83480   11.060
 5911.00    0.82566   0.83328   10.921
 5912.00    0.81891   0.83214   10.724
 5913.00    0.81695   0.83169   10.589
 5914.00    0.81915   0.83145   10.559
 5915.00    0.82469   0.83180   10.624
 5916.00    0.83177   0.83286   10.761
 5917.00    0.83708   0.83406   10.938
 5918.00    0.83546   0.83560   11.094
 5919.00    0.82490   0.83695   11.186
 5920.00    0.81342   0.83784   11.246
 5921.00    0.81197   0.83882   11.317
 5922.00    0.82284   0.83933   11.328
 5923.00    0.84010   0.83926   11.209
 5924.00    0.85312   0.83906   11.064
 5925.00    0.85379   0.83855   11.022
 5926.00    0.84562   0.83796   11.040
 5927.00    0.83810   0.83746   11.029
 5928.00    0.83700   0.83686   11.041
 5929.00    0.84188   0.83674   11.144
 5930.00    0.84501   0.83714   11.215
 5931.00    0.83910   0.83751   11.102
 5932.00    0.82751   0.83796   10.883
 5933.00    0.81837   0.83887   10.727
 5934.00    0.81508   0.83984   10.686
 5935.00    0.81673   0.84007   10.744
 5936.00    0.82026   0.84016   10.888
 5937.00    0.82281   0.84067   11.095
 5938.00    0.82419   0.84051   11.319
 5939.00    0.82611   0.83985   11.498
 5940.00    0.83067   0.83977   11.595
 5941.00    0.83866   0.83956   11.606
 5942.00    0.84786   0.83881   11.579
 5943.00    0.85459   0.83822   11.570
 5944.00    0.85607   0.83759   11.605
 5945.00    0.85124   0.83673   11.669
 5946.00    0.84145   0.83563   11.697
 5947.00    0.82991   0.83435   11.641
 5948.00    0.82075   0.83357   11.545
 5949.00    0.81727   0.83308   11.478
 5950.00    0.82006   0.83220   11.458
 5951.00    0.82739   0.83191   11.461
 5952.00    0.83601   0.83257   11.442
 5953.00    0.84157   0.83301   11.376
 5954.00    0.83936   0.83344   11.298
 5955.00    0.82815   0.83490   11.245
 5956.00    0.81412   0.83669   11.199
 5957.00    0.80464   0.83815   11.140
 5958.00    0.80112   0.83990   11.115
 5959.00    0.80105   0.84184   11.171
 5960.00    0.80126   0.84322   11.293
 5961.00    0.80121   0.84430   11.429
 5962.00    0.80564   0.84541   11.533
 5963.00    0.81825   0.84601   11.589
 5964.00    0.83509   0.84639   11.631
 5965.00    0.84945   0.84713   11.688
 5966.00    0.85782   0.84756   11.726
 5967.00    0.85970   0.84760   11.717
 5968.00    0.85687   0.84777   11.718
 5969.00    0.85251   0.84742   11.773
 5970.00    0.85023   0.84626   11.821
 5971.00    0.85120   0.84484   11.800
 5972.00    0.85181   0.84314   11.764
 5973.00    0.84843   0.84099   11.778
 5974.00    0.84214   0.83897   11.826
 5975.00    0.83557   0.83733   11.863
 5976.00    0.82937   0.83578   11.888
 5977.00    0.82317   0.83460   11.910
 5978.00    0.81676   0.83369   11.920
 5979.00    0.81051   0.83265   11.912
 5980.00    0.80554   0.83196   11.893
 5981.00    0.80329   0.83143   11.874
 5982.00    0.80488   0.83072   11.849
 5983.00    0.81038   0.83077   11.815
 5984.00    0.81810   0.83158   11.784
 5985.00    0.82415   0.83233   11.776
 5986.00    0.82278   0.83358   11.796
 5987.00    0.81203   0.83564   11.847
 5988.00    0.79832   0.83752   11.927
 5989.00    0.79092   0.83886   12.015
 5990.00    0.79620   0.84034   12.053
 5991.00    0.81263   0.84163   12.020
 5992.00    0.82828   0.84191   11.978
 5993.00    0.83351   0.84179   11.985
 5994.00    0.83135   0.84153   12.025
 5995.00    0.82880   0.84058   12.051
 5996.00    0.82877   0.83942   12.046
 5997.00    0.83062   0.83817   12.025
 5998.00    0.83151   0.83671   12.038
 5999.00    0.82972   0.83550   12.106
 6000.00    0.82705   0.83402   12.172
 6001.00    0.82623   0.83249   12.189
 6002.00    0.82839   0.83146   12.190
 6003.00    0.83092   0.83009   12.216
 6004.00    0.82725   0.82895   12.269
 6005.00    0.81686   0.82852   12.325
 6006.00    0.81134   0.82795   12.363
 6007.00    0.81736   0.82784   12.369
 6008.00    0.82490   0.82820   12.340
 6009.00    0.82323   0.82837   12.291
 6010.00    0.81321   0.82868   12.251
 6011.00    0.80209   0.82868   12.240
 6012.00    0.79794   0.82851   12.255
 6013.00    0.80319   0.82846   12.277
 6014.00    0.81106   0.82762   12.289
 6015.00    0.81438   0.82673   12.295
 6016.00    0.81198   0.82652   12.329
 6017.00    0.80616   0.82593   12.408
 6018.00    0.80032   0.82529   12.495
 6019.00    0.79669   0.82559   12.553
 6020.00    0.79518   0.82659   12.575
 6021.00    0.79528   0.82760   12.570
 6022.00    0.79753   0.82902   12.540
 6023.00    0.80344   0.83161   12.457
 6024.00    0.81481   0.83421   12.268
 6025.00    0.82947   0.83630   12.027
 6026.00    0.83970   0.83908   11.925
 6027.00    0.84157   0.84181   12.051
 6028.00    0.84005   0.84364   12.271
 6029.00    0.83977   0.84544   12.393
 6030.00    0.83955   0.84716   12.317
 6031.00    0.83817   0.84815   12.095
 6032.00    0.83774   0.84873   11.914
 6033.00    0.83932   0.84922   11.873
 6034.00    0.84056   0.84923   11.905
 6035.00    0.84027   0.84900   11.919
 6036.00    0.84098   0.84886   11.886
 6037.00    0.84580   0.84850   11.807
 6038.00    0.85585   0.84839   11.691
 6039.00    0.86772   0.84869   11.555
 6040.00    0.87330   0.84885   11.434
 6041.00    0.86881   0.84943   11.428
 6042.00    0.85921   0.85040   11.698
 6043.00    0.85137   0.85101   12.217
 6044.00    0.84928   0.85156   12.609
 6045.00    0.85130   0.85218   12.616
 6046.00    0.85028   0.85225   12.468
 6047.00    0.84248   0.85175   12.415
 6048.00    0.83192   0.85107   12.461
 6049.00    0.82428   0.85012   12.512
 6050.00    0.82294   0.84865   12.481
 6051.00    0.82747   0.84708   12.394
 6052.00    0.83372   0.84586   12.391
 6053.00    0.83843   0.84465   12.459
 6054.00    0.84140   0.84348   12.357
 6055.00    0.84306   0.84289   12.045
 6056.00    0.84314   0.84243   11.821
 6057.00    0.84125   0.84163   11.838
 6058.00    0.83717   0.84106   11.960
 6059.00    0.83091   0.84048   12.058
 6060.00    0.82293   0.83926   12.142
 6061.00    0.81539   0.83863   12.242
 6062.00    0.81222   0.83877   12.326
 6063.00    0.81587   0.83862   12.302
 6064.00    0.82572   0.83970   12.076
 6065.00    0.83933   0.84205   11.799
 6066.00    0.85324   0.84401   11.832
 6067.00    0.86422   0.84634   12.246
 6068.00    0.87019   0.84902   12.662
 6069.00    0.87172   0.85069   12.783
 6070.00    0.87163   0.85152   12.737
 6071.00    0.86947   0.85174   12.710
 6072.00    0.86044   0.85105   12.731
 6073.00    0.84368   0.84925   12.769
 6074.00    0.82496   0.84690   12.789
 6075.00    0.81002   0.84460   12.774
 6076.00    0.80128   0.84167   12.736
 6077.00    0.79787   0.83870   12.696
 6078.00    0.79670   0.83685   12.674
 6079.00    0.79686   0.83499   12.664
 6080.00    0.80030   0.83319   12.634
 6081.00    0.80556   0.83265   12.589
 6082.00    0.80694   0.83233   12.568
 6083.00    0.80398   0.83186   12.567
 6084.00    0.80343   0.83193   12.516
 6085.00    0.80933   0.83204   12.406
 6086.00    0.81933   0.83221   12.305
 6087.00    0.82852   0.83250   12.256
 6088.00    0.83213   0.83263   12.235
 6089.00    0.82902   0.83332   12.194
 6090.00    0.82263   0.83436   12.094
 6091.00    0.81842   0.83491   11.967
 6092.00    0.82147   0.83580   11.901
 6093.00    0.83143   0.83690   11.927
 6094.00    0.84197   0.83670   12.000
 6095.00    0.84763   0.83601   12.079
 6096.00    0.84657   0.83534   12.162
 6097.00    0.84050   0.83295   12.247
 6098.00    0.83337   0.83028   12.326
 6099.00    0.82703   0.82885   12.411
 6100.00    0.82036   0.82651   12.540
 6101.00    0.81254   0.82502   12.709
 6102.00    0.80434   0.82596   12.853
 6103.00    0.79767   0.82661   12.899
 6104.00    0.79464   0.82806   12.805
 6105.00    0.79486   0.83097   12.641
 6106.00    0.79567   0.83305   12.546
 6107.00    0.79700   0.83522   12.532
 6108.00    0.80175   0.83744   12.480
 6109.00    0.81040   0.83855   12.345
 6110.00    0.82002   0.83953   12.192
 6111.00    0.82809   0.83986   12.074
 6112.00    0.83373   0.83935   11.995
 6113.00    0.83675   0.83860   11.952
 6114.00    0.83736   0.83646   11.942
 6115.00    0.83635   0.83412   11.956
 6116.00    0.83440   0.83183   11.985
 6117.00    0.82951   0.82803   12.055
 6118.00    0.81857   0.82528   12.216
 6119.00    0.80563   0.82373   12.413
 6120.00    0.80053   0.82128   12.492
 6121.00    0.80526   0.82075   12.418
 6122.00    0.81253   0.82200   12.307
 6123.00    0.81698   0.82239   12.240
 6124.00    0.81832   0.82382   12.220
 6125.00    0.81879   0.82618   12.213
 6126.00    0.82132   0.82719   12.175
 6127.00    0.82660   0.82771   12.097
 6128.00    0.83253   0.82798   12.012
 6129.00    0.83581   0.82653   11.966
 6130.00    0.83330   0.82402   11.999
 6131.00    0.82464   0.82100   12.123
 6132.00    0.81282   0.81673   12.308
 6133.00    0.80332   0.81283   12.457
 6134.00    0.80119   0.81000   12.465
 6135.00    0.80327   0.80745   12.423
 6136.00    0.80017   0.80659   12.548
 6137.00    0.78912   0.80778   12.809
 6138.00    0.77583   0.81001   12.929
 6139.00    0.76831   0.81283   12.840
 6140.00    0.77332   0.81621   12.729
 6141.00    0.79192   0.81997   12.691
 6142.00    0.81869   0.82282   12.690
 6143.00    0.84339   0.82455   12.715
 6144.00    0.85547   0.82602   12.791
 6145.00    0.85463   0.82660   12.867
 6146.00    0.84927   0.82604   12.840
 6147.00    0.84380   0.82531   12.712
 6148.00    0.83702   0.82456   12.579
 6149.00    0.82792   0.82315   12.480
 6150.00    0.81742   0.82147   12.397
 6151.00    0.80846   0.82002   12.340
 6152.00    0.80454   0.81746   12.352
 6153.00    0.80593   0.81372   12.468
 6154.00    0.80975   0.80985   12.671
 6155.00    0.81298   0.80473   12.806
 6156.00    0.81311   0.79806   12.688
 6157.00    0.80764   0.79162   12.474
 6158.00    0.79511   0.78552   12.511
 6159.00    0.77812   0.77950   12.823
 6160.00    0.76264   0.77483   13.137
 6161.00    0.75466   0.77185   13.262
 6162.00    0.75739   0.77056   13.194
 6163.00    0.76690   0.77071   13.036
 6164.00    0.77486   0.77119   12.908
 6165.00    0.77759   0.77290   12.860
 6166.00    0.77644   0.77573   12.881
 6167.00    0.77313   0.77753   12.937
 6168.00    0.76938   0.77961   12.993
 6169.00    0.76858   0.78312   13.026
 6170.00    0.77404   0.78602   13.023
 6171.00    0.78389   0.78836   12.973
 6172.00    0.79271   0.79155   12.877
 6173.00    0.79777   0.79478   12.781
 6174.00    0.80008   0.79711   12.742
 6175.00    0.80322   0.79920   12.749
 6176.00    0.81056   0.80173   12.743
 6177.00    0.81958   0.80352   12.716
 6178.00    0.82444   0.80427   12.690
 6179.00    0.82386   0.80524   12.624
 6180.00    0.82047   0.80555   12.473
 6181.00    0.81549   0.80440   12.330
 6182.00    0.80870   0.80296   12.336
 6183.00    0.80074   0.80086   12.477
 6184.00    0.79320   0.79783   12.620
 6185.00    0.78761   0.79489   12.701
 6186.00    0.78471   0.79155   12.738
 6187.00    0.78332   0.78884   12.764
 6188.00    0.78206   0.78758   12.792
 6189.00    0.78295   0.78606   12.776
 6190.00    0.78929   0.78602   12.659
 6191.00    0.80003   0.78795   12.491
 6192.00    0.81053   0.78936   12.363
 6193.00    0.81642   0.79126   12.270
 6194.00    0.81568   0.79374   12.188
 6195.00    0.81106   0.79550   12.267
 6196.00    0.80782   0.79725   12.666
 6197.00    0.80871   0.79867   13.162
 6198.00    0.81358   0.79978   13.283
 6199.00    0.82054   0.80131   13.034
 6200.00    0.82662   0.80271   12.787
 6201.00    0.82838   0.80398   12.689
 6202.00    0.82427   0.80520   12.702
 6203.00    0.81833   0.80601   12.786
 6204.00    0.81649   0.80640   12.918
 6205.00    0.81881   0.80584   13.058
 6206.00    0.82140   0.80443   13.164
 6207.00    0.82247   0.80251   13.216
 6208.00    0.82201   0.79932   13.214
 6209.00    0.81926   0.79569   13.161
 6210.00    0.81273   0.79227   13.033
 6211.00    0.80110   0.78810   12.734
 6212.00    0.78480   0.78467   12.220
 6213.00    0.76846   0.78226   11.648
 6214.00    0.75743   0.77977   11.216
 6215.00    0.75147   0.77867   11.000
 6216.00    0.74773   0.77849   10.995
 6217.00    0.74737   0.77809   11.183
 6218.00    0.75321   0.77856   11.515
 6219.00    0.76422   0.77932   11.868
 6220.00    0.77611   0.77980   12.111
 6221.00    0.78370   0.78030   12.267
 6222.00    0.78452   0.78007   12.446
 6223.00    0.78346   0.77963   12.645
 6224.00    0.78671   0.77892   12.798
 6225.00    0.79147   0.77708   12.938
 6226.00    0.79061   0.77561   13.122
 6227.00    0.78224   0.77465   13.287
 6228.00    0.76996   0.77303   13.337
 6229.00    0.76069   0.77265   13.337
 6230.00    0.76052   0.77362   13.403
 6231.00    0.76924   0.77411   13.491
 6232.00    0.78186   0.77523   13.455
 6233.00    0.79238   0.77674   13.196
 6234.00    0.79597   0.77716   12.719
 6235.00    0.79146   0.77688   12.133
 6236.00    0.78157   0.77637   11.588
 6237.00    0.77252   0.77519   11.221
 6238.00    0.76988   0.77303   11.116
 6239.00    0.77303   0.77162   11.277
 6240.00    0.77773   0.77058   11.638
 6241.00    0.78090   0.76877   12.039
 6242.00    0.78141   0.76846   12.296
 6243.00    0.78008   0.76902   12.389
 6244.00    0.77852   0.76875   12.408
 6245.00    0.77746   0.76934   12.417
 6246.00    0.77673   0.77024   12.457
 6247.00    0.77550   0.76977   12.593
 6248.00    0.77353   0.76918   12.852
 6249.00    0.77250   0.76832   13.130
 6250.00    0.77405   0.76623   13.286
 6251.00    0.77699   0.76425   13.316
 6252.00    0.77857   0.76280   13.304
 6253.00    0.77658   0.76134   13.305
 6254.00    0.76996   0.76072   13.334
 6255.00    0.75926   0.76148   13.373
 6256.00    0.74648   0.76264   13.406
 6257.00    0.73474   0.76482   13.456
 6258.00    0.72776   0.76843   13.547
 6259.00    0.72901   0.77154   13.659
 6260.00    0.73928   0.77465   13.735
 6261.00    0.75403   0.77846   13.700
 6262.00    0.76630   0.78125   13.496
 6263.00    0.77067   0.78302   13.107
 6264.00    0.76596   0.78503   12.597
 6265.00    0.75747   0.78669   12.103
 6266.00    0.75170   0.78741   11.756
 6267.00    0.75034   0.78819   11.632
 6268.00    0.75306   0.78911   11.753
 6269.00    0.76129   0.78953   12.075
 6270.00    0.77491   0.78995   12.505
 6271.00    0.78842   0.79037   12.910
 6272.00    0.79560   0.79012   13.176
 6273.00    0.79496   0.78983   13.274
 6274.00    0.78764   0.78946   13.153
 6275.00    0.77459   0.78846   -2.000
 6276.00    0.75789   0.78781   -2.000
 6277.00    0.74230   0.78749   -2.000
 6278.00    0.73274   0.78698   -2.000
 6279.00    0.73136   0.78748   -2.000
 6280.00    0.73705   0.78853   -2.000
 6281.00    0.74553   0.78970   -2.000
 6282.00    0.75293   0.79161   -2.000
 6283.00    0.75931   0.79330   -2.000
 6284.00    0.76650   0.79490   -2.000
 6285.00    0.77545   0.79635   -2.000
 6286.00    0.78558   0.79697    0.000
 6287.00    0.79458   0.79722    0.000
 6288.00    0.80078   0.79667    0.000
 6289.00    0.80518   0.79552    0.000
 6290.00    0.80831   0.79418    0.000
 6291.00    0.80746   0.79213    0.000
 6292.00    0.80232   0.79007    0.000
 6293.00    0.79994   0.78814    0.000
 6294.00    0.80638   0.78588    0.000
 6295.00    0.81899   0.78397    0.000
 6296.00    0.83187   0.78258    0.000
 6297.00    0.84149   0.78160    0.000
 6298.00    0.84579   0.78133    0.000
 6299.00    0.84300   0.78156    0.000
 6300.00    0.83441   0.78243    0.000
 6301.00    0.82635   0.78422    0.000
 6302.00    0.82405   0.78646    0.000
 6303.00    0.82630   0.78853    0.000
 6304.00    0.82772   0.79057    0.000
 6305.00    0.82197   0.79259    0.000
 6306.00    0.80824   0.79380    0.000
 6307.00    0.79559   0.79402    0.000
 6308.00    0.79199   0.79380    0.000
 6309.00    0.79539   0.79284    0.000
 6310.00    0.80011   0.79101    0.000
 6311.00    0.80281   0.78944    0.000
 6312.00    0.80227   0.78762    0.000
 6313.00    0.79878   0.78529    0.000
 6314.00    0.79419   0.78441    0.000
 6315.00    0.79162   0.78413    0.000
 6316.00    0.79246   0.78352    0.000
 6317.00    0.79426   0.78447    0.000
 6318.00    0.79452   0.78648    0.000
 6319.00    0.79360   0.78834    0.000
 6320.00    0.79331   0.79052    0.000
 6321.00    0.79537   0.79319   13.413
 6322.00    0.79912   0.79567   13.416
 6323.00    0.80059   0.79757   13.402
 6324.00    0.79818   0.79934   13.373
 6325.00    0.79626   0.80039   13.299
 6326.00    0.79894   0.80092   13.172
 6327.00    0.80546   0.80123   13.043
 6328.00    0.81323   0.80050   12.972
 6329.00    0.82024   0.79947   12.991
 6330.00    0.82410   0.79828   13.082
 6331.00    0.82158   0.79659   13.160
 6332.00    0.81187   0.79504   13.133
 6333.00    0.79870   0.79341   12.958
 6334.00    0.78769   0.79203   12.706
 6335.00    0.78403   0.79166   12.551
 6336.00    0.78918   0.79147   12.545
 6337.00    0.79897   0.79121   12.533
 6338.00    0.80582   0.79168   12.446
 6339.00    0.80150   0.79207   12.470
 6340.00    0.78527   0.79214   12.719
 6341.00    0.76767   0.79235   13.030
 6342.00    0.75885   0.79230   13.189
 6343.00    0.76099   0.79273   13.137
 6344.00    0.77175   0.79337   12.939
 6345.00    0.78699   0.79365   12.715
 6346.00    0.80199   0.79452   12.513
 6347.00    0.81236   0.79532   12.288
 6348.00    0.81569   0.79530   12.140
 6349.00    0.81262   0.79504   12.382
 6350.00    0.80632   0.79414   13.075
 6351.00    0.80156   0.79248   13.703
 6352.00    0.80010   0.79026   13.806
 6353.00    0.79872   0.78737   13.655
 6354.00    0.79442   0.78460   13.615
 6355.00    0.78762   0.78195   13.698
 6356.00    0.78151   0.77898   13.719
 6357.00    0.78049   0.77672   13.454
 6358.00    0.78453   0.77562   12.973
 6359.00    0.78732   0.77488   12.663
 6360.00    0.78589   0.77490   12.671
 6361.00    0.78485   0.77619   12.754
 6362.00    0.78727   0.77817   12.721
 6363.00    0.79025   0.78066   12.650
 6364.00    0.79128   0.78351   12.631
 6365.00    0.79172   0.78654   12.632
 6366.00    0.79425   0.78964   12.593
 6367.00    0.80084   0.79243   12.486
 6368.00    0.80987   0.79483   12.346
 6369.00    0.81571   0.79693   12.260
 6370.00    0.81508   0.79873   12.270
 6371.00    0.81011   0.80006   12.343
 6372.00    0.80501   0.80079   12.420
 6373.00    0.80378   0.80105   12.443
 6374.00    0.80769   0.80097   12.388
 6375.00    0.81432   0.80057   12.275
 6376.00    0.81877   0.79971   12.195
 6377.00    0.81566   0.79886   12.275
 6378.00    0.80511   0.79830   12.475
 6379.00    0.79436   0.79760   12.543
 6380.00    0.79012   0.79726   12.497
 6381.00    0.79451   0.79729   12.748
 6382.00    0.80487   0.79710   13.398
 6383.00    0.81483   0.79698   13.927
 6384.00    0.81895   0.79701   13.975
 6385.00    0.81539   0.79666   13.887
 6386.00    0.80710   0.79582   13.954
 6387.00    0.80075   0.79496   14.093
 6388.00    0.79923   0.79378   14.148
 6389.00    0.79941   0.79244   14.078
 6390.00    0.79864   0.79130   14.001
 6391.00    0.79742   0.78999   14.111
 6392.00    0.79682   0.78915   14.226
 6393.00    0.79708   0.78904   13.788
 6394.00    0.79690   0.78877   12.947
 6395.00    0.79379   0.78864   12.487
 6396.00    0.78656   0.78945   12.617
 6397.00    0.77655   0.79008   12.909
 6398.00    0.76763   0.79030   13.041
 6399.00    0.76499   0.79195   13.084
 6400.00    0.77012   0.79356   13.041
 6401.00    0.77973   0.79413   12.757
 6402.00    0.79090   0.79535   12.460
 6403.00    0.80271   0.79608   12.700
 6404.00    0.81351   0.79600   13.498
 6405.00    0.82037   0.79579   14.058
 6406.00    0.82189   0.79484   13.955
 6407.00    0.81900   0.79422   13.786
 6408.00    0.81343   0.79386   13.895
 6409.00    0.80675   0.79264   14.032
 6410.00    0.79925   0.79207   14.030
 6411.00    0.79036   0.79218   14.024
 6412.00    0.78204   0.79158   14.094
 6413.00    0.77856   0.79113   14.159
 6414.00    0.78028   0.79099   14.178
 6415.00    0.78259   0.79055   14.199
 6416.00    0.78160   0.79037   14.226
 6417.00    0.77685   0.79052   14.212
 6418.00    0.77278   0.79082   14.237
 6419.00    0.77651   0.79159   14.448
 6420.00    0.78767   0.79298   14.545
 6421.00    0.79788   0.79469   13.901
 6422.00    0.80350   0.79607   12.835
 6423.00    0.80784   0.79713   12.228
 6424.00    0.81177   0.79801   12.217
 6425.00    0.81184   0.79818   12.369
 6426.00    0.80656   0.79766   12.433
 6427.00    0.79839   0.79706   12.509
 6428.00    0.79238   0.79599   12.614
 6429.00    0.79369   0.79492   12.597
 6430.00    0.80093   0.79475   12.472
 6431.00    0.80682   0.79442   12.418
 6432.00    0.80895   0.79421   12.410
 6433.00    0.81078   0.79470   12.261
 6434.00    0.81251   0.79512   12.166
 6435.00    0.81017   0.79596   12.610
 6436.00    0.80308   0.79688   13.524
 6437.00    0.79517   0.79768   14.063
 6438.00    0.79045   0.79959   13.885
 6439.00    0.79100   0.80134   13.619
 6440.00    0.79555   0.80225   13.525
 6441.00    0.80026   0.80339   13.339
 6442.00    0.80291   0.80351   12.986
 6443.00    0.80341   0.80247   12.668
 6444.00    0.80154   0.80093   12.502
 6445.00    0.79646   0.79832   12.479
 6446.00    0.78784   0.79574   12.554
 6447.00    0.77688   0.79305   12.672
 6448.00    0.76833   0.79041   12.758
 6449.00    0.76797   0.78945   12.759
 6450.00    0.77349   0.78890   12.747
 6451.00    0.77607   0.78863   12.879
 6452.00    0.77332   0.78942   13.175
 6453.00    0.76994   0.79019   13.497
 6454.00    0.76810   0.79087   13.720
 6455.00    0.76638   0.79153   13.801
 6456.00    0.76523   0.79197   13.774
 6457.00    0.76755   0.79204   13.724
 6458.00    0.77604   0.79189   13.724
 6459.00    0.79098   0.79203   13.806
 6460.00    0.80684   0.79163   13.932
 6461.00    0.81490   0.79167   14.019
 6462.00    0.81331   0.79288   14.066
 6463.00    0.80714   0.79364   14.137
 6464.00    0.80107   0.79439   14.221
 6465.00    0.79714   0.79564   14.240
 6466.00    0.79428   0.79642   14.192
 6467.00    0.79032   0.79654   14.152
 6468.00    0.78728   0.79649   14.169
 6469.00    0.79004   0.79603   14.248
 6470.00    0.79936   0.79526   14.369
 6471.00    0.81147   0.79477   14.473
 6472.00    0.82178   0.79391   14.450
 6473.00    0.82644   0.79286   14.176
 6474.00    0.82346   0.79210   13.624
 6475.00    0.81317   0.79114   12.910
 6476.00    0.79841   0.78979   12.265
 6477.00    0.78356   0.78841   11.901
 6478.00    0.77216   0.78716   11.855
 6479.00    0.76631   0.78574   12.054
 6480.00    0.76663   0.78431   12.393
 6481.00    0.77227   0.78340   12.751
 6482.00    0.78071   0.78266   13.026
 6483.00    0.78840   0.78162   13.171
 6484.00    0.79223   0.78026   13.232
 6485.00    0.79045   0.77839   13.309
 6486.00    0.78414   0.77548   13.468
 6487.00    0.77662   0.77125   13.711
 6488.00    0.77155   0.76610   13.956
 6489.00    0.77094   0.76009   14.085
 6490.00    0.77196   0.75391   14.109
 6491.00    0.76910   0.74820   14.131
 6492.00    0.76048   0.74278   14.169
 6493.00    0.74810   0.73956   14.182
 6494.00    0.73508   0.73853   14.226
 6495.00    0.72526   0.73899   14.385
 6496.00    0.72330   0.74211   14.549
 6497.00    0.73242   0.74639   14.502
 6498.00    0.74960   0.75179   14.247
 6499.00    0.76777   0.75812   13.965
 6500.00    0.78231   0.76382   13.761
 6501.00    0.79185   0.76920   13.656
 6502.00    0.79701   0.77386   13.639
 6503.00    0.79935   0.77751   13.692
 6504.00    0.79988   0.78029   13.810
 6505.00    0.79881   0.78199   13.978
 6506.00    0.79560   0.78289   14.105
 6507.00    0.78963   0.78317   14.048
 6508.00    0.78142   0.78284   13.718
 6509.00    0.77337   0.78195   13.163
 6510.00    0.77064   0.78070   12.607
 6511.00    0.77727   0.77926   12.268
 6512.00    0.78890   0.77776   12.171
 6513.00    0.79657   0.77636   12.270
 6514.00    0.79649   0.77522   12.646
 6515.00    0.79032   0.77469   13.350
 6516.00    0.78216   0.77453   13.918
 6517.00    0.77627   0.77484   13.685
 6518.00    0.77411   0.77585   13.041
 6519.00    0.77454   0.77679   12.761
 6520.00    0.77519   0.77769   12.864
 6521.00    0.77430   0.77863   12.967
 6522.00    0.77336   0.77926   12.943
 6523.00    0.77552   0.77969   12.878
 6524.00    0.78186   0.77966   12.788
 6525.00    0.79065   0.77939   12.646
 6526.00    0.79738   0.77928   12.537
 6527.00    0.79725   0.77904   12.564
 6528.00    0.78947   0.77876    0.000
 6529.00    0.77754   0.77861    0.000
 6530.00    0.76845   0.77849    0.000
 6531.00    0.76839   0.77851    0.000
 6532.00    0.77624   0.77867    0.000
 6533.00    0.78626   0.77877    0.000
 6534.00    0.79407   0.77874    0.000
 6535.00    0.79716   0.77834    0.000
 6536.00    0.79403   0.77756    0.000
 6537.00    0.78486   0.77639    0.000
 6538.00    0.77258   0.77444    0.000
 6539.00    0.76190   0.77169    0.000
 6540.00    0.75737   0.76861    0.000
 6541.00    0.76228   0.76514    0.000
 6542.00    0.77762   0.76139    0.000
 6543.00    0.80230   0.75751    0.000
 6544.00    0.83393   0.75341    0.000
 6545.00    0.86893   0.74971    0.000
 6546.00    0.90235   0.74612    0.000
 6547.00    0.92726   0.74194    0.000
 6548.00    0.93395   0.73751    0.000
 6549.00    0.91522   0.73254    0.000
 6550.00    0.87398   0.72668    0.000
 6551.00    0.82107   0.71972    0.000
 6552.00    0.77043   0.71118    0.000
 6553.00    0.73416   0.70129    0.000
 6554.00    0.71714   0.69011    0.000
 6555.00    0.72562   0.67677    0.000
 6556.00    0.77966   0.66282    0.000
 6557.00    0.90526   0.65014    0.000
 6558.00    1.12029   0.63820    0.000
 6559.00    1.41634   0.62871    0.000
 6560.00    1.73814   0.62239    0.000
 6561.00    2.00222   0.62037    0.000
 6562.00    2.12726   0.62478    0.000
 6563.00    2.06590   0.63242    0.000
 6564.00    1.84000   0.64222    0.000
 6565.00    1.52311   0.65507    0.000
 6566.00    1.20959   0.66819    0.000
 6567.00    0.97555   0.68026    0.000
 6568.00    0.83564   0.69121    0.000
 6569.00    0.76509   0.70067    0.000
 6570.00    0.73471   0.70865    0.000
 6571.00    0.72233   0.71548    0.000
 6572.00    0.72113   0.72141    0.000
 6573.00    0.73031   0.72652    0.000
 6574.00    0.74306   0.73130    0.000
 6575.00    0.75370   0.73576    0.000
 6576.00    0.76762   0.73970    0.000
 6577.00    0.79693   0.74333    0.000
 6578.00    0.85336   0.74652    0.000
 6579.00    0.94210   0.74905    0.000
 6580.00    1.05547   0.75144    0.000
 6581.00    1.17333   0.75348    0.000
 6582.00    1.26524   0.75486    0.000
 6583.00    1.30223   0.75610    0.000
 6584.00    1.27040   0.75676    0.000
 6585.00    1.17698   0.75676    0.000
 6586.00    1.05405   0.75631    0.000
 6587.00    0.93985   0.75548    0.000
 6588.00    0.85749   0.75455    0.000
 6589.00    0.81201   0.75335    0.000
 6590.00    0.79064   0.75218    0.000
 6591.00    0.77711   0.75129    0.000
 6592.00    0.76636   0.75130    0.000
 6593.00    0.75919   0.75220    0.000
 6594.00    0.75503   0.75325    0.000
 6595.00    0.75288   0.75490    0.000
 6596.00    0.75277   0.75686    0.000
 6597.00    0.75475   0.75866    0.000
 6598.00    0.75761   0.76032    0.000
 6599.00    0.76031   0.76145    0.000
 6600.00    0.76332   0.76206    0.000
 6601.00    0.76685   0.76224    0.000
 6602.00    0.76919   0.76186    0.000
 6603.00    0.76878   0.76139    0.000
 6604.00    0.76638   0.76102    0.000
 6605.00    0.76376   0.76060    0.000
 6606.00    0.76218   0.76047    0.000
 6607.00    0.76214   0.76073    0.000
 6608.00    0.76326   0.76172    0.000
 6609.00    0.76412   0.76300   13.969
 6610.00    0.76251   0.76422   13.901
 6611.00    0.75833   0.76567   13.914
 6612.00    0.75591   0.76712   13.923
 6613.00    0.75886   0.76854   13.860
 6614.00    0.76554   0.76952   13.836
 6615.00    0.77244   0.77002   13.938
 6616.00    0.77774   0.77033   14.054
 6617.00    0.78168   0.77016   14.078
 6618.00    0.78625   0.76958   14.091
 6619.00    0.79142   0.76878   14.186
 6620.00    0.79237   0.76760   14.301
 6621.00    0.78597   0.76628   14.355
 6622.00    0.77591   0.76494   14.368
 6623.00    0.76763   0.76350   14.376
 6624.00    0.76361   0.76233   14.350
 6625.00    0.76351   0.76110   14.293
 6626.00    0.76482   0.75978   14.297
 6627.00    0.76438   0.75873   14.402
 6628.00    0.75976   0.75778   14.486
 6629.00    0.75102   0.75695   14.451
 6630.00    0.74160   0.75628   14.373
 6631.00    0.73527   0.75580   14.352
 6632.00    0.73351   0.75567   14.383
 6633.00    0.73600   0.75596   14.410
 6634.00    0.74120   0.75649   14.368
 6635.00    0.74757   0.75703   14.258
 6636.00    0.75440   0.75742   14.172
 6637.00    0.76128   0.75788   14.147
 6638.00    0.76761   0.75825   14.089
 6639.00    0.77225   0.75834   13.963
 6640.00    0.77346   0.75829   13.912
 6641.00    0.76973   0.75799   14.004
 6642.00    0.76078   0.75794   14.075
 6643.00    0.74945   0.75808   14.007
 6644.00    0.74216   0.75794   13.921
 6645.00    0.74178   0.75787   13.914
 6646.00    0.74344   0.75792   13.907
 6647.00    0.74297   0.75789   13.893
 6648.00    0.74242   0.75777   14.065
 6649.00    0.74453   0.75741   14.386
 6650.00    0.74870   0.75701   14.319
 6651.00    0.75264   0.75664   13.711
 6652.00    0.75412   0.75606   13.210
 6653.00    0.75353   0.75541   13.167
 6654.00    0.75485   0.75461   13.265
 6655.00    0.76007   0.75369   13.192
 6656.00    0.76598   0.75257   13.050
 6657.00    0.76904   0.75142   12.995
 6658.00    0.76876   0.75034   13.008
 6659.00    0.76745   0.74914   13.021
 6660.00    0.76920   0.74832   13.006
 6661.00    0.77503   0.74772   12.938
 6662.00    0.78059   0.74763   12.792
 6663.00    0.78175   0.74820   12.691
 6664.00    0.77799   0.74881   12.918
 6665.00    0.77094   0.74986   13.526
 6666.00    0.76303   0.75111   14.078
 6667.00    0.75589   0.75223   14.207
 6668.00    0.74976   0.75311   14.144
 6669.00    0.74556   0.75343   14.161
 6670.00    0.74575   0.75308   14.213
 6671.00    0.75145   0.75217   14.221
 6672.00    0.76090   0.75094   14.232
 6673.00    0.77054   0.74924   14.272
 6674.00    0.77623   0.74723   14.270
 6675.00    0.77605   0.74546   14.201
 6676.00    0.77164   0.74400   14.139
 6677.00    0.76632   0.74331   14.141
 6678.00    0.76359   0.74318   14.176
 6679.00    0.76471   0.74321   14.194
 6680.00    0.76767   0.74402   14.165
 6681.00    0.76922   0.74511   14.086
 6682.00    0.76670   0.74620   13.986
 6683.00    0.76123   0.74728   13.891
 6684.00    0.75810   0.74804   13.812
 6685.00    0.75884   0.74872   13.748
 6686.00    0.75849   0.74914   13.703
 6687.00    0.75490   0.74927   13.701
 6688.00    0.75255   0.74913   13.780
 6689.00    0.75584   0.74872   13.900
 6690.00    0.76506   0.74826   13.923
 6691.00    0.77523   0.74771   13.828
 6692.00    0.77750   0.74705   13.778
 6693.00    0.76911   0.74654   13.863
 6694.00    0.75697   0.74609   14.008
 6695.00    0.74924   0.74586   14.104
 6696.00    0.75035   0.74589    0.000
 6697.00    0.75855   0.74586    0.000
 6698.00    0.76650   0.74608    0.000
 6699.00    0.77020   0.74631    0.000
 6700.00    0.77195   0.74639    0.000
 6701.00    0.77354   0.74649    0.000
 6702.00    0.77351   0.74647    0.000
 6703.00    0.77067   0.74632    0.000
 6704.00    0.76557   0.74606    0.000
 6705.00    0.75925   0.74557    0.000
 6706.00    0.75292   0.74472    0.000
 6707.00    0.74978   0.74371    0.000
 6708.00    0.75487   0.74226    0.000
 6709.00    0.77063   0.74041    0.000
 6710.00    0.79633   0.73837    0.000
 6711.00    0.83505   0.73602    0.000
 6712.00    0.89379   0.73390    0.000
 6713.00    0.97064   0.73189    0.000
 6714.00    1.04990   0.73021    0.000
 6715.00    1.10728   0.72922    0.000
 6716.00    1.11711   0.72881    0.000
 6717.00    1.07293   0.72916    0.000
 6718.00    0.99266   0.72984    0.000
 6719.00    0.90229   0.73083    0.000
 6720.00    0.82619   0.73221    0.000
 6721.00    0.77684   0.73365    0.000
 6722.00    0.75305   0.73498    0.000
 6723.00    0.75027   0.73615    0.000
 6724.00    0.76531   0.73719    0.000
 6725.00    0.79768   0.73815    0.000
 6726.00    0.84798   0.73898    0.000
 6727.00    0.90953   0.73955    0.000
 6728.00    0.96725   0.74000    0.000
 6729.00    1.00625   0.74028    0.000
 6730.00    1.01627   0.74034    0.000
 6731.00    0.99486   0.74017    0.000
 6732.00    0.94800   0.73984    0.000
 6733.00    0.88795   0.73932    0.000
 6734.00    0.83038   0.73862    0.000
 6735.00    0.78689   0.73781    0.000
 6736.00    0.76216   0.73691    0.000
 6737.00    0.75412   0.73611    0.000
 6738.00    0.75540   0.73532    0.000
 6739.00    0.75821   0.73447    0.000
 6740.00    0.75693   0.73369    0.000
 6741.00    0.75104   0.73291    0.000
 6742.00    0.74455   0.73224    0.000
 6743.00    0.74037   0.73157    0.000
 6744.00    0.73868   0.73082    0.000
 6745.00    0.73827   0.73023    0.000
 6746.00    0.73774   0.72969    0.000
 6747.00    0.73781   0.72952    0.000
 6748.00    0.74100   0.72958    0.000
 6749.00    0.74769   0.72993    0.000
 6750.00    0.75534   0.73077    0.000
 6751.00    0.76050   0.73177    0.000
 6752.00    0.76077   0.73322    0.000
 6753.00    0.75875   0.73480   13.445
 6754.00    0.76063   0.73635   13.022
 6755.00    0.76737   0.73793   12.960
 6756.00    0.77389   0.73930   12.965
 6757.00    0.77571   0.74040   12.917
 6758.00    0.77144   0.74107   12.946
 6759.00    0.76361   0.74142   13.084
 6760.00    0.75725   0.74135   13.216
 6761.00    0.75465   0.74100   13.262
 6762.00    0.75430   0.74042   13.241
 6763.00    0.75261   0.73955   13.263
 6764.00    0.74651   0.73877   13.449
 6765.00    0.73901   0.73820   13.737
 6766.00    0.73725   0.73787   13.899
 6767.00    0.74175   0.73790   13.891
 6768.00    0.74636   0.73823   13.890
 6769.00    0.74766   0.73887   13.994
 6770.00    0.74671   0.73993   14.162
 6771.00    0.74578   0.74108   14.308
 6772.00    0.74683   0.74216   14.355
 6773.00    0.74998   0.74303   14.321
 6774.00    0.75372   0.74346   14.294
 6775.00    0.75664   0.74354   14.290
 6776.00    0.75788   0.74303   14.264
 6777.00    0.75717   0.74204   14.226
 6778.00    0.75494   0.74059   14.228
 6779.00    0.75288   0.73881   14.238
 6780.00    0.75241   0.73698   14.175
 6781.00    0.75046   0.73529   14.078
 6782.00    0.74213   0.73384   14.065
 6783.00    0.73047   0.73278   14.110
 6784.00    0.72418   0.73216   14.079
 6785.00    0.72520   0.73186   13.984
 6786.00    0.72886   0.73193   13.947
 6787.00    0.73275   0.73217   13.962
 6788.00    0.73741   0.73257   13.923
 6789.00    0.74224   0.73296   13.848
 6790.00    0.74534   0.73336   13.848
 6791.00    0.74601   0.73376   13.929
 6792.00    0.74468   0.73410   14.002
 6793.00    0.74159   0.73464   14.039
 6794.00    0.73738   0.73505   14.074
 6795.00    0.73536   0.73554   14.115
 6796.00    0.73956   0.73612   14.141
 6797.00    0.74885   0.73653   14.144
 6798.00    0.75747   0.73705   14.129
 6799.00    0.75946   0.73738   14.095
 6800.00    0.75118   0.73749   14.006
 6801.00    0.73455   0.73765   13.752
 6802.00    0.71516   0.73756   13.212
 6803.00    0.69658   0.73742   12.393
 6804.00    0.68092   0.73735   11.452
 6805.00    0.67287   0.73704   10.650
 6806.00    0.67700   0.73681   10.161
 6807.00    0.68979   0.73666    9.935
 6808.00    0.70205   0.73640    9.829
 6809.00    0.70784   0.73638    9.794
 6810.00    0.70698   0.73625    9.854
 6811.00    0.70582   0.73608   10.000
 6812.00    0.71180   0.73619   10.209
 6813.00    0.72186   0.73632   10.543
 6814.00    0.72713   0.73660   11.102
 6815.00    0.72725   0.73700   11.805
 6816.00    0.72812   0.73728   12.386
 6817.00    0.73117   0.73781   12.701
 6818.00    0.73363   0.73834   12.813
 6819.00    0.73373   0.73880   12.822
 6820.00    0.73158   0.73930   12.824
 6821.00    0.72869   0.73951   12.950
 6822.00    0.72692   0.73977   13.290
 6823.00    0.72653   0.73981   13.686
 6824.00    0.72646   0.73970   13.849
 6825.00    0.72553   0.73967   13.806
 6826.00    0.72374   0.73955   13.789
 6827.00    0.72411   0.73958   13.803
 6828.00    0.72920   0.73953   13.722
 6829.00    0.73429   0.73938   13.620
 6830.00    0.73264   0.73921   13.651
 6831.00    0.72736   0.73885   13.751
 6832.00    0.72658   0.73827   13.750
 6833.00    0.73073   0.73739   13.675
 6834.00    0.73388   0.73620   13.651
 6835.00    0.73007   0.73481   13.604
 6836.00    0.71550   0.73347   13.346
 6837.00    0.69016   0.73209   12.809
 6838.00    0.66037   0.73107   11.954
 6839.00    0.64210   0.73047   10.654
 6840.00    0.64914   0.73030    9.297
 6841.00    0.67278   0.73072    8.909
 6842.00    0.69353   0.73133   10.329
 6843.00    0.70669   0.73217   13.451
 6844.00    0.71861   0.73309   15.023
 6845.00    0.73336   0.73377   13.841
 6846.00    0.75208   0.73422   12.980
 6847.00    0.77552   0.73433   12.834
 6848.00    0.80183   0.73402   12.566
 6849.00    0.82269   0.73344   12.169
 6850.00    0.82966   0.73255   12.045
 6851.00    0.82493   0.73139   12.130
 6852.00    0.81729   0.73034   12.171
 6853.00    0.81300   0.72937   12.262
 6854.00    0.81248   0.72863   12.530
 6855.00    0.80798   0.72828   12.500
 6856.00    0.79266   0.72801   11.756
 6857.00    0.77441   0.72799   10.995
 6858.00    0.76603   0.72823   10.899
 6859.00    0.76760   0.72862   11.289
 6860.00    0.77113   0.72931   11.637
 6861.00    0.77139   0.72984   11.852
 6862.00    0.76784   0.73019   12.088
 6863.00    0.76471   0.73037   12.107
 6864.00    0.76578   0.73037   11.637
 6865.00    0.76716   0.73051   11.031
 6866.00    0.76368   0.73055   10.723
 6867.00    0.75911   0.73062   10.710
 6868.00    0.76145   0.73068   10.830
 6869.00    0.77429   0.73090   11.064
 6870.00    0.79412   0.73138   11.427
 6871.00    0.80895   0.73194   11.763
 6872.00    0.80768   0.73267   11.868
 6873.00    0.79269   0.73328   11.793
 6874.00    0.77461   0.73393   11.674
 6875.00    0.76283   0.73442   11.445
 6876.00    0.76080   0.73478   11.049
 6877.00    0.76205   0.73488   10.689
 6878.00    0.76008   0.73483   10.568
 6879.00    0.76094   0.73480   10.652
 6880.00    0.77081   0.73488   10.820
 6881.00    0.77906   0.73518   11.052
 6882.00    0.77440   0.73552   11.379
 6883.00    0.76674   0.73621   11.784
 6884.00    0.76958   0.73706   12.129
 6885.00    0.77587   0.73810   12.101
 6886.00    0.77355   0.73924   11.676
 6887.00    0.76762   0.74030   11.495
 6888.00    0.76807   0.74127   12.046
 6889.00    0.77262   0.74204   12.890
 6890.00    0.77419   0.74269   13.156
 6891.00    0.77189   0.74304   12.971
 6892.00    0.76726   0.74334   12.956
 6893.00    0.75882   0.74353   13.174
 6894.00    0.74698   0.74372   13.397
 6895.00    0.73958   0.74393   13.519
 6896.00    0.73934   0.74404   13.579
 6897.00    0.73064   0.74440   13.695
 6898.00    0.70405   0.74485   14.011
 6899.00    0.68311   0.74542   14.613
 6900.00    0.69327   0.74600   15.029
 6901.00    0.72543   0.74656   13.846
 6902.00    0.75559   0.74712   11.502
 6903.00    0.77084   0.74761   10.204
 6904.00    0.77126   0.74791   10.575
 6905.00    0.76800   0.74790   11.800
 6906.00    0.77104   0.74768   12.394
 6907.00    0.77699   0.74711   12.287
 6908.00    0.77920   0.74635   12.337
 6909.00    0.77903   0.74545   12.596
 6910.00    0.77906   0.74430   12.759
 6911.00    0.77536   0.74338   12.810
 6912.00    0.76452   0.74254   12.809
 6913.00    0.75098   0.74185   12.595
 6914.00    0.74088   0.74153   12.079
 6915.00    0.73559   0.74116   11.494
 6916.00    0.73570   0.74113   11.072
 6917.00    0.74482   0.74117   10.850
 6918.00    0.76119   0.74122   10.827
 6919.00    0.77067   0.74131   11.068
 6920.00    0.76368   0.74109   11.535
 6921.00    0.75066   0.74103   11.863
 6922.00    0.74511   0.74095   11.634
 6923.00    0.74701   0.74107   10.889
 6924.00    0.75231   0.74126    9.989
 6925.00    0.76260   0.74143    9.277
 6926.00    0.77861   0.74176    8.910
 6927.00    0.79381   0.74201    8.895
 6928.00    0.79777   0.74240    9.221
 6929.00    0.78173   0.74264    9.902
 6930.00    0.75710   0.74303   10.881
 6931.00    0.76530   0.74345   11.835
 6932.00    0.81589   0.74371   12.352
 6933.00    0.84141   0.74404   12.454
 6934.00    0.79691   0.74420   12.428
 6935.00    0.74001   0.74444   12.438
 6936.00    0.73156   0.74451   12.505
 6937.00    0.75093   0.74458   12.542
 6938.00    0.75923   0.74449   12.496
 6939.00    0.75618   0.74422   12.445
 6940.00    0.75480   0.74388   12.449
 6941.00    0.75728   0.74336   12.429
 6942.00    0.76093   0.74321   12.285
 6943.00    0.76432   0.74311   12.009
 6944.00    0.76495   0.74311   11.672
 6945.00    0.75776   0.74319   11.385
 6946.00    0.74180   0.74325   11.206
 6947.00    0.72465   0.74334   11.104
 6948.00    0.71387   0.74353   11.082
 6949.00    0.71008   0.74379   11.246
 6950.00    0.70926   0.74411   11.582
 6951.00    0.70568   0.74454   11.778
 6952.00    0.69914   0.74505   11.574
 6953.00    0.69888   0.74578   11.111
 6954.00    0.71222   0.74651   10.641
 6955.00    0.73614   0.74744   10.302
 6956.00    0.76125   0.74837   10.184
 6957.00    0.77635   0.74936   10.377
 6958.00    0.77674   0.75029   10.891
 6959.00    0.76875   0.75115   11.536
 6960.00    0.75933   0.75195   12.057
 6961.00    0.74892   0.75250   12.355
 6962.00    0.73712   0.75298   12.467
 6963.00    0.72678   0.75337   12.476
 6964.00    0.72151   0.75374   12.438
 6965.00    0.72337   0.75378   12.342
 6966.00    0.73034   0.75356   12.213
 6967.00    0.73570   0.75297   12.157
 6968.00    0.73555   0.75211   12.157
 6969.00    0.73298   0.75100   12.022
 6970.00    0.73109   0.74945   11.834
 6971.00    0.72877   0.74774   12.112
 6972.00    0.72561   0.74579   13.049
 6973.00    0.72455   0.74394   13.910
 6974.00    0.72616   0.74220   13.967
 6975.00    0.72567   0.74102   13.744
 6976.00    0.71956   0.74087   13.829
 6977.00    0.70973   0.74129   14.104
 6978.00    0.70188   0.74231   14.271
 6979.00    0.70310   0.74378   14.219
 6980.00    0.71392   0.74546   14.005
 6981.00    0.72525   0.74736   13.786
 6982.00    0.73014   0.74905   13.680
 6983.00    0.73007   0.75055   13.708
 6984.00    0.72686   0.75162   13.809
 6985.00    0.71870   0.75209   13.882
 6986.00    0.70722   0.75246   13.989
 6987.00    0.70039   0.75259   14.377
 6988.00    0.70355   0.75262   14.671
 6989.00    0.71440   0.75255   13.686
 6990.00    0.72629   0.75220   11.887
 6991.00    0.73166   0.75194   10.901
 6992.00    0.73017   0.75159   11.112
 6993.00    0.73108   0.75120   12.032
 6994.00    0.74019   0.75064   12.969
 6995.00    0.75333   0.74975   13.372
 6996.00    0.76259   0.74884   13.232
 6997.00    0.76115   0.74804   13.107
 6998.00    0.74912   0.74734   13.306
 6999.00    0.73471   0.74668   13.623
 7000.00    0.72312   0.74593   13.846
 7001.00    0.71241   0.74548   -2.000
 7002.00    0.70371   0.74523   -2.000
 7003.00    0.70417   0.74526   -2.000
 7004.00    0.71243   0.74548   -2.000
 7005.00    0.71481   0.74574   -2.000
 7006.00    0.70644   0.74592   -2.000
 7007.00    0.69872   0.74585   -2.000
 7008.00    0.70007   0.74580   -2.000
 7009.00    0.70737   0.74572   -2.000
 7010.00    0.71445   0.74543   -2.000
 7011.00    0.71712   0.74490   -2.000
 7012.00    0.71581   0.74412   -2.000
 7013.00    0.71513   0.74373   -2.000
 7014.00    0.71627   0.74387   -2.000
 7015.00    0.71492   0.74405   -2.000
 7016.00    0.70942   0.74444   -2.000
 7017.00    0.70363   0.74481   -2.000
 7018.00    0.70078   0.74517   -2.000
 7019.00    0.70076   0.74542   -2.000
 7020.00    0.70117   0.74573   -2.000
 7021.00    0.69888   0.74629   -2.000
 7022.00    0.69399   0.74682   -2.000
 7023.00    0.69055   0.74722   -2.000
 7024.00    0.69184   0.74768   -2.000
 7025.00    0.69776   0.74829   -2.000
 7026.00    0.70381   0.74895   -2.000
 7027.00    0.70327   0.74968   -2.000
 7028.00    0.69805   0.75029   -2.000
 7029.00    0.69968   0.75085   -2.000
 7030.00    0.71201   0.75128   -2.000
 7031.00    0.72655   0.75169   -2.000
 7032.00    0.73517   0.75222   -2.000
 7033.00    0.73562   0.75277   -2.000
 7034.00    0.73029   0.75322   -2.000
 7035.00    0.72426   0.75421   -2.000
 7036.00    0.71990   0.75588   -2.000
 7037.00    0.71566   0.75774   -2.000
 7038.00    0.71049   0.75972   -2.000
 7039.00    0.70515   0.76168   -2.000
 7040.00    0.69972   0.76344   -2.000
 7041.00    0.69325   0.76482   -2.000
 7042.00    0.68602   0.76589   -2.000
 7043.00    0.68040   0.76650   -2.000
 7044.00    0.68028   0.76626   -2.000
 7045.00    0.68883   0.76506   -2.000
 7046.00    0.70089   0.76291   -2.000
 7047.00    0.70514   0.75999   -2.000
 7048.00    0.70309   0.75617   -2.000
 7049.00    0.70866   0.75174   -2.000
 7050.00    0.71952   0.74706   -2.000
 7051.00    0.71653   0.74220   -2.000
 7052.00    0.70154   0.73770   -2.000
 7053.00    0.69728   0.73352   -2.000
 7054.00    0.69615   0.72979   -2.000
 7055.00    0.66369   0.72649   -2.000
 7056.00    0.61781   0.72372   -2.000
 7057.00    0.62452   0.72172   -2.000
 7058.00    0.68276   0.72035   -2.000
 7059.00    0.71808   0.71939   -2.000
 7060.00    0.70411   0.71880   -2.000
 7061.00    0.68164   0.71845   -2.000
 7062.00    0.67567   0.71805   -2.000
 7063.00    0.67647   0.71803   -2.000
 7064.00    0.67557   0.71810   -2.000
 7065.00    0.67519   0.71860   -2.000
 7066.00    0.67743   0.71950   -2.000
 7067.00    0.68156   0.72048   -2.000
 7068.00    0.68751   0.72168   -2.000
 7069.00    0.69582   0.72283   -2.000
 7070.00    0.70370   0.72415   -2.000
 7071.00    0.70572   0.72529   -2.000
 7072.00    0.70026   0.72625   -2.000
 7073.00    0.69070   0.72689   -2.000
 7074.00    0.68266   0.72711   -2.000
 7075.00    0.68118   0.72677   -2.000
 7076.00    0.68502   0.72579   -2.000
 7077.00    0.68783   0.72427   -2.000
 7078.00    0.68704   0.72195   -2.000
 7079.00    0.68518   0.71903   -2.000
 7080.00    0.68575   0.71549   -2.000
 7081.00    0.69013   0.71165   -2.000
 7082.00    0.69260   0.70783   -2.000
 7083.00    0.68509   0.70375   -2.000
 7084.00    0.67440   0.69977   -2.000
 7085.00    0.67413   0.69615   -2.000
 7086.00    0.66808   0.69297   -2.000
 7087.00    0.62624   0.69033   -2.000
 7088.00    0.57759   0.68854   -2.000
 7089.00    0.58839   0.68710   -2.000
 7090.00    0.64610   0.68643   -2.000
 7091.00    0.67337   0.68612   -2.000
 7092.00    0.65429   0.68635   -2.000
 7093.00    0.63526   0.68725   -2.000
 7094.00    0.63231   0.68813   -2.000
 7095.00    0.62668   0.68988   -2.000
 7096.00    0.62091   0.69120   -2.000
 7097.00    0.63631   0.69285   -2.000
 7098.00    0.66709   0.69434   -2.000
 7099.00    0.68495   0.69573   -2.000
 7100.00    0.68180   0.69714   -2.000
 7101.00    0.67116   0.69819   -2.000
 7102.00    0.66260   0.69916   -2.000
 7103.00    0.65778   0.69964   -2.000
 7104.00    0.65702   0.70002   -2.000
 7105.00    0.66036   0.70019   -2.000
 7106.00    0.66580   0.70026   -2.000
 7107.00    0.67035   0.70019   -2.000
 7108.00    0.67345   0.70032   -2.000
 7109.00    0.67517   0.70056   -2.000
 7110.00    0.66987   0.70094   -2.000
 7111.00    0.65267   0.70138   -2.000
 7112.00    0.63745   0.70203   -2.000
 7113.00    0.64550   0.70269   -2.000
 7114.00    0.67003   0.70321   -2.000
 7115.00    0.68568   0.70366   -2.000
 7116.00    0.68861   0.70384   -2.000
 7117.00    0.69163   0.70378   -2.000
 7118.00    0.69237   0.70316   -2.000
 7119.00    0.67896   0.70233   -2.000
 7120.00    0.65834   0.70117   -2.000
 7121.00    0.64920   0.69953   -2.000
 7122.00    0.65302   0.69767   -2.000
 7123.00    0.65783   0.69580   -2.000
 7124.00    0.66003   0.69404   -2.000
 7125.00    0.66362   0.69232   -2.000
 7126.00    0.66822   0.69090   -2.000
 7127.00    0.66814   0.68982   -2.000
 7128.00    0.65608   0.68938   -2.000
 7129.00    0.63456   0.68932   -2.000
 7130.00    0.63637   0.68981   -2.000
 7131.00    0.69050   0.69074   -2.000
 7132.00    0.74746   0.69170   -2.000
 7133.00    0.73276   0.69300   -2.000
 7134.00    0.68093   0.69410   -2.000
 7135.00    0.67629   0.69531   -2.000
 7136.00    0.68685   0.69631   -2.000
 7137.00    0.62893   0.69712   -2.000
 7138.00    0.55272   0.69769   -2.000
 7139.00    0.57077   0.69789   -2.000
 7140.00    0.65536   0.69805   -2.000
 7141.00    0.69713   0.69788   -2.000
 7142.00    0.68730   0.69769   -2.000
 7143.00    0.68735   0.69754   -2.000
 7144.00    0.70892   0.69737   -2.000
 7145.00    0.72258   0.69772   -2.000
 7146.00    0.71545   0.69844   -2.000
 7147.00    0.69706   0.69948   -2.000
 7148.00    0.68949   0.70086   -2.000
 7149.00    0.70864   0.70248   -2.000
 7150.00    0.73542   0.70419   -2.000
 7151.00    0.74016   0.70576   -2.000
 7152.00    0.73278   0.70714   -2.000
 7153.00    0.74031   0.70840   -2.000
 7154.00    0.75372   0.70882   -2.000
 7155.00    0.74726   0.70866   -2.000
 7156.00    0.72608   0.70808   -2.000
 7157.00    0.71262   0.70669   -2.000
 7158.00    0.71052   0.70529   -2.000
 7159.00    0.71075   0.70308   -2.000
 7160.00    0.71160   0.70127   -2.000
 7161.00    0.71645   0.69936   -2.000
 7162.00    0.72467   0.69806   -2.000
 7163.00    0.73368   0.69736   -2.000
 7164.00    0.74435   0.69698   -2.000
 7165.00    0.75731   0.69729   -2.000
 7166.00    0.76601   0.69769   -2.000
 7167.00    0.76384   0.69852   -2.000
 7168.00    0.75640   0.69940   -2.000
 7169.00    0.75572   0.70033   -2.000
 7170.00    0.76790   0.70099   -2.000
 7171.00    0.78426   0.70131   -2.000
 7172.00    0.77288   0.70121   -2.000
 7173.00    0.71682   0.70088   -2.000
 7174.00    0.66933   0.70037   -2.000
 7175.00    0.68876   0.69959   -2.000
 7176.00    0.73487   0.69862   -2.000
 7177.00    0.73621   0.69773   -2.000
 7178.00    0.70678   0.69691   -2.000
 7179.00    0.69776   0.69628   -2.000
 7180.00    0.70615   0.69570   -2.000
 7181.00    0.70333   0.69507   -2.000
 7182.00    0.69253   0.69456   -2.000
 7183.00    0.69297   0.69379   -2.000
 7184.00    0.70692   0.69342   -2.000
 7185.00    0.72215   0.69327   -2.000
 7186.00    0.72216   0.69329   -2.000
 7187.00    0.69903   0.69364   -2.000
 7188.00    0.66779   0.69380   -2.000
 7189.00    0.64917   0.69437   -2.000
 7190.00    0.64486   0.69481   -2.000
 7191.00    0.64647   0.69552   -2.000
 7192.00    0.65158   0.69625   -2.000
 7193.00    0.66253   0.69678   -2.000
 7194.00    0.68171   0.69735   -2.000
 7195.00    0.70246   0.69768   -2.000
 7196.00    0.70017   0.69780   -2.000
 7197.00    0.66026   0.69780   -2.000
 7198.00    0.61255   0.69768   -2.000
 7199.00    0.59944   0.69748   -2.000
 7200.00    0.63108   0.69714   -2.000
 7201.00    0.68454   0.69663   -2.000
 7202.00    0.71237   0.69626   -2.000
 7203.00    0.68587   0.69571   -2.000
 7204.00    0.64216   0.69554   -2.000
 7205.00    0.62991   0.69570   -2.000
 7206.00    0.64107   0.69610   -2.000
 7207.00    0.64824   0.69701   -2.000
 7208.00    0.65582   0.69788   -2.000
 7209.00    0.67704   0.69900   -2.000
 7210.00    0.70233   0.70010   -2.000
 7211.00    0.72155   0.70146   -2.000
 7212.00    0.75075   0.70297   -2.000
 7213.00    0.80083   0.70425   -2.000
 7214.00    0.84180   0.70560   -2.000
 7215.00    0.83882   0.70657   -2.000
 7216.00    0.79526   0.70749   -2.000
 7217.00    0.73880   0.70830   -2.000
 7218.00    0.69960   0.70914   -2.000
