###################################################################
## OUTPUT of StarlightChains_v04.for    [Cid@UFSC - 01/Apr/2007] ##
###################################################################

## Some input info
1984L.txt                                [arq_obs]
Base.CB07.vall.4m                        [arq_base]
Masks.EmLines.NEW.gm                     [arq_masks]
StCv04.C11.config                        [arq_config]
   66                                    [N_base]
    0                                    [N_YAV_components = # of components with extra extinction!]
    0                                    [i_FitPowerLaw (1/0 = Yes/No)]
-9.99                                    [alpha_PowerLaw]
CCM                                      [red_law_option]
 1.458241                                [q_norm = A(l_norm)/A(V)]

## (Re)Sampling Parameters
 3741.00                                 [l_ini (A)]
 7218.00                                 [l_fin (A)]
    1.00                                 [dl    (A)]     (OBS: dl_cushion =    50.00 A)

## Normalization info
 4020.00                                 [l_norm (A) - for base]
 4010.00                                 [llow_norm (A) - window for f_obs]
 4060.00                                 [lupp_norm (A) - window for f_obs]
7.795564E-16                             [fobs_norm (in input units)]

## S/N
 3691.00                                 [llow_SN (A) - window for S/N]
 7268.00                                 [lupp_SN (A) - window for S/N]
   3.846                                 [S/N in S/N window]
   5.685                                 [S/N in norm. window]
  10.000                                 [S/N_err in S/N window]
  14.780                                 [S/N_err in norm. window]
  1.0000                                 [fscale_chi2]

## etc...
    -2007210                             [idum_orig]
  2398                                   [NOl_eff]
  2396                                   [Nl_eff]
     2    NSIGMA                         [Ntot_cliped & clip_method]
  1146600                                [Nglobal_steps]
   7                                     [N_chains]
  18                                     [NEX0s_base = N_base in EX0s-fits]
 0   0   1       45   2.0   2.374E+01    [Clip-Bug, RC-Crash & Burn-In warning-flags, n_censored_weights, wei_nsig_threshold & wei_limit]
    12     12.039     11.502      0.537  [idt_all, wdt_TotTime, wdt_UsrTime & wdt_SysTime (sec)]

## Synthesis Results - Best model ##

 2.55232E-01                             [chi2/Nl_eff]
     3.60314                             [adev (%)]

   102.55087                             [sum-of-x (%)]
 1.06540E-15                             [Flux_tot (units of input spectrum!)]
 4.10032E-12                             [Mini_tot (???)]
 2.12768E-12                             [Mcor_tot (???)]

 -36.77                                  [v0_min  (km/s)]
 187.14                                  [vd_min  (km/s)]
 0.2138                                  [AV_min  (mag)]
 0.0000                                  [YAV_min (mag)]

# j     x_j(%)      Mini_j(%)     Mcor_j(%)     age_j(yr)     Z_j      (L/M)_j    YAV?  Mstars   component_j        a/Fe...       SSP_chi2r SSP_adev(%)   SSP_AV   SSP_x(%)
  1      2.3233     5.3807E-02    1.0369E-01    1.000000E+06  0.00400  1.094E-02    0   1.0000   age020_m42            0.0000     4.6402E-01     5.1619   1.8626    92.2710
  2      0.0017     1.0674E-05    2.0568E-05    3.160000E+06  0.00400  4.007E-02    0   0.9999   age045_m42            0.0000     4.6615E-01     4.8682   1.1264    99.0510
  3      0.0184     1.8403E-04    3.3650E-04    5.010000E+06  0.00400  2.539E-02    0   0.9488   age055_m42            0.0000     4.2764E-01     4.7728   1.4488    96.5336
  4      0.0000     0.0000E+00    0.0000E+00    6.610000E+06  0.00400  2.620E-02    0   0.9220   age061_m42            0.0000     4.6475E-01     4.7625   1.0518    99.3218
  5      0.0000     0.0000E+00    0.0000E+00    1.000000E+07  0.00400  1.322E-02    0   0.8862   age070_m42            0.0000     3.4328E-01     4.0495   0.7727   101.2860
  6      0.0163     5.2420E-04    8.6584E-04    1.445000E+07  0.00400  7.883E-03    0   0.8571   age078_m42            0.0000     3.3177E-01     4.0568   1.1016    98.6440
  7      0.0015     7.4010E-05    1.1658E-04    2.512000E+07  0.00400  5.251E-03    0   0.8174   age090_m42            0.0000     3.4604E-01     4.0757   0.6431   101.8307
  8      0.0000     0.0000E+00    0.0000E+00    4.000000E+07  0.00400  3.649E-03    0   0.7851   age104_m42            0.0000     3.6773E-01     4.1682   0.4129   102.8116
  9      0.0000     0.0000E+00    0.0000E+00    5.500000E+07  0.00400  3.098E-03    0   0.7629   age110_m42            0.0000     4.6299E-01     4.5456   0.5659   102.8584
 10      0.0000     0.0000E+00    0.0000E+00    1.015200E+08  0.00400  2.228E-03    0   0.7207   age116_m42            0.0000     5.6722E-01     4.9009   0.5858   103.0796
 11      0.0000     0.0000E+00    0.0000E+00    2.861200E+08  0.00400  1.093E-03    0   0.6648   age125_m42            0.0000     6.0040E-01     4.8987   0.0154   106.2345
 12      0.0000     0.0000E+00    0.0000E+00    5.088000E+08  0.00400  6.597E-04    0   0.6365   age130_m42            0.0000     7.6038E-01     5.3648   0.0051   107.1605
 13      0.0000     0.0000E+00    0.0000E+00    1.434000E+09  0.00400  2.132E-04    0   0.5798   age139_m42            0.0000     8.0703E-01     5.8426  -0.9694   109.4874
 14      0.0000     0.0000E+00    0.0000E+00    4.250000E+09  0.00400  5.895E-05    0   0.5377   age158_m42            0.0000     1.4840E+00     8.3082  -1.0000    90.1407
 15      0.0000     0.0000E+00    0.0000E+00    7.500000E+09  0.00400  3.510E-05    0   0.5212   age171_m42            0.0000     2.2965E+00    10.6940  -1.0000    82.8328
 16      6.7461     8.5250E+01    8.2703E+01    1.300000E+10  0.00400  2.005E-05    0   0.5034   age193_m42            0.0000     3.1849E+00    12.8729  -1.0000    76.7086
 17      0.0000     0.0000E+00    0.0000E+00    1.800000E+10  0.00400  1.525E-05    0   0.4967   age213_m42            0.0000     3.2838E+00    13.2046  -1.0000    75.5896
 18      0.0000     0.0000E+00    0.0000E+00    1.000000E+06  0.00800  1.238E-02    0   1.0000   age020_m52            0.0000     4.6417E-01     5.1674   1.8581    92.4812
 19      0.0000     0.0000E+00    0.0000E+00    3.160000E+06  0.00800  3.074E-02    0   0.9966   age045_m52            0.0000     4.5732E-01     5.1321   1.7796    93.3885
 20      0.0000     0.0000E+00    0.0000E+00    5.010000E+06  0.00800  2.668E-02    0   0.9443   age055_m52            0.0000     4.1867E-01     4.7701   1.5320    95.6400
 21     54.9541     6.5186E-01    1.1528E+00    6.610000E+06  0.00800  2.136E-02    0   0.9177   age061_m52            0.0000     2.8530E-01     3.7806   0.2709   102.5647
 22      0.0000     0.0000E+00    0.0000E+00    1.000000E+07  0.00800  1.215E-02    0   0.8827   age070_m52            0.0000     3.1064E-01     3.9125   0.9536   100.9719
 23      0.0000     0.0000E+00    0.0000E+00    1.445000E+07  0.00800  8.717E-03    0   0.8552   age078_m52            0.0000     3.2921E-01     4.0138   1.0660   100.0554
 24      0.0000     0.0000E+00    0.0000E+00    2.512000E+07  0.00800  5.592E-03    0   0.8162   age090_m52            0.0000     3.5008E-01     4.0822   0.7060   103.0712
 25      0.0000     0.0000E+00    0.0000E+00    4.000000E+07  0.00800  3.896E-03    0   0.7841   age104_m52            0.0000     3.9277E-01     4.2527   0.6167   103.9561
 26      0.0000     0.0000E+00    0.0000E+00    1.015200E+08  0.00800  2.148E-03    0   0.7226   age116_m52            0.0000     4.9618E-01     4.6092   0.5527   103.9250
 27      0.0000     0.0000E+00    0.0000E+00    2.861200E+08  0.00800  9.925E-04    0   0.6683   age125_m52            0.0000     7.7890E-01     5.4234   0.0693   108.1613
 28      0.0000     0.0000E+00    0.0000E+00    9.047900E+08  0.00800  3.141E-04    0   0.6138   age135_m52            0.0000     1.0109E+00     6.4514  -0.7302   112.7673
 29      0.0001     1.2504E-04    1.4104E-04    1.434000E+09  0.00800  1.719E-04    0   0.5853   age139_m52            0.0000     1.2749E+00     7.1622  -1.0000    98.4010
 30      0.0000     0.0000E+00    0.0000E+00    2.500000E+09  0.00800  7.872E-05    0   0.5600   age150_m52            0.0000     2.3207E+00    10.5213  -1.0000    85.8684
 31      0.7891     4.6110E+00    4.8215E+00    4.250000E+09  0.00800  4.336E-05    0   0.5426   age158_m52            0.0000     2.3904E+00    10.6952  -1.0000    84.5220
 32      0.0000     0.0000E+00    0.0000E+00    6.250000E+09  0.00800  3.159E-05    0   0.5319   age166_m52            0.0000     3.5501E+00    13.3395  -1.0000    77.4256
 33      0.0000     0.0000E+00    0.0000E+00    1.300000E+10  0.00800  1.361E-05    0   0.5073   age193_m52            0.0000     6.6910E+00    19.3912  -1.0000    61.9075
 34      0.0000     0.0000E+00    0.0000E+00    1.800000E+10  0.00800  9.886E-06    0   0.4990   age213_m52            0.0000     7.5833E+00    20.5689  -1.0000    58.5151
 35      4.4498     7.3022E-02    1.4072E-01    1.000000E+06  0.02000  1.544E-02    0   1.0000   age020_m62            0.0000     4.6498E-01     5.1882   1.8544    92.6902
 36      7.7425     5.2146E-02    9.9065E-02    3.160000E+06  0.02000  3.762E-02    0   0.9858   age045_m62            0.0000     4.6107E-01     5.1785   1.7909    93.6134
 37      0.0105     8.0597E-05    1.4510E-04    5.010000E+06  0.02000  3.296E-02    0   0.9342   age055_m62            0.0000     4.6075E-01     4.8739   1.4059    97.8618
 38      0.0006     1.2198E-05    2.0829E-05    8.710000E+06  0.02000  1.154E-02    0   0.8861   age067_m62            0.0000     4.7315E-01     5.1511   0.4124   103.2929
 39      0.0000     0.0000E+00    0.0000E+00    1.445000E+07  0.02000  7.663E-03    0   0.8472   age078_m62            0.0000     3.0235E-01     3.9399   0.6007   103.2235
 40      0.0000     0.0000E+00    0.0000E+00    2.512000E+07  0.02000  4.532E-03    0   0.8099   age090_m62            0.0000     3.3402E-01     4.1283   0.5923   102.9622
 41      0.0000     0.0000E+00    0.0000E+00    5.500000E+07  0.02000  2.733E-03    0   0.7595   age110_m62            0.0000     3.8117E-01     4.1420   0.5989   103.2406
 42      0.0000     0.0000E+00    0.0000E+00    1.609000E+08  0.02000  1.369E-03    0   0.6985   age120_m62            0.0000     6.5013E-01     4.9916   0.4349   106.2259
 43      0.0000     0.0000E+00    0.0000E+00    2.861200E+08  0.02000  9.013E-04    0   0.6714   age125_m62            0.0000     8.9671E-01     5.6629   0.1845   109.2745
 44      0.0000     0.0000E+00    0.0000E+00    5.088000E+08  0.02000  5.028E-04    0   0.6449   age130_m62            0.0000     1.1330E+00     6.5710  -0.1938   112.2509
 45      0.0000     0.0000E+00    0.0000E+00    9.047900E+08  0.02000  2.428E-04    0   0.6179   age135_m62            0.0000     1.0500E+00     6.7540  -0.7848   111.9009
 46      0.0000     0.0000E+00    0.0000E+00    1.434000E+09  0.02000  1.263E-04    0   0.5908   age139_m62            0.0000     1.2621E+00     7.1353  -1.0000   101.3555
 47      0.0000     0.0000E+00    0.0000E+00    2.500000E+09  0.02000  5.985E-05    0   0.5673   age150_m62            0.0000     2.5726E+00    10.9546  -1.0000    86.2519
 48      0.0000     0.0000E+00    0.0000E+00    4.250000E+09  0.02000  3.271E-05    0   0.5468   age158_m62            0.0000     4.3704E+00    14.7882  -1.0000    74.8409
 49      0.0000     0.0000E+00    0.0000E+00    1.000000E+10  0.02000  1.360E-05    0   0.5167   age181_m62            0.0000     6.8630E+00    19.0591  -1.0000    63.4002
 50      0.0000     0.0000E+00    0.0000E+00    1.800000E+10  0.02000  7.124E-06    0   0.5013   age213_m62            0.0000     8.5051E+00    21.4050  -1.0000    56.8660
 51     11.3180     1.1064E-01    2.1317E-01    1.000000E+06  0.05000  2.592E-02    0   0.9998   age020_m72            0.0000     4.7072E-01     5.2493   1.8471    92.6694
 52      3.7203     1.9455E-02    3.5907E-02    3.160000E+06  0.05000  4.845E-02    0   0.9577   age045_m72            0.0000     4.6044E-01     5.0803   1.6695    95.0459
 53      0.0000     0.0000E+00    0.0000E+00    5.010000E+06  0.05000  3.072E-02    0   0.9147   age055_m72            0.0000     3.1876E-01     4.0228   1.1899    99.2357
 54      5.3179     9.2605E-02    1.5842E-01    6.610000E+06  0.05000  1.455E-02    0   0.8877   age061_m72            0.0000     8.9152E-01     7.1821   0.4612   104.0838
 55      0.0000     0.0000E+00    0.0000E+00    1.000000E+07  0.05000  9.074E-03    0   0.8524   age070_m72            0.0000     4.3360E-01     4.6225   1.3734    98.9525
 56      0.0000     0.0000E+00    0.0000E+00    2.512000E+07  0.05000  4.250E-03    0   0.7902   age090_m72            0.0000     3.9633E-01     4.3639   1.0679   101.0192
 57      0.0000     0.0000E+00    0.0000E+00    4.000000E+07  0.05000  3.087E-03    0   0.7618   age104_m72            0.0000     4.3822E-01     4.5674   0.8381   102.7819
 58      0.0000     0.0000E+00    0.0000E+00    1.015200E+08  0.05000  1.700E-03    0   0.7096   age116_m72            0.0000     5.9566E-01     4.8512   0.5776   105.7509
 59      0.0000     0.0000E+00    0.0000E+00    2.861200E+08  0.05000  7.384E-04    0   0.6633   age125_m72            0.0000     1.0308E+00     6.0935   0.0516   110.8289
 60      0.0000     0.0000E+00    0.0000E+00    5.088000E+08  0.05000  3.819E-04    0   0.6372   age130_m72            0.0000     1.1007E+00     6.7460  -0.4449   112.8948
 61      4.1722     6.3074E+00    7.4268E+00    9.047900E+08  0.05000  1.676E-04    0   0.6110   age135_m72            0.0000     1.3417E+00     7.6029  -1.0000   105.4861
 62      0.9684     2.7766E+00    3.1432E+00    1.434000E+09  0.05000  8.837E-05    0   0.5874   age139_m72            0.0000     2.6812E+00    11.1483  -1.0000    87.4856
 63      0.0000     0.0000E+00    0.0000E+00    2.500000E+09  0.05000  4.233E-05    0   0.5598   age150_m72            0.0000     4.4803E+00    14.8675  -1.0000    75.4788
 64      0.0000     0.0000E+00    0.0000E+00    6.250000E+09  0.05000  1.435E-05    0   0.5249   age166_m72            0.0000     7.5696E+00    20.2325  -1.0000    60.2941
 65      0.0000     0.0000E+00    0.0000E+00    1.300000E+10  0.05000  6.513E-06    0   0.5036   age193_m72            0.0000     9.7886E+00    23.2320  -1.0000    53.0874
 66      0.0000     0.0000E+00    0.0000E+00    1.800000E+10  0.05000  4.527E-06    0   0.4945   age213_m72            0.0000     1.1080E+01    24.8338  -1.0000    48.9005


## Synthesis Results - Average & Chains ##

# j      x_j: min, <> & last-chain-values for 1 ...  7 chains
  1      2.3233      3.9344      2.8426      4.6766      8.4145      5.5457      7.8449      4.0603      4.9418
  2      0.0017      0.5085      0.0000      0.0000      0.6372      0.0000      0.0000      0.0000      0.9672
  3      0.0184      0.5649      3.2852      0.1882      0.5250      0.0000      0.0000      0.0000      0.6853
  4      0.0000      0.4645      0.2392      0.0000      0.3286      0.0000      0.0000      0.0000      1.0113
  5      0.0000      0.5067      0.0000      1.9954      0.0000      0.0000      0.0000      0.0000      0.3689
  6      0.0163      0.8317      3.0785      0.4249      0.9324      0.0000      1.5659      0.0000      0.0000
  7      0.0015      0.6915      0.0000      0.0000      2.7551      0.0000      0.0000      0.6257      0.0000
  8      0.0000      0.8256      0.0000      0.5319      0.0480      0.0000      0.0000      0.0000      0.0000
  9      0.0000      0.4730      0.0000      0.0000      0.2959      0.0000      0.0000      0.0000      0.0000
 10      0.0000      0.2973      0.0000      0.0000      0.0000      0.0000      0.0000      0.0000      0.1325
 11      0.0000      0.4834      0.0000      0.0000      0.0000      0.0000      0.0000      0.9891      0.0000
 12      0.0000      0.4536      0.0000      0.1271      0.0000      0.0000      0.0000      0.0000      0.0000
 13      0.0000      0.0883      0.0000      0.0000      0.0000      0.0000      0.0000      0.0000      0.0000
 14      0.0000      0.1688      0.0000      0.8652      0.0000      0.0000      1.2433      0.0000      0.0000
 15      0.0000      0.0717      0.0000      0.0000      0.0000      0.0000      0.0000      0.0599      0.0000
 16      6.7461      0.2147      0.0000      0.0000      1.5981      0.0000      0.8568      0.4716      0.0000
 17      0.0000      0.0283      0.4193      0.0000      0.4541      0.0000      0.0000      0.0000      0.0000
 18      0.0000      0.4351      0.8645      0.0000      0.0000      0.0000      0.0000      0.0000      0.0000
 19      0.0000      0.7400      0.2147      2.1411      0.0000      1.8258      5.2320      3.8942      0.0000
 20      0.0000      0.5330      2.8515      4.5435      0.0000      0.0000      0.0000      0.0000      0.7205
 21     54.9541     48.2326     41.5646     50.3805     49.4117     53.0988     41.3846     48.2385     57.5653
 22      0.0000      0.4779      5.8839      0.0000      0.0000      0.0000      0.0000      0.0000      0.0000
 23      0.0000      0.5060      0.0000      0.0000      0.0000      0.0000      0.0000      0.0000      0.0000
 24      0.0000      0.6369      0.0000      0.0000      0.0000      1.4593      0.0000      0.0000      0.0000
 25      0.0000      0.5926      0.0000      0.0000      0.0000      0.0000      0.0000      0.4694      0.0000
 26      0.0000      0.4607      0.0000      0.0000      0.0000      0.0000      0.5643      0.0000      0.0000
 27      0.0000      0.3023      0.4331      0.0000      0.0000      1.1750      0.0000      0.0000      0.0000
 28      0.0000      0.2566      0.0000      0.0000      0.0000      0.0000      0.0000      0.2798      0.0000
 29      0.0001      0.3037      2.3554      1.3925      0.9448      0.0000      2.1903      0.0000      0.7902
 30      0.0000      0.1589      1.2634      0.3434      0.0000      0.0000      0.5705      0.0293      0.0000
 31      0.7891      0.0582      0.0000      0.0000      1.0501      0.0000      0.0000      0.0000      0.0000
 32      0.0000      0.1821      0.1889      0.7608      0.3299      0.6222      0.0000      0.6339      0.8660
 33      0.0000      0.0456      0.0000      0.0000      0.0000      0.0000      0.0000      0.5553      0.0000
 34      0.0000      0.0295      0.0000      0.0000      0.0000      0.0832      0.0000      0.0000      0.0000
 35      4.4498      3.5177      2.6487      1.3151      3.4601      3.1980      6.5381      6.9162      2.6292
 36      7.7425      5.7900      7.7483      7.6686      5.1150      8.9406      7.3885      5.8110      2.1509
 37      0.0105      0.2742      0.0000      0.0000      0.9984      0.0000      0.0000      0.0000      1.2888
 38      0.0006      6.2556      4.2452      5.9785      3.8132      0.0000      0.0000      7.3494      6.2202
 39      0.0000      1.5797      1.1578      0.0000      0.0000      1.7034      3.4584      2.6681      0.0000
 40      0.0000      1.2711      0.0000      0.0000      0.0000      0.0000      0.0000      0.0000      1.0460
 41      0.0000      0.6494      0.0000      0.0000      0.0000      0.0000      0.0000      0.0000      0.0000
 42      0.0000      0.3523      0.0000      0.0000      0.0000      0.0000      0.0000      0.0000      0.0000
 43      0.0000      0.1834      0.0000      0.0000      0.0000      0.2410      0.0000      0.0000      0.0000
 44      0.0000      0.2918      0.0000      0.0000      0.1234      0.6685      0.0000      0.0000      0.0000
 45      0.0000      0.5629      0.0000      0.0000      0.0000      0.0000      0.0000      1.6247      1.3004
 46      0.0000      0.3443      1.0328      0.0000      0.1610      0.0000      0.0000      1.3412      1.2891
 47      0.0000      0.1084      0.2089      0.6825      0.0000      0.0000      1.1088      0.0000      0.0000
 48      0.0000      0.0315      0.0000      0.0000      0.0000      0.0000      0.0000      0.0000      0.0000
 49      0.0000      0.0163      0.0000      0.0000      0.0000      0.0000      0.0000      0.0000      0.0000
 50      0.0000      0.0977      0.0000      0.0000      0.0000      0.5648      0.0000      0.0000      0.0000
 51     11.3180      3.4334      6.2977      3.5585      5.7122      2.7508      4.7214      5.4996      6.5930
 52      3.7203      2.0136      2.9458      6.0040      7.7684      1.2960      3.8436      1.8087      2.2114
 53      0.0000      0.9953      3.6202      0.0000      0.0000      2.2013      1.7764      2.3658      3.4660
 54      5.3179      4.2801      0.0000      3.9579      3.1475      8.9949      0.0746      0.0000      3.3343
 55      0.0000      0.2565      0.0000      0.0000      0.0000      0.0000      0.0000      0.0659      0.0000
 56      0.0000      0.4295      0.0000      0.0000      0.0000      0.0000      0.0000      0.0000      0.0000
 57      0.0000      0.4574      0.0000      0.0000      0.0000      1.1744      5.7425      0.3528      0.0000
 58      0.0000      0.2781      0.0000      0.0000      0.0000      0.0000      0.0000      1.5056      0.0000
 59      0.0000      0.2469      0.0000      0.0000      0.0000      0.0000      0.0000      0.0000      0.0000
 60      0.0000      0.3481      0.0000      0.8420      0.0000      2.2238      0.0000      0.0000      0.0000
 61      4.1722      0.5930      0.9189      1.0232      1.3741      1.3310      1.2414      1.6224      0.0000
 62      0.9684      3.0871      5.5690      2.0108      2.9181      3.6704      5.0035      3.2969      2.5543
 63      0.0000      0.1891      0.7333      0.8228      0.0000      0.1147      0.0000      0.0000      0.0000
 64      0.0000      0.0884      0.0000      0.0000      0.0000      0.0000      0.0000      0.0000      0.1922
 65      0.0000      0.0123      0.0000      0.0000      0.0000      0.0000      0.0000      0.0000      0.1142
 66      0.0000      0.0131      0.0000      0.0000      0.0000      0.0000      0.0000      0.0000      0.0000

# j      m_j: min, <> & last-chain-values for 1 ...  7 chains
  1  1.0369E-01  5.1370E-01  2.7246E-01  6.2657E-01  7.1921E-01  5.3107E-01  7.2862E-01  4.1721E-01  7.0489E-01
  2  2.0568E-05  1.8124E-02  0.0000E+00  0.0000E+00  1.4869E-02  0.0000E+00  0.0000E+00  0.0000E+00  3.7661E-02
  3  3.3650E-04  3.0153E-02  1.2873E-01  1.0307E-02  1.8346E-02  0.0000E+00  0.0000E+00  0.0000E+00  3.9960E-02
  4  0.0000E+00  2.3348E-02  8.8256E-03  0.0000E+00  1.0813E-02  0.0000E+00  0.0000E+00  0.0000E+00  5.5533E-02
  5  0.0000E+00  4.8520E-02  0.0000E+00  1.9606E-01  0.0000E+00  0.0000E+00  0.0000E+00  0.0000E+00  3.8589E-02
  6  8.6584E-04  1.2917E-01  3.5098E-01  6.7712E-02  9.4795E-02  0.0000E+00  1.7299E-01  0.0000E+00  0.0000E+00
  7  1.1658E-04  1.5376E-01  0.0000E+00  0.0000E+00  4.0102E-01  0.0000E+00  0.0000E+00  1.0949E-01  0.0000E+00
  8  0.0000E+00  2.5372E-01  0.0000E+00  1.6775E-01  9.6544E-03  0.0000E+00  0.0000E+00  0.0000E+00  0.0000E+00
  9  0.0000E+00  1.6638E-01  0.0000E+00  0.0000E+00  6.8131E-02  0.0000E+00  0.0000E+00  0.0000E+00  0.0000E+00
 10  0.0000E+00  1.3736E-01  0.0000E+00  0.0000E+00  0.0000E+00  0.0000E+00  0.0000E+00  0.0000E+00  6.6858E-02
 11  0.0000E+00  4.2002E-01  0.0000E+00  0.0000E+00  0.0000E+00  0.0000E+00  0.0000E+00  6.7630E-01  0.0000E+00
 12  0.0000E+00  6.2517E-01  0.0000E+00  1.7972E-01  0.0000E+00  0.0000E+00  0.0000E+00  0.0000E+00  0.0000E+00
 13  0.0000E+00  3.4282E-01  0.0000E+00  0.0000E+00  0.0000E+00  0.0000E+00  0.0000E+00  0.0000E+00  0.0000E+00
 14  0.0000E+00  2.1991E+00  0.0000E+00  1.1567E+01  0.0000E+00  0.0000E+00  1.1523E+01  0.0000E+00  0.0000E+00
 15  0.0000E+00  1.5215E+00  0.0000E+00  0.0000E+00  0.0000E+00  0.0000E+00  0.0000E+00  1.0006E+00  0.0000E+00
 16  8.2703E+01  7.7003E+00  0.0000E+00  0.0000E+00  3.7519E+01  0.0000E+00  2.1857E+01  1.3311E+01  0.0000E+00
 17  0.0000E+00  1.3183E+00  1.4320E+01  0.0000E+00  1.3830E+01  0.0000E+00  0.0000E+00  0.0000E+00  0.0000E+00
 18  0.0000E+00  5.0200E-02  7.3225E-02  0.0000E+00  0.0000E+00  0.0000E+00  0.0000E+00  0.0000E+00  0.0000E+00
 19  0.0000E+00  3.4271E-02  7.2975E-03  1.0174E-01  0.0000E+00  6.2012E-02  1.7235E-01  1.4192E-01  0.0000E+00
 20  0.0000E+00  2.6947E-02  1.0583E-01  2.3570E-01  0.0000E+00  0.0000E+00  0.0000E+00  0.0000E+00  3.9792E-02
 21  1.1528E+00  2.9600E+00  1.8725E+00  3.1726E+00  1.9850E+00  2.3900E+00  1.8066E+00  2.3297E+00  3.8594E+00
 22  0.0000E+00  4.9594E-02  4.4824E-01  0.0000E+00  0.0000E+00  0.0000E+00  0.0000E+00  0.0000E+00  0.0000E+00
 23  0.0000E+00  7.0904E-02  0.0000E+00  0.0000E+00  0.0000E+00  0.0000E+00  0.0000E+00  0.0000E+00  0.0000E+00
 24  0.0000E+00  1.3279E-01  0.0000E+00  0.0000E+00  0.0000E+00  2.2314E-01  0.0000E+00  0.0000E+00  0.0000E+00
 25  0.0000E+00  1.7036E-01  0.0000E+00  0.0000E+00  0.0000E+00  0.0000E+00  0.0000E+00  1.0619E-01  0.0000E+00
 26  0.0000E+00  2.2136E-01  0.0000E+00  0.0000E+00  0.0000E+00  0.0000E+00  1.9288E-01  0.0000E+00  0.0000E+00
 27  0.0000E+00  2.9073E-01  3.0577E-01  0.0000E+00  0.0000E+00  8.2888E-01  0.0000E+00  0.0000E+00  0.0000E+00
 28  0.0000E+00  7.1634E-01  0.0000E+00  0.0000E+00  0.0000E+00  0.0000E+00  0.0000E+00  6.1470E-01  0.0000E+00
 29  1.4104E-04  1.4769E+00  8.4095E+00  6.9493E+00  3.0081E+00  0.0000E+00  7.5775E+00  0.0000E+00  4.1985E+00
 30  0.0000E+00  1.6142E+00  9.4245E+00  3.5809E+00  0.0000E+00  0.0000E+00  4.1234E+00  2.3414E-01  0.0000E+00
 31  4.8215E+00  1.0399E+00  0.0000E+00  0.0000E+00  1.2288E+01  0.0000E+00  0.0000E+00  0.0000E+00  0.0000E+00
 32  0.0000E+00  4.3790E+00  3.3350E+00  1.8776E+01  5.1947E+00  1.0976E+01  0.0000E+00  1.1997E+01  2.2754E+01
 33  0.0000E+00  2.4300E+00  0.0000E+00  0.0000E+00  0.0000E+00  0.0000E+00  0.0000E+00  2.3269E+01  0.0000E+00
 34  0.0000E+00  2.1258E+00  0.0000E+00  0.0000E+00  0.0000E+00  4.4020E+00  0.0000E+00  0.0000E+00  0.0000E+00
 35  1.4072E-01  3.2543E-01  1.7988E-01  1.2484E-01  2.0955E-01  2.1700E-01  4.3026E-01  5.0354E-01  2.6572E-01
 36  9.9065E-02  2.1672E-01  2.1290E-01  2.9454E-01  1.2533E-01  2.4545E-01  1.9672E-01  1.7117E-01  8.7952E-02
 37  1.4510E-04  1.1100E-02  0.0000E+00  0.0000E+00  2.6461E-02  0.0000E+00  0.0000E+00  0.0000E+00  5.7000E-02
 38  2.0829E-05  6.8612E-01  3.4181E-01  6.7285E-01  2.7378E-01  0.0000E+00  0.0000E+00  6.3437E-01  7.4530E-01
 39  0.0000E+00  2.4947E-01  1.3422E-01  0.0000E+00  0.0000E+00  1.9729E-01  3.8850E-01  3.3159E-01  0.0000E+00
 40  0.0000E+00  3.2448E-01  0.0000E+00  0.0000E+00  0.0000E+00  0.0000E+00  0.0000E+00  0.0000E+00  2.9171E-01
 41  0.0000E+00  2.5777E-01  0.0000E+00  0.0000E+00  0.0000E+00  0.0000E+00  0.0000E+00  0.0000E+00  0.0000E+00
 42  0.0000E+00  2.5679E-01  0.0000E+00  0.0000E+00  0.0000E+00  0.0000E+00  0.0000E+00  0.0000E+00  0.0000E+00
 43  0.0000E+00  1.9517E-01  0.0000E+00  0.0000E+00  0.0000E+00  1.8809E-01  0.0000E+00  0.0000E+00  0.0000E+00
 44  0.0000E+00  5.3470E-01  0.0000E+00  0.0000E+00  1.4801E-01  8.9831E-01  0.0000E+00  0.0000E+00  0.0000E+00
 45  0.0000E+00  2.0462E+00  0.0000E+00  0.0000E+00  0.0000E+00  0.0000E+00  0.0000E+00  4.6480E+00  5.1643E+00
 46  0.0000E+00  2.3007E+00  5.0659E+00  0.0000E+00  7.0417E-01  0.0000E+00  0.0000E+00  7.0523E+00  9.4094E+00
 47  0.0000E+00  1.4671E+00  2.0763E+00  9.4822E+00  0.0000E+00  0.0000E+00  1.0679E+01  0.0000E+00  0.0000E+00
 48  0.0000E+00  7.5159E-01  0.0000E+00  0.0000E+00  0.0000E+00  0.0000E+00  0.0000E+00  0.0000E+00  0.0000E+00
 49  0.0000E+00  8.8268E-01  0.0000E+00  0.0000E+00  0.0000E+00  0.0000E+00  0.0000E+00  0.0000E+00  0.0000E+00
 50  0.0000E+00  9.8162E+00  0.0000E+00  0.0000E+00  0.0000E+00  4.1635E+01  0.0000E+00  0.0000E+00  0.0000E+00
 51  2.1317E-01  1.8917E-01  2.5472E-01  2.0119E-01  2.0603E-01  1.1116E-01  1.8505E-01  2.3846E-01  3.9684E-01
 52  3.5907E-02  5.6855E-02  6.1058E-02  1.7395E-01  1.4359E-01  2.6838E-02  7.7197E-02  4.0190E-02  6.8212E-02
 53  0.0000E+00  4.2330E-02  1.1303E-01  0.0000E+00  0.0000E+00  6.8669E-02  5.3743E-02  7.9186E-02  1.6104E-01
 54  1.5842E-01  3.7300E-01  0.0000E+00  3.5393E-01  1.7956E-01  5.7493E-01  4.6251E-03  0.0000E+00  3.1744E-01
 55  0.0000E+00  3.4417E-02  0.0000E+00  0.0000E+00  0.0000E+00  0.0000E+00  0.0000E+00  6.9584E-03  0.0000E+00
 56  0.0000E+00  1.1407E-01  0.0000E+00  0.0000E+00  0.0000E+00  0.0000E+00  0.0000E+00  0.0000E+00  0.0000E+00
 57  0.0000E+00  1.6125E-01  0.0000E+00  0.0000E+00  0.0000E+00  3.0361E-01  1.4399E+00  9.7877E-02  0.0000E+00
 58  0.0000E+00  1.6580E-01  0.0000E+00  0.0000E+00  0.0000E+00  0.0000E+00  0.0000E+00  7.0646E-01  0.0000E+00
 59  0.0000E+00  3.1676E-01  0.0000E+00  0.0000E+00  0.0000E+00  0.0000E+00  0.0000E+00  0.0000E+00  0.0000E+00
 60  0.0000E+00  8.2957E-01  0.0000E+00  2.0592E+00  0.0000E+00  3.8873E+00  0.0000E+00  0.0000E+00  0.0000E+00
 61  7.4268E+00  3.0880E+00  3.5126E+00  5.4672E+00  4.6842E+00  5.0836E+00  4.5984E+00  6.6485E+00  0.0000E+00
 62  3.1432E+00  2.9311E+01  3.8816E+01  1.9591E+01  1.8137E+01  2.5560E+01  3.3793E+01  2.4634E+01  2.6494E+01
 63  0.0000E+00  3.5729E+00  1.0169E+01  1.5949E+01  0.0000E+00  1.5896E+00  0.0000E+00  0.0000E+00  0.0000E+00
 64  0.0000E+00  4.6193E+00  0.0000E+00  0.0000E+00  0.0000E+00  0.0000E+00  0.0000E+00  0.0000E+00  1.0969E+01
 65  0.0000E+00  1.3639E+00  0.0000E+00  0.0000E+00  0.0000E+00  0.0000E+00  0.0000E+00  0.0000E+00  1.3777E+01
 66  0.0000E+00  2.0484E+00  0.0000E+00  0.0000E+00  0.0000E+00  0.0000E+00  0.0000E+00  0.0000E+00  0.0000E+00

# AV, chi2 & Mass for <> & i_chain = 1 ...  7 solutions
AV       0.2138      0.3713      0.3071      0.3761      0.3731      0.3425      0.3668      0.3534      0.3598
chi2 2.5523E-01  2.6454E-01  2.6129E-01  2.6134E-01  2.6055E-01  2.6160E-01  2.6116E-01  2.6106E-01  2.6178E-01
Mass 2.1277E-12  8.9863E-13  1.1229E-12  8.8141E-13  1.3760E-12  1.1788E-12  1.2556E-12  1.1148E-12  8.0994E-13
 -36.77                                  [v0_min (km/s) before EX0s...]
 187.14                                  [vd_min (km/s) before EX0s...]


## Synthetic spectrum (Best Model) ##l_obs f_obs f_syn wei
 3478    [Nl_obs]
 3741.00    0.86429   0.95495    0.000
 3742.00    0.88855   0.95276    0.000
 3743.00    0.88846   0.94022    0.000
 3744.00    0.87300   0.91895    0.000
 3745.00    0.84853   0.89107   11.785
 3746.00    0.80402   0.85961   12.437
 3747.00    0.73859   0.82911   13.539
 3748.00    0.67856   0.80542   14.737
 3749.00    0.64679   0.79421   15.461
 3750.00    0.64280   0.79870   15.557
 3751.00    0.66457   0.81802   15.047
 3752.00    0.72093   0.84725   13.871
 3753.00    0.80450   0.87948   12.430
 3754.00    0.87882   0.90830   11.379
 3755.00    0.92170   0.92979   10.850
 3756.00    0.94931   0.94321   10.534
 3757.00    0.97823   0.95041   10.223
 3758.00    1.00297   0.95438    9.970
 3759.00    1.01851   0.95756    9.818
 3760.00    1.03275   0.96076    9.683
 3761.00    1.04797   0.96299    9.542
 3762.00    1.05107   0.96210    9.514
 3763.00    1.02812   0.95582    9.726
 3764.00    0.97492   0.94247   10.257
 3765.00    0.90385   0.92156   11.064
 3766.00    0.84289   0.89427   11.864
 3767.00    0.80785   0.86382   12.379
 3768.00    0.79051   0.83533   12.650
 3769.00    0.78475   0.81481   12.743
 3770.00    0.79794   0.80732   12.532
 3771.00    0.82885   0.81503   12.065
 3772.00    0.85981   0.83633   11.630
 3773.00    0.88332   0.86662   11.321
 3774.00    0.91195   0.90037   10.966
 3775.00    0.95218   0.93311   10.502
 3776.00    0.99374   0.96232   10.063
 3777.00    1.02842   0.98718    9.724
 3778.00    1.05828   1.00775    9.449
 3779.00    1.08575   1.02423    9.210
 3780.00    1.10937   1.03657    9.014
 3781.00    1.12933   1.04450    8.855
 3782.00    1.14819   1.04779    8.709
 3783.00    1.16140   1.04643    8.610
 3784.00    1.15656   1.04081    8.646
 3785.00    1.13210   1.03176    8.833
 3786.00    1.10181   1.02033    9.076
 3787.00    1.07506   1.00743    9.302
 3788.00    1.05009   0.99344    9.523
 3789.00    1.02630   0.97796    9.744
 3790.00    1.00799   0.95988    9.921
 3791.00    0.99609   0.93768   10.039
 3792.00    0.98634   0.91006   10.138
 3793.00    0.97770   0.87683   10.228
 3794.00    0.97368   0.83993   10.270
 3795.00    0.97254   0.80390   10.282
 3796.00    0.96611   0.77535   10.351
 3797.00    0.95180   0.76097   10.506
 3798.00    0.93579   0.76493   10.686
 3799.00    0.92599   0.78688   10.799
 3800.00    0.92822   0.82198   10.773
 3801.00    0.94339   0.86278   10.600
 3802.00    0.96741   0.90212   10.337
 3803.00    0.99557   0.93522   10.044
 3804.00    1.02410   0.96057    9.765
 3805.00    1.04997   0.97934    9.524
 3806.00    1.07168   0.99397    9.331
 3807.00    1.09224   1.00650    9.155
 3808.00    1.11725   1.01754    8.951
 3809.00    1.14478   1.02622    8.735
 3810.00    1.16534   1.03108    8.581
 3811.00    1.17415   1.03120    8.517
 3812.00    1.17291   1.02674    8.526
 3813.00    1.16135   1.01875    8.611
 3814.00    1.13721   1.00838    8.793
 3815.00    1.10597   0.99628    9.042
 3816.00    1.07924   0.98278    9.266
 3817.00    1.05980   0.96879    9.436
 3818.00    1.04053   0.95641    9.610
 3819.00    1.01657   0.94833    9.837
 3820.00    0.98819   0.94613   10.119
 3821.00    0.95749   0.94894   10.444
 3822.00    0.92722   0.95356   10.785
 3823.00    0.90049   0.95625   11.105
 3824.00    0.88096   0.95464   11.351
 3825.00    0.87346   0.94817   11.449
 3826.00    0.88062   0.93730   11.356
 3827.00    0.89309   0.92226   11.197
 3828.00    0.89246   0.90244   11.205
 3829.00    0.86715   0.87677   11.532
 3830.00    0.81846   0.84477   12.218
 3831.00    0.76401   0.80776   13.089
 3832.00    0.72845   0.76947   13.728
 3833.00    0.71696   0.73572   13.948
 3834.00    0.71694   0.71284   13.948
 3835.00    0.72038   0.70554   13.882
 3836.00    0.72654   0.71524   13.764
 3837.00    0.73356   0.73974   13.632
 3838.00    0.73845   0.77438   13.542
 3839.00    0.74227   0.81377   13.472
 3840.00    0.75051   0.85332   13.324
 3841.00    0.77050   0.88970   12.979
 3842.00    0.80618   0.92095   12.404
 3843.00    0.84776   0.94622   11.796
 3844.00    0.87909   0.96555   11.375
 3845.00    0.89954   0.97954   11.117
 3846.00    0.91999   0.98915   10.870
 3847.00    0.94243   0.99544    0.000
 3848.00    0.96094   0.99950    0.000
 3849.00    0.97382   1.00231    0.000
 3850.00    0.98402   1.00449    0.000
 3851.00    0.99447   1.00610    0.000
 3852.00    1.00613   1.00673    0.000
 3853.00    1.01643   1.00595    0.000
 3854.00    1.02137   1.00368    0.000
 3855.00    1.02048   1.00037    0.000
 3856.00    1.01576   0.99677    0.000
 3857.00    1.00754   0.99375    0.000
 3858.00    0.99593   0.99208    0.000
 3859.00    0.98491   0.99228    0.000
 3860.00    0.98010   0.99436    0.000
 3861.00    0.98313   0.99763    0.000
 3862.00    0.99214   1.00086    0.000
 3863.00    1.00498   1.00284    0.000
 3864.00    1.02190   1.00292    0.000
 3865.00    1.04893   1.00116    0.000
 3866.00    1.08988   0.99802    0.000
 3867.00    1.13154   0.99390    0.000
 3868.00    1.15277   0.98893    0.000
 3869.00    1.14445   0.98329    0.000
 3870.00    1.11035   0.97761    0.000
 3871.00    1.06223   0.97289    0.000
 3872.00    1.01392   0.96993    0.000
 3873.00    0.97289   0.96861    0.000
 3874.00    0.94206   0.96778    0.000
 3875.00    0.92452   0.96589    0.000
 3876.00    0.92028   0.96189    0.000
 3877.00    0.92022   0.95556    0.000
 3878.00    0.91393   0.94715    0.000
 3879.00    0.90268   0.93670    0.000
 3880.00    0.89248   0.92375    0.000
 3881.00    0.88099   0.90737   11.351
 3882.00    0.86392   0.88636   11.575
 3883.00    0.84680   0.85977   11.809
 3884.00    0.83977   0.82754   11.908
 3885.00    0.84757   0.79153   11.798
 3886.00    0.86917   0.75617   11.505
 3887.00    0.89929   0.72788   11.120
 3888.00    0.92916   0.71319   10.762
 3889.00    0.94763   0.71606   10.553
 3890.00    0.94739   0.73608   10.555
 3891.00    0.93278   0.76863   10.721
 3892.00    0.91497   0.80692   10.929
 3893.00    0.90424   0.84463   11.059
 3894.00    0.90715   0.87772   11.024
 3895.00    0.92441   0.90462   10.818
 3896.00    0.95153   0.92559   10.509
 3897.00    0.98038   0.94175   10.200
 3898.00    1.00390   0.95439    9.961
 3899.00    1.02127   0.96455    9.792
 3900.00    1.03389   0.97281    9.672
 3901.00    1.04008   0.97931    9.615
 3902.00    1.03815   0.98404    9.633
 3903.00    1.03048   0.98734    9.704
 3904.00    1.02285   0.99004    9.777
 3905.00    1.02249   0.99321    9.780
 3906.00    1.03172   0.99759    9.693
 3907.00    1.04198   1.00315    9.597
 3908.00    1.04418   1.00911    9.577
 3909.00    1.04021   1.01435    9.613
 3910.00    1.03558   1.01799    9.656
 3911.00    1.03063   1.01971    9.703
 3912.00    1.02434   1.01957    9.762
 3913.00    1.01881   1.01777    9.815
 3914.00    1.01561   1.01434    9.846
 3915.00    1.01188   1.00916    9.883
 3916.00    1.00454   1.00219    9.955
 3917.00    0.99452   0.99382   10.055
 3918.00    0.98416   0.98497   10.161
 3919.00    0.97434   0.97687   10.263
 3920.00    0.96433   0.97041   10.370
 3921.00    0.95222   0.96563   10.502
 3922.00    0.93708   0.96159   10.671
 3923.00    0.92081   0.95687   10.860
 3924.00    0.90558   0.95031   11.043
 3925.00    0.89166   0.94147   11.215
 3926.00    0.87871   0.93061   11.380
 3927.00    0.86703   0.91829   11.534
 3928.00    0.85695   0.90500   11.669
 3929.00    0.84803   0.89113   11.792
 3930.00    0.83835   0.87731   11.928
 3931.00    0.82453   0.86482   12.128
 3932.00    0.80743   0.85562   12.385
 3933.00    0.79592   0.85177   12.564
 3934.00    0.79738   0.85461   12.541
 3935.00    0.81071   0.86409   12.335
 3936.00    0.83354   0.87866   11.997
 3937.00    0.86723   0.89584   11.531
 3938.00    0.90850   0.91296   11.007
 3939.00    0.94404   0.92791   10.593
 3940.00    0.96334   0.93960   10.381
 3941.00    0.96748   0.94801   10.336
 3942.00    0.96097   0.95403   10.406
 3943.00    0.94577   0.95891   10.573
 3944.00    0.92641   0.96367   10.794
 3945.00    0.91275   0.96866   10.956
 3946.00    0.91104   0.97362   10.976
 3947.00    0.91850   0.97802   10.887
 3948.00    0.93120   0.98135   10.739
 3949.00    0.94896   0.98333   10.538
 3950.00    0.96999   0.98387   10.309
 3951.00    0.98805   0.98301   10.121
 3952.00    0.99933   0.98093   10.007
 3953.00    1.00598   0.97790    9.941
 3954.00    1.00881   0.97405    9.913
 3955.00    1.00328   0.96927    9.967
 3956.00    0.98520   0.96302   10.150
 3957.00    0.95454   0.95433   10.476
 3958.00    0.91555   0.94198   10.922
 3959.00    0.87563   0.92492   11.420
 3960.00    0.83884   0.90267    0.000
 3961.00    0.80287   0.87542    0.000
 3962.00    0.76440   0.84374    0.000
 3963.00    0.72289   0.80817    0.000
 3964.00    0.68333   0.76920    0.000
 3965.00    0.65612   0.72787    0.000
 3966.00    0.64760   0.68656    0.000
 3967.00    0.65569   0.64952    0.000
 3968.00    0.67490   0.62238    0.000
 3969.00    0.69908   0.61054    0.000
 3970.00    0.72016   0.61707    0.000
 3971.00    0.72894   0.64140    0.000
 3972.00    0.72304   0.67938    0.000
 3973.00    0.70989   0.72487    0.000
 3974.00    0.70094   0.77183    0.000
 3975.00    0.70698   0.81574    0.000
 3976.00    0.73074   0.85403    0.000
 3977.00    0.76494   0.88570    0.000
 3978.00    0.80051   0.91070    0.000
 3979.00    0.83096   0.92955    0.000
 3980.00    0.85292   0.94319    0.000
 3981.00    0.86624   0.95300   11.544
 3982.00    0.87343   0.96060   11.449
 3983.00    0.87882   0.96739   11.379
 3984.00    0.88644   0.97418   11.281
 3985.00    0.89878   0.98107   11.126
 3986.00    0.91582   0.98769   10.919
 3987.00    0.93517   0.99358   10.693
 3988.00    0.95436   0.99841   10.478
 3989.00    0.97181   1.00209   10.290
 3990.00    0.98635   1.00456   10.138
 3991.00    0.99732   1.00573   10.027
 3992.00    1.00599   1.00547    9.940
 3993.00    1.01486   1.00390    9.854
 3994.00    1.02316   1.00154    9.774
 3995.00    1.02709   0.99933    9.736
 3996.00    1.02816   0.99830    9.726
 3997.00    1.03337   0.99905    9.677
 3998.00    1.04353   1.00141    9.583
 3999.00    1.05141   1.00443    9.511
 4000.00    1.05183   1.00670    9.507
 4001.00    1.04486   1.00694    9.571
 4002.00    1.03296   1.00454    9.681
 4003.00    1.01902   0.99986    9.813
 4004.00    1.00335   0.99406    9.967
 4005.00    0.98467   0.98868   10.156
 4006.00    0.96748   0.98502   10.336
 4007.00    0.96075   0.98382   10.409
 4008.00    0.96512   0.98518   10.361
 4009.00    0.97256   0.98873   10.282
 4010.00    0.97963   0.99378   10.208
 4011.00    0.98900   0.99951   10.111
 4012.00    0.99972   1.00509   10.003
 4013.00    1.00690   1.00984    9.931
 4014.00    1.01047   1.01338    9.896
 4015.00    1.01495   1.01561    9.853
 4016.00    1.02009   1.01663    9.803
 4017.00    1.02098   1.01640    9.794
 4018.00    1.01699   1.01462    9.833
 4019.00    1.01185   1.01057    9.883
 4020.00    1.00593   1.00346    9.941
 4021.00    0.99613   0.99289   10.039
 4022.00    0.98261   0.97952   10.177
 4023.00    0.96993   0.96535   10.310
 4024.00    0.96489   0.95337   10.364
 4025.00    0.97272   0.94638   10.280
 4026.00    0.98886   0.94564   10.113
 4027.00    1.00192   0.95017    9.981
 4028.00    1.00733   0.95733    9.927
 4029.00    1.00796   0.96435    9.921
 4030.00    1.00601   0.96976    9.940
 4031.00    1.00219   0.97382    9.978
 4032.00    0.99908   0.97786   10.009
 4033.00    1.00000   0.98322   10.000
 4034.00    1.00416   0.99036    9.959
 4035.00    1.00808   0.99862    9.920
 4036.00    1.01186   1.00655    9.883
 4037.00    1.01736   1.01252    9.829
 4038.00    1.02030   1.01540    9.801
 4039.00    1.01301   1.01479    9.872
 4040.00    0.99492   1.01102   10.051
 4041.00    0.97231   1.00484   10.285
 4042.00    0.95219   0.99729   10.502
 4043.00    0.93955   0.98981   10.643
 4044.00    0.93452   0.98412   10.701
 4045.00    0.93494   0.98177   10.696
 4046.00    0.94286   0.98334   10.606
 4047.00    0.96161   0.98804   10.399
 4048.00    0.98689   0.99397   10.133
 4049.00    1.00881   0.99892    9.913
 4050.00    1.02016   1.00133    9.802
 4051.00    1.01955   1.00071    9.808
 4052.00    1.01408   0.99760    9.861
 4053.00    1.01211   0.99315    9.880
 4054.00    1.00873   0.98862    9.913
 4055.00    0.99407   0.98495   10.060
 4056.00    0.97393   0.98256   10.268
 4057.00    0.96204   0.98127   10.395
 4058.00    0.95841   0.98045   10.434
 4059.00    0.95391   0.97926   10.483
 4060.00    0.94600   0.97707   10.571
 4061.00    0.93732   0.97380   10.669
 4062.00    0.92817   0.97004   10.774
 4063.00    0.91815   0.96663   10.892
 4064.00    0.91124   0.96410   10.974
 4065.00    0.91367   0.96236   10.945
 4066.00    0.92862   0.96084   10.769
 4067.00    0.95320   0.95897   10.491
 4068.00    0.97541   0.95660   10.252
 4069.00    0.98233   0.95402   10.180
 4070.00    0.97375   0.95167   10.270
 4071.00    0.95862   0.94973   10.432
 4072.00    0.94565   0.94787   10.575
 4073.00    0.94026   0.94555   10.635
 4074.00    0.94223   0.94258   10.613
 4075.00    0.94757   0.93961   10.553
 4076.00    0.95197   0.93804   10.504
 4077.00    0.95287   0.93916   10.495
 4078.00    0.95163   0.94325   10.508
 4079.00    0.95109   0.94924   10.514
 4080.00    0.95166   0.95516   10.508
 4081.00    0.95169   0.95916   10.508
 4082.00    0.94899   0.96040   10.538
 4083.00    0.94252   0.95920   10.610
 4084.00    0.93423   0.95667   10.704
 4085.00    0.92670   0.95388   10.791
 4086.00    0.91965   0.95144   10.874
 4087.00    0.91159   0.94935   10.970
 4088.00    0.90261   0.94720   11.079
 4089.00    0.89359   0.94429   11.191
 4090.00    0.88482   0.93972   11.302
 4091.00    0.87561   0.93239   11.421
 4092.00    0.86422   0.92114    0.000
 4093.00    0.84939   0.90503    0.000
 4094.00    0.83217   0.88352    0.000
 4095.00    0.81581   0.85663    0.000
 4096.00    0.80528   0.82502    0.000
 4097.00    0.80688   0.79013    0.000
 4098.00    0.82737   0.75457    0.000
 4099.00    0.86810   0.72242    0.000
 4100.00    0.91872   0.69880    0.000
 4101.00    0.96145   0.68851    0.000
 4102.00    0.97756   0.69411    0.000
 4103.00    0.95782   0.71456    0.000
 4104.00    0.91242   0.74546    0.000
 4105.00    0.86058   0.78069    0.000
 4106.00    0.81777   0.81463    0.000
 4107.00    0.79151   0.84371    0.000
 4108.00    0.77879   0.86678    0.000
 4109.00    0.77324   0.88450    0.000
 4110.00    0.77257   0.89826    0.000
 4111.00    0.77758   0.90932    0.000
 4112.00    0.79023   0.91826    0.000
 4113.00    0.81132   0.92505   12.326
 4114.00    0.83851   0.92940   11.926
 4115.00    0.86769   0.93113   11.525
 4116.00    0.89453   0.93048   11.179
 4117.00    0.91491   0.92824   10.930
 4118.00    0.92538   0.92568   10.806
 4119.00    0.92506   0.92424   10.810
 4120.00    0.91700   0.92506   10.905
 4121.00    0.90551   0.92843   11.043
 4122.00    0.89362   0.93367   11.190
 4123.00    0.88370   0.93931   11.316
 4124.00    0.87803   0.94373   11.389
 4125.00    0.87725   0.94580   11.399
 4126.00    0.87921   0.94523   11.374
 4127.00    0.88167   0.94254   11.342
 4128.00    0.88447   0.93871   11.306
 4129.00    0.88908   0.93481   11.248
 4130.00    0.89764   0.93183   11.140
 4131.00    0.90976   0.93064   10.992
 4132.00    0.92064   0.93181   10.862
 4133.00    0.92684   0.93545   10.789
 4134.00    0.93043   0.94103   10.748
 4135.00    0.93563   0.94737   10.688
 4136.00    0.94555   0.95289   10.576
 4137.00    0.95936   0.95596   10.424
 4138.00    0.97106   0.95524   10.298
 4139.00    0.97536   0.95018   10.253
 4140.00    0.97180   0.94136   10.290
 4141.00    0.96222   0.93075   10.393
 4142.00    0.94881   0.92121   10.540
 4143.00    0.93394   0.91551   10.707
 4144.00    0.92022   0.91501   10.867
 4145.00    0.91050   0.91915   10.983
 4146.00    0.90756   0.92574   11.019
 4147.00    0.91176   0.93219   10.968
 4148.00    0.91979   0.93664   10.872
 4149.00    0.92692   0.93847   10.788
 4150.00    0.92878   0.93810   10.767
 4151.00    0.92328   0.93646   10.831
 4152.00    0.91166   0.93453   10.969
 4153.00    0.89794   0.93314   11.137
 4154.00    0.88791   0.93288   11.262
 4155.00    0.88502   0.93407   11.299
 4156.00    0.88839   0.93669   11.256
 4157.00    0.89584   0.94032   11.163
 4158.00    0.90556   0.94430   11.043
 4159.00    0.91510   0.94791   10.928
 4160.00    0.92119   0.95062   10.856
 4161.00    0.92300   0.95216   10.834
 4162.00    0.92315   0.95250   10.832
 4163.00    0.92369   0.95170   10.826
 4164.00    0.92426   0.94991   10.819
 4165.00    0.92471   0.94725   10.814
 4166.00    0.92626   0.94388   10.796
 4167.00    0.92954   0.93988   10.758
 4168.00    0.93348   0.93527   10.713
 4169.00    0.93487   0.93007   10.697
 4170.00    0.92931   0.92453   10.761
 4171.00    0.91697   0.91924   10.906
 4172.00    0.90402   0.91498   11.062
 4173.00    0.89564   0.91240   11.165
 4174.00    0.89254   0.91173   11.204
 4175.00    0.89175   0.91266   11.214
 4176.00    0.88845   0.91464   11.256
 4177.00    0.88217   0.91713   11.336
 4178.00    0.87811   0.91971   11.388
 4179.00    0.87941   0.92210   11.371
 4180.00    0.88458   0.92402   11.305
 4181.00    0.89220   0.92525   11.208
 4182.00    0.90252   0.92561   11.080
 4183.00    0.91543   0.92506   10.924
 4184.00    0.92934   0.92377   10.760
 4185.00    0.94060   0.92213   10.632
 4186.00    0.94461   0.92074   10.586
 4187.00    0.94141   0.92024   10.622
 4188.00    0.93625   0.92101   10.681
 4189.00    0.93275   0.92299   10.721
 4190.00    0.93097   0.92559   10.741
 4191.00    0.93138   0.92778   10.737
 4192.00    0.93545   0.92840   10.690
 4193.00    0.94200   0.92658   10.616
 4194.00    0.94672   0.92207   10.563
 4195.00    0.94617   0.91539   10.569
 4196.00    0.93921   0.90773   10.647
 4197.00    0.92661   0.90057   10.792
 4198.00    0.91085   0.89523   10.979
 4199.00    0.89566   0.89257   11.165
 4200.00    0.88506   0.89280   11.299
 4201.00    0.88067   0.89564   11.355
 4202.00    0.88126   0.90043   11.347
 4203.00    0.88489   0.90641   11.301
 4204.00    0.89005   0.91280   11.235
 4205.00    0.89701   0.91891   11.148
 4206.00    0.90720   0.92415   11.023
 4207.00    0.91974   0.92812   10.873
 4208.00    0.93126   0.93057   10.738
 4209.00    0.93917   0.93147   10.648
 4210.00    0.94254   0.93091   10.610
 4211.00    0.94180   0.92912   10.618
 4212.00    0.93814   0.92652   10.659
 4213.00    0.93214   0.92379   10.728
 4214.00    0.92415   0.92182   10.821
 4215.00    0.91626   0.92142   10.914
 4216.00    0.91212   0.92290   10.964
 4217.00    0.91426   0.92577   10.938
 4218.00    0.92282   0.92872   10.836
 4219.00    0.93397   0.93008   10.707
 4220.00    0.94158   0.92838   10.620
 4221.00    0.94267   0.92288   10.608
 4222.00    0.93786   0.91396   10.663
 4223.00    0.92877   0.90314   10.767
 4224.00    0.91771   0.89281   10.897
 4225.00    0.90900   0.88553   11.001
 4226.00    0.90708   0.88317   11.024
 4227.00    0.91098   0.88605   10.977
 4228.00    0.91538   0.89280   10.924
 4229.00    0.91688   0.90091   10.907
 4230.00    0.91508   0.90777   10.928
 4231.00    0.91103   0.91167   10.977
 4232.00    0.90654   0.91229   11.031
 4233.00    0.90317   0.91041   11.072
 4234.00    0.90149   0.90740   11.093
 4235.00    0.90011   0.90459   11.110
 4236.00    0.89727   0.90289   11.145
 4237.00    0.89510   0.90273   11.172
 4238.00    0.89749   0.90411   11.142
 4239.00    0.90349   0.90670   11.068
 4240.00    0.90884   0.90996   11.003
 4241.00    0.91251   0.91319   10.959
 4242.00    0.91599   0.91568   10.917
 4243.00    0.91873   0.91675   10.885
 4244.00    0.91821   0.91597   10.891
 4245.00    0.91230   0.91335   10.961
 4246.00    0.90076   0.90936   11.102
 4247.00    0.88718   0.90488   11.272
 4248.00    0.87712   0.90081   11.401
 4249.00    0.87372   0.89782   11.445
 4250.00    0.87715   0.89611   11.401
 4251.00    0.88540   0.89553   11.294
 4252.00    0.89495   0.89576   11.174
 4253.00    0.90192   0.89644   11.087
 4254.00    0.90361   0.89723   11.067
 4255.00    0.90072   0.89771   11.102
 4256.00    0.89600   0.89755   11.161
 4257.00    0.89096   0.89667   11.224
 4258.00    0.88609   0.89551   11.286
 4259.00    0.88207   0.89489   11.337
 4260.00    0.87951   0.89562   11.370
 4261.00    0.87811   0.89789   11.388
 4262.00    0.87700   0.90104   11.403
 4263.00    0.87549   0.90377   11.422
 4264.00    0.87337   0.90472   11.450
 4265.00    0.87103   0.90308   11.481
 4266.00    0.86850   0.89883   11.514
 4267.00    0.86388   0.89257   11.576
 4268.00    0.85588   0.88525   11.684
 4269.00    0.84791   0.87788   11.794
 4270.00    0.84469   0.87142   11.839
 4271.00    0.84609   0.86674   11.819
 4272.00    0.84908   0.86450   11.777
 4273.00    0.85193   0.86504   11.738
 4274.00    0.85544   0.86813   11.690
 4275.00    0.86362   0.87300   11.579
 4276.00    0.87955   0.87844   11.369
 4277.00    0.89975   0.88318   11.114
 4278.00    0.91895   0.88627   10.882
 4279.00    0.93759   0.88736   10.666
 4280.00    0.95661   0.88662   10.454
 4281.00    0.96941   0.88458   10.316
 4282.00    0.96907   0.88175   10.319
 4283.00    0.95889   0.87846   10.429
 4284.00    0.94633   0.87477   10.567
 4285.00    0.93371   0.87069   10.710
 4286.00    0.92044   0.86636   10.864
 4287.00    0.90735   0.86223   11.021
 4288.00    0.89595   0.85899   11.161
 4289.00    0.88669   0.85727   11.278
 4290.00    0.87969   0.85727   11.368
 4291.00    0.87567   0.85854   11.420
 4292.00    0.87520   0.86000   11.426
 4293.00    0.87759   0.86033   11.395
 4294.00    0.88031   0.85844   11.360
 4295.00    0.87874   0.85382   11.380
 4296.00    0.86954   0.84672   11.500
 4297.00    0.85437   0.83800   11.704
 4298.00    0.83719   0.82891   11.945
 4299.00    0.82072   0.82066   12.184
 4300.00    0.80674   0.81418   12.396
 4301.00    0.79660   0.80982   12.553
 4302.00    0.79038   0.80735   12.652
 4303.00    0.78612   0.80611   12.721
 4304.00    0.78229   0.80536   12.783
 4305.00    0.78016   0.80462   12.818
 4306.00    0.78161   0.80393   12.794
 4307.00    0.78661   0.80381   12.713
 4308.00    0.79320   0.80502   12.607
 4309.00    0.79805   0.80824   12.531
 4310.00    0.80035   0.81385   12.495
 4311.00    0.80497   0.82185   12.423
 4312.00    0.81596   0.83194   12.255
 4313.00    0.83063   0.84355   12.039
 4314.00    0.84482   0.85580   11.837
 4315.00    0.85805   0.86753   11.654
 4316.00    0.87132   0.87740   11.477
 4317.00    0.88467   0.88410   11.304
 4318.00    0.89694   0.88671   11.149
 4319.00    0.90590   0.88485   11.039
 4320.00    0.90941   0.87884   10.996
 4321.00    0.90648   0.86964   11.032
 4322.00    0.89723   0.85886   11.145
 4323.00    0.88275   0.84852   11.328
 4324.00    0.86545   0.84063   11.555
 4325.00    0.84914   0.83648   11.777
 4326.00    0.83729   0.83623   11.943
 4327.00    0.83149   0.83869   12.027
 4328.00    0.83059   0.84192   -2.000
 4329.00    0.83042   0.84381   -2.000
 4330.00    0.82604   0.84261   -2.000
 4331.00    0.81392   0.83715   -2.000
 4332.00    0.79555   0.82657   -2.000
 4333.00    0.77943   0.81006   -2.000
 4334.00    0.77654   0.78707   -2.000
 4335.00    0.79684   0.75797   -2.000
 4336.00    0.84891   0.72472   -2.000
 4337.00    0.93853   0.69106   -2.000
 4338.00    1.05975   0.66213   -2.000
 4339.00    1.18875   0.64307   -2.000
 4340.00    1.28571   0.63739   -2.000
 4341.00    1.30272   0.64577   -2.000
 4342.00    1.22694   0.66589   -2.000
 4343.00    1.10228   0.69348   -2.000
 4344.00    0.98070   0.72351    0.000
 4345.00    0.88968   0.75167    0.000
 4346.00    0.83634   0.77515    0.000
 4347.00    0.81275   0.79282    0.000
 4348.00    0.80644   0.80487    0.000
 4349.00    0.80719   0.81254    0.000
 4350.00    0.80979   0.81771    0.000
 4351.00    0.81461   0.82233   12.276
 4352.00    0.82252   0.82777   12.158
 4353.00    0.83197   0.83454   12.020
 4354.00    0.84033   0.84229   11.900
 4355.00    0.84499   0.85016   11.834
 4356.00    0.84509   0.85722   11.833
 4357.00    0.84231   0.86307   11.872
 4358.00    0.84014   0.86787   11.903
 4359.00    0.84289   0.87206   11.864
 4360.00    0.85232   0.87593   11.733
 4361.00    0.86638   0.87944   11.542
 4362.00    0.88165   0.88219   11.342
 4363.00    0.89490   0.88364   11.174
 4364.00    0.90389   0.88337   11.063
 4365.00    0.90767   0.88147   11.017
 4366.00    0.90618   0.87842   11.035
 4367.00    0.90014   0.87487   11.109
 4368.00    0.89168   0.87132   11.215
 4369.00    0.88410   0.86800   11.311
 4370.00    0.87931   0.86491   11.372
 4371.00    0.87696   0.86202   11.403
 4372.00    0.87596   0.85953   11.416
 4373.00    0.87524   0.85790   11.425
 4374.00    0.87304   0.85768   11.454
 4375.00    0.86748   0.85900   11.528
 4376.00    0.86027   0.86125   11.624
 4377.00    0.85645   0.86309   11.676
 4378.00    0.85650   0.86291   11.675
 4379.00    0.85460   0.85949   11.701
 4380.00    0.84670   0.85252   11.811
 4381.00    0.83336   0.84280   12.000
 4382.00    0.81708   0.83202   12.239
 4383.00    0.80115   0.82227   12.482
 4384.00    0.78990   0.81526   12.660
 4385.00    0.78777   0.81192   12.694
 4386.00    0.79488   0.81236   12.581
 4387.00    0.80664   0.81601   12.397
 4388.00    0.81926   0.82191   12.206
 4389.00    0.83153   0.82898   12.026
 4390.00    0.84343   0.83630   11.856
 4391.00    0.85515   0.84312   11.694
 4392.00    0.86577   0.84897   11.550
 4393.00    0.87318   0.85370   11.452
 4394.00    0.87550   0.85736   11.422
 4395.00    0.87208   0.86002   11.467
 4396.00    0.86493   0.86176   11.562
 4397.00    0.85834   0.86261   11.650
 4398.00    0.85566   0.86240   11.687
 4399.00    0.85820   0.86109   11.652
 4400.00    0.86513   0.85891   11.559
 4401.00    0.87383   0.85624   11.444
 4402.00    0.88094   0.85343   11.352
 4403.00    0.88350   0.85093   11.319
 4404.00    0.88165   0.84934   11.342
 4405.00    0.87846   0.84911   11.384
 4406.00    0.87702   0.85052   11.402
 4407.00    0.87924   0.85352   11.373
 4408.00    0.88509   0.85750   11.298
 4409.00    0.89247   0.86137   11.205
 4410.00    0.89732   0.86402   11.144
 4411.00    0.89510   0.86461   11.172
 4412.00    0.88471   0.86290   11.303
 4413.00    0.86886   0.85958   11.509
 4414.00    0.85151   0.85609   11.744
 4415.00    0.83663   0.85386   11.953
 4416.00    0.82668   0.85381   12.097
 4417.00    0.82249   0.85601   12.158
 4418.00    0.82395   0.85971   12.137
 4419.00    0.82999   0.86373   12.048
 4420.00    0.83783   0.86699   11.936
 4421.00    0.84386   0.86892   11.850
 4422.00    0.84633   0.86954   11.816
 4423.00    0.84580   0.86929   11.823
 4424.00    0.84462   0.86864   11.840
 4425.00    0.84594   0.86777   11.821
 4426.00    0.85174   0.86680   11.741
 4427.00    0.86179   0.86567   11.604
 4428.00    0.87269   0.86417   11.459
 4429.00    0.87949   0.86214   11.370
 4430.00    0.88018   0.85959   11.361
 4431.00    0.87575   0.85678   11.419
 4432.00    0.86801   0.85423   11.521
 4433.00    0.85927   0.85255   11.638
 4434.00    0.85287   0.85228   11.725
 4435.00    0.85163   0.85353   11.742
 4436.00    0.85455   0.85592   11.702
 4437.00    0.85824   0.85847   11.652
 4438.00    0.86156   0.86015   11.607
 4439.00    0.86522   0.86039   11.558
 4440.00    0.86886   0.85930   11.509
 4441.00    0.87155   0.85756   11.474
 4442.00    0.87397   0.85609   11.442
 4443.00    0.87770   0.85580   11.393
 4444.00    0.88295   0.85699   11.326
 4445.00    0.88852   0.85919   11.255
 4446.00    0.89278   0.86165   11.201
 4447.00    0.89465   0.86359   11.178
 4448.00    0.89498   0.86433   11.173
 4449.00    0.89558   0.86350   11.166
 4450.00    0.89667   0.86106   11.152
 4451.00    0.89719   0.85735   11.146
 4452.00    0.89599   0.85289   11.161
 4453.00    0.89248   0.84819   11.205
 4454.00    0.88723   0.84377   11.271
 4455.00    0.88147   0.84006   11.345
 4456.00    0.87608   0.83729   11.414
 4457.00    0.87118   0.83547   11.479
 4458.00    0.86591   0.83466   11.549
 4459.00    0.85963   0.83475   11.633
 4460.00    0.85388   0.83558   11.711
 4461.00    0.85092   0.83695    0.000
 4462.00    0.85103   0.83845    0.000
 4463.00    0.85217   0.83944    0.000
 4464.00    0.85043   0.83917    0.000
 4465.00    0.84277   0.83693    0.000
 4466.00    0.83102   0.83244    0.000
 4467.00    0.82025   0.82643    0.000
 4468.00    0.81534   0.82050    0.000
 4469.00    0.81925   0.81643    0.000
 4470.00    0.83127   0.81573    0.000
 4471.00    0.84782   0.81924    0.000
 4472.00    0.86410   0.82665    0.000
 4473.00    0.87576   0.83653    0.000
 4474.00    0.88096   0.84665    0.000
 4475.00    0.87993   0.85460    0.000
 4476.00    0.87398   0.85876    0.000
 4477.00    0.86485   0.85884    0.000
 4478.00    0.85402   0.85583    0.000
 4479.00    0.84355   0.85161    0.000
 4480.00    0.83713   0.84824    0.000
 4481.00    0.83809   0.84719    0.000
 4482.00    0.84651   0.84883   11.813
 4483.00    0.85980   0.85239   11.631
 4484.00    0.87387   0.85643   11.443
 4485.00    0.88424   0.85956   11.309
 4486.00    0.88739   0.86098   11.269
 4487.00    0.88206   0.86065   11.337
 4488.00    0.87042   0.85908   11.489
 4489.00    0.85687   0.85705   11.670
 4490.00    0.84610   0.85524   11.819
 4491.00    0.84044   0.85402   11.899
 4492.00    0.83728   0.85344   11.944
 4493.00    0.83238   0.85350   12.014
 4494.00    0.82411   0.85420   12.134
 4495.00    0.81472   0.85542   12.274
 4496.00    0.81080   0.85705   12.333
 4497.00    0.81680   0.85907   12.243
 4498.00    0.82860   0.86163   12.069
 4499.00    0.84021   0.86476   11.902
 4500.00    0.85112   0.86827   11.749
 4501.00    0.86179   0.87190   11.604
 4502.00    0.86889   0.87534   11.509
 4503.00    0.87067   0.87820   11.485
 4504.00    0.87216   0.88017   11.466
 4505.00    0.87836   0.88108   11.385
 4506.00    0.88752   0.88089   11.267
 4507.00    0.89490   0.87962   11.174
 4508.00    0.89702   0.87741   11.148
 4509.00    0.89350   0.87450   11.192
 4510.00    0.88791   0.87111   11.262
 4511.00    0.88378   0.86751   11.315
 4512.00    0.88114   0.86393   11.349
 4513.00    0.87900   0.86061   11.377
 4514.00    0.87778   0.85786   11.392
 4515.00    0.87791   0.85602   11.391
 4516.00    0.87871   0.85518   11.380
 4517.00    0.87921   0.85506   11.374
 4518.00    0.87898   0.85503   11.377
 4519.00    0.87797   0.85458   11.390
 4520.00    0.87618   0.85333   11.413
 4521.00    0.87285   0.85089   11.457
 4522.00    0.86617   0.84718   11.545
 4523.00    0.85632   0.84241   11.678
 4524.00    0.84751   0.83687   11.799
 4525.00    0.84359   0.83112   11.854
 4526.00    0.84470   0.82587   11.838
 4527.00    0.84812   0.82177   11.791
 4528.00    0.84961   0.81911   11.770
 4529.00    0.84680   0.81764   11.809
 4530.00    0.84121   0.81710   11.888
 4531.00    0.83503   0.81749   11.976
 4532.00    0.82892   0.81893   12.064
 4533.00    0.82437   0.82146   12.131
 4534.00    0.82475   0.82477   12.125
 4535.00    0.83085   0.82831   12.036
 4536.00    0.83839   0.83150   11.928
 4537.00    0.84282   0.83384   11.865
 4538.00    0.84259   0.83526   11.868
 4539.00    0.83819   0.83577   11.930
 4540.00    0.83140   0.83538   12.028
 4541.00    0.82562   0.83445   12.112
 4542.00    0.82543   0.83351   12.115
 4543.00    0.83243   0.83286   12.013
 4544.00    0.84316   0.83228   11.860
 4545.00    0.85280   0.83135   11.726
 4546.00    0.85769   0.83002   11.659
 4547.00    0.85615   0.82831   11.680
 4548.00    0.84891   0.82610   11.780
 4549.00    0.83868   0.82379   11.924
 4550.00    0.82951   0.82186    0.000
 4551.00    0.82421   0.82060    0.000
 4552.00    0.82305   0.82048    0.000
 4553.00    0.82458   0.82192    0.000
 4554.00    0.82648   0.82492    0.000
 4555.00    0.82759   0.82909    0.000
 4556.00    0.82861   0.83389    0.000
 4557.00    0.82991   0.83884    0.000
 4558.00    0.83058   0.84315    0.000
 4559.00    0.82985   0.84589    0.000
 4560.00    0.82791   0.84671    0.000
 4561.00    0.82602   0.84585    0.000
 4562.00    0.82622   0.84393    0.000
 4563.00    0.82981   0.84183    0.000
 4564.00    0.83662   0.84020    0.000
 4565.00    0.84500   0.83944    0.000
 4566.00    0.85249   0.83943    0.000
 4567.00    0.85833   0.83966    0.000
 4568.00    0.86384   0.84005    0.000
 4569.00    0.86867   0.84069    0.000
 4570.00    0.87013   0.84122    0.000
 4571.00    0.86830   0.84151    0.000
 4572.00    0.86684   0.84183    0.000
 4573.00    0.86615   0.84222    0.000
 4574.00    0.86253   0.84238    0.000
 4575.00    0.85755   0.84180    0.000
 4576.00    0.85840   0.84028    0.000
 4577.00    0.86209   0.83781    0.000
 4578.00    0.85479   0.83454    0.000
 4579.00    0.83666   0.83092    0.000
 4580.00    0.82500   0.82763    0.000
 4581.00    0.82547   0.82515    0.000
 4582.00    0.82612   0.82378    0.000
 4583.00    0.82059   0.82372    0.000
 4584.00    0.81459   0.82493    0.000
 4585.00    0.81447   0.82690    0.000
 4586.00    0.82231   0.82885    0.000
 4587.00    0.83500   0.83016    0.000
 4588.00    0.84625   0.83062    0.000
 4589.00    0.85519   0.83031    0.000
 4590.00    0.86555   0.82930    0.000
 4591.00    0.87198   0.82776    0.000
 4592.00    0.86151   0.82610    0.000
 4593.00    0.83588   0.82482    0.000
 4594.00    0.81371   0.82420    0.000
 4595.00    0.81108   0.82424    0.000
 4596.00    0.83221   0.82455    0.000
 4597.00    0.86160   0.82483    0.000
 4598.00    0.87243   0.82508    0.000
 4599.00    0.86066   0.82535    0.000
 4600.00    0.84627   0.82577    0.000
 4601.00    0.84181   0.82635    0.000
 4602.00    0.84472   0.82719    0.000
 4603.00    0.84543   0.82852    0.000
 4604.00    0.83445   0.83051    0.000
 4605.00    0.81508   0.83305    0.000
 4606.00    0.80152   0.83567    0.000
 4607.00    0.80214   0.83792    0.000
 4608.00    0.81567   0.83955    0.000
 4609.00    0.83515   0.84042    0.000
 4610.00    0.85233   0.84065    0.000
 4611.00    0.86650   0.84039    0.000
 4612.00    0.88204   0.83964    0.000
 4613.00    0.89528   0.83860    0.000
 4614.00    0.89742   0.83742    0.000
 4615.00    0.89203   0.83615    0.000
 4616.00    0.89214   0.83508    0.000
 4617.00    0.90079   0.83452    0.000
 4618.00    0.90971   0.83447    0.000
 4619.00    0.90949   0.83489    0.000
 4620.00    0.89562   0.83573    0.000
 4621.00    0.87661   0.83676    0.000
 4622.00    0.86827   0.83765    0.000
 4623.00    0.87542   0.83827    0.000
 4624.00    0.89095   0.83833    0.000
 4625.00    0.90465   0.83742    0.000
 4626.00    0.90860   0.83572    0.000
 4627.00    0.90437   0.83383    0.000
 4628.00    0.89778   0.83198    0.000
 4629.00    0.88399   0.83012    0.000
 4630.00    0.85522   0.82835    0.000
 4631.00    0.82473   0.82674    0.000
 4632.00    0.81720   0.82525    0.000
 4633.00    0.83688   0.82370    0.000
 4634.00    0.86839   0.82193    0.000
 4635.00    0.89309   0.81987    0.000
 4636.00    0.89683   0.81771    0.000
 4637.00    0.87817   0.81583    0.000
 4638.00    0.84762   0.81450    0.000
 4639.00    0.82248   0.81361    0.000
 4640.00    0.81698   0.81288    0.000
 4641.00    0.82583   0.81189    0.000
 4642.00    0.83102   0.80996    0.000
 4643.00    0.82112   0.80665    0.000
 4644.00    0.79663   0.80222    0.000
 4645.00    0.77241   0.79738    0.000
 4646.00    0.76519   0.79285    0.000
 4647.00    0.77075   0.78944    0.000
 4648.00    0.77426   0.78797    0.000
 4649.00    0.77558   0.78865    0.000
 4650.00    0.78392   0.79100    0.000
 4651.00    0.80073   0.79438    0.000
 4652.00    0.81916   0.79825    0.000
 4653.00    0.82886   0.80222    0.000
 4654.00    0.82435   0.80632    0.000
 4655.00    0.81692   0.81068    0.000
 4656.00    0.82260   0.81495    0.000
 4657.00    0.84014   0.81851    0.000
 4658.00    0.85765   0.82094    0.000
 4659.00    0.86888   0.82199    0.000
 4660.00    0.87290   0.82134    0.000
 4661.00    0.86957   0.81886    0.000
 4662.00    0.85937   0.81448    0.000
 4663.00    0.84413   0.80845    0.000
 4664.00    0.82715   0.80186    0.000
 4665.00    0.81306   0.79621    0.000
 4666.00    0.80648   0.79250    0.000
 4667.00    0.81005   0.79105    0.000
 4668.00    0.82178   0.79165    0.000
 4669.00    0.83242   0.79374    0.000
 4670.00    0.83327   0.79686    0.000
 4671.00    0.82714   0.80067    0.000
 4672.00    0.82266   0.80448    0.000
 4673.00    0.82448   0.80750    0.000
 4674.00    0.83150   0.80922    0.000
 4675.00    0.83673   0.80955    0.000
 4676.00    0.83525   0.80878    0.000
 4677.00    0.83371   0.80732    0.000
 4678.00    0.83944   0.80538    0.000
 4679.00    0.84619   0.80319    0.000
 4680.00    0.84611   0.80087    0.000
 4681.00    0.84564   0.79836    0.000
 4682.00    0.85235   0.79593    0.000
 4683.00    0.85767   0.79426    0.000
 4684.00    0.85105   0.79363    0.000
 4685.00    0.83809   0.79395    0.000
 4686.00    0.83198   0.79503    0.000
 4687.00    0.84075   0.79659    0.000
 4688.00    0.86251   0.79858    0.000
 4689.00    0.88268   0.80114    0.000
 4690.00    0.88889   0.80398    0.000
 4691.00    0.88646   0.80652    0.000
 4692.00    0.88448   0.80848    0.000
 4693.00    0.87992   0.80964    0.000
 4694.00    0.86757   0.80958    0.000
 4695.00    0.85161   0.80814    0.000
 4696.00    0.83940   0.80566    0.000
 4697.00    0.83377   0.80254    0.000
 4698.00    0.83157   0.79897    0.000
 4699.00    0.82396   0.79520    0.000
 4700.00    0.80847   0.79179    0.000
 4701.00    0.79895   0.78933    0.000
 4702.00    0.80641   0.78800    0.000
 4703.00    0.82102   0.78744    0.000
 4704.00    0.82640   0.78706    0.000
 4705.00    0.81482   0.78663    0.000
 4706.00    0.79077   0.78644    0.000
 4707.00    0.77116   0.78670    0.000
 4708.00    0.76789   0.78709    0.000
 4709.00    0.77373   0.78693    0.000
 4710.00    0.77827   0.78642    0.000
 4711.00    0.78218   0.78642    0.000
 4712.00    0.78930   0.78753    0.000
 4713.00    0.79916   0.78978    0.000
 4714.00    0.80890   0.79300    0.000
 4715.00    0.81584   0.79678    0.000
 4716.00    0.82078   0.80112    0.000
 4717.00    0.82967   0.80579    0.000
 4718.00    0.84475   0.81004    0.000
 4719.00    0.85850   0.81312    0.000
 4720.00    0.86242   0.81500    0.000
 4721.00    0.85424   0.81580    0.000
 4722.00    0.83711   0.81550    0.000
 4723.00    0.81797   0.81381    0.000
 4724.00    0.80230   0.81066    0.000
 4725.00    0.79054   0.80665    0.000
 4726.00    0.77978   0.80250    0.000
 4727.00    0.76614   0.79857    0.000
 4728.00    0.75156   0.79519    0.000
 4729.00    0.74667   0.79284    0.000
 4730.00    0.75702   0.79178    0.000
 4731.00    0.77466   0.79203    0.000
 4732.00    0.78801   0.79316    0.000
 4733.00    0.78976   0.79434    0.000
 4734.00    0.78251   0.79549    0.000
 4735.00    0.77962   0.79685    0.000
 4736.00    0.78780   0.79805    0.000
 4737.00    0.79827   0.79883    0.000
 4738.00    0.80361   0.79950    0.000
 4739.00    0.80735   0.80037    0.000
 4740.00    0.81444   0.80160    0.000
 4741.00    0.82487   0.80296    0.000
 4742.00    0.83346   0.80408    0.000
 4743.00    0.83144   0.80513    0.000
 4744.00    0.81610   0.80623    0.000
 4745.00    0.79507   0.80714    0.000
 4746.00    0.77838   0.80770    0.000
 4747.00    0.77276   0.80777    0.000
 4748.00    0.77659   0.80726    0.000
 4749.00    0.77980   0.80619    0.000
 4750.00    0.77778   0.80457    0.000
 4751.00    0.77687   0.80247    0.000
 4752.00    0.78120   0.80025    0.000
 4753.00    0.78705   0.79819    0.000
 4754.00    0.79193   0.79644    0.000
 4755.00    0.79814   0.79514    0.000
 4756.00    0.80592   0.79430    0.000
 4757.00    0.81096   0.79355    0.000
 4758.00    0.81090   0.79226    0.000
 4759.00    0.80796   0.79017    0.000
 4760.00    0.80611   0.78757    0.000
 4761.00    0.80863   0.78472   12.367
 4762.00    0.81390   0.78182   12.287
 4763.00    0.81512   0.77939   12.268
 4764.00    0.80871   0.77802   12.365
 4765.00    0.79792   0.77808   12.533
 4766.00    0.79107   0.77964   12.641
 4767.00    0.79731   0.78207   12.542
 4768.00    0.81184   0.78455   12.318
 4769.00    0.81590   0.78699   12.256
 4770.00    0.80448   0.78958   12.430
 4771.00    0.79252   0.79214   12.618
 4772.00    0.78844   0.79429   12.683
 4773.00    0.78690   0.79590   12.708
 4774.00    0.78616   0.79716   12.720
 4775.00    0.79178   0.79814   12.630
 4776.00    0.80130   0.79856   12.480
 4777.00    0.80340   0.79828   12.447
 4778.00    0.79908   0.79730   12.514
 4779.00    0.80302   0.79560   12.453
 4780.00    0.81594   0.79339   12.256
 4781.00    0.82148   0.79111   12.173
 4782.00    0.81513   0.78878   12.268
 4783.00    0.80870   0.78633   12.366
 4784.00    0.80571   0.78419   12.411
 4785.00    0.79761   0.78255   12.537
 4786.00    0.78340   0.78138   12.765
 4787.00    0.77266   0.78114   12.942
 4788.00    0.77095   0.78182   12.971
 4789.00    0.77649   0.78315   12.879
 4790.00    0.78717   0.78547   12.704
 4791.00    0.80204   0.78850   12.468
 4792.00    0.81803   0.79137   12.224
 4793.00    0.82990   0.79362   12.050
 4794.00    0.83387   0.79486   11.992
 4795.00    0.82922   0.79479   12.060
 4796.00    0.81897   0.79374   12.210
 4797.00    0.80895   0.79219   12.362
 4798.00    0.80385   0.79059   12.440
 4799.00    0.80464   0.78919   12.428
 4800.00    0.80463   0.78800   12.428
 4801.00    0.79394   0.78688   12.595
 4802.00    0.77571   0.78586   12.891
 4803.00    0.76408   0.78508   13.088
 4804.00    0.76452   0.78426   13.080
 4805.00    0.77218   0.78316   12.950
 4806.00    0.78365   0.78210   12.761
 4807.00    0.79749   0.78137   12.539
 4808.00    0.80650   0.78113   12.399
 4809.00    0.80180   0.78137   12.472
 4810.00    0.78908   0.78191   12.673
 4811.00    0.78434   0.78278   12.750
 4812.00    0.79129   0.78403   12.638
 4813.00    0.80124   0.78540   12.481
 4814.00    0.80851   0.78671   12.368
 4815.00    0.81252   0.78776   12.307
 4816.00    0.81301   0.78835   12.300
 4817.00    0.80935   0.78838   12.356
 4818.00    0.80197   0.78776   12.469
 4819.00    0.79202   0.78617   12.626
 4820.00    0.77981   0.78338   12.824
 4821.00    0.76633   0.78022   13.049
 4822.00    0.75726   0.77773   13.205
 4823.00    0.75886   0.77596   13.178
 4824.00    0.76642   0.77454   13.048
 4825.00    0.77074   0.77314   12.975
 4826.00    0.77741   0.77205   12.863
 4827.00    0.79812   0.77175   12.529
 4828.00    0.82287   0.77166   12.153
 4829.00    0.82963   0.77107   12.054
 4830.00    0.81719   0.77042   12.237
 4831.00    0.80139   0.77007   12.478
 4832.00    0.79268   0.76992   12.615
 4833.00    0.79269   0.76972   12.615
 4834.00    0.79736   0.76930   12.541
 4835.00    0.80130   0.76843   12.480
 4836.00    0.80478   0.76699   12.426
 4837.00    0.80956   0.76504   12.352
 4838.00    0.80839   0.76301   12.370
 4839.00    0.79284   0.76109   12.613
 4840.00    0.77119   0.75920   12.967
 4841.00    0.75824   0.75759   13.189
 4842.00    0.75087   0.75654   13.318
 4843.00    0.73637   0.75575   13.580
 4844.00    0.71518   0.75452   13.982
 4845.00    0.69817   0.75226   14.323
 4846.00    0.69428   0.74936   14.403
 4847.00    0.70625   0.74626   14.159
 4848.00    0.72718   0.74236    0.000
 4849.00    0.74593   0.73708    0.000
 4850.00    0.75695   0.73038    0.000
 4851.00    0.75963   0.72183    0.000
 4852.00    0.75448   0.71097    0.000
 4853.00    0.74325   0.69781    0.000
 4854.00    0.73069   0.68233    0.000
 4855.00    0.73774   0.66418    0.000
 4856.00    0.81954   0.64323    0.000
 4857.00    1.02635   0.62011    0.000
 4858.00    1.34084   0.59763    0.000
 4859.00    1.69116   0.58062    0.000
 4860.00    1.98607   0.57178    0.000
 4861.00    2.13987   0.57063    0.000
 4862.00    2.10198   0.57677    0.000
 4863.00    1.87534   0.58975    0.000
 4864.00    1.53421   0.60827    0.000
 4865.00    1.18554   0.62966    0.000
 4866.00    0.91112   0.65012    0.000
 4867.00    0.74943   0.66667    0.000
 4868.00    0.68386   0.67889    0.000
 4869.00    0.67109   0.68819    0.000
 4870.00    0.68082   0.69597    0.000
 4871.00    0.69710   0.70271    0.000
 4872.00    0.71305   0.70855    0.000
 4873.00    0.72566   0.71398    0.000
 4874.00    0.73059   0.71971    0.000
 4875.00    0.72616   0.72590   13.771
 4876.00    0.71882   0.73208   13.912
 4877.00    0.71725   0.73725   13.942
 4878.00    0.72446   0.74072   13.803
 4879.00    0.73776   0.74284   13.555
 4880.00    0.75027   0.74406   13.329
 4881.00    0.75610   0.74424   13.226
 4882.00    0.75590   0.74317   13.229
 4883.00    0.75153   0.74110   13.306
 4884.00    0.74007   0.73892   13.512
 4885.00    0.72141   0.73727   13.862
 4886.00    0.70638   0.73594   14.157
 4887.00    0.70569   0.73461   14.171
 4888.00    0.71755   0.73385   13.936
 4889.00    0.73405   0.73508   13.623
 4890.00    0.74926   0.73865   13.347
 4891.00    0.75964   0.74360   13.164
 4892.00    0.76382   0.74917   13.092
 4893.00    0.76463   0.75495   13.078
 4894.00    0.77040   0.76067   12.980
 4895.00    0.78564   0.76553   12.728
 4896.00    0.80263   0.76822   12.459
 4897.00    0.81118   0.76857   12.328
 4898.00    0.80879   0.76773   12.364
 4899.00    0.79924   0.76624   12.512
 4900.00    0.78984   0.76420   12.661
 4901.00    0.78510   0.76215   12.737
 4902.00    0.78180   0.76085   12.791
 4903.00    0.77584   0.76042   12.889
 4904.00    0.76857   0.76006   13.011
 4905.00    0.76415   0.75904   13.086
 4906.00    0.76637   0.75741   13.048
 4907.00    0.77389   0.75545   12.922
 4908.00    0.77757   0.75356   12.861
 4909.00    0.77165   0.75206   12.959
 4910.00    0.76212   0.75101   13.121
 4911.00    0.75637   0.75036   13.221
 4912.00    0.75465   0.75002   13.251
 4913.00    0.75388   0.74944   13.265
 4914.00    0.75152   0.74759   13.306
 4915.00    0.74669   0.74340   13.392
 4916.00    0.74055   0.73681   13.504
 4917.00    0.73442   0.72874   13.616
 4918.00    0.72837   0.72039   13.729
 4919.00    0.72205   0.71336   13.849
 4920.00    0.71560   0.70881   13.974
 4921.00    0.71060   0.70731   14.073
 4922.00    0.71044   0.70923   14.076
 4923.00    0.71790   0.71471   13.929
 4924.00    0.73334   0.72267   13.636
 4925.00    0.75403   0.73138   13.262
 4926.00    0.77452   0.73950   12.911
 4927.00    0.79103   0.74630   12.642
 4928.00    0.80355   0.75136   12.445
 4929.00    0.80863   0.75401   12.367
 4930.00    0.79715   0.75370   12.545
 4931.00    0.77137   0.75134   12.964
 4932.00    0.75202   0.74850   13.297
 4933.00    0.75014   0.74561   13.331
 4934.00    0.75245   0.74232   13.290
 4935.00    0.74615   0.73876   13.402
 4936.00    0.73369   0.73616   13.630
 4937.00    0.72403   0.73582   13.812
 4938.00    0.72570   0.73733   13.780
 4939.00    0.74134   0.73938   13.489
 4940.00    0.76516   0.74185    0.000
 4941.00    0.78632   0.74517    0.000
 4942.00    0.79335   0.74896    0.000
 4943.00    0.78664   0.75232    0.000
 4944.00    0.78145   0.75495    0.000
 4945.00    0.78446   0.75706    0.000
 4946.00    0.78456   0.75870    0.000
 4947.00    0.77462   0.75968    0.000
 4948.00    0.76172   0.76007    0.000
 4949.00    0.75570   0.75983    0.000
 4950.00    0.76201   0.75861    0.000
 4951.00    0.77781   0.75636    0.000
 4952.00    0.79369   0.75322    0.000
 4953.00    0.81131   0.74905    0.000
 4954.00    0.84784   0.74368    0.000
 4955.00    0.91328   0.73858    0.000
 4956.00    1.00007   0.73583    0.000
 4957.00    1.08889   0.73537    0.000
 4958.00    1.15389   0.73581    0.000
 4959.00    1.17279   0.73673    0.000
 4960.00    1.13420   0.73874    0.000
 4961.00    1.04881   0.74149    0.000
 4962.00    0.94889   0.74311    0.000
 4963.00    0.86367   0.74284    0.000
 4964.00    0.80770   0.74161    0.000
 4965.00    0.78020   0.74026    0.000
 4966.00    0.76797   0.73896    0.000
 4967.00    0.75836   0.73791    0.000
 4968.00    0.74556   0.73765    0.000
 4969.00    0.73316   0.73849    0.000
 4970.00    0.73129   0.73997    0.000
 4971.00    0.74121   0.74160    0.000
 4972.00    0.75200   0.74304    0.000
 4973.00    0.75288   0.74384    0.000
 4974.00    0.73951   0.74357    0.000
 4975.00    0.71838   0.74182    0.000
 4976.00    0.70394   0.73868    0.000
 4977.00    0.70162   0.73455    0.000
 4978.00    0.70497   0.72949    0.000
 4979.00    0.70908   0.72363    0.000
 4980.00    0.71412   0.71782    0.000
 4981.00    0.71928   0.71341    0.000
 4982.00    0.72182   0.71101    0.000
 4983.00    0.72147   0.71044    0.000
 4984.00    0.72098   0.71158    0.000
 4985.00    0.72212   0.71424    0.000
 4986.00    0.72529   0.71763    0.000
 4987.00    0.73306   0.72085    0.000
 4988.00    0.74822   0.72348    0.000
 4989.00    0.76409   0.72560    0.000
 4990.00    0.76742   0.72698    0.000
 4991.00    0.75776   0.72740    0.000
 4992.00    0.74764   0.72745    0.000
 4993.00    0.74351   0.72757    0.000
 4994.00    0.74221   0.72746    0.000
 4995.00    0.73930   0.72660    0.000
 4996.00    0.73223   0.72472    0.000
 4997.00    0.72181   0.72198    0.000
 4998.00    0.71186   0.71863    0.000
 4999.00    0.70686   0.71501    0.000
 5000.00    0.71612   0.71166    0.000
 5001.00    0.76708   0.70873    0.000
 5002.00    0.89605   0.70600    0.000
 5003.00    1.11254   0.70373    0.000
 5004.00    1.38922   0.70267    0.000
 5005.00    1.66332   0.70308    0.000
 5006.00    1.85362   0.70398    0.000
 5007.00    1.90342   0.70415    0.000
 5008.00    1.79633   0.70349    0.000
 5009.00    1.56584   0.70226    0.000
 5010.00    1.28396   0.70017    0.000
 5011.00    1.02677   0.69687    0.000
 5012.00    0.85215   0.69274    0.000
 5013.00    0.76824   0.68909    0.000
 5014.00    0.74299   0.68673    0.000
 5015.00    0.74545   0.68565    0.000
 5016.00    0.75450   0.68605    0.000
 5017.00    0.75515   0.68824    0.000
 5018.00    0.74040   0.69175    0.000
 5019.00    0.71730   0.69530    0.000
 5020.00    0.70033   0.69851    0.000
 5021.00    0.69397   0.70191    0.000
 5022.00    0.69357   0.70529    0.000
 5023.00    0.69613   0.70775    0.000
 5024.00    0.70208   0.70920    0.000
 5025.00    0.71358   0.71052    0.000
 5026.00    0.73065   0.71247    0.000
 5027.00    0.74412   0.71459    0.000
 5028.00    0.74270   0.71622    0.000
 5029.00    0.72980   0.71754   13.702
 5030.00    0.71799   0.71904   13.928
 5031.00    0.71112   0.72017   14.062
 5032.00    0.70627   0.71948   14.159
 5033.00    0.70424   0.71672   14.200
 5034.00    0.70788   0.71310   14.127
 5035.00    0.71495   0.70924   13.987
 5036.00    0.72011   0.70452   13.887
 5037.00    0.72108   0.69888   13.868
 5038.00    0.71815   0.69375   13.925
 5039.00    0.71124   0.69108   14.060
 5040.00    0.70123   0.69134   14.261
 5041.00    0.69309   0.69332   14.428
 5042.00    0.69216   0.69613   14.448
 5043.00    0.69704   0.69990   14.346
 5044.00    0.70189   0.70413   14.247
 5045.00    0.70252   0.70724   14.234
 5046.00    0.69844   0.70845   14.318
 5047.00    0.69427   0.70864   14.404
 5048.00    0.69523   0.70838   14.384
 5049.00    0.69979   0.70776   14.290
 5050.00    0.70375   0.70766   14.210
 5051.00    0.70835   0.70894   14.117
 5052.00    0.71725   0.71125   13.942
 5053.00    0.73009   0.71368   13.697
 5054.00    0.74313   0.71629   13.457
 5055.00    0.75183   0.71922   13.301
 5056.00    0.75222   0.72187   13.294
 5057.00    0.74243   0.72343   13.469
 5058.00    0.72478   0.72416   13.797
 5059.00    0.70829   0.72441   14.119
 5060.00    0.70228   0.72377   14.239
 5061.00    0.70732   0.72155   14.138
 5062.00    0.71736   0.71812   13.940
 5063.00    0.72473   0.71486   13.798
 5064.00    0.72407   0.71220   13.811
 5065.00    0.71646   0.70950   13.958
 5066.00    0.70589   0.70692   14.167
 5067.00    0.69413   0.70561   14.406
 5068.00    0.68212   0.70554   14.660
 5069.00    0.67246   0.70526   14.871
 5070.00    0.66791   0.70456   14.972
 5071.00    0.66915   0.70428   14.944
 5072.00    0.67543   0.70394   14.805
 5073.00    0.68566   0.70265   14.584
 5074.00    0.69766   0.70085   14.334
 5075.00    0.70707   0.69910   14.143
 5076.00    0.70912   0.69656   14.102
 5077.00    0.70099   0.69302   14.265
 5078.00    0.68601   0.69022   14.577
 5079.00    0.67704   0.68904   14.770
 5080.00    0.68265   0.68853   14.649
 5081.00    0.69256   0.68839   14.439
 5082.00    0.69469   0.68989   14.395
 5083.00    0.69431   0.69315   14.403
 5084.00    0.70079   0.69658   14.270
 5085.00    0.71194   0.69940   14.046
 5086.00    0.72145   0.70222   13.861
 5087.00    0.72804   0.70509   13.736
 5088.00    0.73245   0.70727   13.653
 5089.00    0.73382   0.70869   13.627
 5090.00    0.73219   0.70979   13.658
 5091.00    0.73096   0.71037   13.681
 5092.00    0.73130   0.70977   13.674
 5093.00    0.72730   0.70802   13.750
 5094.00    0.71483   0.70550   13.989
 5095.00    0.69954   0.70229   14.295
 5096.00    0.68866   0.69863   14.521
 5097.00    0.68313   0.69544   14.639
 5098.00    0.68226   0.69365   14.657
 5099.00    0.68817   0.69308   14.531
 5100.00    0.70154   0.69291   14.254
 5101.00    0.71781   0.69305   13.931
 5102.00    0.73000   0.69365   13.699
 5103.00    0.73213   0.69416   13.659
 5104.00    0.72469   0.69373   13.799
 5105.00    0.71751   0.69253   13.937
 5106.00    0.71596   0.69149   13.967
 5107.00    0.71118   0.69094   14.061
 5108.00    0.69738   0.69080   14.339
 5109.00    0.68456   0.69156   14.608
 5110.00    0.68165   0.69343   14.670
 5111.00    0.68394   0.69579   14.621
 5112.00    0.68582   0.69819   14.581
 5113.00    0.69032   0.70071   14.486
 5114.00    0.70045   0.70315   14.277
 5115.00    0.71280   0.70485   14.029
 5116.00    0.72289   0.70535   13.833
 5117.00    0.72916   0.70454   13.715
 5118.00    0.73035   0.70261   13.692
 5119.00    0.72404   0.69971   13.811
 5120.00    0.71115   0.69577   14.062
 5121.00    0.69828   0.69106   14.321
 5122.00    0.69023   0.68650   14.488
 5123.00    0.68556   0.68278   14.587
 5124.00    0.68170   0.67988   14.669
 5125.00    0.67841   0.67767   14.740
 5126.00    0.67591   0.67650   14.795
 5127.00    0.67369   0.67658   14.844
 5128.00    0.67138   0.67761   14.895
 5129.00    0.66930   0.67911   14.941
 5130.00    0.66805   0.68062   14.969
 5131.00    0.66817   0.68209   14.966
 5132.00    0.66974   0.68364   14.931
 5133.00    0.67232   0.68491   14.874
 5134.00    0.67584   0.68493   14.796
 5135.00    0.68092   0.68367   14.686
 5136.00    0.68728   0.68194   14.550
 5137.00    0.69313   0.68015   14.427
 5138.00    0.69695   0.67842   14.348
 5139.00    0.69858   0.67641   14.315
 5140.00    0.69895   0.67417   14.307
 5141.00    0.69940   0.67283   14.298
 5142.00    0.69883   0.67292   14.310
 5143.00    0.69352   0.67296   14.419
 5144.00    0.68437   0.67219   14.612
 5145.00    0.67864   0.67188   14.735
 5146.00    0.67878   0.67245   14.732
 5147.00    0.67836   0.67288   14.741
 5148.00    0.67208   0.67253   14.879
 5149.00    0.66080   0.67208   15.133
 5150.00    0.65029   0.67228   15.378
 5151.00    0.64875   0.67304   15.414
 5152.00    0.65867   0.67396   15.182
 5153.00    0.67419   0.67540   14.833
 5154.00    0.68784   0.67783   14.538
 5155.00    0.69462   0.68065   14.396
 5156.00    0.69505   0.68315   14.387
 5157.00    0.69475   0.68499   14.394
 5158.00    0.69582   0.68600   14.372
 5159.00    0.69429   0.68522   14.403
 5160.00    0.68584   0.68207   14.581
 5161.00    0.66890   0.67697   14.950
 5162.00    0.64621   0.67036   15.475
 5163.00    0.62422   0.66193   16.020
 5164.00    0.60786   0.65188   16.451
 5165.00    0.59872   0.64157   16.702
 5166.00    0.59680   0.63283   16.756
 5167.00    0.60101   0.62672   16.639
 5168.00    0.60799   0.62279   16.448
 5169.00    0.61281   0.61986   16.318
 5170.00    0.61341   0.61892   16.302
 5171.00    0.61156   0.62239   16.352
 5172.00    0.60944   0.62952   16.408
 5173.00    0.60923   0.63675   16.414
 5174.00    0.61625   0.64299   16.227
 5175.00    0.63674   0.64988   15.705
 5176.00    0.66538   0.65653   15.029
 5177.00    0.68591   0.65998   14.579
 5178.00    0.68930   0.65977   14.507
 5179.00    0.67831   0.65721   14.743
 5180.00    0.65965   0.65242   15.160
 5181.00    0.64049   0.64608   15.613
 5182.00    0.62619   0.64162   15.969
 5183.00    0.61971   0.64091   16.137
 5184.00    0.62215   0.64201   16.073
 5185.00    0.63269   0.64355   15.806
 5186.00    0.64753   0.64690   15.443
 5187.00    0.66087   0.65244   15.131
 5188.00    0.66868   0.65724   14.955
 5189.00    0.67020   0.65882   14.921
 5190.00    0.66855   0.65870    0.000
 5191.00    0.66848   0.65949    0.000
 5192.00    0.66945   0.66060    0.000
 5193.00    0.66739   0.66056    0.000
 5194.00    0.66582   0.66095    0.000
 5195.00    0.67387   0.66314    0.000
 5196.00    0.69115   0.66590    0.000
 5197.00    0.70791   0.66801    0.000
 5198.00    0.71783   0.66945    0.000
 5199.00    0.71991   0.67002    0.000
 5200.00    0.71376   0.66946    0.000
 5201.00    0.69955   0.66776    0.000
 5202.00    0.68142   0.66443    0.000
 5203.00    0.66591   0.66015    0.000
 5204.00    0.65543   0.65657    0.000
 5205.00    0.64809   0.65413    0.000
 5206.00    0.64178   0.65213    0.000
 5207.00    0.63642   0.65166    0.000
 5208.00    0.63664   0.65361    0.000
 5209.00    0.64852   0.65689    0.000
 5210.00    0.67014   0.66034    0.000
 5211.00    0.69241   0.66411   14.442
 5212.00    0.70661   0.66762   14.152
 5213.00    0.70799   0.66992   14.125
 5214.00    0.69958   0.67151   14.294
 5215.00    0.68981   0.67318   14.497
 5216.00    0.68507   0.67467   14.597
 5217.00    0.68791   0.67557   14.537
 5218.00    0.69702   0.67607   14.347
 5219.00    0.70804   0.67630   14.124
 5220.00    0.71545   0.67549   13.977
 5221.00    0.71542   0.67313   13.978
 5222.00    0.71060   0.66950   14.073
 5223.00    0.70709   0.66504   14.142
 5224.00    0.70628   0.66010   14.159
 5225.00    0.70567   0.65625   14.171
 5226.00    0.70380   0.65485   14.208
 5227.00    0.70121   0.65494   14.261
 5228.00    0.70003   0.65569   14.285
 5229.00    0.70244   0.65775   14.236
 5230.00    0.70775   0.66073   14.129
 5231.00    0.71278   0.66317   14.030
 5232.00    0.71374   0.66512   14.011
 5233.00    0.70809   0.66732   14.122
 5234.00    0.69745   0.66964   14.338
 5235.00    0.68666   0.67194   14.563
 5236.00    0.68125   0.67443   14.679
 5237.00    0.68415   0.67702   14.617
 5238.00    0.69095   0.67956   14.473
 5239.00    0.69492   0.68159   14.390
 5240.00    0.69651   0.68238   14.357
 5241.00    0.70024   0.68223   14.281
 5242.00    0.70662   0.68195   14.152
 5243.00    0.71245   0.68107   14.036
 5244.00    0.71348   0.67846   14.016
 5245.00    0.70664   0.67517   14.152
 5246.00    0.69288   0.67282   14.433
 5247.00    0.67640   0.67064   14.784
 5248.00    0.66258   0.66758   15.092
 5249.00    0.65506   0.66536   15.266
 5250.00    0.65200   0.66522   15.337
 5251.00    0.64998   0.66585   15.385
 5252.00    0.65036   0.66621   15.376
 5253.00    0.65544   0.66730   15.257
 5254.00    0.66183   0.66964   15.110
 5255.00    0.66520   0.67180   15.033
 5256.00    0.66785   0.67245   14.973
 5257.00    0.67299   0.67167   14.859
 5258.00    0.67581   0.66969   14.797
 5259.00    0.66970   0.66576   14.932
 5260.00    0.65603   0.65976   15.243
 5261.00    0.64128   0.65281   15.594
 5262.00    0.63145   0.64559   15.837
 5263.00    0.62916   0.63816   15.894
 5264.00    0.63123   0.63194   15.842
 5265.00    0.63158   0.62854   15.833
 5266.00    0.62573   0.62645   15.981
 5267.00    0.61406   0.62408   16.285
 5268.00    0.60485   0.62384   16.533
 5269.00    0.60769   0.62732   16.456
 5270.00    0.62509   0.63137   15.998
 5271.00    0.65144   0.63433   15.351
 5272.00    0.67379   0.63856   14.841
 5273.00    0.68221   0.64432   14.658
 5274.00    0.68111   0.64978   14.682
 5275.00    0.67995   0.65470   14.707
 5276.00    0.68172   0.65901   14.669
 5277.00    0.68488   0.66183   14.601
 5278.00    0.68702   0.66361   14.556
 5279.00    0.68581   0.66524   14.581
 5280.00    0.67978   0.66623   14.711
 5281.00    0.66986   0.66617   14.928
 5282.00    0.66070   0.66648   15.135
 5283.00    0.65720   0.66850   15.216
 5284.00    0.66068   0.67156   15.136
 5285.00    0.66778   0.67431   14.975
 5286.00    0.67037   0.67698   14.917
 5287.00    0.66355   0.68007   15.070
 5288.00    0.65285   0.68266   15.317
 5289.00    0.64672   0.68355   15.463
 5290.00    0.64862   0.68273   15.417
 5291.00    0.65584   0.68083   15.248
 5292.00    0.65998   0.67836   15.152
 5293.00    0.65600   0.67513   15.244
 5294.00    0.64946   0.67085   15.397
 5295.00    0.64652   0.66603   15.467
 5296.00    0.64515   0.66235   15.500
 5297.00    0.64214   0.66065   15.573
 5298.00    0.63940   0.65995   15.640
 5299.00    0.63934   0.65959   15.641
 5300.00    0.64081   0.66072   15.605
 5301.00    0.64187   0.66388   15.579
 5302.00    0.64235   0.66764   15.568
 5303.00    0.64338   0.67054   15.543
 5304.00    0.64668   0.67288   15.464
 5305.00    0.65316   0.67518   15.310
 5306.00    0.66195   0.67736   15.107
 5307.00    0.67190   0.67878   14.883
 5308.00    0.68257   0.67926   14.650
 5309.00    0.69262   0.67914   14.438
 5310.00    0.69877   0.67867   14.311
 5311.00    0.69812   0.67778   14.324
 5312.00    0.69025   0.67651   14.488
 5313.00    0.67948   0.67474   14.717
 5314.00    0.67510   0.67240   14.813
 5315.00    0.68123   0.67036   14.679
 5316.00    0.69100   0.66914   14.472
 5317.00    0.69705   0.66774   14.346
 5318.00    0.69862   0.66556   14.314
 5319.00    0.69659   0.66375   14.356
 5320.00    0.69029   0.66220   14.487
 5321.00    0.67962   0.65919   14.714
 5322.00    0.66671   0.65457   14.999
 5323.00    0.65574   0.65057   15.250
 5324.00    0.65210   0.64730   15.335
 5325.00    0.65804   0.64285   15.197
 5326.00    0.67015   0.63806   14.922
 5327.00    0.68156   0.63667   14.672
 5328.00    0.68425   0.63852   14.615
 5329.00    0.67430   0.64047   14.830
 5330.00    0.65512   0.64235   15.264
 5331.00    0.63777   0.64635   15.680
 5332.00    0.63804   0.65170   15.673
 5333.00    0.65935   0.65544   15.167
 5334.00    0.68616   0.65681   14.574
 5335.00    0.70318   0.65748   14.221
 5336.00    0.70583   0.65823   14.168
 5337.00    0.69641   0.65768   14.359
 5338.00    0.68106   0.65570   14.683
 5339.00    0.66670   0.65433   14.999
 5340.00    0.65892   0.65442   15.176
 5341.00    0.65948   0.65462   15.164
 5342.00    0.66570   0.65447   15.022
 5343.00    0.67402   0.65458   14.836
 5344.00    0.68183   0.65551   14.667
 5345.00    0.68684   0.65674   14.560
 5346.00    0.68727   0.65735   14.550
 5347.00    0.68396   0.65749   14.621
 5348.00    0.68066   0.65885   14.692
 5349.00    0.68083   0.66147   14.688
 5350.00    0.68584   0.66379   14.581
 5351.00    0.69434   0.66584   14.402
 5352.00    0.70262   0.66892   14.232
 5353.00    0.70750   0.67239   14.134
 5354.00    0.70777   0.67472   14.129
 5355.00    0.70465   0.67599   14.191
 5356.00    0.70131   0.67687   14.259
 5357.00    0.70010   0.67697   14.284
 5358.00    0.70098   0.67574   14.266
 5359.00    0.69981   0.67328   14.290
 5360.00    0.69003   0.67021   14.492
 5361.00    0.67203   0.66699   14.880
 5362.00    0.65463   0.66350   15.276
 5363.00    0.64521   0.65964   15.499
 5364.00    0.64515   0.65599   15.500
 5365.00    0.64866   0.65277   15.416
 5366.00    0.64543   0.64996   15.494
 5367.00    0.63233   0.64751   15.815
 5368.00    0.61599   0.64537   16.234
 5369.00    0.60539   0.64418   16.518
 5370.00    0.60757   0.64487   16.459
 5371.00    0.62317   0.64703   16.047
 5372.00    0.64570   0.64949   15.487
 5373.00    0.66527   0.65250   15.032
 5374.00    0.67236   0.65595   14.873
 5375.00    0.66603   0.65892   15.014
 5376.00    0.65421   0.66084   15.286
 5377.00    0.64485   0.66169   15.507
 5378.00    0.64216   0.66149   15.572
 5379.00    0.64455   0.66089   15.515
 5380.00    0.64665   0.66018   15.464
 5381.00    0.64783   0.65918   15.436
 5382.00    0.65216   0.65842   15.334
 5383.00    0.65972   0.65817   15.158
 5384.00    0.66592   0.65773   15.017
 5385.00    0.66859   0.65697   14.957
 5386.00    0.66873   0.65616   14.954
 5387.00    0.66634   0.65490   15.007
 5388.00    0.66008   0.65292   15.150
 5389.00    0.65064   0.65077   15.369
 5390.00    0.64092   0.64837   15.603
 5391.00    0.63380   0.64552   15.778
 5392.00    0.63085   0.64308   15.852
 5393.00    0.63054   0.64136   15.859
 5394.00    0.62920   0.63930   15.893
 5395.00    0.62469   0.63717   16.008
 5396.00    0.61785   0.63673   16.185
 5397.00    0.61340   0.63706   16.303
 5398.00    0.61697   0.63620   16.208
 5399.00    0.62686   0.63507   15.952
 5400.00    0.63560   0.63488   15.733
 5401.00    0.63920   0.63393   15.645
 5402.00    0.63817   0.63134   15.670
 5403.00    0.63379   0.62849   15.778
 5404.00    0.62757   0.62642   15.935
 5405.00    0.62246   0.62495   16.065
 5406.00    0.62153   0.62382   16.089
 5407.00    0.62421   0.62305   16.020
 5408.00    0.62744   0.62323   15.938
 5409.00    0.63040   0.62506   15.863
 5410.00    0.63396   0.62794   15.774
 5411.00    0.63714   0.63084   15.695
 5412.00    0.63800   0.63369   15.674
 5413.00    0.63758   0.63715   15.684
 5414.00    0.63902   0.64100   15.649
 5415.00    0.64386   0.64413   15.531
 5416.00    0.65102   0.64611   15.361
 5417.00    0.65672   0.64742   15.227
 5418.00    0.65689   0.64811   15.223
 5419.00    0.65204   0.64828   15.337
 5420.00    0.64563   0.64819   15.489
 5421.00    0.63876   0.64751   15.655
 5422.00    0.63095   0.64616   15.849
 5423.00    0.62382   0.64518   16.030
 5424.00    0.62044   0.64470   16.118
 5425.00    0.62269   0.64386   16.059
 5426.00    0.63060   0.64205   -2.000
 5427.00    0.64218   0.63954   -2.000
 5428.00    0.65539   0.63773   -2.000
 5429.00    0.67160   0.63674   -2.000
 5430.00    0.69093   0.63501   -2.000
 5431.00    0.70313   0.63306   -2.000
 5432.00    0.69586   0.63282   -2.000
 5433.00    0.67176   0.63416   -2.000
 5434.00    0.64353   0.63587   -2.000
 5435.00    0.62036   0.63821   -2.000
 5436.00    0.60717   0.64152   -2.000
 5437.00    0.60724   0.64505   -2.000
 5438.00    0.62092   0.64807   -2.000
 5439.00    0.64289   0.65012   -2.000
 5440.00    0.66480   0.65100   -2.000
 5441.00    0.68015   0.65053   14.703
 5442.00    0.68564   0.64889   14.585
 5443.00    0.68182   0.64629   14.667
 5444.00    0.67170   0.64308   14.888
 5445.00    0.65850   0.64037   15.186
 5446.00    0.64528   0.63904   15.497
 5447.00    0.63502   0.63833   15.747
 5448.00    0.63014   0.63759   15.870
 5449.00    0.63165   0.63732   15.831
 5450.00    0.63754   0.63756   15.685
 5451.00    0.64088   0.63752   15.604
 5452.00    0.63612   0.63661   15.720
 5453.00    0.62788   0.63515   15.927
 5454.00    0.62452   0.63443   16.012
 5455.00    0.62804   0.63482   15.923
 5456.00    0.63464   0.63510   15.757
 5457.00    0.63753   0.63498   15.686
 5458.00    0.63182   0.63550   15.827
 5459.00    0.62013   0.63644   16.126
 5460.00    0.60898   0.63637   16.421
 5461.00    0.60346   0.63559   16.571
 5462.00    0.60591   0.63555   16.504
 5463.00    0.61535   0.63591   16.251
 5464.00    0.62816   0.63556   15.920
 5465.00    0.63911   0.63548   15.647
 5466.00    0.64385   0.63629   15.532
 5467.00    0.64168   0.63651   15.584
 5468.00    0.63597   0.63562   15.724
 5469.00    0.63376   0.63479   15.779
 5470.00    0.63935   0.63352   15.641
 5471.00    0.64764   0.63087   15.441
 5472.00    0.65050   0.62826   15.373
 5473.00    0.64477   0.62633   15.509
 5474.00    0.63320   0.62363   15.793
 5475.00    0.62399   0.62110   16.026
 5476.00    0.62357   0.62073   16.037
 5477.00    0.62937   0.62131   15.889
 5478.00    0.63525   0.62130   15.742
 5479.00    0.63795   0.62202   15.675
 5480.00    0.63789   0.62428   15.677
 5481.00    0.63908   0.62648   15.648
 5482.00    0.64509   0.62802   15.502
 5483.00    0.65521   0.62970   15.262
 5484.00    0.66566   0.63126   15.023
 5485.00    0.67137   0.63207   14.895
 5486.00    0.66912   0.63275   14.945
 5487.00    0.66017   0.63352   15.148
 5488.00    0.64972   0.63359   15.391
 5489.00    0.64549   0.63352   15.492
 5490.00    0.65186   0.63387   15.341
 5491.00    0.66510   0.63378   15.035
 5492.00    0.67768   0.63334   14.756
 5493.00    0.68283   0.63347   14.645
 5494.00    0.67777   0.63337   14.754
 5495.00    0.66576   0.63231   15.020
 5496.00    0.65246   0.63159   15.327
 5497.00    0.64241   0.63161   15.566
 5498.00    0.63685   0.63089   15.702
 5499.00    0.63274   0.62936   15.804
 5500.00    0.62743   0.62833   15.938
 5501.00    0.62216   0.62773   16.073
 5502.00    0.61900   0.62683   16.155
 5503.00    0.61839   0.62563   16.171
 5504.00    0.62003   0.62444   16.128
 5505.00    0.62377   0.62382   16.032
 5506.00    0.62905   0.62361   15.897
 5507.00    0.63463   0.62287   15.757
 5508.00    0.64011   0.62205   15.622
 5509.00    0.64663   0.62182   15.465
 5510.00    0.65369   0.62166   15.298
 5511.00    0.65753   0.62147   15.209
 5512.00    0.65580   0.62205   15.249
 5513.00    0.65057   0.62329   15.371
 5514.00    0.64548   0.62470   15.492
 5515.00    0.64336   0.62657   15.543
 5516.00    0.64447   0.62887   15.517
 5517.00    0.64592   0.63092   15.482
 5518.00    0.64573   0.63235   15.486
 5519.00    0.64511   0.63316   15.501
 5520.00    0.64599   0.63330   15.480
 5521.00    0.64918   0.63264   15.404
 5522.00    0.65327   0.63113   15.308
 5523.00    0.65478   0.62899   15.272
 5524.00    0.65246   0.62683   15.327
 5525.00    0.64925   0.62474   15.402
 5526.00    0.64738   0.62265   15.447
 5527.00    0.64593   0.62150   15.482
 5528.00    0.64380   0.62145   15.533
 5529.00    0.64147   0.62147   15.589
 5530.00    0.64074   0.62168   15.607
 5531.00    0.64387   0.62275   15.531
 5532.00    0.65027   0.62378   15.378
 5533.00    0.65553   0.62424   15.255
 5534.00    0.65619   0.62507   15.239
 5535.00    0.65224   0.62623   15.332
 5536.00    0.64611   0.62697   15.477
 5537.00    0.64117   0.62766   -2.000
 5538.00    0.63689   0.62870   -2.000
 5539.00    0.62785   0.62955   -2.000
 5540.00    0.61121   0.62977   -2.000
 5541.00    0.58984   0.62969   -2.000
 5542.00    0.56859   0.62985   -2.000
 5543.00    0.54475   0.63008   -2.000
 5544.00    0.47297   0.63002   -2.000
 5545.00    0.27771   0.63021   -2.000
 5546.00   -0.01063   0.63097   -2.000
 5547.00   -0.23832   0.63161   -2.000
 5548.00   -0.34515   0.63183   -2.000
 5549.00   -0.41769   0.63202   -2.000
 5550.00   -0.47086   0.63197   -2.000
 5551.00   -0.39373   0.63137   -2.000
 5552.00   -0.15417   0.63040   -2.000
 5553.00    0.14084   0.62953   -2.000
 5554.00    0.38384   0.62878   -2.000
 5555.00    0.52861   0.62786   -2.000
 5556.00    0.58708   0.62696   -2.000
 5557.00    0.61189   0.62630   -2.000
 5558.00    0.63552   0.62555   -2.000
 5559.00    0.65310   0.62456   -2.000
 5560.00    0.65463   0.62331   -2.000
 5561.00    0.63910   0.62194   15.647
 5562.00    0.61654   0.62072   16.220
 5563.00    0.60390   0.61946   16.559
 5564.00    0.60750   0.61800   16.461
 5565.00    0.61977   0.61711   16.135
 5566.00    0.63248   0.61670   15.811
 5567.00    0.64137   0.61585   15.592
 5568.00    0.64433   0.61540   15.520
 5569.00    0.64122   0.61591   15.595
 5570.00    0.63566   0.61590   15.732
 5571.00    0.63407   0.61566   15.771
 5572.00    0.64013   0.61663   15.622
 5573.00    0.65227   0.61766   15.331
 5574.00    0.66189   0.61790   15.108
 5575.00    0.65734   0.61867   15.213
 5576.00    0.63828   0.61975   15.667
 5577.00    0.61666   0.62000   16.216
 5578.00    0.60429   0.61999   16.548
 5579.00    0.60697   0.61976   16.475
 5580.00    0.61979   0.61861   16.134
 5581.00    0.63039   0.61685   15.863
 5582.00    0.63331   0.61469   15.790
 5583.00    0.63182   0.61180   15.827
 5584.00    0.62985   0.60840   15.877
 5585.00    0.62937   0.60515   15.889
 5586.00    0.63023   0.60230   15.867
 5587.00    0.63045   0.60002   15.862
 5588.00    0.62706   0.59858   15.947
 5589.00    0.61815   0.59804   16.177
 5590.00    0.60755   0.59841   16.460
 5591.00    0.60202   0.59950   16.611
 5592.00    0.60029   0.60071   16.658
 5593.00    0.59552   0.60194   16.792
 5594.00    0.58970   0.60347   16.958
 5595.00    0.59139   0.60437   16.909
 5596.00    0.60010   0.60420   16.664
 5597.00    0.60751   0.60412   16.461
 5598.00    0.61088   0.60438   16.370
 5599.00    0.61320   0.60425   16.308
 5600.00    0.61500   0.60421   16.260
 5601.00    0.61418   0.60536   16.282
 5602.00    0.61045   0.60759   16.381
 5603.00    0.60635   0.61008   16.492
 5604.00    0.60666   0.61280   16.484
 5605.00    0.61537   0.61578   16.251
 5606.00    0.62915   0.61849   15.894
 5607.00    0.63960   0.62031   15.635
 5608.00    0.64147   0.62117   15.589
 5609.00    0.63481   0.62097   15.753
 5610.00    0.62524   0.61963   15.994
 5611.00    0.62029   0.61775   16.122
 5612.00    0.62169   0.61532   16.085
 5613.00    0.62556   0.61217   15.986
 5614.00    0.62639   0.60963   15.964
 5615.00    0.62094   0.60830   16.105
 5616.00    0.61405   0.60718   16.285
 5617.00    0.61399   0.60639   16.287
 5618.00    0.62108   0.60662   16.101
 5619.00    0.62947   0.60718   15.886
 5620.00    0.63509   0.60750   15.746
 5621.00    0.63623   0.60774   15.717
 5622.00    0.63154   0.60768   15.834
 5623.00    0.62057   0.60773   16.114
 5624.00    0.60551   0.60840   16.515
 5625.00    0.59079   0.60912   16.926
 5626.00    0.58163   0.60982   17.193
 5627.00    0.58177   0.61121   17.189
 5628.00    0.59005   0.61269   16.948
 5629.00    0.60226   0.61354   16.604
 5630.00    0.61517   0.61402   16.256
 5631.00    0.62633   0.61408   15.966
 5632.00    0.63232   0.61337   15.815
 5633.00    0.63042   0.61220   15.862
 5634.00    0.62163   0.61087   16.087
 5635.00    0.60934   0.60916   16.411
 5636.00    0.59650   0.60750   16.764
 5637.00    0.58579   0.60645   17.071
 5638.00    0.58057   0.60557   17.224
 5639.00    0.58254   0.60470   17.166
 5640.00    0.58796   0.60463   17.008
 5641.00    0.59079   0.60514   16.926
 5642.00    0.58818   0.60553   17.001
 5643.00    0.58104   0.60612   17.211
 5644.00    0.57345   0.60709   17.438
 5645.00    0.57022   0.60795   17.537
 5646.00    0.57339   0.60854   17.440
 5647.00    0.58222   0.60903   17.176
 5648.00    0.59401   0.60925   16.835
 5649.00    0.60504   0.60902   16.528
 5650.00    0.61184   0.60846   16.344
 5651.00    0.61228   0.60761   16.332
 5652.00    0.60660   0.60598   16.485
 5653.00    0.59704   0.60360   16.749
 5654.00    0.58688   0.60160   17.039
 5655.00    0.57857   0.59958   17.284
 5656.00    0.57154   0.59671   17.497
 5657.00    0.56502   0.59455   17.699
 5658.00    0.56162   0.59402   17.806
 5659.00    0.56501   0.59360   17.699
 5660.00    0.57640   0.59311   17.349
 5661.00    0.59313   0.59396   16.860
 5662.00    0.60791   0.59557   16.450
 5663.00    0.61379   0.59673   16.292
 5664.00    0.60982   0.59782   16.398
 5665.00    0.59917   0.59922   16.690
 5666.00    0.58599   0.60061   17.065
 5667.00    0.57454   0.60185   17.405
 5668.00    0.56837   0.60313   17.594
 5669.00    0.56888   0.60448   17.579
 5670.00    0.57414   0.60586   17.417
 5671.00    0.58144   0.60726   17.199
 5672.00    0.58996   0.60844   16.950
 5673.00    0.59881   0.60907   16.700
 5674.00    0.60491   0.60937   16.531
 5675.00    0.60589   0.60952   16.505
 5676.00    0.60311   0.60894   16.581
 5677.00    0.59905   0.60762   16.693
 5678.00    0.59444   0.60632   16.823
 5679.00    0.58936   0.60500   16.968
 5680.00    0.58444   0.60309   17.110
 5681.00    0.58095   0.60120   17.213
 5682.00    0.58053   0.59987   17.226
 5683.00    0.58380   0.59875   17.129
 5684.00    0.58909   0.59781   16.975
 5685.00    0.59457   0.59740   16.819
 5686.00    0.59995   0.59759   16.668
 5687.00    0.60507   0.59828   16.527
 5688.00    0.60853   0.59926   16.433
 5689.00    0.60893   0.60035   16.422
 5690.00    0.60617   0.60164   16.497
 5691.00    0.60243   0.60288   16.599
 5692.00    0.60245   0.60354   16.599
 5693.00    0.60900   0.60367   16.420
 5694.00    0.61940   0.60361   16.145
 5695.00    0.62846   0.60298   15.912
 5696.00    0.63141   0.60161   15.838
 5697.00    0.62670   0.60019   15.957
 5698.00    0.61752   0.59887   16.194
 5699.00    0.60781   0.59721   16.452
 5700.00    0.59925   0.59541   16.687
 5701.00    0.59327   0.59397   16.856
 5702.00    0.59225   0.59260   16.885
 5703.00    0.59606   0.59076   16.777
 5704.00    0.60002   0.58884   16.666
 5705.00    0.59954   0.58738   16.679
 5706.00    0.59359   0.58578   16.847
 5707.00    0.58465   0.58414   17.104
 5708.00    0.57779   0.58371   17.307
 5709.00    0.57613   0.58405   17.357
 5710.00    0.57812   0.58466   17.297
 5711.00    0.58126   0.58654   17.204
 5712.00    0.58459   0.58923   17.106
 5713.00    0.58836   0.59171   16.997
 5714.00    0.59328   0.59455   16.855
 5715.00    0.59834   0.59755   16.713
 5716.00    0.60010   0.59980   16.664
 5717.00    0.59775   0.60179   16.729
 5718.00    0.59536   0.60364   16.797
 5719.00    0.59602   0.60482   16.778
 5720.00    0.59865   0.60568   16.704
 5721.00    0.60170   0.60627   16.620
 5722.00    0.60533   0.60625   16.520
 5723.00    0.61077   0.60605   16.373
 5724.00    0.61930   0.60573   16.147
 5725.00    0.62929   0.60493   15.891
 5726.00    0.63537   0.60407   15.739
 5727.00    0.63292   0.60358   15.800
 5728.00    0.62108   0.60313   16.101
 5729.00    0.60430   0.60263   16.548
 5730.00    0.59151   0.60254   16.906
 5731.00    0.58769   0.60279   17.016
 5732.00    0.59018   0.60295   16.944
 5733.00    0.59332   0.60306   16.854
 5734.00    0.59192   0.60327   16.894
 5735.00    0.58569   0.60340   17.074
 5736.00    0.57993   0.60323   17.243
 5737.00    0.57772   0.60298   17.309
 5738.00    0.57713   0.60269   17.327
 5739.00    0.57683   0.60238   17.336
 5740.00    0.57829   0.60217    0.000
 5741.00    0.58240   0.60194    0.000
 5742.00    0.58793   0.60167    0.000
 5743.00    0.59207   0.60143    0.000
 5744.00    0.59140   0.60123    0.000
 5745.00    0.58509   0.60075    0.000
 5746.00    0.57595   0.59998    0.000
 5747.00    0.56867   0.59917    0.000
 5748.00    0.56786   0.59821    0.000
 5749.00    0.57342   0.59702    0.000
 5750.00    0.58000   0.59594    0.000
 5751.00    0.58288   0.59512    0.000
 5752.00    0.58073   0.59440    0.000
 5753.00    0.57589   0.59408    0.000
 5754.00    0.57302   0.59413    0.000
 5755.00    0.57325   0.59423    0.000
 5756.00    0.57322   0.59448    0.000
 5757.00    0.57054   0.59465    0.000
 5758.00    0.56562   0.59449    0.000
 5759.00    0.56042   0.59439    0.000
 5760.00    0.55729   0.59427    0.000
 5761.00    0.55711   0.59405    0.000
 5762.00    0.55929   0.59433    0.000
 5763.00    0.56433   0.59500    0.000
 5764.00    0.57320   0.59562    0.000
 5765.00    0.58173   0.59646    0.000
 5766.00    0.58202   0.59737    0.000
 5767.00    0.57422   0.59780    0.000
 5768.00    0.56712   0.59795    0.000
 5769.00    0.56621   0.59787    0.000
 5770.00    0.57041   0.59733    0.000
 5771.00    0.57516   0.59671    0.000
 5772.00    0.57600   0.59596    0.000
 5773.00    0.57611   0.59488    0.000
 5774.00    0.58345   0.59379    0.000
 5775.00    0.59428   0.59254    0.000
 5776.00    0.59441   0.59071    0.000
 5777.00    0.57916   0.58873    0.000
 5778.00    0.55664   0.58676    0.000
 5779.00    0.53859   0.58439    0.000
 5780.00    0.53431   0.58215    0.000
 5781.00    0.54166   0.58075    0.000
 5782.00    0.54954   0.57976    0.000
 5783.00    0.55246   0.57911    0.000
 5784.00    0.55273   0.57957    0.000
 5785.00    0.55450   0.58066    0.000
 5786.00    0.56050   0.58168    0.000
 5787.00    0.56806   0.58317    0.000
 5788.00    0.57129   0.58490    0.000
 5789.00    0.56961   0.58614    0.000
 5790.00    0.56789   0.58737    0.000
 5791.00    0.57078   0.58869    0.000
 5792.00    0.58033   0.58945    0.000
 5793.00    0.59423   0.59009    0.000
 5794.00    0.60716   0.59098    0.000
 5795.00    0.61562   0.59144    0.000
 5796.00    0.61880   0.59164    0.000
 5797.00    0.61796   0.59223    0.000
 5798.00    0.61513   0.59272    0.000
 5799.00    0.61062   0.59278    0.000
 5800.00    0.60370   0.59301    0.000
 5801.00    0.59569   0.59331    0.000
 5802.00    0.58972   0.59317    0.000
 5803.00    0.58869   0.59293    0.000
 5804.00    0.59385   0.59286    0.000
 5805.00    0.60296   0.59272    0.000
 5806.00    0.61144   0.59253    0.000
 5807.00    0.61584   0.59246    0.000
 5808.00    0.61448   0.59249    0.000
 5809.00    0.60725   0.59251    0.000
 5810.00    0.59573   0.59239    0.000
 5811.00    0.58364   0.59221    0.000
 5812.00    0.57507   0.59215    0.000
 5813.00    0.57087   0.59207    0.000
 5814.00    0.56953   0.59197    0.000
 5815.00    0.57052   0.59219    0.000
 5816.00    0.57379   0.59272    0.000
 5817.00    0.57781   0.59329    0.000
 5818.00    0.58059   0.59395    0.000
 5819.00    0.58228   0.59481    0.000
 5820.00    0.58414   0.59559    0.000
 5821.00    0.58578   0.59611    0.000
 5822.00    0.58602   0.59655    0.000
 5823.00    0.58528   0.59693    0.000
 5824.00    0.58531   0.59711    0.000
 5825.00    0.58787   0.59716    0.000
 5826.00    0.59345   0.59716    0.000
 5827.00    0.59959   0.59710    0.000
 5828.00    0.60244   0.59696    0.000
 5829.00    0.59980   0.59665    0.000
 5830.00    0.59218   0.59628    0.000
 5831.00    0.58337   0.59600    0.000
 5832.00    0.57767   0.59561    0.000
 5833.00    0.57522   0.59509    0.000
 5834.00    0.57369   0.59483    0.000
 5835.00    0.57203   0.59470    0.000
 5836.00    0.57112   0.59441    0.000
 5837.00    0.57389   0.59431    0.000
 5838.00    0.58253   0.59443    0.000
 5839.00    0.59461   0.59432    0.000
 5840.00    0.60454   0.59408    0.000
 5841.00    0.60670   0.59384    0.000
 5842.00    0.59797   0.59329    0.000
 5843.00    0.58063   0.59240    0.000
 5844.00    0.56077   0.59138    0.000
 5845.00    0.54535   0.59007    0.000
 5846.00    0.53984   0.58856    0.000
 5847.00    0.54555   0.58700    0.000
 5848.00    0.55944   0.58521    0.000
 5849.00    0.57468   0.58332    0.000
 5850.00    0.58410   0.58154    0.000
 5851.00    0.58433   0.57958    0.000
 5852.00    0.57466   0.57753    0.000
 5853.00    0.55460   0.57592    0.000
 5854.00    0.52116   0.57453   -2.000
 5855.00    0.46661   0.57320   -2.000
 5856.00    0.38996   0.57254   -2.000
 5857.00    0.30986   0.57248   -2.000
 5858.00    0.24750   0.57260   -2.000
 5859.00    0.20593   0.57320   -2.000
 5860.00    0.18627   0.57420   -2.000
 5861.00    0.20684   0.57515   -2.000
 5862.00    0.27394   0.57621   -2.000
 5863.00    0.34955   0.57732   -2.000
 5864.00    0.39170   0.57810   -2.000
 5865.00    0.40109   0.57876   -2.000
 5866.00    0.40280   0.57935   -2.000
 5867.00    0.42028   0.57947   -2.000
 5868.00    0.46157   0.57923   -2.000
 5869.00    0.50967   0.57862   -2.000
 5870.00    0.54578   0.57735   -2.000
 5871.00    0.57291   0.57568   -2.000
 5872.00    0.60135   0.57381   -2.000
 5873.00    0.63200   0.57182    0.000
 5874.00    0.66015   0.57002    0.000
 5875.00    0.68081   0.56877    0.000
 5876.00    0.69003   0.56827    0.000
 5877.00    0.68573   0.56818    0.000
 5878.00    0.66907   0.56830    0.000
 5879.00    0.64542   0.56882    0.000
 5880.00    0.62157   0.56906    0.000
 5881.00    0.60310   0.56830    0.000
 5882.00    0.59297   0.56676    0.000
 5883.00    0.59070   0.56438    0.000
 5884.00    0.59376   0.56041    0.000
 5885.00    0.59891   0.55510    0.000
 5886.00    0.60174   0.54975    0.000
 5887.00    0.59675   0.54388    0.000
 5888.00    0.58269   0.53757    0.000
 5889.00    0.56620   0.53316    0.000
 5890.00    0.55497   0.53010    0.000
 5891.00    0.55195   0.52725    0.000
 5892.00    0.55570   0.52686    0.000
 5893.00    0.56147   0.52824    0.000
 5894.00    0.56564   0.52939    0.000
 5895.00    0.56867   0.53230    0.000
 5896.00    0.57092   0.53678    0.000
 5897.00    0.57009   0.54072    0.000
 5898.00    0.56670   0.54531    0.000
 5899.00    0.56720   0.55074    0.000
 5900.00    0.57513   0.55522    0.000
 5901.00    0.58536   0.55904   17.084
 5902.00    0.59038   0.56264   16.938
 5903.00    0.58554   0.56530   17.078
 5904.00    0.57171   0.56702   17.491
 5905.00    0.55606   0.56831   17.984
 5906.00    0.54553   0.56916   18.331
 5907.00    0.54261   0.56948   18.430
 5908.00    0.54761   0.56942   18.261
 5909.00    0.55998   0.56914   17.858
 5910.00    0.57592   0.56867   17.363
 5911.00    0.58773   0.56796   17.014
 5912.00    0.58972   0.56719   16.957
 5913.00    0.58179   0.56664   17.188
 5914.00    0.56796   0.56626   17.607
 5915.00    0.55450   0.56609   18.034
 5916.00    0.54575   0.56633   18.323
 5917.00    0.54215   0.56678   18.445
 5918.00    0.54397   0.56737   18.383
 5919.00    0.55288   0.56808   18.087
 5920.00    0.56771   0.56866   17.615
 5921.00    0.58270   0.56914   17.161
 5922.00    0.59226   0.56948   16.884
 5923.00    0.59376   0.56952   16.842
 5924.00    0.58773   0.56941   17.015
 5925.00    0.57735   0.56908   17.320
 5926.00    0.56538   0.56856   17.687
 5927.00    0.55282   0.56810   18.089
 5928.00    0.54114   0.56757   18.480
 5929.00    0.53309   0.56710   18.759
 5930.00    0.53117   0.56695   18.826
 5931.00    0.53645   0.56691   18.641
 5932.00    0.54700   0.56697   18.281
 5933.00    0.55803   0.56719   17.920
 5934.00    0.56652   0.56752   17.652
 5935.00    0.57279   0.56776   17.458
 5936.00    0.57726   0.56780   17.323
 5937.00    0.57910   0.56784   17.268
 5938.00    0.57795   0.56781   17.302
 5939.00    0.57461   0.56747   17.403
 5940.00    0.57032   0.56715   17.534
 5941.00    0.56636   0.56692   17.657
 5942.00    0.56383   0.56656   17.736
 5943.00    0.56292   0.56619   17.764
 5944.00    0.56058   0.56581   17.839
 5945.00    0.55148   0.56537   18.133
 5946.00    0.53654   0.56488   18.638
 5947.00    0.52429   0.56419   19.073
 5948.00    0.52136   0.56353   19.181
 5949.00    0.52836   0.56308   18.927
 5950.00    0.53986   0.56256   18.523
 5951.00    0.54716   0.56208   18.276
 5952.00    0.54883   0.56197   18.221
 5953.00    0.55150   0.56204   18.132
 5954.00    0.55700   0.56204   17.953
 5955.00    0.56000   0.56233   17.857
 5956.00    0.55847   0.56296   17.906
 5957.00    0.55616   0.56356   17.980
 5958.00    0.55698   0.56425   17.954
 5959.00    0.56235   0.56512   17.782
 5960.00    0.56978   0.56591   17.551
 5961.00    0.57402   0.56651   17.421
 5962.00    0.57287   0.56708   17.456
 5963.00    0.56814   0.56751   17.601
 5964.00    0.56190   0.56772   17.797
 5965.00    0.55558   0.56795   17.999
 5966.00    0.55146   0.56816   18.134
 5967.00    0.55191   0.56820   18.119
 5968.00    0.55550   0.56822   18.002
 5969.00    0.55723   0.56813   17.946
 5970.00    0.55317   0.56771   18.078
 5971.00    0.54224   0.56705   18.442
 5972.00    0.52656   0.56620   18.991
 5973.00    0.51095   0.56510   19.571
 5974.00    0.50094   0.56388   19.963
 5975.00    0.50040   0.56278   19.984
 5976.00    0.50672   0.56175   19.735
 5977.00    0.51234   0.56086   19.518
 5978.00    0.51321   0.56025   19.485
 5979.00    0.51032   0.55964   19.595
 5980.00    0.50669   0.55911   19.736
 5981.00    0.50575   0.55874   19.772
 5982.00    0.50969   0.55826   19.620
 5983.00    0.51856   0.55790   19.284
 5984.00    0.52949   0.55787   18.886
 5985.00    0.53811   0.55793   18.584
 5986.00    0.54274   0.55818   18.425
 5987.00    0.54479   0.55875   18.356
 5988.00    0.54684   0.55946   18.287
 5989.00    0.55116   0.56010   18.144
 5990.00    0.55725   0.56070   17.945
 5991.00    0.56240   0.56133   17.781
 5992.00    0.56454   0.56168   17.714
 5993.00    0.56344   0.56172   17.748
 5994.00    0.56179   0.56173   17.800
 5995.00    0.56341   0.56148   17.749
 5996.00    0.56868   0.56099   17.585
 5997.00    0.57420   0.56051   17.415
 5998.00    0.57459   0.55987   17.404
 5999.00    0.56501   0.55920   17.699
 6000.00    0.54586   0.55855   18.320
 6001.00    0.52285   0.55775   19.126
 6002.00    0.50494   0.55704   19.804
 6003.00    0.50029   0.55633   19.989
 6004.00    0.50896   0.55554   19.648
 6005.00    0.52441   0.55500   19.069
 6006.00    0.53983   0.55456   18.524
 6007.00    0.55016   0.55418   18.176
 6008.00    0.55322   0.55412   18.076
 6009.00    0.55047   0.55408   18.166
 6010.00    0.54768   0.55409   18.259
 6011.00    0.55056   0.55415   18.163
 6012.00    0.55625   0.55400   17.977
 6013.00    0.55763   0.55386   17.933
 6014.00    0.55431   0.55357   18.040
 6015.00    0.55077   0.55299   18.156
 6016.00    0.54892   0.55258   18.218
 6017.00    0.54855   0.55213   18.230
 6018.00    0.55046   0.55156   18.167
 6019.00    0.55550   0.55127   18.002
 6020.00    0.56189   0.55123   17.797
 6021.00    0.56668   0.55138   17.647
 6022.00    0.56913   0.55173   17.571
 6023.00    0.56997   0.55242   17.545
 6024.00    0.56932   0.55344   17.565
 6025.00    0.56702   0.55441   17.636
 6026.00    0.56378   0.55551   17.737
 6027.00    0.56068   0.55681   17.835
 6028.00    0.55817   0.55786   17.916
 6029.00    0.55577   0.55881   17.993
 6030.00    0.55207   0.55975   18.114
 6031.00    0.54625   0.56044   18.307
 6032.00    0.54020   0.56092   18.512
 6033.00    0.53664   0.56126   18.634
 6034.00    0.53582   0.56144   18.663
 6035.00    0.53669   0.56142   18.633
 6036.00    0.53944   0.56130   18.538
 6037.00    0.54395   0.56112   18.384
 6038.00    0.54743   0.56086   18.267
 6039.00    0.54725   0.56068   18.273
 6040.00    0.54517   0.56056   18.343
 6041.00    0.54468   0.56049   18.359
 6042.00    0.54662   0.56060   18.294
 6043.00    0.55008   0.56077   18.179
 6044.00    0.55458   0.56092   18.032
 6045.00    0.56044   0.56111   17.843
 6046.00    0.56882   0.56122   17.580
 6047.00    0.57936   0.56113   17.260
 6048.00    0.58754   0.56088   17.020
 6049.00    0.58869   0.56049   16.987
 6050.00    0.58333   0.55989   17.143
 6051.00    0.57486   0.55913   17.396
 6052.00    0.56604   0.55837   17.667
 6053.00    0.55847   0.55764   17.906
 6054.00    0.55255   0.55692   18.098
 6055.00    0.54821   0.55636   18.241
 6056.00    0.54576   0.55599   18.323
 6057.00    0.54493   0.55565   18.351
 6058.00    0.54392   0.55527   18.385
 6059.00    0.54081   0.55499   18.491
 6060.00    0.53528   0.55459   18.682
 6061.00    0.52822   0.55400   18.931
 6062.00    0.52110   0.55370   19.190
 6063.00    0.51537   0.55346   19.403
 6064.00    0.51195   0.55331   19.533
 6065.00    0.51092   0.55381   19.572
 6066.00    0.51146   0.55449   19.552
 6067.00    0.51278   0.55527   19.501
 6068.00    0.51514   0.55642   19.412
 6069.00    0.51920   0.55738   19.260
 6070.00    0.52529   0.55803   19.037
 6071.00    0.53287   0.55847   18.766
 6072.00    0.54013   0.55843   18.514
 6073.00    0.54419   0.55794   18.376
 6074.00    0.54174   0.55707   18.459
 6075.00    0.53196   0.55590   18.798
 6076.00    0.51886   0.55459   19.273
 6077.00    0.50781   0.55308   19.692
 6078.00    0.50217   0.55171   19.913
 6079.00    0.50282   0.55055   19.888
 6080.00    0.50827   0.54941   19.675
 6081.00    0.51635   0.54859   19.367
 6082.00    0.52571   0.54808   19.022
 6083.00    0.53467   0.54759   18.703
 6084.00    0.54053   0.54733   18.500
 6085.00    0.54219   0.54725   18.444
 6086.00    0.54188   0.54710   18.454
 6087.00    0.54166   0.54709   18.462
 6088.00    0.54064   0.54714   18.497
 6089.00    0.53763   0.54717   18.600
 6090.00    0.53326   0.54740   18.752
 6091.00    0.52966   0.54767   18.880
 6092.00    0.52962   0.54791   18.882
 6093.00    0.53356   0.54829   18.742
 6094.00    0.53786   0.54852   18.592
 6095.00    0.53958   0.54837   18.533
 6096.00    0.53961   0.54812   18.532
 6097.00    0.53901   0.54753   18.553
 6098.00    0.53643   0.54636   18.642
 6099.00    0.53007   0.54527   18.865
 6100.00    0.51945   0.54421   19.251
 6101.00    0.50754   0.54299   19.703
 6102.00    0.50122   0.54248   19.951
 6103.00    0.50513   0.54243   19.797
 6104.00    0.51776   0.54250   19.314
 6105.00    0.53421   0.54335   18.719
 6106.00    0.54857   0.54434   18.229
 6107.00    0.55748   0.54518   17.938
 6108.00    0.56188   0.54629   17.798
 6109.00    0.56458   0.54708   17.712
 6110.00    0.56818   0.54760   17.600
 6111.00    0.57222   0.54805   17.476
 6112.00    0.57251   0.54804   17.467
 6113.00    0.56725   0.54784   17.629
 6114.00    0.55980   0.54742   17.863
 6115.00    0.55350   0.54650   18.067
 6116.00    0.54860   0.54557   18.228
 6117.00    0.54337   0.54437   18.404
 6118.00    0.53549   0.54286   18.674
 6119.00    0.52528   0.54176   19.037
 6120.00    0.51671   0.54066   19.353
 6121.00    0.51309   0.53968   19.490
 6122.00    0.51482   0.53946   19.424
 6123.00    0.52042   0.53939   19.215
 6124.00    0.52739   0.53952   18.961
 6125.00    0.53370   0.54014   18.737
 6126.00    0.53846   0.54064   18.571
 6127.00    0.54153   0.54096   18.466
 6128.00    0.54319   0.54125   18.410
 6129.00    0.54407   0.54105   18.380
 6130.00    0.54471   0.54028   18.358
 6131.00    0.54379   0.53919   18.389
 6132.00    0.53837   0.53759   18.575
 6133.00    0.52876   0.53557   18.912
 6134.00    0.51977   0.53365   19.239
 6135.00    0.51547   0.53191   19.400
 6136.00    0.51680   0.53060   19.350
 6137.00    0.52223   0.53002   19.149
 6138.00    0.52855   0.53010   18.920
 6139.00    0.53259   0.53093   18.776
 6140.00    0.53235   0.53222   18.785
 6141.00    0.52866   0.53374   18.916
 6142.00    0.52482   0.53540   19.054
 6143.00    0.52267   0.53681   19.132
 6144.00    0.52147   0.53797   19.177
 6145.00    0.52013   0.53880   19.226
 6146.00    0.51826   0.53917   19.295
 6147.00    0.51610   0.53926   19.376
 6148.00    0.51443   0.53916   19.439
 6149.00    0.51420   0.53886   19.448
 6150.00    0.51635   0.53836   19.367
 6151.00    0.52187   0.53781   19.162
 6152.00    0.53110   0.53715   18.829
 6153.00    0.54163   0.53605   18.463
 6154.00    0.54878   0.53470   18.222
 6155.00    0.55038   0.53298   18.169
 6156.00    0.54781   0.53066   18.254
 6157.00    0.54344   0.52804   18.401
 6158.00    0.53932   0.52517   18.542
 6159.00    0.53632   0.52217   18.645
 6160.00    0.53420   0.51951   18.720
 6161.00    0.53298   0.51735   18.762
 6162.00    0.53327   0.51565   18.752
 6163.00    0.53561   0.51479   18.670
 6164.00    0.54033   0.51468   18.507
 6165.00    0.54776   0.51483   18.256
 6166.00    0.55747   0.51545   17.938
 6167.00    0.56571   0.51642   17.677
 6168.00    0.56643   0.51734   17.655
 6169.00    0.55678   0.51846   17.960
 6170.00    0.53881   0.51969   18.560
 6171.00    0.51902   0.52095   19.267
 6172.00    0.50602   0.52235   19.762
 6173.00    0.50404   0.52373   19.840
 6174.00    0.51127   0.52509   19.559
 6175.00    0.52069   0.52640   19.205
 6176.00    0.52343   0.52759   19.105
 6177.00    0.51697   0.52869   19.343
 6178.00    0.50570   0.52953   19.774
 6179.00    0.49597   0.53020   20.163
 6180.00    0.49294   0.53069   20.287
 6181.00    0.49632   0.53066   20.148
 6182.00    0.50120   0.53039   19.952
 6183.00    0.50322   0.52982   19.872
 6184.00    0.50079   0.52859   19.968
 6185.00    0.49694   0.52728   20.123
 6186.00    0.49716   0.52593   20.114
 6187.00    0.50304   0.52417   19.879
 6188.00    0.51171   0.52287   19.542
 6189.00    0.51857   0.52200   19.284
 6190.00    0.51968   0.52127   19.243
 6191.00    0.51583   0.52136   19.386
 6192.00    0.51102   0.52179   19.569
 6193.00    0.50690   0.52243   19.728
 6194.00    0.50289   0.52359   19.885
 6195.00    0.49933   0.52450   20.027
 6196.00    0.49774   0.52527   20.091
 6197.00    0.49955   0.52618   20.018
 6198.00    0.50516   0.52677   19.796
 6199.00    0.51267   0.52728   19.506
 6200.00    0.51828   0.52789   19.295
 6201.00    0.51801   0.52845   19.305
 6202.00    0.51056   0.52906   19.586
 6203.00    0.50206   0.52960   19.918
 6204.00    0.50145   0.52995   19.942
 6205.00    0.50953   0.53013   19.626
 6206.00    0.52011   0.52988   19.227
 6207.00    0.52691   0.52925   18.978
 6208.00    0.52670   0.52825   18.986
 6209.00    0.52255   0.52673   19.137
 6210.00    0.52000   0.52508   19.231
 6211.00    0.51895   0.52327   19.270
 6212.00    0.51588   0.52127   19.384
 6213.00    0.51073   0.51971   19.580
 6214.00    0.50631   0.51834   19.751
 6215.00    0.50518   0.51719   19.795
 6216.00    0.50793   0.51668   19.688
 6217.00    0.51149   0.51635   19.551
 6218.00    0.51134   0.51634   19.557
 6219.00    0.50592   0.51667   19.766
 6220.00    0.49711   0.51688   20.116
 6221.00    0.48960   0.51726   20.425
 6222.00    0.48852   0.51755   20.470
 6223.00    0.49566   0.51742   20.175
 6224.00    0.50813   0.51726   19.680
 6225.00    0.51760   0.51677   19.320
 6226.00    0.51623   0.51588   19.371
 6227.00    0.50583   0.51509   19.770
 6228.00    0.49342   0.51426   20.267
 6229.00    0.48258   0.51350   20.722
 6230.00    0.47380   0.51324   21.106
 6231.00    0.46707   0.51321   21.410
 6232.00    0.46306   0.51344   21.596
 6233.00    0.46412   0.51398   21.546
 6234.00    0.47257   0.51441   21.161
 6235.00    0.48803   0.51469   20.491
 6236.00    0.50684   0.51464   19.730
 6237.00    0.52213   0.51432   19.152
 6238.00    0.52767   0.51369   18.951
 6239.00    0.52304   0.51266   19.119
 6240.00    0.51264   0.51183   19.507
 6241.00    0.50327   0.51096   19.870
 6242.00    0.49975   0.51007   20.010
 6243.00    0.50009   0.50976   19.996
 6244.00    0.49872   0.50952   20.051
 6245.00    0.49154   0.50939   20.344
 6246.00    0.47812   0.50967   20.915
 6247.00    0.46337   0.50969   21.581
 6248.00    0.45480   0.50948   21.987
 6249.00    0.45863   0.50926   21.804
 6250.00    0.47540   0.50854   21.035
 6251.00    0.49597   0.50753   20.162
 6252.00    0.50852   0.50655   19.665
 6253.00    0.50711   0.50554   19.720
 6254.00    0.49271   0.50461   20.296
 6255.00    0.47293   0.50421   21.145
 6256.00    0.45710   0.50433   21.877
 6257.00    0.45089   0.50468   22.179
 6258.00    0.45518   0.50563   21.969
 6259.00    0.46584   0.50706   21.466
 6260.00    0.47739   0.50845   20.947
 6261.00    0.48688   0.50996   20.539
 6262.00    0.49457   0.51145   20.219
 6263.00    0.50371   0.51267   -2.000
 6264.00    0.51599   0.51374   -2.000
 6265.00    0.52742   0.51456   -2.000
 6266.00    0.53311   0.51508   -2.000
 6267.00    0.53212   0.51557   -2.000
 6268.00    0.52563   0.51600   -2.000
 6269.00    0.51483   0.51621   -2.000
 6270.00    0.50205   0.51638   -2.000
 6271.00    0.49167   0.51659   -2.000
 6272.00    0.48680   0.51663   -2.000
 6273.00    0.48657   0.51641   -2.000
 6274.00    0.48817   0.51619   20.485
 6275.00    0.48903   0.51579   20.449
 6276.00    0.48711   0.51516   20.529
 6277.00    0.48131   0.51473   20.777
 6278.00    0.47369   0.51427   21.111
 6279.00    0.47053   0.51395   21.253
 6280.00    0.47547   0.51410    0.000
 6281.00    0.48439   0.51431    0.000
 6282.00    0.49118   0.51486    0.000
 6283.00    0.49287   0.51569    0.000
 6284.00    0.49069   0.51638    0.000
 6285.00    0.48976   0.51719    0.000
 6286.00    0.49266   0.51777    0.000
 6287.00    0.49520   0.51803    0.000
 6288.00    0.49288   0.51816    0.000
 6289.00    0.48595   0.51782    0.000
 6290.00    0.47854   0.51725    0.000
 6291.00    0.47725   0.51651    0.000
 6292.00    0.48699   0.51544    0.000
 6293.00    0.50784   0.51432    0.000
 6294.00    0.53452   0.51308    0.000
 6295.00    0.55707   0.51184    0.000
 6296.00    0.56769   0.51079    0.000
 6297.00    0.56550   0.50973    0.000
 6298.00    0.55658   0.50896    0.000
 6299.00    0.55205   0.50865    0.000
 6300.00    0.55702   0.50864    0.000
 6301.00    0.56467   0.50895    0.000
 6302.00    0.56574   0.50961    0.000
 6303.00    0.55538   0.51059    0.000
 6304.00    0.53538   0.51166    0.000
 6305.00    0.51429   0.51257    0.000
 6306.00    0.50037   0.51331    0.000
 6307.00    0.49719   0.51373    0.000
 6308.00    0.50401   0.51377    0.000
 6309.00    0.51645   0.51349    0.000
 6310.00    0.52839   0.51268    0.000
 6311.00    0.53379   0.51154    0.000
 6312.00    0.53038   0.51058    0.000
 6313.00    0.52116   0.50947    0.000
 6314.00    0.51101   0.50826    0.000
 6315.00    0.50434   0.50760    0.000
 6316.00    0.50320   0.50723    0.000
 6317.00    0.50661   0.50722    0.000
 6318.00    0.51233   0.50768    0.000
 6319.00    0.51799   0.50830    0.000
 6320.00    0.52222   0.50940    0.000
 6321.00    0.52494   0.51073   19.050
 6322.00    0.52553   0.51188   19.028
 6323.00    0.52242   0.51299   19.142
 6324.00    0.51546   0.51410   19.400
 6325.00    0.50684   0.51500   19.730
 6326.00    0.49978   0.51539   20.009
 6327.00    0.49752   0.51564   20.100
 6328.00    0.50180   0.51565   19.928
 6329.00    0.51171   0.51527   19.542
 6330.00    0.52190   0.51476   19.161
 6331.00    0.52395   0.51379   19.086
 6332.00    0.51600   0.51274   19.380
 6333.00    0.50498   0.51191   19.803
 6334.00    0.49650   0.51090   20.141
 6335.00    0.49119   0.51002   20.359
 6336.00    0.48842   0.50950   20.474
 6337.00    0.48791   0.50916   20.496
 6338.00    0.48929   0.50905   20.438
 6339.00    0.49208   0.50898   20.322
 6340.00    0.49660   0.50886   20.137
 6341.00    0.50330   0.50906   19.869
 6342.00    0.50908   0.50915   19.643
 6343.00    0.50781   0.50905   19.693
 6344.00    0.49860   0.50924   20.056
 6345.00    0.48734   0.50949   20.519
 6346.00    0.47997   0.50976   20.835
 6347.00    0.47951   0.51010   20.855
 6348.00    0.48515   0.51036   20.612
 6349.00    0.49301   0.51058   20.284
 6350.00    0.50002   0.51053   19.999
 6351.00    0.50470   0.51001   19.814
 6352.00    0.50467   0.50937   19.815
 6353.00    0.49752   0.50848   20.100
 6354.00    0.48642   0.50705   20.559
 6355.00    0.47888   0.50562   20.882
 6356.00    0.47584   0.50428   21.015
 6357.00    0.47163   0.50290   21.203
 6358.00    0.46638   0.50174   21.442
 6359.00    0.46703   0.50084   21.412
 6360.00    0.47701   0.50039   20.964
 6361.00    0.49368   0.50044   20.256
 6362.00    0.51127   0.50067   19.559
 6363.00    0.52369   0.50128   19.095
 6364.00    0.52978   0.50236   18.876
 6365.00    0.53280   0.50352   18.769
 6366.00    0.53369   0.50465   18.737
 6367.00    0.53094   0.50591   18.835
 6368.00    0.52608   0.50713   19.009
 6369.00    0.52322   0.50825   19.112
 6370.00    0.52298   0.50922   19.121
 6371.00    0.52203   0.50989   19.156
 6372.00    0.51687   0.51057   19.347
 6373.00    0.50626   0.51101   19.753
 6374.00    0.49453   0.51105   20.221
 6375.00    0.48925   0.51106   20.439
 6376.00    0.49289   0.51086   20.288
 6377.00    0.50215   0.51050   19.914
 6378.00    0.51250   0.51022   19.512
 6379.00    0.51979   0.50983   19.238
 6380.00    0.52118   0.50948   19.187
 6381.00    0.51624   0.50932   19.371
 6382.00    0.50910   0.50922   19.642
 6383.00    0.50595   0.50917   19.765
 6384.00    0.50793   0.50911   19.688
 6385.00    0.51120   0.50895   19.562
 6386.00    0.51130   0.50869   19.558
 6387.00    0.50561   0.50832   19.778
 6388.00    0.49632   0.50771   20.148
 6389.00    0.48868   0.50673   20.463
 6390.00    0.48544   0.50592   20.600
 6391.00    0.48665   0.50527   20.549
 6392.00    0.49214   0.50440   20.319
 6393.00    0.50120   0.50375   19.952
 6394.00    0.51080   0.50335   19.577
 6395.00    0.51696   0.50291   19.344
 6396.00    0.51834   0.50255   19.292
 6397.00    0.51638   0.50260   19.366
 6398.00    0.51398   0.50273   19.456
 6399.00    0.51352   0.50289   19.474
 6400.00    0.51357   0.50329   19.471
 6401.00    0.51084   0.50356   19.576
 6402.00    0.50502   0.50403   19.801
 6403.00    0.49913   0.50435   20.035
 6404.00    0.49799   0.50415   20.081
 6405.00    0.50467   0.50437   19.815
 6406.00    0.51471   0.50447   19.429
 6407.00    0.51972   0.50386   19.241
 6408.00    0.51605   0.50352   19.378
 6409.00    0.50557   0.50337   19.780
 6410.00    0.49421   0.50304   20.234
 6411.00    0.48867   0.50288   20.464
 6412.00    0.49122   0.50270   20.357
 6413.00    0.49943   0.50257   20.023
 6414.00    0.50745   0.50269   19.707
 6415.00    0.50996   0.50249   19.609
 6416.00    0.50811   0.50216   19.681
 6417.00    0.50703   0.50213   19.723
 6418.00    0.51008   0.50221   19.605
 6419.00    0.51733   0.50248   19.330
 6420.00    0.52464   0.50283   19.061
 6421.00    0.52730   0.50328   18.965
 6422.00    0.52576   0.50401   19.020
 6423.00    0.52333   0.50473   19.108
 6424.00    0.52140   0.50528   19.179
 6425.00    0.51941   0.50557   19.253
 6426.00    0.51576   0.50547   19.389
 6427.00    0.50880   0.50524   19.654
 6428.00    0.49789   0.50492   20.085
 6429.00    0.48413   0.50429   20.655
 6430.00    0.47108   0.50376   21.228
 6431.00    0.46309   0.50338   21.594
 6432.00    0.46304   0.50304   21.597
 6433.00    0.47095   0.50306   21.234
 6434.00    0.48279   0.50289   20.713
 6435.00    0.49264   0.50273   20.299
 6436.00    0.49578   0.50323   20.170
 6437.00    0.49146   0.50365   20.348
 6438.00    0.48541   0.50402   20.601
 6439.00    0.48385   0.50465   20.667
 6440.00    0.48576   0.50520   20.586
 6441.00    0.48758   0.50585   20.510
 6442.00    0.48991   0.50629   20.412
 6443.00    0.49454   0.50619   20.221
 6444.00    0.49998   0.50600   20.001
 6445.00    0.50303   0.50515   19.880
 6446.00    0.50132   0.50382   19.947
 6447.00    0.49518   0.50278   20.195
 6448.00    0.48905   0.50150   20.448
 6449.00    0.48765   0.50031   20.507
 6450.00    0.49155   0.49955   20.344
 6451.00    0.49796   0.49889   20.082
 6452.00    0.50246   0.49876   19.902
 6453.00    0.50200   0.49889   19.920
 6454.00    0.49780   0.49901   20.088
 6455.00    0.49349   0.49932   20.264
 6456.00    0.49268   0.49955   20.297
 6457.00    0.49729   0.49959   20.109
 6458.00    0.50609   0.49926   19.759
 6459.00    0.51497   0.49893   19.419
 6460.00    0.51761   0.49887   19.320
 6461.00    0.50939   0.49858   19.631
 6462.00    0.49097   0.49847   20.368
 6463.00    0.46737   0.49857   21.396
 6464.00    0.44633   0.49871   22.405
 6465.00    0.43503   0.49911   22.987
 6466.00    0.43689   0.49936   22.889
 6467.00    0.45040   0.49942   22.202
 6468.00    0.46883   0.49959   21.330
 6469.00    0.48503   0.49970   20.617
 6470.00    0.49581   0.49943   20.169
 6471.00    0.50094   0.49906   19.962
 6472.00    0.50171   0.49879   19.932
 6473.00    0.49861   0.49848   20.056
 6474.00    0.49000   0.49816   20.408
 6475.00    0.47686   0.49774   20.971
 6476.00    0.46600   0.49727   21.459
 6477.00    0.46189   0.49672   21.650
 6478.00    0.46058   0.49606   21.712
 6479.00    0.45672   0.49540   21.895
 6480.00    0.44963   0.49477   22.241
 6481.00    0.44293   0.49427   22.577
 6482.00    0.44316   0.49376   22.565
 6483.00    0.45361   0.49332   22.046
 6484.00    0.47013   0.49295   21.271
 6485.00    0.48622   0.49233   20.567
 6486.00    0.49681   0.49136   20.129
 6487.00    0.49761   0.48994   20.096
 6488.00    0.48514   0.48807   20.613
 6489.00    0.46186   0.48560   21.652
 6490.00    0.43868   0.48243   22.795
 6491.00    0.42571   0.47931   23.490
 6492.00    0.42574   0.47631   23.489
 6493.00    0.43534   0.47358   22.971
 6494.00    0.44690   0.47183   22.376
 6495.00    0.45582   0.47066   21.938
 6496.00    0.46426   0.47076   21.540
 6497.00    0.47449   0.47205   21.075
 6498.00    0.48477   0.47376   20.629
 6499.00    0.49185   0.47639   20.332
 6500.00    0.49318   0.47924   20.276
 6501.00    0.48919   0.48209   20.442
 6502.00    0.48405   0.48496   20.659
 6503.00    0.48226   0.48722   20.736
 6504.00    0.48627   0.48910   20.565
 6505.00    0.49471   0.49058   20.214
 6506.00    0.50241   0.49155   19.904
 6507.00    0.50548   0.49211   19.783
 6508.00    0.50389   0.49225   19.846
 6509.00    0.49868   0.49210   20.053
 6510.00    0.49073   0.49170   20.378
 6511.00    0.48279   0.49103   20.713
 6512.00    0.47978   0.49021   20.843
 6513.00    0.48358   0.48936   20.679
 6514.00    0.49119   0.48852   20.359
 6515.00    0.49993   0.48779   20.003
 6516.00    0.50945   0.48734   19.629
 6517.00    0.51765   0.48706   19.318
 6518.00    0.51944   0.48703   19.251
 6519.00    0.51176   0.48719   19.541
 6520.00    0.49594   0.48747   20.164
 6521.00    0.47725   0.48789   20.953
 6522.00    0.46338   0.48812   21.581
 6523.00    0.45889   0.48824   21.792
 6524.00    0.46307   0.48841   21.595
 6525.00    0.47179   0.48842   21.196
 6526.00    0.47952   0.48836   20.854
 6527.00    0.48353   0.48822   20.681
 6528.00    0.48504   0.48807    0.000
 6529.00    0.48581   0.48805    0.000
 6530.00    0.48665   0.48805    0.000
 6531.00    0.48820   0.48805    0.000
 6532.00    0.49113   0.48812    0.000
 6533.00    0.49555   0.48817    0.000
 6534.00    0.50059   0.48825    0.000
 6535.00    0.50420   0.48829    0.000
 6536.00    0.50415   0.48815    0.000
 6537.00    0.50258   0.48782    0.000
 6538.00    0.50561   0.48725    0.000
 6539.00    0.51419   0.48647    0.000
 6540.00    0.52264   0.48541    0.000
 6541.00    0.52678   0.48403    0.000
 6542.00    0.52788   0.48238    0.000
 6543.00    0.53489   0.48076    0.000
 6544.00    0.56105   0.47913    0.000
 6545.00    0.60916   0.47734    0.000
 6546.00    0.66825   0.47558    0.000
 6547.00    0.72192   0.47373    0.000
 6548.00    0.75347   0.47181    0.000
 6549.00    0.75285   0.46962    0.000
 6550.00    0.71918   0.46683    0.000
 6551.00    0.66101   0.46348    0.000
 6552.00    0.59444   0.45938    0.000
 6553.00    0.53688   0.45421    0.000
 6554.00    0.50422   0.44803    0.000
 6555.00    0.50904   0.44095    0.000
 6556.00    0.57374   0.43297    0.000
 6557.00    0.77236   0.42435    0.000
 6558.00    1.21401   0.41532    0.000
 6559.00    1.95044   0.40713    0.000
 6560.00    2.92860   0.40115    0.000
 6561.00    3.94103   0.39701    0.000
 6562.00    4.67537   0.39526    0.000
 6563.00    4.90235   0.39668    0.000
 6564.00    4.54812   0.40077    0.000
 6565.00    3.73215   0.40733    0.000
 6566.00    2.72368   0.41508    0.000
 6567.00    1.79064   0.42302    0.000
 6568.00    1.12387   0.43109    0.000
 6569.00    0.75538   0.43852    0.000
 6570.00    0.58503   0.44478    0.000
 6571.00    0.51255   0.44998    0.000
 6572.00    0.47519   0.45433    0.000
 6573.00    0.44812   0.45784    0.000
 6574.00    0.43382   0.46082    0.000
 6575.00    0.43528   0.46342    0.000
 6576.00    0.45257   0.46562    0.000
 6577.00    0.49184   0.46758    0.000
 6578.00    0.56647   0.46929    0.000
 6579.00    0.69385   0.47084    0.000
 6580.00    0.88248   0.47207    0.000
 6581.00    1.10396   0.47322    0.000
 6582.00    1.30040   0.47409    0.000
 6583.00    1.41739   0.47477    0.000
 6584.00    1.41944   0.47543    0.000
 6585.00    1.30622   0.47566    0.000
 6586.00    1.11115   0.47583    0.000
 6587.00    0.88943   0.47568    0.000
 6588.00    0.69999   0.47523    0.000
 6589.00    0.57319   0.47467    0.000
 6590.00    0.50942   0.47405    0.000
 6591.00    0.49171   0.47359    0.000
 6592.00    0.49524   0.47309    0.000
 6593.00    0.50116   0.47290    0.000
 6594.00    0.50057   0.47303    0.000
 6595.00    0.49637   0.47350    0.000
 6596.00    0.49657   0.47431    0.000
 6597.00    0.50048   0.47503    0.000
 6598.00    0.50165   0.47581    0.000
 6599.00    0.49874   0.47658    0.000
 6600.00    0.49513   0.47709    0.000
 6601.00    0.49408   0.47742    0.000
 6602.00    0.49654   0.47751    0.000
 6603.00    0.49897   0.47733    0.000
 6604.00    0.49706   0.47708    0.000
 6605.00    0.49292   0.47678    0.000
 6606.00    0.49183   0.47661    0.000
 6607.00    0.49437   0.47661    0.000
 6608.00    0.49758   0.47667    0.000
 6609.00    0.49936   0.47700   20.026
 6610.00    0.49983   0.47752   20.007
 6611.00    0.50212   0.47825   19.916
 6612.00    0.50873   0.47903   19.657
 6613.00    0.51566   0.47970   19.393
 6614.00    0.51669   0.48039   19.354
 6615.00    0.51163   0.48096   19.545
 6616.00    0.50462   0.48141   19.817
 6617.00    0.49926   0.48163   20.029
 6618.00    0.49747   0.48162   20.102
 6619.00    0.49876   0.48144   20.050
 6620.00    0.50090   0.48108   19.964
 6621.00    0.50105   0.48056   19.958
 6622.00    0.49764   0.47997   20.095
 6623.00    0.49266   0.47925   20.298
 6624.00    0.48914   0.47848   20.444
 6625.00    0.48728   0.47777   20.522
 6626.00    0.48605   0.47702   20.574
 6627.00    0.48620   0.47633   20.568
 6628.00    0.48905   0.47562   20.448
 6629.00    0.49422   0.47490   20.234
 6630.00    0.49939   0.47432   20.024
 6631.00    0.50048   0.47388   19.981
 6632.00    0.49551   0.47353   20.181
 6633.00    0.48923   0.47335   20.440
 6634.00    0.48694   0.47330   20.537
 6635.00    0.48637   0.47342   20.560
 6636.00    0.48345   0.47367   20.685
 6637.00    0.48037   0.47389   20.817
 6638.00    0.48174   0.47405   20.758
 6639.00    0.48864   0.47406   20.465
 6640.00    0.49904   0.47410   20.039
 6641.00    0.50919   0.47414   19.639
 6642.00    0.51582   0.47406   19.387
 6643.00    0.51831   0.47404   19.294
 6644.00    0.51746   0.47403   19.325
 6645.00    0.51384   0.47416   19.461
 6646.00    0.50798   0.47439   19.686
 6647.00    0.50077   0.47453   19.969
 6648.00    0.49415   0.47466   20.237
 6649.00    0.49158   0.47477   20.342
 6650.00    0.49535   0.47481   20.188
 6651.00    0.50371   0.47477   19.853
 6652.00    0.51177   0.47461   19.540
 6653.00    0.51311   0.47436   19.489
 6654.00    0.50442   0.47405   19.825
 6655.00    0.48972   0.47361   20.420
 6656.00    0.47667   0.47309   20.979
 6657.00    0.47218   0.47243   21.178
 6658.00    0.47812   0.47172   20.915
 6659.00    0.48829   0.47095   20.480
 6660.00    0.49646   0.47020   20.143
 6661.00    0.50357   0.46962   19.858
 6662.00    0.51061   0.46902   19.584
 6663.00    0.51223   0.46870   19.523
 6664.00    0.50464   0.46859   19.816
 6665.00    0.49265   0.46867   20.298
 6666.00    0.48331   0.46898   20.691
 6667.00    0.47987   0.46919   20.839
 6668.00    0.48301   0.46938   20.703
 6669.00    0.49215   0.46949   20.319
 6670.00    0.50536   0.46934   19.788
 6671.00    0.51933   0.46882   19.256
 6672.00    0.53089   0.46801   18.836
 6673.00    0.53828   0.46678   18.578
 6674.00    0.54023   0.46557   18.511
 6675.00    0.53559   0.46442   18.671
 6676.00    0.52667   0.46330   18.987
 6677.00    0.52083   0.46258   19.200
 6678.00    0.52196   0.46211   19.159
 6679.00    0.52464   0.46236   19.061
 6680.00    0.52187   0.46305   19.162
 6681.00    0.51133   0.46398   19.557
 6682.00    0.49638   0.46510   20.146
 6683.00    0.48552   0.46615   20.597
 6684.00    0.48457   0.46727   20.637
 6685.00    0.49149   0.46819   20.346
 6686.00    0.49963   0.46887   20.015
 6687.00    0.50134   0.46932   19.947
 6688.00    0.49583   0.46953   20.168
 6689.00    0.49257   0.46956   20.302
 6690.00    0.49821   0.46942   20.072
 6691.00    0.50861   0.46914   19.661
 6692.00    0.51578   0.46876   19.388
 6693.00    0.51358   0.46836   19.471
 6694.00    0.50260   0.46798   19.896
 6695.00    0.49140   0.46759   20.350
 6696.00    0.48591   0.46731    0.000
 6697.00    0.48387   0.46708    0.000
 6698.00    0.48241   0.46691    0.000
 6699.00    0.48234   0.46687    0.000
 6700.00    0.48448   0.46679    0.000
 6701.00    0.48764   0.46676    0.000
 6702.00    0.49045   0.46672    0.000
 6703.00    0.49240   0.46662    0.000
 6704.00    0.49331   0.46651    0.000
 6705.00    0.49311   0.46640    0.000
 6706.00    0.49248   0.46620    0.000
 6707.00    0.49310   0.46593    0.000
 6708.00    0.49686   0.46557    0.000
 6709.00    0.50660   0.46495    0.000
 6710.00    0.53242   0.46432    0.000
 6711.00    0.59307   0.46345    0.000
 6712.00    0.70596   0.46250    0.000
 6713.00    0.87808   0.46162    0.000
 6714.00    1.08744   0.46069    0.000
 6715.00    1.27969   0.46003    0.000
 6716.00    1.39720   0.45946    0.000
 6717.00    1.39878   0.45917    0.000
 6718.00    1.28198   0.45923    0.000
 6719.00    1.08798   0.45948    0.000
 6720.00    0.87430   0.45998    0.000
 6721.00    0.69619   0.46051    0.000
 6722.00    0.58275   0.46107    0.000
 6723.00    0.53046   0.46167    0.000
 6724.00    0.52315   0.46223    0.000
 6725.00    0.54468   0.46271    0.000
 6726.00    0.59275   0.46309    0.000
 6727.00    0.67818   0.46337    0.000
 6728.00    0.79604   0.46362    0.000
 6729.00    0.91798   0.46381    0.000
 6730.00    1.01262   0.46390    0.000
 6731.00    1.05495   0.46389    0.000
 6732.00    1.02772   0.46374    0.000
 6733.00    0.92688   0.46354    0.000
 6734.00    0.78061   0.46321    0.000
 6735.00    0.64439   0.46286    0.000
 6736.00    0.55282   0.46242    0.000
 6737.00    0.50582   0.46192    0.000
 6738.00    0.48971   0.46142    0.000
 6739.00    0.48793   0.46092    0.000
 6740.00    0.48932   0.46052    0.000
 6741.00    0.48968   0.46013    0.000
 6742.00    0.48667   0.45975    0.000
 6743.00    0.47887   0.45939    0.000
 6744.00    0.46925   0.45900    0.000
 6745.00    0.46412   0.45872    0.000
 6746.00    0.46535   0.45845    0.000
 6747.00    0.46897   0.45821    0.000
 6748.00    0.47006   0.45807    0.000
 6749.00    0.46541   0.45796    0.000
 6750.00    0.45661   0.45812    0.000
 6751.00    0.44916   0.45836    0.000
 6752.00    0.44660   0.45876    0.000
 6753.00    0.44926   0.45932   22.259
 6754.00    0.45641   0.45985   21.910
 6755.00    0.46692   0.46049   21.417
 6756.00    0.47884   0.46103   20.884
 6757.00    0.48944   0.46152   20.432
 6758.00    0.49557   0.46187   20.179
 6759.00    0.49493   0.46202   20.205
 6760.00    0.48915   0.46202   20.443
 6761.00    0.48296   0.46176   20.706
 6762.00    0.47919   0.46139   20.868
 6763.00    0.47844   0.46092   20.901
 6764.00    0.48188   0.46037   20.752
 6765.00    0.49039   0.45983   20.392
 6766.00    0.49992   0.45930   20.003
 6767.00    0.50338   0.45891   19.866
 6768.00    0.49890   0.45875   20.044
 6769.00    0.49032   0.45876   20.395
 6770.00    0.48271   0.45900   20.716
 6771.00    0.48059   0.45934   20.808
 6772.00    0.48648   0.45977   20.556
 6773.00    0.49910   0.46027   20.036
 6774.00    0.51026   0.46072   19.598
 6775.00    0.50997   0.46109   19.609
 6776.00    0.50063   0.46120   19.975
 6777.00    0.49333   0.46111   20.270
 6778.00    0.49153   0.46078   20.345
 6779.00    0.49092   0.46029   20.370
 6780.00    0.48836   0.45967   20.477
 6781.00    0.48366   0.45894   20.676
 6782.00    0.47871   0.45824   20.890
 6783.00    0.47586   0.45758   21.015
 6784.00    0.47476   0.45707   21.063
 6785.00    0.47316   0.45674   21.134
 6786.00    0.46995   0.45658   21.279
 6787.00    0.46720   0.45653   21.404
 6788.00    0.47256   0.45657   21.161
 6789.00    0.49270   0.45665   20.296
 6790.00    0.51912   0.45675   19.264
 6791.00    0.53413   0.45687   18.722
 6792.00    0.52853   0.45693   18.921
 6793.00    0.50579   0.45701   19.771
 6794.00    0.48263   0.45708   20.720
 6795.00    0.47634   0.45713   20.993
 6796.00    0.48119   0.45726   20.782
 6797.00    0.47833   0.45732   20.906
 6798.00    0.46227   0.45738   21.633
 6799.00    0.43901   0.45744   22.778
 6800.00    0.41377   0.45742   23.743
 6801.00    0.39267   0.45739   23.743
 6802.00    0.38946   0.45733   23.743
 6803.00    0.41437   0.45718   23.743
 6804.00    0.45361   0.45704   22.046
 6805.00    0.48176   0.45688   20.757
 6806.00    0.48868   0.45673   20.463
 6807.00    0.48027   0.45668   20.821
 6808.00    0.47170   0.45654   21.200
 6809.00    0.47557   0.45646   21.027
 6810.00    0.48551   0.45646   20.597
 6811.00    0.48661   0.45644   20.550
 6812.00    0.47605   0.45651   21.006
 6813.00    0.46134   0.45654   21.676
 6814.00    0.45236   0.45657   22.106
 6815.00    0.45417   0.45667   22.018
 6816.00    0.45854   0.45678   21.808
 6817.00    0.45528   0.45692   21.965
 6818.00    0.44993   0.45709   22.226
 6819.00    0.45358   0.45717   22.047
 6820.00    0.46493   0.45726   21.508
 6821.00    0.47670   0.45730   20.978
 6822.00    0.48811   0.45726   20.487
 6823.00    0.50254   0.45725   19.899
 6824.00    0.52184   0.45713   19.163
 6825.00    0.54436   0.45698   18.370
 6826.00    0.56355   0.45678   17.745
 6827.00    0.57086   0.45655   17.517
 6828.00    0.55954   0.45641   17.872
 6829.00    0.52279   0.45626   19.128
 6830.00    0.45217   0.45614   22.116
 6831.00    0.35976   0.45599   23.743
 6832.00    0.30241   0.45574   -1.000
 6833.00    0.32785   0.45535   -1.000
 6834.00    0.40817   0.45483   23.743
 6835.00    0.48267   0.45418   20.718
 6836.00    0.51905   0.45346   19.266
 6837.00    0.51783   0.45268   19.311
 6838.00    0.50734   0.45191   19.711
 6839.00    0.51601   0.45131   19.379
 6840.00    0.54252   0.45084   18.433
 6841.00    0.57016   0.45066   17.539
 6842.00    0.58694   0.45069   17.037
 6843.00    0.58806   0.45095   17.005
 6844.00    0.57604   0.45138   17.360
 6845.00    0.55754   0.45186   17.936
 6846.00    0.53956   0.45228   18.534
 6847.00    0.52466   0.45259   19.060
 6848.00    0.50748   0.45267   19.705
 6849.00    0.48706   0.45254   20.531
 6850.00    0.47786   0.45230   20.927
 6851.00    0.48821   0.45187   20.483
 6852.00    0.49991   0.45133   20.003
 6853.00    0.49235   0.45073   20.311
 6854.00    0.46706   0.45011   21.411
 6855.00    0.43765   0.44958   22.849
 6856.00    0.41751   0.44915   23.743
 6857.00    0.41391   0.44896   23.743
 6858.00    0.42387   0.44899   23.592
 6859.00    0.43838   0.44905   22.811
 6860.00    0.44769   0.44917   22.337
 6861.00    0.45233   0.44932   22.108
 6862.00    0.46977   0.44944   21.287
 6863.00    0.50750   0.44964   19.704
 6864.00    0.54234   0.44978   18.439
 6865.00    0.54997   0.44978   18.183
 6866.00    0.53048   0.44968   18.851
 6867.00    0.49727   0.44946   20.110
 6868.00    0.46534   0.44936   21.490
 6869.00    0.44484   0.44928   22.480
 6870.00    0.43705   0.44927   22.881
 6871.00    0.44024   0.44933   22.715
 6872.00    0.45416   0.44943   22.019
 6873.00    0.47650   0.44955   20.986
 6874.00    0.49998   0.44967   20.001
 6875.00    0.51252   0.44983   19.512
 6876.00    0.49985   0.44989   20.006
 6877.00    0.46310   0.44991   21.594
 6878.00    0.42781   0.44983   23.375
 6879.00    0.41364   0.44976   23.743
 6880.00    0.41475   0.44957   23.743
 6881.00    0.42176   0.44938   23.710
 6882.00    0.43708   0.44934   22.879
 6883.00    0.46549   0.44931   21.483
 6884.00    0.50587   0.44950   19.768
 6885.00    0.54412   0.44971   18.378
 6886.00    0.55320   0.45003   18.077
 6887.00    0.52349   0.45037   19.102
 6888.00    0.47810   0.45069   20.916
 6889.00    0.43923   0.45105   22.767
 6890.00    0.40882   0.45131   23.743
 6891.00    0.38925   0.45151   23.743
 6892.00    0.39332   0.45164   23.743
 6893.00    0.42021   0.45172   23.743
 6894.00    0.44563   0.45171   22.440
 6895.00    0.45485   0.45175   21.985
 6896.00    0.45868   0.45181   21.802
 6897.00    0.46612   0.45189   21.454
 6898.00    0.47091   0.45202   21.235
 6899.00    0.47073   0.45214   21.244
 6900.00    0.47554   0.45235   21.029
 6901.00    0.48926   0.45255   20.439
 6902.00    0.50169   0.45275   19.933
 6903.00    0.50288   0.45294   19.885
 6904.00    0.49079   0.45305   20.375
 6905.00    0.46813   0.45305   21.361
 6906.00    0.44133   0.45294   22.659
 6907.00    0.42500   0.45272   23.529
 6908.00    0.43972   0.45231   22.742
 6909.00    0.48850   0.45185   20.471
 6910.00    0.54819   0.45125   18.242
 6911.00    0.58720   0.45061   17.030
 6912.00    0.57920   0.45004   17.265
 6913.00    0.52412   0.44944   19.080
 6914.00    0.45225   0.44906   22.112
 6915.00    0.39596   0.44875   23.743
 6916.00    0.37511   0.44857   23.743
 6917.00    0.39452   0.44859   23.743
 6918.00    0.44329   0.44850   22.558
 6919.00    0.49607   0.44856   20.158
 6920.00    0.52123   0.44856   19.185
 6921.00    0.51318   0.44854   19.486
 6922.00    0.49716   0.44852   20.114
 6923.00    0.48762   0.44833   20.508
 6924.00    0.47679   0.44823   20.974
 6925.00    0.46436   0.44806   21.535
 6926.00    0.46413   0.44801   21.546
 6927.00    0.47783   0.44797   20.928
 6928.00    0.48953   0.44797   20.428
 6929.00    0.48764   0.44801   20.507
 6930.00    0.47305   0.44797   21.140
 6931.00    0.45447   0.44800   22.004
 6932.00    0.44365   0.44794   22.540
 6933.00    0.44455   0.44798   22.495
 6934.00    0.45077   0.44797   22.184
 6935.00    0.45171   0.44793   22.138
 6936.00    0.44000   0.44790   22.727
 6937.00    0.42925   0.44772   23.297
 6938.00    0.44645   0.44753   22.399
 6939.00    0.48317   0.44716   20.697
 6940.00    0.49748   0.44686   20.101
 6941.00    0.48190   0.44651   20.751
 6942.00    0.46763   0.44609   21.384
 6943.00    0.45724   0.44571   21.871
 6944.00    0.42219   0.44530   23.686
 6945.00    0.37196   0.44503   23.743
 6946.00    0.35414   0.44483   23.743
 6947.00    0.37974   0.44476   23.743
 6948.00    0.41520   0.44477   23.743
 6949.00    0.43625   0.44476   22.922
 6950.00    0.44144   0.44479   22.653
 6951.00    0.43879   0.44488   22.790
 6952.00    0.43793   0.44500   22.835
 6953.00    0.43963   0.44522   22.747
 6954.00    0.43785   0.44550   22.839
 6955.00    0.43473   0.44583   23.003
 6956.00    0.43835   0.44622   22.813
 6957.00    0.44380   0.44658   22.532
 6958.00    0.43860   0.44699   22.800
 6959.00    0.43276   0.44730   23.108
 6960.00    0.44966   0.44761   22.239
 6961.00    0.47874   0.44786   20.888
 6962.00    0.48470   0.44808   20.632
 6963.00    0.46675   0.44824   21.425
 6964.00    0.45483   0.44829   21.986
 6965.00    0.45761   0.44830   21.853
 6966.00    0.45931   0.44824   21.772
 6967.00    0.44709   0.44812   22.367
 6968.00    0.42005   0.44786   23.743
 6969.00    0.39296   0.44745   23.743
 6970.00    0.38371   0.44681   23.743
 6971.00    0.38183   0.44602   23.743
 6972.00    0.36393   0.44508   23.743
 6973.00    0.34738   0.44408   23.743
 6974.00    0.37027   0.44316   23.743
 6975.00    0.41666   0.44228   23.743
 6976.00    0.43574   0.44158   22.949
 6977.00    0.42403   0.44111   23.583
 6978.00    0.41488   0.44100   23.743
 6979.00    0.41410   0.44130   23.743
 6980.00    0.40452   0.44188   23.743
 6981.00    0.38698   0.44272   23.743
 6982.00    0.37902   0.44362   23.743
 6983.00    0.39291   0.44444   23.743
 6984.00    0.42736   0.44518   23.399
 6985.00    0.46125   0.44580   21.680
 6986.00    0.46885   0.44626   21.329
 6987.00    0.45223   0.44658   22.113
 6988.00    0.43182   0.44673   23.158
 6989.00    0.41544   0.44683   23.743
 6990.00    0.40167   0.44683   23.743
 6991.00    0.39786   0.44678   23.743
 6992.00    0.41157   0.44667   23.743
 6993.00    0.42865   0.44641   23.329
 6994.00    0.42785   0.44609   23.373
 6995.00    0.41434   0.44569   23.743
 6996.00    0.40805   0.44524   23.743
 6997.00    0.41213   0.44473   23.743
 6998.00    0.41852   0.44413   23.743
 6999.00    0.42723   0.44356   23.407
 7000.00    0.44059   0.44305   22.697
 7001.00    0.44833   0.44265   -2.000
 7002.00    0.43956   0.44238   -2.000
 7003.00    0.42614   0.44215   -2.000
 7004.00    0.42809   0.44202   -2.000
 7005.00    0.44398   0.44190   -2.000
 7006.00    0.45776   0.44187   -2.000
 7007.00    0.45782   0.44187   -2.000
 7008.00    0.44574   0.44181   -2.000
 7009.00    0.44375   0.44166   -2.000
 7010.00    0.46948   0.44134   -2.000
 7011.00    0.49761   0.44098   -2.000
 7012.00    0.49102   0.44063   -2.000
 7013.00    0.45451   0.44025   -2.000
 7014.00    0.41935   0.43993   -2.000
 7015.00    0.40895   0.43961   -2.000
 7016.00    0.42598   0.43943   -2.000
 7017.00    0.44327   0.43943   -2.000
 7018.00    0.43567   0.43954   -2.000
 7019.00    0.42360   0.43986   -2.000
 7020.00    0.43742   0.44013   -2.000
 7021.00    0.46297   0.44034   -2.000
 7022.00    0.47095   0.44051   -2.000
 7023.00    0.46410   0.44068   -2.000
 7024.00    0.46168   0.44091   -2.000
 7025.00    0.47121   0.44117   -2.000
 7026.00    0.48679   0.44146   -2.000
 7027.00    0.49248   0.44176   -2.000
 7028.00    0.47997   0.44201   -2.000
 7029.00    0.46777   0.44217   -2.000
 7030.00    0.47149   0.44231   -2.000
 7031.00    0.46828   0.44237   -2.000
 7032.00    0.43795   0.44239   -2.000
 7033.00    0.41260   0.44243   -2.000
 7034.00    0.42708   0.44254   -2.000
 7035.00    0.45833   0.44275   -2.000
 7036.00    0.46678   0.44310   -2.000
 7037.00    0.44933   0.44352   -2.000
 7038.00    0.42470   0.44418   -2.000
 7039.00    0.41053   0.44491   -2.000
 7040.00    0.41769   0.44579   -2.000
 7041.00    0.44657   0.44673   -2.000
 7042.00    0.48482   0.44752   -2.000
 7043.00    0.50735   0.44813   -2.000
 7044.00    0.49821   0.44845   -2.000
 7045.00    0.47143   0.44856   -2.000
 7046.00    0.44991   0.44837   -2.000
 7047.00    0.44263   0.44790   -2.000
 7048.00    0.44969   0.44720   -2.000
 7049.00    0.46900   0.44620   -2.000
 7050.00    0.49175   0.44500   -2.000
 7051.00    0.49958   0.44363   -2.000
 7052.00    0.48506   0.44219   -2.000
 7053.00    0.46802   0.44082   -2.000
 7054.00    0.46249   0.43951   -2.000
 7055.00    0.44912   0.43843   -2.000
 7056.00    0.41633   0.43749   -2.000
 7057.00    0.39430   0.43673   -2.000
 7058.00    0.40424   0.43606   -2.000
 7059.00    0.41700   0.43549   -2.000
 7060.00    0.40578   0.43501   -2.000
 7061.00    0.38993   0.43464   -2.000
 7062.00    0.39450   0.43437   -2.000
 7063.00    0.41504   0.43422   -2.000
 7064.00    0.43451   0.43412   -2.000
 7065.00    0.44080   0.43407   -2.000
 7066.00    0.43991   0.43416   -2.000
 7067.00    0.45982   0.43426   -2.000
 7068.00    0.50313   0.43456   -2.000
 7069.00    0.51931   0.43496   -2.000
 7070.00    0.48338   0.43546   -2.000
 7071.00    0.44645   0.43598   -2.000
 7072.00    0.44552   0.43643   -2.000
 7073.00    0.44379   0.43677   -2.000
 7074.00    0.41483   0.43691   -2.000
 7075.00    0.39717   0.43689   -2.000
 7076.00    0.41839   0.43655   -2.000
 7077.00    0.44632   0.43599   -2.000
 7078.00    0.44994   0.43515   -2.000
 7079.00    0.43990   0.43404   -2.000
 7080.00    0.43609   0.43269   -2.000
 7081.00    0.44397   0.43110   -2.000
 7082.00    0.45742   0.42938   -2.000
 7083.00    0.46356   0.42753   -2.000
 7084.00    0.45592   0.42572   -2.000
 7085.00    0.44109   0.42401   -2.000
 7086.00    0.42676   0.42246   -2.000
 7087.00    0.41496   0.42112   -2.000
 7088.00    0.40975   0.42001   -2.000
 7089.00    0.41957   0.41911   -2.000
 7090.00    0.44125   0.41845   -2.000
 7091.00    0.45447   0.41821   -2.000
 7092.00    0.44869   0.41800   -2.000
 7093.00    0.43572   0.41829   -2.000
 7094.00    0.42716   0.41858   -2.000
 7095.00    0.42339   0.41914   -2.000
 7096.00    0.42779   0.41989   -2.000
 7097.00    0.45003   0.42058   -2.000
 7098.00    0.47723   0.42162   -2.000
 7099.00    0.46944   0.42228   -2.000
 7100.00    0.42236   0.42323   -2.000
 7101.00    0.38750   0.42378   -2.000
 7102.00    0.39629   0.42431   -2.000
 7103.00    0.42726   0.42465   -2.000
 7104.00    0.45048   0.42485   -2.000
 7105.00    0.45196   0.42498   -2.000
 7106.00    0.43502   0.42497   -2.000
 7107.00    0.41725   0.42492   -2.000
 7108.00    0.41451   0.42484   -2.000
 7109.00    0.43040   0.42477   -2.000
 7110.00    0.44469   0.42475   -2.000
 7111.00    0.42168   0.42481   -2.000
 7112.00    0.37393   0.42494   -2.000
 7113.00    0.36774   0.42516   -2.000
 7114.00    0.41146   0.42537   -2.000
 7115.00    0.43245   0.42562   -2.000
 7116.00    0.40685   0.42577   -2.000
 7117.00    0.39323   0.42585   -2.000
 7118.00    0.41991   0.42580   -2.000
 7119.00    0.45048   0.42561   -2.000
 7120.00    0.45385   0.42536   -2.000
 7121.00    0.43211   0.42494   -2.000
 7122.00    0.40617   0.42449   -2.000
 7123.00    0.40086   0.42392   -2.000
 7124.00    0.41216   0.42337   -2.000
 7125.00    0.40849   0.42283   -2.000
 7126.00    0.38809   0.42229   -2.000
 7127.00    0.38450   0.42187   -2.000
 7128.00    0.39889   0.42154   -2.000
 7129.00    0.39487   0.42145   -2.000
 7130.00    0.37889   0.42141   -2.000
 7131.00    0.40273   0.42165   -2.000
 7132.00    0.45913   0.42199   -2.000
 7133.00    0.47892   0.42253   -2.000
 7134.00    0.46012   0.42312   -2.000
 7135.00    0.47504   0.42366   -2.000
 7136.00    0.52939   0.42423   -2.000
 7137.00    0.54942   0.42461   -2.000
 7138.00    0.51159   0.42496   -2.000
 7139.00    0.46226   0.42512   -2.000
 7140.00    0.43066   0.42517   -2.000
 7141.00    0.41042   0.42516   -2.000
 7142.00    0.39850   0.42508   -2.000
 7143.00    0.40232   0.42496   -2.000
 7144.00    0.42014   0.42481   -2.000
 7145.00    0.43873   0.42477   -2.000
 7146.00    0.44595   0.42481   -2.000
 7147.00    0.43677   0.42492   -2.000
 7148.00    0.41846   0.42532   -2.000
 7149.00    0.40795   0.42585   -2.000
 7150.00    0.41933   0.42656   -2.000
 7151.00    0.45378   0.42741   -2.000
 7152.00    0.48273   0.42821   -2.000
 7153.00    0.46834   0.42889   -2.000
 7154.00    0.43324   0.42949   -2.000
 7155.00    0.43897   0.42966   -2.000
 7156.00    0.47365   0.42967   -2.000
 7157.00    0.46839   0.42922   -2.000
 7158.00    0.42518   0.42858   -2.000
 7159.00    0.40807   0.42762   -2.000
 7160.00    0.42799   0.42629   -2.000
 7161.00    0.44180   0.42516   -2.000
 7162.00    0.42970   0.42359   -2.000
 7163.00    0.40572   0.42257   -2.000
 7164.00    0.39169   0.42133   -2.000
 7165.00    0.40079   0.42072   -2.000
 7166.00    0.41510   0.42026   -2.000
 7167.00    0.40309   0.42019   -2.000
 7168.00    0.37325   0.42029   -2.000
 7169.00    0.36363   0.42045   -2.000
 7170.00    0.38723   0.42066   -2.000
 7171.00    0.42652   0.42076   -2.000
 7172.00    0.45156   0.42076   -2.000
 7173.00    0.43972   0.42061   -2.000
 7174.00    0.40846   0.42033   -2.000
 7175.00    0.39634   0.41989   -2.000
 7176.00    0.40668   0.41941   -2.000
 7177.00    0.41380   0.41885   -2.000
 7178.00    0.40290   0.41831   -2.000
 7179.00    0.38026   0.41775   -2.000
 7180.00    0.37493   0.41726   -2.000
 7181.00    0.41182   0.41677   -2.000
 7182.00    0.45851   0.41643   -2.000
 7183.00    0.45852   0.41614   -2.000
 7184.00    0.41703   0.41587   -2.000
 7185.00    0.38309   0.41569   -2.000
 7186.00    0.38181   0.41537   -2.000
 7187.00    0.40448   0.41527   -2.000
 7188.00    0.41650   0.41517   -2.000
 7189.00    0.38889   0.41520   -2.000
 7190.00    0.35127   0.41547   -2.000
 7191.00    0.35531   0.41570   -2.000
 7192.00    0.39291   0.41609   -2.000
 7193.00    0.41944   0.41638   -2.000
 7194.00    0.42022   0.41674   -2.000
 7195.00    0.40775   0.41703   -2.000
 7196.00    0.39628   0.41729   -2.000
 7197.00    0.39636   0.41749   -2.000
 7198.00    0.41313   0.41756   -2.000
 7199.00    0.44526   0.41756   -2.000
 7200.00    0.48310   0.41749   -2.000
 7201.00    0.49951   0.41730   -2.000
 7202.00    0.43881   0.41709   -2.000
 7203.00    0.28226   0.41685   -2.000
 7204.00    0.14649   0.41660   -2.000
 7205.00    0.16217   0.41646   -2.000
 7206.00    0.27124   0.41623   -2.000
 7207.00    0.32829   0.41625   -2.000
 7208.00    0.29696   0.41634   -2.000
 7209.00    0.24061   0.41662   -2.000
 7210.00    0.26046   0.41713   -2.000
 7211.00    0.40107   0.41757   -2.000
 7212.00    0.53732   0.41811   -2.000
 7213.00    0.52251   0.41854   -2.000
 7214.00    0.40974   0.41897   -2.000
 7215.00    0.33756   0.41935   -2.000
 7216.00    0.33510   0.41968   -2.000
 7217.00    0.36013   0.42006   -2.000
 7218.00    0.38489   0.42031   -2.000
