###################################################################
## OUTPUT of StarlightChains_v04.for    [Cid@UFSC - 01/Apr/2007] ##
###################################################################

## Some input info
1986N.txt                                [arq_obs]
Base.CB07.vall.4m                        [arq_base]
Masks.EmLines.NEW.gm                     [arq_masks]
StCv04.C11.config                        [arq_config]
   66                                    [N_base]
    0                                    [N_YAV_components = # of components with extra extinction!]
    0                                    [i_FitPowerLaw (1/0 = Yes/No)]
-9.99                                    [alpha_PowerLaw]
CCM                                      [red_law_option]
 1.458241                                [q_norm = A(l_norm)/A(V)]

## (Re)Sampling Parameters
 3741.00                                 [l_ini (A)]
 7218.00                                 [l_fin (A)]
    1.00                                 [dl    (A)]     (OBS: dl_cushion =    50.00 A)

## Normalization info
 4020.00                                 [l_norm (A) - for base]
 4010.00                                 [llow_norm (A) - window for f_obs]
 4060.00                                 [lupp_norm (A) - window for f_obs]
2.547156E-16                             [fobs_norm (in input units)]

## S/N
 3691.00                                 [llow_SN (A) - window for S/N]
 7268.00                                 [lupp_SN (A) - window for S/N]
   4.579                                 [S/N in S/N window]
   6.316                                 [S/N in norm. window]
  22.358                                 [S/N_err in S/N window]
  30.840                                 [S/N_err in norm. window]
  1.0000                                 [fscale_chi2]

## etc...
    -2007211                             [idum_orig]
  2384                                   [NOl_eff]
  2384                                   [Nl_eff]
     0    NSIGMA                         [Ntot_cliped & clip_method]
   917910                                [Nglobal_steps]
   7                                     [N_chains]
  14                                     [NEX0s_base = N_base in EX0s-fits]
 0   0   1        2   2.0   4.926E+01    [Clip-Bug, RC-Crash & Burn-In warning-flags, n_censored_weights, wei_nsig_threshold & wei_limit]
    11     10.127      9.593      0.534  [idt_all, wdt_TotTime, wdt_UsrTime & wdt_SysTime (sec)]

## Synthesis Results - Best model ##

 4.00526E-01                             [chi2/Nl_eff]
     2.28433                             [adev (%)]

   108.46235                             [sum-of-x (%)]
 3.55721E-16                             [Flux_tot (units of input spectrum!)]
 5.50948E-13                             [Mini_tot (???)]
 3.50319E-13                             [Mcor_tot (???)]

  15.45                                  [v0_min  (km/s)]
 188.41                                  [vd_min  (km/s)]
 0.1882                                  [AV_min  (mag)]
 0.0000                                  [YAV_min (mag)]

# j     x_j(%)      Mini_j(%)     Mcor_j(%)     age_j(yr)     Z_j      (L/M)_j    YAV?  Mstars   component_j        a/Fe...       SSP_chi2r SSP_adev(%)   SSP_AV   SSP_x(%)
  1      4.4105     2.3999E-01    3.7743E-01    1.000000E+06  0.00400  1.094E-02    0   1.0000   age020_m42            0.0000     1.6668E+00     4.2338   2.0199    95.5727
  2      2.4910     3.7007E-02    5.8195E-02    3.160000E+06  0.00400  4.007E-02    0   0.9999   age045_m42            0.0000     8.7684E-01     3.0651   1.3251   100.7081
  3      0.6079     1.4253E-02    2.1267E-02    5.010000E+06  0.00400  2.539E-02    0   0.9488   age055_m42            0.0000     1.1540E+00     3.4267   1.6320    98.8471
  4      0.0320     7.2657E-04    1.0535E-03    6.610000E+06  0.00400  2.620E-02    0   0.9220   age061_m42            0.0000     8.6202E-01     2.9816   1.2551   100.8284
  5      0.0000     0.0000E+00    0.0000E+00    1.000000E+07  0.00400  1.322E-02    0   0.8862   age070_m42            0.0000     1.0122E+00     3.3077   0.9787   102.9808
  6      0.0000     0.0000E+00    0.0000E+00    1.445000E+07  0.00400  7.883E-03    0   0.8571   age078_m42            0.0000     1.1454E+00     3.4514   1.2977   100.7210
  7      0.0000     0.0000E+00    0.0000E+00    2.512000E+07  0.00400  5.251E-03    0   0.8174   age090_m42            0.0000     1.0764E+00     3.4583   0.8522   103.4253
  8      0.0000     0.0000E+00    0.0000E+00    4.000000E+07  0.00400  3.649E-03    0   0.7851   age104_m42            0.0000     9.3102E-01     3.2569   0.6272   104.1420
  9      0.0000     0.0000E+00    0.0000E+00    5.500000E+07  0.00400  3.098E-03    0   0.7629   age110_m42            0.0000     8.3397E-01     3.0589   0.7847   103.8595
 10      0.0000     0.0000E+00    0.0000E+00    1.015200E+08  0.00400  2.228E-03    0   0.7207   age116_m42            0.0000     8.5811E-01     3.1280   0.8088   103.8171
 11      0.0000     0.0000E+00    0.0000E+00    2.861200E+08  0.00400  1.093E-03    0   0.6648   age125_m42            0.0000     9.9990E-01     3.6971   0.2528   106.5161
 12      0.0000     0.0000E+00    0.0000E+00    5.088000E+08  0.00400  6.597E-04    0   0.6365   age130_m42            0.0000     1.0008E+00     3.6089   0.2447   107.1694
 13      0.0000     0.0000E+00    0.0000E+00    1.434000E+09  0.00400  2.132E-04    0   0.5798   age139_m42            0.0000     9.5630E-01     3.4534  -0.7295   109.2587
 14      0.0000     0.0000E+00    0.0000E+00    4.250000E+09  0.00400  5.895E-05    0   0.5377   age158_m42            0.0000     2.1727E+00     4.6969  -1.0000    99.2645
 15      0.0000     0.0000E+00    0.0000E+00    7.500000E+09  0.00400  3.510E-05    0   0.5212   age171_m42            0.0000     5.2120E+00     7.6595  -1.0000    92.1325
 16      0.0000     0.0000E+00    0.0000E+00    1.300000E+10  0.00400  2.005E-05    0   0.5034   age193_m42            0.0000     9.2241E+00    10.3411  -1.0000    86.0615
 17      0.0000     0.0000E+00    0.0000E+00    1.800000E+10  0.00400  1.525E-05    0   0.4967   age213_m42            0.0000     9.7635E+00    10.6748  -1.0000    84.9017
 18      3.8055     1.8298E-01    2.8777E-01    1.000000E+06  0.00800  1.238E-02    0   1.0000   age020_m52            0.0000     1.6701E+00     4.2414   2.0162    95.7623
 19      0.0000     0.0000E+00    0.0000E+00    3.160000E+06  0.00800  3.074E-02    0   0.9966   age045_m52            0.0000     1.6080E+00     4.1458   1.9408    96.5390
 20      0.0543     1.2104E-03    1.7976E-03    5.010000E+06  0.00800  2.668E-02    0   0.9443   age055_m52            0.0000     1.2453E+00     3.5749   1.7096    98.1850
 21     35.7861     9.9732E-01    1.4394E+00    6.610000E+06  0.00800  2.136E-02    0   0.9177   age061_m52            0.0000     7.4413E-01     3.0394   0.4658   104.7013
 22      0.0000     0.0000E+00    0.0000E+00    1.000000E+07  0.00800  1.215E-02    0   0.8827   age070_m52            0.0000     1.1949E+00     3.6843   1.1560   102.9428
 23      0.0000     0.0000E+00    0.0000E+00    1.445000E+07  0.00800  8.717E-03    0   0.8552   age078_m52            0.0000     1.0663E+00     3.3466   1.2652   102.0214
 24      0.0000     0.0000E+00    0.0000E+00    2.512000E+07  0.00800  5.592E-03    0   0.8162   age090_m52            0.0000     1.0552E+00     3.4715   0.9189   104.5455
 25      0.0000     0.0000E+00    0.0000E+00    4.000000E+07  0.00800  3.896E-03    0   0.7841   age104_m52            0.0000     9.1256E-01     3.2748   0.8373   105.0453
 26      0.0000     0.0000E+00    0.0000E+00    1.015200E+08  0.00800  2.148E-03    0   0.7226   age116_m52            0.0000     7.6354E-01     3.0757   0.7777   104.6651
 27      0.0000     0.0000E+00    0.0000E+00    2.861200E+08  0.00800  9.925E-04    0   0.6683   age125_m52            0.0000     9.5702E-01     3.5277   0.3100   108.1543
 28      0.0000     0.0000E+00    0.0000E+00    9.047900E+08  0.00800  3.141E-04    0   0.6138   age135_m52            0.0000     1.3003E+00     3.8765  -0.4817   112.1275
 29      0.0000     0.0000E+00    0.0000E+00    1.434000E+09  0.00800  1.719E-04    0   0.5853   age139_m52            0.0000     1.4443E+00     3.9793  -1.0000   107.7607
 30      0.0000     0.0000E+00    0.0000E+00    2.500000E+09  0.00800  7.872E-05    0   0.5600   age150_m52            0.0000     4.8914E+00     7.4742  -1.0000    95.3706
 31      0.0000     0.0000E+00    0.0000E+00    4.250000E+09  0.00800  4.336E-05    0   0.5426   age158_m52            0.0000     5.3463E+00     7.6974  -1.0000    93.9457
 32      0.0000     0.0000E+00    0.0000E+00    6.250000E+09  0.00800  3.159E-05    0   0.5319   age166_m52            0.0000     1.0384E+01    10.9288  -1.0000    86.9206
 33      0.0000     0.0000E+00    0.0000E+00    1.300000E+10  0.00800  1.361E-05    0   0.5073   age193_m52            0.0000     2.6897E+01    17.7732  -1.0000    71.0070
 34      0.0000     0.0000E+00    0.0000E+00    1.800000E+10  0.00800  9.886E-06    0   0.4990   age213_m52            0.0000     3.1860E+01    19.1758  -1.0000    67.3671
 35      0.0000     0.0000E+00    0.0000E+00    1.000000E+06  0.02000  1.544E-02    0   1.0000   age020_m62            0.0000     1.7064E+00     4.2926   2.0103    96.0618
 36      4.6483     7.3552E-02    1.1403E-01    3.160000E+06  0.02000  3.762E-02    0   0.9858   age045_m62            0.0000     1.7103E+00     4.2949   1.9490    96.9234
 37      0.0000     0.0000E+00    0.0000E+00    5.010000E+06  0.02000  3.296E-02    0   0.9342   age055_m62            0.0000     1.0361E+00     3.2444   1.5950    99.9127
 38      0.0000     0.0000E+00    0.0000E+00    8.710000E+06  0.02000  1.154E-02    0   0.8861   age067_m62            0.0000     3.3750E+00     7.0708   0.6069   106.3609
 39      0.0000     0.0000E+00    0.0000E+00    1.445000E+07  0.02000  7.663E-03    0   0.8472   age078_m62            0.0000     1.5361E+00     4.5223   0.8062   105.3210
 40      0.0000     0.0000E+00    0.0000E+00    2.512000E+07  0.02000  4.532E-03    0   0.8099   age090_m62            0.0000     1.7304E+00     4.7839   0.8039   104.8217
 41      0.0000     0.0000E+00    0.0000E+00    5.500000E+07  0.02000  2.733E-03    0   0.7595   age110_m62            0.0000     9.4373E-01     3.2713   0.8158   104.4865
 42      0.0000     0.0000E+00    0.0000E+00    1.609000E+08  0.02000  1.369E-03    0   0.6985   age120_m62            0.0000     9.2795E-01     3.3672   0.6662   106.6826
 43      0.0000     0.0000E+00    0.0000E+00    2.861200E+08  0.02000  9.013E-04    0   0.6714   age125_m62            0.0000     1.1463E+00     3.6828   0.4225   109.3175
 44      0.0000     0.0000E+00    0.0000E+00    5.088000E+08  0.02000  5.028E-04    0   0.6449   age130_m62            0.0000     1.3762E+00     3.8743   0.0500   111.8041
 45      0.0000     0.0000E+00    0.0000E+00    9.047900E+08  0.02000  2.428E-04    0   0.6179   age135_m62            0.0000     1.3846E+00     3.8044  -0.5440   111.4793
 46      0.0000     0.0000E+00    0.0000E+00    1.434000E+09  0.02000  1.263E-04    0   0.5908   age139_m62            0.0000     1.7818E+00     4.0332  -0.9969   110.2258
 47      0.0000     0.0000E+00    0.0000E+00    2.500000E+09  0.02000  5.985E-05    0   0.5673   age150_m62            0.0000     5.9280E+00     7.9304  -1.0000    95.7731
 48      0.0000     0.0000E+00    0.0000E+00    4.250000E+09  0.02000  3.271E-05    0   0.5468   age158_m62            0.0000     1.4202E+01    12.6236  -1.0000    84.3091
 49      0.0000     0.0000E+00    0.0000E+00    1.000000E+10  0.02000  1.360E-05    0   0.5167   age181_m62            0.0000     2.7404E+01    17.5672  -1.0000    72.5092
 50      0.0000     0.0000E+00    0.0000E+00    1.800000E+10  0.02000  7.124E-06    0   0.5013   age213_m62            0.0000     3.6850E+01    20.2430  -1.0000    65.5514
 51      2.1586     4.9574E-02    7.7949E-02    1.000000E+06  0.05000  2.592E-02    0   0.9998   age020_m72            0.0000     1.8315E+00     4.4286   1.9993    96.2006
 52      0.0000     0.0000E+00    0.0000E+00    3.160000E+06  0.05000  4.845E-02    0   0.9577   age045_m72            0.0000     1.4578E+00     3.8971   1.8403    97.8209
 53      0.0000     0.0000E+00    0.0000E+00    5.010000E+06  0.05000  3.072E-02    0   0.9147   age055_m72            0.0000     1.4360E+00     4.1815   1.3858   101.6092
 54      0.0000     0.0000E+00    0.0000E+00    6.610000E+06  0.05000  1.455E-02    0   0.8877   age061_m72            0.0000     5.6057E+00     9.5355   0.6760   107.0852
 55      0.0000     0.0000E+00    0.0000E+00    1.000000E+07  0.05000  9.074E-03    0   0.8524   age070_m72            0.0000     1.8249E+00     4.8792   1.5854   100.9682
 56      0.0000     0.0000E+00    0.0000E+00    2.512000E+07  0.05000  4.250E-03    0   0.7902   age090_m72            0.0000     1.4476E+00     4.2287   1.2890   102.4153
 57      0.0000     0.0000E+00    0.0000E+00    4.000000E+07  0.05000  3.087E-03    0   0.7618   age104_m72            0.0000     1.5240E+00     4.3788   1.0665   103.8631
 58      0.0000     0.0000E+00    0.0000E+00    1.015200E+08  0.05000  1.700E-03    0   0.7096   age116_m72            0.0000     1.0486E+00     3.6318   0.8107   106.2492
 59      0.0000     0.0000E+00    0.0000E+00    2.861200E+08  0.05000  7.384E-04    0   0.6633   age125_m72            0.0000     1.2183E+00     3.7271   0.2932   110.5833
 60     47.6936     7.4341E+01    7.4499E+01    5.088000E+08  0.05000  3.819E-04    0   0.6372   age130_m72            0.0000     1.2727E+00     3.7811  -0.2054   112.4918
 61      6.7747     2.4062E+01    2.3122E+01    9.047900E+08  0.05000  1.676E-04    0   0.6110   age135_m72            0.0000     2.2972E+00     4.7395  -0.9146   111.0552
 62      0.0000     0.0000E+00    0.0000E+00    1.434000E+09  0.05000  8.837E-05    0   0.5874   age139_m72            0.0000     6.2651E+00     8.1236  -1.0000    97.1072
 63      0.0000     0.0000E+00    0.0000E+00    2.500000E+09  0.05000  4.233E-05    0   0.5598   age150_m72            0.0000     1.4659E+01    12.7301  -1.0000    84.9925
 64      0.0000     0.0000E+00    0.0000E+00    6.250000E+09  0.05000  1.435E-05    0   0.5249   age166_m72            0.0000     3.1560E+01    18.8492  -1.0000    69.1952
 65      0.0000     0.0000E+00    0.0000E+00    1.300000E+10  0.05000  6.513E-06    0   0.5036   age193_m72            0.0000     4.4832E+01    22.2900  -1.0000    61.5394
 66      0.0000     0.0000E+00    0.0000E+00    1.800000E+10  0.05000  4.527E-06    0   0.4945   age213_m72            0.0000     5.2890E+01    24.1437  -1.0000    56.9759


## Synthesis Results - Average & Chains ##

# j      x_j: min, <> & last-chain-values for 1 ...  7 chains
  1      4.4105      3.0008      2.8850      2.8816      2.7970      2.6408      3.3532      3.2570      4.7946
  2      2.4910      3.5336      3.1960      3.9011      3.7104      4.7441      2.4745      4.0535      4.6325
  3      0.6079      0.5488      0.0000      0.0000      0.0171      0.0000      1.7395      0.0000      0.6232
  4      0.0320      2.8624      3.3162      4.9346      0.7558      2.7841      3.2419      3.0603      4.3269
  5      0.0000      0.1533      0.0000      0.0000      0.0000      0.0000      0.0431      0.0000      0.0000
  6      0.0000      0.1880      1.1030      0.0000      0.0000      0.5446      0.0617      0.0000      0.0000
  7      0.0000      0.2675      0.0000      0.0000      0.0000      0.0000      0.4723      0.0000      0.0000
  8      0.0000      0.3051      0.0000      0.0000      0.1149      0.0000      0.0000      0.0000      0.0000
  9      0.0000      0.2890      0.3696      0.0000      0.0000      0.0000      1.4186      0.0000      0.0000
 10      0.0000      0.2195      0.0000      0.0000      0.5428      0.0000      0.0000      0.0919      0.0000
 11      0.0000      0.1302      0.0000      0.0000      0.0000      0.0000      0.0000      0.0000      0.0000
 12      0.0000      0.2121      0.0000      0.0000      0.0000      0.0000      0.0000      0.0000      0.2483
 13      0.0000      0.0313      0.0000      0.0000      0.0000      0.0000      0.0000      0.0000      0.0000
 14      0.0000      0.0265      0.0000      0.2736      0.0000      0.0000      0.0000      0.0000      0.0000
 15      0.0000      0.0206      0.0000      0.0000      0.1290      0.0000      0.0000      0.0000      0.0000
 16      0.0000      0.0154      0.0000      0.0000      0.0000      0.0000      0.0000      0.0000      0.0000
 17      0.0000      0.0094      0.0000      0.0000      0.0000      0.0000      0.0000      0.0000      0.0000
 18      3.8055      3.2345      4.6432      3.5230      3.2442      3.2498      3.3649      3.5131      3.3266
 19      0.0000      1.1366      1.1755      0.9831      1.1541      0.0000      0.6567      1.4281      0.0000
 20      0.0543      0.8553      0.0000      0.7090      0.8340      0.3486      1.2596      2.1921      0.3079
 21     35.7861     36.0506     36.3045     38.3973     39.5274     36.6395     35.3732     37.7381     35.9038
 22      0.0000      0.1824      0.0000      0.1447      0.0000      0.0000      0.0000      0.0000      0.0000
 23      0.0000      0.2451      1.2904      1.0947      0.5435      0.9097      0.3613      0.0000      0.0000
 24      0.0000      0.2150      0.0000      0.0000      0.0000      0.0000      0.0156      0.0000      0.0000
 25      0.0000      0.1907      0.5253      0.0000      0.0000      0.0000      0.0000      0.0000      0.1984
 26      0.0000      0.2915      0.0000      0.0000      0.0000      0.0000      0.0000      0.0000      0.0000
 27      0.0000      0.1755      0.0000      0.0000      0.0000      0.0000      0.0000      0.0000      0.0000
 28      0.0000      0.1790      0.0000      0.0591      0.3131      0.0000      0.0000      0.0000      0.2729
 29      0.0000      0.0204      0.0000      0.0000      0.0000      0.0268      0.0000      0.0000      0.0000
 30      0.0000      0.0135      0.0000      0.0000      0.0000      0.0050      0.0000      0.0000      0.0000
 31      0.0000      0.0224      0.0000      0.0000      0.0000      0.0000      0.0000      0.0000      0.1567
 32      0.0000      0.0174      0.0000      0.0000      0.0000      0.0000      0.0000      0.0000      0.0000
 33      0.0000      0.0017      0.0000      0.0000      0.0000      0.0000      0.0000      0.0000      0.0000
 34      0.0000      0.0011      0.0000      0.0000      0.0000      0.0000      0.0000      0.0000      0.0000
 35      0.0000      0.3901      0.0000      0.4930      1.5383      0.0390      0.0000      0.0000      0.0000
 36      4.6483      1.4298      2.6964      1.6253      1.9875      3.5315      1.7802      1.9193      1.2258
 37      0.0000      0.2214      0.0000      0.0000      0.0000      0.0000      0.0000      0.5931      0.8054
 38      0.0000      0.0711      0.0000      0.0000      0.0000      0.0000      0.0000      0.0000      0.0000
 39      0.0000      0.1882      0.0000      0.0441      0.0000      0.0000      0.0000      0.0000      0.0000
 40      0.0000      0.1405      0.0000      0.0000      0.0000      0.0000      0.1306      0.0000      0.0000
 41      0.0000      0.2306      0.0000      0.0000      0.1539      0.0000      0.0000      0.0000      0.0000
 42      0.0000      0.1288      0.3018      0.0436      0.0000      0.0000      0.0000      0.0028      0.0000
 43      0.0000      0.1106      0.0000      0.0000      0.0000      0.0000      0.0000      0.0000      0.0000
 44      0.0000      0.4365      0.0000      0.1163      0.1187      0.1267      0.0000      0.0000      0.0000
 45      0.0000      3.3020      3.7272      2.0660      2.0096      4.3896      3.6368      3.1853      3.7003
 46      0.0000      0.0346      0.0925      0.0000      0.0000      0.0000      0.0000      0.0000      0.0000
 47      0.0000      0.0302      0.0000      0.0000      0.0000      0.0000      0.0000      0.0000      0.0000
 48      0.0000      0.0091      0.0000      0.0000      0.0000      0.0000      0.0000      0.0000      0.0000
 49      0.0000      0.0032      0.0000      0.0149      0.0000      0.0000      0.0000      0.0000      0.0000
 50      0.0000      0.0144      0.0000      0.0000      0.0000      0.0000      0.0000      0.0000      0.0000
 51      2.1586      0.6394      0.0000      0.0000      1.2272      0.8264      1.1461      0.0000      1.8300
 52      0.0000      0.2732      0.0000      0.2267      0.0000      0.1369      0.0000      0.0000      0.2029
 53      0.0000      0.1814      0.0000      0.0000      0.0000      0.0000      0.7005      0.0000      0.0000
 54      0.0000      0.0387      0.0000      0.0000      0.1342      0.0000      0.0000      0.0000      0.0000
 55      0.0000      0.1602      0.0000      0.0000      0.0000      0.0001      0.0173      0.0000      0.0179
 56      0.0000      0.0982      0.0000      0.0890      0.0000      0.0000      0.0000      0.0000      0.0000
 57      0.0000      0.1237      0.0000      0.0352      0.0205      0.6230      0.0000      0.0000      0.0226
 58      0.0000      0.1313      0.0000      0.0000      0.0000      0.0000      0.0000      0.0000      0.0000
 59      0.0000      0.3128      0.0000      0.0000      0.0000      0.0000      0.2127      0.5890      0.4364
 60     47.6936     43.2966     44.2124     44.9247     45.5795     45.2622     43.7678     44.6844     43.6668
 61      6.7747      1.3209      2.2607      1.3301      1.5474      1.1668      2.9181      1.5443      1.2930
 62      0.0000      0.0187      0.0000      0.0000      0.0000      0.0000      0.0000      0.0000      0.0000
 63      0.0000      0.0217      0.0000      0.0000      0.0000      0.0000      0.0000      0.0000      0.0000
 64      0.0000      0.0041      0.0000      0.0000      0.0000      0.0000      0.0000      0.0000      0.0000
 65      0.0000      0.0021      0.0000      0.0000      0.0000      0.0000      0.0000      0.0000      0.0000
 66      0.0000      0.0008      0.0000      0.0000      0.0000      0.0000      0.0000      0.0000      0.0000

# j      m_j: min, <> & last-chain-values for 1 ...  7 chains
  1  3.7743E-01  2.8838E-01  2.7751E-01  2.8894E-01  2.7671E-01  2.5688E-01  3.1887E-01  3.2553E-01  4.7205E-01
  2  5.8195E-02  9.2706E-02  8.3925E-02  1.0678E-01  1.0021E-01  1.2598E-01  6.4238E-02  1.1060E-01  1.2451E-01
  3  2.1267E-02  2.1563E-02  0.0000E+00  0.0000E+00  6.9234E-04  0.0000E+00  6.7626E-02  0.0000E+00  2.5084E-02
  4  1.0535E-03  1.0590E-01  1.2281E-01  1.9049E-01  2.8786E-02  1.0426E-01  1.1869E-01  1.1776E-01  1.6401E-01
  5  0.0000E+00  1.0803E-02  0.0000E+00  0.0000E+00  0.0000E+00  0.0000E+00  3.0056E-03  0.0000E+00  0.0000E+00
  6  0.0000E+00  2.1494E-02  1.2620E-01  0.0000E+00  0.0000E+00  6.3012E-02  6.9739E-03  0.0000E+00  0.0000E+00
  7  0.0000E+00  4.3779E-02  0.0000E+00  0.0000E+00  0.0000E+00  0.0000E+00  7.6481E-02  0.0000E+00  0.0000E+00
  8  0.0000E+00  6.9023E-02  0.0000E+00  0.0000E+00  2.6765E-02  0.0000E+00  0.0000E+00  0.0000E+00  0.0000E+00
  9  0.0000E+00  7.4820E-02  9.5777E-02  0.0000E+00  0.0000E+00  0.0000E+00  3.6342E-01  0.0000E+00  0.0000E+00
 10  0.0000E+00  7.4654E-02  0.0000E+00  0.0000E+00  1.9003E-01  0.0000E+00  0.0000E+00  3.2500E-02  0.0000E+00
 11  0.0000E+00  8.3268E-02  0.0000E+00  0.0000E+00  0.0000E+00  0.0000E+00  0.0000E+00  0.0000E+00  0.0000E+00
 12  0.0000E+00  2.1515E-01  0.0000E+00  0.0000E+00  0.0000E+00  0.0000E+00  0.0000E+00  0.0000E+00  2.5806E-01
 13  0.0000E+00  8.9621E-02  0.0000E+00  0.0000E+00  0.0000E+00  0.0000E+00  0.0000E+00  0.0000E+00  0.0000E+00
 14  0.0000E+00  2.5379E-01  0.0000E+00  2.7374E+00  0.0000E+00  0.0000E+00  0.0000E+00  0.0000E+00  0.0000E+00
 15  0.0000E+00  3.2145E-01  0.0000E+00  0.0000E+00  2.0735E+00  0.0000E+00  0.0000E+00  0.0000E+00  0.0000E+00
 16  0.0000E+00  4.0568E-01  0.0000E+00  0.0000E+00  0.0000E+00  0.0000E+00  0.0000E+00  0.0000E+00  0.0000E+00
 17  0.0000E+00  3.2278E-01  0.0000E+00  0.0000E+00  0.0000E+00  0.0000E+00  0.0000E+00  0.0000E+00  0.0000E+00
 18  2.8777E-01  2.7468E-01  3.9467E-01  3.1216E-01  2.8362E-01  2.7934E-01  2.8277E-01  3.1028E-01  2.8942E-01
 19  0.0000E+00  3.8740E-02  4.0103E-02  3.4961E-02  4.0494E-02  0.0000E+00  2.2149E-02  5.0624E-02  0.0000E+00
 20  1.7976E-03  3.1825E-02  0.0000E+00  2.7527E-02  3.1949E-02  1.3128E-02  4.6381E-02  8.4835E-02  1.1739E-02
 21  1.4394E+00  1.6284E+00  1.6414E+00  1.8096E+00  1.8380E+00  1.6751E+00  1.5811E+00  1.7729E+00  1.6615E+00
 22  0.0000E+00  1.3934E-02  0.0000E+00  1.1534E-02  0.0000E+00  0.0000E+00  0.0000E+00  0.0000E+00  0.0000E+00
 23  0.0000E+00  2.5276E-02  1.3322E-01  1.1781E-01  5.7709E-02  9.4975E-02  3.6878E-02  0.0000E+00  0.0000E+00
 24  0.0000E+00  3.2995E-02  0.0000E+00  0.0000E+00  0.0000E+00  0.0000E+00  2.3691E-03  0.0000E+00  0.0000E+00
 25  0.0000E+00  4.0357E-02  1.1124E-01  0.0000E+00  0.0000E+00  0.0000E+00  0.0000E+00  0.0000E+00  4.3014E-02
 26  0.0000E+00  1.0309E-01  0.0000E+00  0.0000E+00  0.0000E+00  0.0000E+00  0.0000E+00  0.0000E+00  0.0000E+00
 27  0.0000E+00  1.2425E-01  0.0000E+00  0.0000E+00  0.0000E+00  0.0000E+00  0.0000E+00  0.0000E+00  0.0000E+00
 28  0.0000E+00  3.6774E-01  0.0000E+00  1.2673E-01  6.6214E-01  0.0000E+00  0.0000E+00  0.0000E+00  5.7450E-01
 29  0.0000E+00  7.3193E-02  0.0000E+00  0.0000E+00  0.0000E+00  9.7219E-02  0.0000E+00  0.0000E+00  0.0000E+00
 30  0.0000E+00  1.0084E-01  0.0000E+00  0.0000E+00  0.0000E+00  3.8118E-02  0.0000E+00  0.0000E+00  0.0000E+00
 31  0.0000E+00  2.9482E-01  0.0000E+00  0.0000E+00  0.0000E+00  0.0000E+00  0.0000E+00  0.0000E+00  2.1116E+00
 32  0.0000E+00  3.0794E-01  0.0000E+00  0.0000E+00  0.0000E+00  0.0000E+00  0.0000E+00  0.0000E+00  0.0000E+00
 33  0.0000E+00  6.4888E-02  0.0000E+00  0.0000E+00  0.0000E+00  0.0000E+00  0.0000E+00  0.0000E+00  0.0000E+00
 34  0.0000E+00  6.0316E-02  0.0000E+00  0.0000E+00  0.0000E+00  0.0000E+00  0.0000E+00  0.0000E+00  0.0000E+00
 35  0.0000E+00  2.6560E-02  0.0000E+00  3.5026E-02  1.0783E-01  2.6909E-03  0.0000E+00  0.0000E+00  0.0000E+00
 36  1.1403E-01  3.9391E-02  7.4354E-02  4.6718E-02  5.6368E-02  9.8474E-02  4.8531E-02  5.4993E-02  3.4596E-02
 37  0.0000E+00  6.5960E-03  0.0000E+00  0.0000E+00  0.0000E+00  0.0000E+00  0.0000E+00  1.8381E-02  2.4586E-02
 38  0.0000E+00  5.7416E-03  0.0000E+00  0.0000E+00  0.0000E+00  0.0000E+00  0.0000E+00  0.0000E+00  0.0000E+00
 39  0.0000E+00  2.1870E-02  0.0000E+00  5.3496E-03  0.0000E+00  0.0000E+00  0.0000E+00  0.0000E+00  0.0000E+00
 40  0.0000E+00  2.6400E-02  0.0000E+00  0.0000E+00  0.0000E+00  0.0000E+00  2.4280E-02  0.0000E+00  0.0000E+00
 41  0.0000E+00  6.7361E-02  0.0000E+00  0.0000E+00  4.6287E-02  0.0000E+00  0.0000E+00  0.0000E+00  0.0000E+00
 42  0.0000E+00  6.9071E-02  1.6204E-01  2.4411E-02  0.0000E+00  0.0000E+00  0.0000E+00  1.5475E-03  0.0000E+00
 43  0.0000E+00  8.6599E-02  0.0000E+00  0.0000E+00  0.0000E+00  0.0000E+00  0.0000E+00  0.0000E+00  0.0000E+00
 44  0.0000E+00  5.8858E-01  0.0000E+00  1.6356E-01  1.6472E-01  1.7299E-01  0.0000E+00  0.0000E+00  0.0000E+00
 45  0.0000E+00  8.8348E+00  9.9815E+00  5.7673E+00  5.5351E+00  1.1888E+01  9.6287E+00  8.8638E+00  1.0143E+01
 46  0.0000E+00  1.7019E-01  4.5510E-01  0.0000E+00  0.0000E+00  0.0000E+00  0.0000E+00  0.0000E+00  0.0000E+00
 47  0.0000E+00  3.0073E-01  0.0000E+00  0.0000E+00  0.0000E+00  0.0000E+00  0.0000E+00  0.0000E+00  0.0000E+00
 48  0.0000E+00  1.6073E-01  0.0000E+00  0.0000E+00  0.0000E+00  0.0000E+00  0.0000E+00  0.0000E+00  0.0000E+00
 49  0.0000E+00  1.2981E-01  0.0000E+00  6.1918E-01  0.0000E+00  0.0000E+00  0.0000E+00  0.0000E+00  0.0000E+00
 50  0.0000E+00  1.0654E+00  0.0000E+00  0.0000E+00  0.0000E+00  0.0000E+00  0.0000E+00  0.0000E+00  0.0000E+00
 51  7.7949E-02  2.5931E-02  0.0000E+00  0.0000E+00  5.1233E-02  3.3923E-02  4.5989E-02  0.0000E+00  7.6030E-02
 52  0.0000E+00  5.6770E-03  0.0000E+00  4.9144E-03  0.0000E+00  2.8789E-03  0.0000E+00  0.0000E+00  4.3190E-03
 53  0.0000E+00  5.6783E-03  0.0000E+00  0.0000E+00  0.0000E+00  0.0000E+00  2.1700E-02  0.0000E+00  0.0000E+00
 54  0.0000E+00  2.4816E-03  0.0000E+00  0.0000E+00  8.8608E-03  0.0000E+00  0.0000E+00  0.0000E+00  0.0000E+00
 55  0.0000E+00  1.5820E-02  0.0000E+00  0.0000E+00  0.0000E+00  1.1861E-05  1.6873E-03  0.0000E+00  1.8136E-03
 56  0.0000E+00  1.9196E-02  0.0000E+00  1.8159E-02  0.0000E+00  0.0000E+00  0.0000E+00  0.0000E+00  0.0000E+00
 57  0.0000E+00  3.2082E-02  0.0000E+00  9.5166E-03  5.4775E-03  1.6361E-01  0.0000E+00  0.0000E+00  5.9949E-03
 58  0.0000E+00  5.7636E-02  0.0000E+00  0.0000E+00  0.0000E+00  0.0000E+00  0.0000E+00  0.0000E+00  0.0000E+00
 59  0.0000E+00  2.9542E-01  0.0000E+00  0.0000E+00  0.0000E+00  0.0000E+00  1.9876E-01  5.7854E-01  4.2220E-01
 60  7.4499E+01  7.5950E+01  7.7627E+01  8.2223E+01  8.2308E+01  8.0363E+01  7.5972E+01  8.1522E+01  7.8475E+01
 61  2.3122E+01  5.0627E+00  8.6727E+00  5.3191E+00  6.1053E+00  4.5264E+00  1.1067E+01  6.1557E+00  5.0773E+00
 62  0.0000E+00  1.3089E-01  0.0000E+00  0.0000E+00  0.0000E+00  0.0000E+00  0.0000E+00  0.0000E+00  0.0000E+00
 63  0.0000E+00  3.0195E-01  0.0000E+00  0.0000E+00  0.0000E+00  0.0000E+00  0.0000E+00  0.0000E+00  0.0000E+00
 64  0.0000E+00  1.5949E-01  0.0000E+00  0.0000E+00  0.0000E+00  0.0000E+00  0.0000E+00  0.0000E+00  0.0000E+00
 65  0.0000E+00  1.6729E-01  0.0000E+00  0.0000E+00  0.0000E+00  0.0000E+00  0.0000E+00  0.0000E+00  0.0000E+00
 66  0.0000E+00  9.0095E-02  0.0000E+00  0.0000E+00  0.0000E+00  0.0000E+00  0.0000E+00  0.0000E+00  0.0000E+00

# AV, chi2 & Mass for <> & i_chain = 1 ...  7 solutions
AV       0.1882      0.2568      0.2432      0.2620      0.2499      0.2459      0.2422      0.2594      0.2676
chi2 4.0053E-01  4.1469E-01  4.0918E-01  4.1074E-01  4.0899E-01  4.0957E-01  4.0888E-01  4.0957E-01  4.1121E-01
Mass 3.5032E-13  3.4205E-13  3.3554E-13  3.3015E-13  3.2921E-13  3.3305E-13  3.3897E-13  3.3005E-13  3.3877E-13
  15.45                                  [v0_min (km/s) before EX0s...]
 188.41                                  [vd_min (km/s) before EX0s...]


## Synthetic spectrum (Best Model) ##l_obs f_obs f_syn wei
 3478    [Nl_obs]
 3741.00    0.74613   0.78218    0.000
 3742.00    0.75444   0.78708    0.000
 3743.00    0.75486   0.78005    0.000
 3744.00    0.74461   0.76282    0.000
 3745.00    0.72468   0.73770   13.404
 3746.00    0.70213   0.70757   13.175
 3747.00    0.68414   0.67618   12.812
 3748.00    0.66853   0.64857   12.929
 3749.00    0.65121   0.63061   13.842
 3750.00    0.63856   0.62724   14.571
 3751.00    0.63970   0.64028   13.898
 3752.00    0.65391   0.66732   13.122
 3753.00    0.67638   0.70239   13.569
 3754.00    0.70719   0.73788   14.576
 3755.00    0.74734   0.76719   14.587
 3756.00    0.79304   0.78687   13.707
 3757.00    0.83773   0.79719   12.996
 3758.00    0.87510   0.80119   12.922
 3759.00    0.89927   0.80264   13.472
 3760.00    0.90518   0.80421   14.095
 3761.00    0.89446   0.80639   14.272
 3762.00    0.87978   0.80757   14.422
 3763.00    0.87229   0.80502   14.871
 3764.00    0.87058   0.79623   14.803
 3765.00    0.86741   0.77988   13.883
 3766.00    0.85668   0.75626   13.339
 3767.00    0.83746   0.72762   13.913
 3768.00    0.81563   0.69807   15.148
 3769.00    0.79495   0.67305   15.879
 3770.00    0.77199   0.65810   15.176
 3771.00    0.74680   0.65708   13.725
 3772.00    0.72901   0.67068   13.034
 3773.00    0.72619   0.69625   13.466
 3774.00    0.73743   0.72924   14.140
 3775.00    0.76150   0.76501   14.196
 3776.00    0.80031   0.80012   13.916
 3777.00    0.84876   0.83265   13.865
 3778.00    0.89231   0.86175   14.263
 3779.00    0.92498   0.88683   14.922
 3780.00    0.95481   0.90715   15.198
 3781.00    0.98342   0.92194   14.950
 3782.00    0.99999   0.93058   14.861
 3783.00    1.00037   0.93271   15.184
 3784.00    0.99258   0.92833   15.427
 3785.00    0.98155   0.91809   15.267
 3786.00    0.96526   0.90353   14.964
 3787.00    0.94614   0.88672   14.929
 3788.00    0.93256   0.86946   15.447
 3789.00    0.92731   0.85241   16.195
 3790.00    0.92511   0.83481   16.229
 3791.00    0.91953   0.81475   15.669
 3792.00    0.90551   0.79002   15.642
 3793.00    0.87961   0.75938   16.307
 3794.00    0.84080   0.72362   16.807
 3795.00    0.79230   0.68602   16.769
 3796.00    0.74112   0.65204   16.700
 3797.00    0.69496   0.62827   16.961
 3798.00    0.66085   0.62049   17.545
 3799.00    0.64401   0.63140   18.205
 3800.00    0.64726   0.65937   18.547
 3801.00    0.67059   0.69890   18.427
 3802.00    0.71118   0.74264   18.046
 3803.00    0.76377   0.78388   17.714
 3804.00    0.82115   0.81847   17.608
 3805.00    0.87510   0.84562   17.478
 3806.00    0.91875   0.86715   17.074
 3807.00    0.95071   0.88573   16.971
 3808.00    0.97309   0.90300   17.811
 3809.00    0.98652   0.91848   18.712
 3810.00    0.99125   0.93001   18.127
 3811.00    0.99036   0.93534   17.200
 3812.00    0.98774   0.93381   17.668
 3813.00    0.98386   0.92704   19.158
 3814.00    0.97700   0.91811   19.856
 3815.00    0.96605   0.90976   19.054
 3816.00    0.95119   0.90303   17.804
 3817.00    0.93407   0.89730   17.400
 3818.00    0.91728   0.89155   18.400
 3819.00    0.90339   0.88560   19.839
 3820.00    0.89448   0.88021   19.998
 3821.00    0.89147   0.87591   19.246
 3822.00    0.89277   0.87189   18.917
 3823.00    0.89315   0.86618   19.347
 3824.00    0.88709   0.85700   20.188
 3825.00    0.87256   0.84384   20.587
 3826.00    0.84985   0.82736   20.174
 3827.00    0.82015   0.80836   20.036
 3828.00    0.78618   0.78680   20.820
 3829.00    0.75245   0.76167   21.227
 3830.00    0.72141   0.73181   20.263
 3831.00    0.69067   0.69702   19.473
 3832.00    0.65882   0.65920   20.047
 3833.00    0.62967   0.62263   21.512
 3834.00    0.60714   0.59303   22.776
 3835.00    0.59147   0.57589   23.177
 3836.00    0.58253   0.57453   22.729
 3837.00    0.58209   0.58908   21.929
 3838.00    0.59160   0.61677   21.376
 3839.00    0.61081   0.65331   21.518
 3840.00    0.63904   0.69418   22.067
 3841.00    0.67549   0.73561   21.792
 3842.00    0.71611   0.77471   20.661
 3843.00    0.75302   0.80947   20.274
 3844.00    0.78158   0.83888   20.969
 3845.00    0.80336   0.86277   21.145
 3846.00    0.82162   0.88168   19.994
 3847.00    0.83848   0.89655    0.000
 3848.00    0.85356   0.90845    0.000
 3849.00    0.86451   0.91849    0.000
 3850.00    0.87209   0.92755    0.000
 3851.00    0.88068   0.93592    0.000
 3852.00    0.89113   0.94310    0.000
 3853.00    0.89978   0.94819    0.000
 3854.00    0.90589   0.95061    0.000
 3855.00    0.91296   0.95057    0.000
 3856.00    0.92307   0.94911    0.000
 3857.00    0.93556   0.94762    0.000
 3858.00    0.94973   0.94740    0.000
 3859.00    0.96508   0.94934    0.000
 3860.00    0.97940   0.95369    0.000
 3861.00    0.98930   0.95986    0.000
 3862.00    0.99367   0.96648    0.000
 3863.00    0.99347   0.97202    0.000
 3864.00    0.98883   0.97547    0.000
 3865.00    0.98001   0.97668    0.000
 3866.00    0.97165   0.97605    0.000
 3867.00    0.96905   0.97386    0.000
 3868.00    0.96706   0.96978    0.000
 3869.00    0.95493   0.96314    0.000
 3870.00    0.93205   0.95381    0.000
 3871.00    0.90596   0.94287    0.000
 3872.00    0.88123   0.93235    0.000
 3873.00    0.85951   0.92400    0.000
 3874.00    0.84379   0.91797    0.000
 3875.00    0.83649   0.91265    0.000
 3876.00    0.83477   0.90576    0.000
 3877.00    0.83312   0.89595    0.000
 3878.00    0.82896   0.88328    0.000
 3879.00    0.82220   0.86860    0.000
 3880.00    0.81289   0.85224    0.000
 3881.00    0.80031   0.83345   21.950
 3882.00    0.78217   0.81073   22.657
 3883.00    0.75653   0.78265   22.284
 3884.00    0.72454   0.74879   21.657
 3885.00    0.69044   0.71031   22.061
 3886.00    0.66087   0.67056   23.233
 3887.00    0.64159   0.63492   24.033
 3888.00    0.63375   0.60974   23.752
 3889.00    0.63537   0.60029   22.805
 3890.00    0.64354   0.60868   22.492
 3891.00    0.65498   0.63286   23.517
 3892.00    0.66686   0.66750   24.940
 3893.00    0.68036   0.70613   25.213
 3894.00    0.70296   0.74347   24.371
 3895.00    0.73816   0.77654   23.441
 3896.00    0.77718   0.80451   23.186
 3897.00    0.81069   0.82796   23.800
 3898.00    0.83844   0.84795   24.763
 3899.00    0.86303   0.86552   25.209
 3900.00    0.88454   0.88119   24.596
 3901.00    0.90261   0.89483   23.559
 3902.00    0.91805   0.90596   23.631
 3903.00    0.93191   0.91439   25.165
 3904.00    0.94458   0.92094   26.123
 3905.00    0.95460   0.92739   25.077
 3906.00    0.95876   0.93569   23.931
 3907.00    0.95734   0.94689   24.151
 3908.00    0.95621   0.96043   25.583
 3909.00    0.96038   0.97427   27.054
 3910.00    0.97018   0.98587   26.636
 3911.00    0.98072   0.99326   24.677
 3912.00    0.98370   0.99582   23.672
 3913.00    0.97658   0.99417   24.257
 3914.00    0.96500   0.98963   25.029
 3915.00    0.95321   0.98352   24.734
 3916.00    0.94098   0.97680   23.645
 3917.00    0.92974   0.97011   22.817
 3918.00    0.92400   0.96405   23.181
 3919.00    0.92631   0.95933   24.495
 3920.00    0.93541   0.95652   25.126
 3921.00    0.94687   0.95559   24.503
 3922.00    0.95487   0.95552   23.901
 3923.00    0.95698   0.95434   23.914
 3924.00    0.95414   0.94976   24.208
 3925.00    0.94529   0.93991   24.692
 3926.00    0.92742   0.92382   25.551
 3927.00    0.90078   0.90144   26.076
 3928.00    0.86882   0.87331   25.142
 3929.00    0.83334   0.84049   23.947
 3930.00    0.79450   0.80484   24.535
 3931.00    0.75417   0.76955   26.619
 3932.00    0.71709   0.73935   27.640
 3933.00    0.69126   0.71968   26.937
 3934.00    0.68488   0.71494   26.409
 3935.00    0.69939   0.72670   26.762
 3936.00    0.72985   0.75270   27.435
 3937.00    0.76895   0.78765   27.539
 3938.00    0.80903   0.82500   26.572
 3939.00    0.84428   0.85904   25.284
 3940.00    0.87175   0.88619   24.721
 3941.00    0.89236   0.90542   25.123
 3942.00    0.90861   0.91791   26.122
 3943.00    0.92058   0.92605   26.782
 3944.00    0.92754   0.93222   26.255
 3945.00    0.93130   0.93778   25.189
 3946.00    0.93348   0.94277   24.644
 3947.00    0.93087   0.94649   24.718
 3948.00    0.92040   0.94840   24.999
 3949.00    0.90661   0.94860   25.121
 3950.00    0.89537   0.94761   24.913
 3951.00    0.88491   0.94592   24.522
 3952.00    0.87284   0.94358   24.280
 3953.00    0.86535   0.94021   24.539
 3954.00    0.86846   0.93529   25.357
 3955.00    0.87740   0.92848   26.086
 3956.00    0.88402   0.91970   26.041
 3957.00    0.88557   0.90883   25.563
 3958.00    0.88163   0.89533   25.351
 3959.00    0.87024   0.87803   25.691
 3960.00    0.84918   0.85564    0.000
 3961.00    0.81742   0.82737    0.000
 3962.00    0.77503   0.79327    0.000
 3963.00    0.72319   0.75384    0.000
 3964.00    0.66612   0.70979    0.000
 3965.00    0.61218   0.66218    0.000
 3966.00    0.56867   0.61320    0.000
 3967.00    0.53828   0.56690    0.000
 3968.00    0.52170   0.52900    0.000
 3969.00    0.51941   0.50561    0.000
 3970.00    0.52940   0.50114    0.000
 3971.00    0.54641   0.51664    0.000
 3972.00    0.56702   0.54940    0.000
 3973.00    0.59219   0.59402    0.000
 3974.00    0.62237   0.64429    0.000
 3975.00    0.65528   0.69493    0.000
 3976.00    0.68905   0.74236    0.000
 3977.00    0.72365   0.78459    0.000
 3978.00    0.75853   0.82066    0.000
 3979.00    0.79177   0.85018    0.000
 3980.00    0.82160   0.87329    0.000
 3981.00    0.84709   0.89086   23.817
 3982.00    0.86784   0.90453   23.985
 3983.00    0.88436   0.91626   24.791
 3984.00    0.90008   0.92763   23.381
 3985.00    0.91997   0.93935   18.465
 3986.00    0.94253   0.95122   14.831
 3987.00    0.95980   0.96261   15.142
 3988.00    0.96820   0.97298   19.802
 3989.00    0.97051   0.98208   25.642
 3990.00    0.96923   0.98991   26.092
 3991.00    0.96565   0.99633   24.893
 3992.00    0.96396   1.00090   24.849
 3993.00    0.96956   1.00304   24.429
 3994.00    0.98049   1.00260   24.077
 3995.00    0.98958   1.00037   25.769
 3996.00    0.99634   0.99806   27.704
 3997.00    1.00581   0.99765   25.249
 3998.00    1.01767   1.00030   23.024
 3999.00    1.02621   1.00568   26.515
 4000.00    1.02705   1.01191   28.166
 4001.00    1.01916   1.01655   17.116
 4002.00    1.00579   1.01777   10.748
 4003.00    0.99242   1.01527    9.345
 4004.00    0.98248   1.01053    9.973
 4005.00    0.97737   1.00612   10.525
 4006.00    0.97809   1.00447   10.292
 4007.00    0.98444   1.00675   10.056
 4008.00    0.99309   1.01248   10.049
 4009.00    0.99951   1.02003   10.045
 4010.00    1.00182   1.02760    9.990
 4011.00    1.00027   1.03402    9.974
 4012.00    0.99555   1.03893   10.038
 4013.00    0.98881   1.04259   10.150
 4014.00    0.98214   1.04551   10.193
 4015.00    0.97877   1.04817   10.124
 4016.00    0.98312   1.05089   10.150
 4017.00    0.99670   1.05366   10.291
 4018.00    1.01358   1.05600    9.904
 4019.00    1.02506   1.05687    9.116
 4020.00    1.02612   1.05504    9.689
 4021.00    1.01684   1.04966   14.281
 4022.00    1.00286   1.04096   27.044
 4023.00    0.99101   1.03054   32.387
 4024.00    0.98484   1.02080   25.746
 4025.00    0.98551   1.01384   25.319
 4026.00    0.99299   1.01035   28.604
 4027.00    1.00510   1.00919   29.194
 4028.00    1.01714   1.00815   27.352
 4029.00    1.02545   1.00547   26.378
 4030.00    1.03022   1.00114   26.512
 4031.00    1.03293   0.99698   27.134
 4032.00    1.03427   0.99566   27.942
 4033.00    1.03577   0.99922   28.545
 4034.00    1.04059   1.00810   28.244
 4035.00    1.04973   1.02093   27.100
 4036.00    1.06012   1.03508   26.215
 4037.00    1.06847   1.04764   26.194
 4038.00    1.07353   1.05625   26.716
 4039.00    1.07353   1.05970   27.097
 4040.00    1.06527   1.05791   26.728
 4041.00    1.04805   1.05156   25.830
 4042.00    1.02527   1.04181   25.408
 4043.00    1.00119   1.03033   25.936
 4044.00    0.97945   1.01945   27.032
 4045.00    0.96461   1.01184   27.809
 4046.00    0.96172   1.00955   27.348
 4047.00    0.97064   1.01281   26.159
 4048.00    0.98485   1.01973   25.805
 4049.00    0.99725   1.02720   26.686
 4050.00    1.00297   1.03223   27.821
 4051.00    1.00000   1.03320   28.304
 4052.00    0.98931   1.03016   28.123
 4053.00    0.97422   1.02450   27.627
 4054.00    0.95967   1.01815   27.201
 4055.00    0.95075   1.01285   27.286
 4056.00    0.95099   1.00965   28.229
 4057.00    0.95920   1.00863   29.511
 4058.00    0.96993   1.00896   29.714
 4059.00    0.97803   1.00920   28.530
 4060.00    0.98006   1.00784   27.092
 4061.00    0.97431   1.00414   26.390
 4062.00    0.96157   0.99860   26.876
 4063.00    0.94691   0.99278   28.173
 4064.00    0.93793   0.98841   29.118
 4065.00    0.93938   0.98640   28.908
 4066.00    0.95166   0.98645   27.769
 4067.00    0.97044   0.98739   26.675
 4068.00    0.98836   0.98791   26.500
 4069.00    0.99870   0.98711   27.328
 4070.00    0.99844   0.98473   28.588
 4071.00    0.99220   0.98097   29.216
 4072.00    0.98715   0.97597   28.379
 4073.00    0.98254   0.96955   26.841
 4074.00    0.97385   0.96146   25.948
 4075.00    0.96283   0.95222   26.387
 4076.00    0.95450   0.94363   28.243
 4077.00    0.94981   0.93831   30.287
 4078.00    0.94761   0.93829   30.525
 4079.00    0.94918   0.94356   29.360
 4080.00    0.95529   0.95185   28.423
 4081.00    0.96163   0.95971   27.992
 4082.00    0.96293   0.96427   27.871
 4083.00    0.95910   0.96456   28.464
 4084.00    0.95245   0.96154   29.988
 4085.00    0.94362   0.95713   31.118
 4086.00    0.93314   0.95297   30.530
 4087.00    0.92355   0.94954   29.644
 4088.00    0.91627   0.94620   30.019
 4089.00    0.90862   0.94172   31.125
 4090.00    0.89822   0.93483   31.694
 4091.00    0.88720   0.92452   31.418
 4092.00    0.87714   0.91008    0.000
 4093.00    0.86449   0.89094    0.000
 4094.00    0.84538   0.86671    0.000
 4095.00    0.81995   0.83728    0.000
 4096.00    0.79013   0.80294    0.000
 4097.00    0.75803   0.76462    0.000
 4098.00    0.72894   0.72420    0.000
 4099.00    0.71245   0.68494    0.000
 4100.00    0.71224   0.65149    0.000
 4101.00    0.72026   0.62920    0.000
 4102.00    0.72605   0.62238    0.000
 4103.00    0.72369   0.63244    0.000
 4104.00    0.71485   0.65711    0.000
 4105.00    0.70897   0.69117    0.000
 4106.00    0.71487   0.72849    0.000
 4107.00    0.73544   0.76401    0.000
 4108.00    0.76540   0.79496    0.000
 4109.00    0.79329   0.82096    0.000
 4110.00    0.81631   0.84308    0.000
 4111.00    0.84363   0.86281    0.000
 4112.00    0.87670   0.88108    0.000
 4113.00    0.90393   0.89788   29.422
 4114.00    0.91908   0.91244   28.389
 4115.00    0.92664   0.92369   27.684
 4116.00    0.93028   0.93096   28.142
 4117.00    0.92934   0.93442   29.553
 4118.00    0.92405   0.93520   31.103
 4119.00    0.91740   0.93504   31.558
 4120.00    0.91400   0.93567   30.641
 4121.00    0.91831   0.93815   29.367
 4122.00    0.93009   0.94254   28.753
 4123.00    0.94461   0.94793   29.338
 4124.00    0.95785   0.95284   30.716
 4125.00    0.96757   0.95582   31.528
 4126.00    0.97166   0.95598   31.078
 4127.00    0.96859   0.95339   29.952
 4128.00    0.95950   0.94897   29.001
 4129.00    0.94785   0.94413   28.808
 4130.00    0.93688   0.94037   29.481
 4131.00    0.92912   0.93905   30.721
 4132.00    0.92690   0.94123   31.854
 4133.00    0.93164   0.94741   32.085
 4134.00    0.94217   0.95725   31.454
 4135.00    0.95561   0.96951   30.680
 4136.00    0.96979   0.98224   30.272
 4137.00    0.98300   0.99325   30.419
 4138.00    0.99252   1.00043   31.046
 4139.00    0.99565   1.00221   31.828
 4140.00    0.99180   0.99810   32.195
 4141.00    0.98247   0.98911   31.711
 4142.00    0.97058   0.97793   30.695
 4143.00    0.95969   0.96819   29.879
 4144.00    0.95302   0.96284   29.873
 4145.00    0.95197   0.96290   30.886
 4146.00    0.95436   0.96707   32.225
 4147.00    0.95671   0.97273   32.760
 4148.00    0.95743   0.97734   32.303
 4149.00    0.95700   0.97945   31.464
 4150.00    0.95751   0.97893   30.830
 4151.00    0.96105   0.97643   30.787
 4152.00    0.96799   0.97283   31.517
 4153.00    0.97601   0.96910   32.419
 4154.00    0.97967   0.96618   31.472
 4155.00    0.97462   0.96497   28.334
 4156.00    0.96202   0.96605   25.791
 4157.00    0.94924   0.96950   25.422
 4158.00    0.94886   0.97479   27.033
 4159.00    0.96543   0.98102   29.756
 4160.00    0.98578   0.98727   31.727
 4161.00    0.99789   0.99289   31.655
 4162.00    1.00566   0.99747   31.203
 4163.00    1.01448   1.00071   31.685
 4164.00    1.02014   1.00237   31.909
 4165.00    1.01773   1.00231   31.091
 4166.00    1.00812   1.00043   30.775
 4167.00    0.99462   0.99658   31.917
 4168.00    0.98025   0.99056   33.407
 4169.00    0.96755   0.98220   33.678
 4170.00    0.95826   0.97178   32.549
 4171.00    0.95217   0.96033   31.158
 4172.00    0.94698   0.94959   30.926
 4173.00    0.94179   0.94125   32.093
 4174.00    0.93838   0.93629   33.353
 4175.00    0.93765   0.93463   33.762
 4176.00    0.93835   0.93550   33.952
 4177.00    0.94009   0.93801   34.034
 4178.00    0.94404   0.94158   33.024
 4179.00    0.94931   0.94598   31.490
 4180.00    0.95253   0.95086   31.339
 4181.00    0.95295   0.95571   32.617
 4182.00    0.95344   0.95989   33.150
 4183.00    0.95587   0.96286   32.318
 4184.00    0.95972   0.96452   31.974
 4185.00    0.96360   0.96515   32.442
 4186.00    0.96622   0.96533   32.208
 4187.00    0.96767   0.96593   31.164
 4188.00    0.96943   0.96785   30.767
 4189.00    0.97334   0.97155   31.356
 4190.00    0.98042   0.97658   32.055
 4191.00    0.98856   0.98172   32.189
 4192.00    0.99350   0.98535   31.700
 4193.00    0.99323   0.98587   30.702
 4194.00    0.98822   0.98219   29.552
 4195.00    0.97886   0.97445   29.308
 4196.00    0.96579   0.96403   31.046
 4197.00    0.95207   0.95303   33.917
 4198.00    0.94198   0.94354   34.862
 4199.00    0.93698   0.93715   33.448
 4200.00    0.93618   0.93445   32.090
 4201.00    0.93918   0.93517   31.612
 4202.00    0.94539   0.93868   31.638
 4203.00    0.95170   0.94437   31.950
 4204.00    0.95508   0.95158   32.509
 4205.00    0.95794   0.95959   33.101
 4206.00    0.96480   0.96764   33.397
 4207.00    0.97531   0.97500   33.228
 4208.00    0.98582   0.98113   32.661
 4209.00    0.99388   0.98572   31.972
 4210.00    0.99815   0.98857   31.525
 4211.00    0.99749   0.98942   31.671
 4212.00    0.99118   0.98817   32.521
 4213.00    0.97974   0.98527   33.556
 4214.00    0.96628   0.98186   33.971
 4215.00    0.95778   0.97945   33.531
 4216.00    0.95959   0.97935   32.578
 4217.00    0.96899   0.98199   31.643
 4218.00    0.98031   0.98636   31.215
 4219.00    0.99123   0.99027   31.672
 4220.00    0.99999   0.99124   32.962
 4221.00    1.00207   0.98729   34.065
 4222.00    0.99391   0.97767   33.959
 4223.00    0.97685   0.96341   33.144
 4224.00    0.95549   0.94744   32.646
 4225.00    0.93567   0.93389   32.955
 4226.00    0.92271   0.92649   33.940
 4227.00    0.91998   0.92716   34.708
 4228.00    0.92719   0.93513   34.529
 4229.00    0.93968   0.94704   33.816
 4230.00    0.95213   0.95852   33.253
 4231.00    0.96148   0.96620   33.091
 4232.00    0.96641   0.96865   33.175
 4233.00    0.96702   0.96663   33.061
 4234.00    0.96578   0.96236   32.818
 4235.00    0.96721   0.95810   33.303
 4236.00    0.97242   0.95543   34.722
 4237.00    0.97709   0.95522   35.807
 4238.00    0.97937   0.95754   35.534
 4239.00    0.98299   0.96194   34.509
 4240.00    0.98895   0.96775   33.513
 4241.00    0.99247   0.97410   32.761
 4242.00    0.99085   0.97969   32.391
 4243.00    0.98652   0.98314   32.642
 4244.00    0.98210   0.98360   33.596
 4245.00    0.97835   0.98094   34.969
 4246.00    0.97534   0.97566   35.715
 4247.00    0.97302   0.96881   34.481
 4248.00    0.97089   0.96197   32.230
 4249.00    0.96812   0.95658   31.253
 4250.00    0.96463   0.95322   31.893
 4251.00    0.96125   0.95199   32.810
 4252.00    0.95914   0.95274   33.297
 4253.00    0.95945   0.95502   33.849
 4254.00    0.96304   0.95798   34.307
 4255.00    0.96974   0.96051   33.749
 4256.00    0.97662   0.96163   32.544
 4257.00    0.97936   0.96084   32.025
 4258.00    0.97758   0.95864   32.605
 4259.00    0.97466   0.95659   33.795
 4260.00    0.97344   0.95652   34.831
 4261.00    0.97529   0.95971   35.063
 4262.00    0.98094   0.96622   34.748
 4263.00    0.98973   0.97452   34.617
 4264.00    0.99756   0.98205   34.479
 4265.00    0.99922   0.98633   33.712
 4266.00    0.99424   0.98572   32.829
 4267.00    0.98573   0.97963   32.826
 4268.00    0.97544   0.96867   33.780
 4269.00    0.96385   0.95487   34.997
 4270.00    0.95220   0.94087   35.607
 4271.00    0.94241   0.92902   35.090
 4272.00    0.93611   0.92133   33.937
 4273.00    0.93432   0.91914   32.989
 4274.00    0.93700   0.92251   32.530
 4275.00    0.94305   0.93017   32.535
 4276.00    0.95033   0.93998   33.074
 4277.00    0.95635   0.94958   34.081
 4278.00    0.95926   0.95700   34.907
 4279.00    0.95848   0.96112   34.799
 4280.00    0.95531   0.96184   33.922
 4281.00    0.95215   0.95991   32.907
 4282.00    0.95128   0.95623   32.104
 4283.00    0.95336   0.95157   31.794
 4284.00    0.95616   0.94625   32.473
 4285.00    0.95682   0.93998   34.165
 4286.00    0.95441   0.93235   -2.000
 4287.00    0.94954   0.92371   -2.000
 4288.00    0.94352   0.91555   -2.000
 4289.00    0.93774   0.90969   -2.000
 4290.00    0.93294   0.90719   -2.000
 4291.00    0.92824   0.90787   -2.000
 4292.00    0.92075   0.91052   -2.000
 4293.00    0.90908   0.91316   -2.000
 4294.00    0.89601   0.91365   -2.000
 4295.00    0.88583   0.91042   -2.000
 4296.00    0.88176   0.90281   -2.000
 4297.00    0.88261   0.89146   -2.000
 4298.00    0.88178   0.87820   -2.000
 4299.00    0.87532   0.86507   -2.000
 4300.00    0.86655   0.85397   -2.000
 4301.00    0.85963   0.84639   33.486
 4302.00    0.85544   0.84269   33.333
 4303.00    0.85284   0.84204   34.092
 4304.00    0.84987   0.84297   35.191
 4305.00    0.84595   0.84406   35.688
 4306.00    0.84269   0.84479   35.300
 4307.00    0.84191   0.84574   34.428
 4308.00    0.84469   0.84792   33.787
 4309.00    0.85180   0.85199   33.672
 4310.00    0.86368   0.85790   33.878
 4311.00    0.87922   0.86519   34.324
 4312.00    0.89568   0.87352   35.175
 4313.00    0.91051   0.88300   36.078
 4314.00    0.92210   0.89360   36.100
 4315.00    0.92959   0.90477   35.331
 4316.00    0.93286   0.91545   34.940
 4317.00    0.93281   0.92414   35.202
 4318.00    0.93072   0.92927   35.411
 4319.00    0.92600   0.92985   35.484
 4320.00    0.91684   0.92548   35.980
 4321.00    0.90482   0.91619   36.275
 4322.00    0.89411   0.90275   34.878
 4323.00    0.88495   0.88711   32.391
 4324.00    0.87436   0.87222   30.574
 4325.00    0.86313   0.86081   29.735
 4326.00    0.85505   0.85416   29.445
 4327.00    0.84986   0.85176   30.078
 4328.00    0.84395   0.85182   32.477
 4329.00    0.83609   0.85206   35.861
 4330.00    0.82721   0.85020    0.000
 4331.00    0.81669   0.84448    0.000
 4332.00    0.80324   0.83381    0.000
 4333.00    0.78851   0.81731    0.000
 4334.00    0.77633   0.79400    0.000
 4335.00    0.76975   0.76353    0.000
 4336.00    0.77154   0.72696    0.000
 4337.00    0.78569   0.68706    0.000
 4338.00    0.81386   0.64864    0.000
 4339.00    0.84901   0.61801    0.000
 4340.00    0.87797   0.60043    0.000
 4341.00    0.88746   0.59836    0.000
 4342.00    0.87158   0.61137    0.000
 4343.00    0.84065   0.63655    0.000
 4344.00    0.81187   0.66920    0.000
 4345.00    0.79473   0.70435    0.000
 4346.00    0.79110   0.73785    0.000
 4347.00    0.79800   0.76658    0.000
 4348.00    0.81004   0.78852    0.000
 4349.00    0.82185   0.80354    0.000
 4350.00    0.83004   0.81367    0.000
 4351.00    0.83480   0.82190   34.994
 4352.00    0.83893   0.83064   35.363
 4353.00    0.84641   0.84131   35.250
 4354.00    0.86006   0.85419   34.397
 4355.00    0.87948   0.86813   33.948
 4356.00    0.90197   0.88140   34.647
 4357.00    0.92366   0.89303   35.552
 4358.00    0.94100   0.90320   35.535
 4359.00    0.95188   0.91243   34.961
 4360.00    0.95572   0.92121   34.592
 4361.00    0.95338   0.92987   34.590
 4362.00    0.94702   0.93824   34.843
 4363.00    0.93977   0.94534   35.205
 4364.00    0.93395   0.94976   35.480
 4365.00    0.92998   0.95072   35.471
 4366.00    0.92725   0.94864   35.323
 4367.00    0.92494   0.94471   35.605
 4368.00    0.92359   0.94021   36.423
 4369.00    0.92525   0.93619   36.986
 4370.00    0.92978   0.93292   36.635
 4371.00    0.93352   0.92982   35.602
 4372.00    0.93431   0.92642   34.635
 4373.00    0.93356   0.92341   34.504
 4374.00    0.93326   0.92227   35.355
 4375.00    0.93432   0.92382   36.544
 4376.00    0.93598   0.92762   37.274
 4377.00    0.93596   0.93221   37.123
 4378.00    0.93216   0.93552   36.409
 4379.00    0.92346   0.93522   35.933
 4380.00    0.91023   0.92925   35.957
 4381.00    0.89439   0.91726   36.114
 4382.00    0.87909   0.90174   36.173
 4383.00    0.86795   0.88680   36.247
 4384.00    0.86304   0.87575   36.462
 4385.00    0.86424   0.87018   36.834
 4386.00    0.86955   0.87039   37.234
 4387.00    0.87621   0.87555   37.460
 4388.00    0.88372   0.88369   37.509
 4389.00    0.89325   0.89291   37.541
 4390.00    0.90355   0.90197   37.516
 4391.00    0.91146   0.90965   37.260
 4392.00    0.91631   0.91520   36.920
 4393.00    0.91984   0.91917   36.867
 4394.00    0.92291   0.92277   37.240
 4395.00    0.92536   0.92636   37.852
 4396.00    0.92717   0.92925   38.165
 4397.00    0.92848   0.93069   37.717
 4398.00    0.92876   0.93044   37.043
 4399.00    0.92737   0.92907   36.988
 4400.00    0.92494   0.92723   37.296
 4401.00    0.92245   0.92470   37.231
 4402.00    0.91918   0.92137   37.181
 4403.00    0.91402   0.91837   37.957
 4404.00    0.90845   0.91684   39.060
 4405.00    0.90496   0.91668   39.270
 4406.00    0.90387   0.91780   38.585
 4407.00    0.90467   0.92077   37.848
 4408.00    0.90872   0.92561   37.468
 4409.00    0.91679   0.93135   37.382
 4410.00    0.92537   0.93674   37.209
 4411.00    0.92969   0.94006   36.752
 4412.00    0.92838   0.93958   36.563
 4413.00    0.92231   0.93538   37.205
 4414.00    0.91254   0.92938   38.363
 4415.00    0.90177   0.92373   39.155
 4416.00    0.89603   0.92052   38.836
 4417.00    0.89967   0.92122   37.517
 4418.00    0.91022   0.92534   36.375
 4419.00    0.92245   0.93094   36.252
 4420.00    0.93303   0.93615   36.844
 4421.00    0.94085   0.94019   37.426
 4422.00    0.94662   0.94297   37.537
 4423.00    0.95116   0.94447   37.218
 4424.00    0.95394   0.94493   37.019
 4425.00    0.95428   0.94479   37.231
 4426.00    0.95240   0.94444   37.406
 4427.00    0.94902   0.94362   37.178
 4428.00    0.94496   0.94181   36.876
 4429.00    0.94098   0.93936   36.802
 4430.00    0.93758   0.93655   36.773
 4431.00    0.93498   0.93305   36.644
 4432.00    0.93312   0.92907   36.611
 4433.00    0.93183   0.92565   36.845
 4434.00    0.93109   0.92436   37.262
 4435.00    0.93200   0.92610   37.607
 4436.00    0.93657   0.93049   37.570
 4437.00    0.94372   0.93606   37.137
 4438.00    0.94830   0.94056   36.615
 4439.00    0.94708   0.94195   35.871
 4440.00    0.94141   0.93951   34.404
 4441.00    0.93433   0.93430   32.948
 4442.00    0.92902   0.92894   33.100
 4443.00    0.92822   0.92601   34.760
 4444.00    0.93360   0.92625   35.512
 4445.00    0.94384   0.92911   34.299
 4446.00    0.95451   0.93375   32.903
 4447.00    0.96090   0.93859   32.283
 4448.00    0.95971   0.94180   32.055
 4449.00    0.95120   0.94273   31.922
 4450.00    0.93864   0.94139   31.987
 4451.00    0.92399   0.93757   32.369
 4452.00    0.90805   0.93118   33.038
 4453.00    0.89522   0.92310   33.624
 4454.00    0.89133   0.91503   33.616
 4455.00    0.89300   0.90806   33.267
 4456.00    0.89063   0.90233   33.361
 4457.00    0.88469   0.89801   33.990
 4458.00    0.88433   0.89526   34.547
 4459.00    0.89224   0.89380   34.574
 4460.00    0.90392   0.89371   34.058
 4461.00    0.91542   0.89548    0.000
 4462.00    0.92473   0.89852    0.000
 4463.00    0.93074   0.90167    0.000
 4464.00    0.93303   0.90416    0.000
 4465.00    0.93183   0.90522    0.000
 4466.00    0.92747   0.90428    0.000
 4467.00    0.91922   0.90157    0.000
 4468.00    0.90778   0.89832    0.000
 4469.00    0.89974   0.89622    0.000
 4470.00    0.90264   0.89709    0.000
 4471.00    0.91576   0.90201    0.000
 4472.00    0.93268   0.91048    0.000
 4473.00    0.94785   0.92078    0.000
 4474.00    0.95763   0.93108    0.000
 4475.00    0.96023   0.93972    0.000
 4476.00    0.95580   0.94470    0.000
 4477.00    0.94642   0.94434    0.000
 4478.00    0.93465   0.93835    0.000
 4479.00    0.92181   0.92867    0.000
 4480.00    0.90946   0.91910    0.000
 4481.00    0.90125   0.91321    0.000
 4482.00    0.90071   0.91243   35.262
 4483.00    0.90844   0.91627   34.538
 4484.00    0.92207   0.92296   33.575
 4485.00    0.93664   0.92983   33.491
 4486.00    0.94717   0.93431   34.784
 4487.00    0.95118   0.93533   36.328
 4488.00    0.94958   0.93371   36.710
 4489.00    0.94667   0.93105   36.288
 4490.00    0.94554   0.92878   35.957
 4491.00    0.94451   0.92735   35.772
 4492.00    0.94186   0.92661   35.517
 4493.00    0.93930   0.92674   35.191
 4494.00    0.93893   0.92806   34.964
 4495.00    0.94102   0.93060   35.081
 4496.00    0.94549   0.93423   35.517
 4497.00    0.95272   0.93848   35.815
 4498.00    0.96077   0.94261   35.724
 4499.00    0.96459   0.94636   35.567
 4500.00    0.96254   0.95056   35.549
 4501.00    0.95916   0.95602   35.417
 4502.00    0.95793   0.96223   35.014
 4503.00    0.95791   0.96808   34.538
 4504.00    0.95813   0.97264   34.196
 4505.00    0.95964   0.97523   34.061
 4506.00    0.96337   0.97570   34.203
 4507.00    0.96904   0.97472   34.672
 4508.00    0.97575   0.97308   35.040
 4509.00    0.98206   0.97089   34.523
 4510.00    0.98531   0.96795   33.558
 4511.00    0.98229   0.96416   33.574
 4512.00    0.97271   0.95955   34.491
 4513.00    0.95964   0.95440   34.532
 4514.00    0.94556   0.94954   33.523
 4515.00    0.93181   0.94551   33.223
 4516.00    0.92200   0.94239   33.959
 4517.00    0.92089   0.94023   34.357
 4518.00    0.92690   0.93881   33.621
 4519.00    0.93279   0.93750   32.387
 4520.00    0.93472   0.93527   31.941
 4521.00    0.93358   0.93162   33.368
 4522.00    0.93063   0.92687   35.912
 4523.00    0.92628   0.92109   36.795
 4524.00    0.92033   0.91429   35.719
 4525.00    0.91255   0.90693   34.975
 4526.00    0.90398   0.89955   34.644
 4527.00    0.89570   0.89292   33.603
 4528.00    0.88574   0.88798   33.167
 4529.00    0.87274   0.88521   34.853
 4530.00    0.86513   0.88446   34.395
 4531.00    0.87571   0.88491   27.704
 4532.00    0.90701   0.88604   21.772
 4533.00    0.94734   0.88855   19.730
 4534.00    0.96998   0.89339   19.914
 4535.00    0.95549   0.90053   20.236
 4536.00    0.92857   0.90855   20.113
 4537.00    0.92634   0.91557   20.045
 4538.00    0.93882   0.92041   20.126
 4539.00    0.93739   0.92292   20.142
 4540.00    0.93062   0.92384   20.049
 4541.00    0.93984   0.92393   19.960
 4542.00    0.95442   0.92310   19.995
 4543.00    0.95189   0.92131   20.202
 4544.00    0.93202   0.91898   20.474
 4545.00    0.90820   0.91622   20.651
 4546.00    0.89118   0.91238   20.683
 4547.00    0.88564   0.90699   20.656
 4548.00    0.88877   0.90107   20.762
 4549.00    0.89496   0.89629   21.041
 4550.00    0.90079   0.89290    0.000
 4551.00    0.90476   0.89035    0.000
 4552.00    0.90642   0.88856    0.000
 4553.00    0.90597   0.88791    0.000
 4554.00    0.90416   0.88925    0.000
 4555.00    0.90359   0.89318    0.000
 4556.00    0.90931   0.89917    0.000
 4557.00    0.92319   0.90616    0.000
 4558.00    0.93971   0.91335    0.000
 4559.00    0.94983   0.91998    0.000
 4560.00    0.94543   0.92490    0.000
 4561.00    0.92848   0.92700    0.000
 4562.00    0.91475   0.92629    0.000
 4563.00    0.91513   0.92418    0.000
 4564.00    0.92457   0.92249    0.000
 4565.00    0.93327   0.92238    0.000
 4566.00    0.93496   0.92388    0.000
 4567.00    0.93077   0.92624    0.000
 4568.00    0.92909   0.92846    0.000
 4569.00    0.93371   0.92953    0.000
 4570.00    0.93905   0.92939    0.000
 4571.00    0.93907   0.92919    0.000
 4572.00    0.93242   0.92939    0.000
 4573.00    0.92318   0.92946    0.000
 4574.00    0.91971   0.92916    0.000
 4575.00    0.92797   0.92853    0.000
 4576.00    0.94757   0.92710    0.000
 4577.00    0.96857   0.92398    0.000
 4578.00    0.97438   0.91894    0.000
 4579.00    0.95785   0.91268    0.000
 4580.00    0.92596   0.90611    0.000
 4581.00    0.89391   0.90001    0.000
 4582.00    0.87786   0.89533    0.000
 4583.00    0.87890   0.89303    0.000
 4584.00    0.88461   0.89333    0.000
 4585.00    0.89058   0.89566    0.000
 4586.00    0.90235   0.89924    0.000
 4587.00    0.92104   0.90314    0.000
 4588.00    0.94009   0.90631    0.000
 4589.00    0.94854   0.90792    0.000
 4590.00    0.93770   0.90791    0.000
 4591.00    0.91507   0.90701    0.000
 4592.00    0.89913   0.90597    0.000
 4593.00    0.89875   0.90504    0.000
 4594.00    0.91049   0.90440    0.000
 4595.00    0.92368   0.90444    0.000
 4596.00    0.92586   0.90525    0.000
 4597.00    0.91133   0.90646    0.000
 4598.00    0.88473   0.90752    0.000
 4599.00    0.86386   0.90819    0.000
 4600.00    0.86624   0.90887    0.000
 4601.00    0.88506   0.90987    0.000
 4602.00    0.90075   0.91117    0.000
 4603.00    0.90725   0.91280    0.000
 4604.00    0.90941   0.91506    0.000
 4605.00    0.91185   0.91841    0.000
 4606.00    0.91544   0.92282    0.000
 4607.00    0.91518   0.92765    0.000
 4608.00    0.90895   0.93180    0.000
 4609.00    0.90867   0.93441    0.000
 4610.00    0.92273   0.93538    0.000
 4611.00    0.93376   0.93499    0.000
 4612.00    0.92535   0.93362    0.000
 4613.00    0.91468   0.93169    0.000
 4614.00    0.92246   0.92932    0.000
 4615.00    0.93743   0.92666    0.000
 4616.00    0.93963   0.92414    0.000
 4617.00    0.92767   0.92182    0.000
 4618.00    0.90999   0.92020    0.000
 4619.00    0.89383   0.92012    0.000
 4620.00    0.88600   0.92144    0.000
 4621.00    0.89367   0.92343    0.000
 4622.00    0.91795   0.92554    0.000
 4623.00    0.94883   0.92714    0.000
 4624.00    0.97064   0.92773    0.000
 4625.00    0.96818   0.92748    0.000
 4626.00    0.93828   0.92636    0.000
 4627.00    0.89673   0.92411    0.000
 4628.00    0.86861   0.92143    0.000
 4629.00    0.87706   0.91948    0.000
 4630.00    0.91662   0.91820    0.000
 4631.00    0.94558   0.91661    0.000
 4632.00    0.94321   0.91439    0.000
 4633.00    0.93515   0.91205    0.000
 4634.00    0.93687   0.90992    0.000
 4635.00    0.92919   0.90790    0.000
 4636.00    0.90540   0.90585    0.000
 4637.00    0.88839   0.90408    0.000
 4638.00    0.88788   0.90295    0.000
 4639.00    0.88645   0.90260    0.000
 4640.00    0.87569   0.90276    0.000
 4641.00    0.86744   0.90257    0.000
 4642.00    0.86839   0.90117    0.000
 4643.00    0.87207   0.89822    0.000
 4644.00    0.87186   0.89352    0.000
 4645.00    0.86625   0.88752    0.000
 4646.00    0.85786   0.88174    0.000
 4647.00    0.85095   0.87780    0.000
 4648.00    0.84462   0.87647    0.000
 4649.00    0.83524   0.87767    0.000
 4650.00    0.83170   0.88084    0.000
 4651.00    0.84911   0.88508    0.000
 4652.00    0.87589   0.88915    0.000
 4653.00    0.88115   0.89223    0.000
 4654.00    0.86273   0.89457    0.000
 4655.00    0.84624   0.89693    0.000
 4656.00    0.84656   0.90005    0.000
 4657.00    0.86150   0.90419    0.000
 4658.00    0.88187   0.90839    0.000
 4659.00    0.89695   0.91106    0.000
 4660.00    0.90107   0.91117    0.000
 4661.00    0.89353   0.90839    0.000
 4662.00    0.87553   0.90290    0.000
 4663.00    0.85303   0.89524    0.000
 4664.00    0.84320   0.88565    0.000
 4665.00    0.86145   0.87488    0.000
 4666.00    0.89598   0.86525    0.000
 4667.00    0.92008   0.85933    0.000
 4668.00    0.92145   0.85794    0.000
 4669.00    0.90436   0.86047    0.000
 4670.00    0.88446   0.86570    0.000
 4671.00    0.87750   0.87222    0.000
 4672.00    0.88417   0.87910    0.000
 4673.00    0.89430   0.88582    0.000
 4674.00    0.89634   0.89156    0.000
 4675.00    0.88590   0.89538    0.000
 4676.00    0.87423   0.89667    0.000
 4677.00    0.87475   0.89562    0.000
 4678.00    0.88595   0.89334    0.000
 4679.00    0.89995   0.89082    0.000
 4680.00    0.91434   0.88852    0.000
 4681.00    0.92781   0.88691    0.000
 4682.00    0.93474   0.88612    0.000
 4683.00    0.93120   0.88571    0.000
 4684.00    0.92095   0.88557    0.000
 4685.00    0.90836   0.88601    0.000
 4686.00    0.89208   0.88686    0.000
 4687.00    0.87350   0.88774    0.000
 4688.00    0.86281   0.88854    0.000
 4689.00    0.86366   0.88916    0.000
 4690.00    0.86299   0.88978    0.000
 4691.00    0.85480   0.89086    0.000
 4692.00    0.85490   0.89229    0.000
 4693.00    0.87091   0.89361    0.000
 4694.00    0.88415   0.89440    0.000
 4695.00    0.87992   0.89401    0.000
 4696.00    0.86600   0.89170    0.000
 4697.00    0.85442   0.88757    0.000
 4698.00    0.84967   0.88262    0.000
 4699.00    0.85108   0.87764    0.000
 4700.00    0.85500   0.87268    0.000
 4701.00    0.85694   0.86795    0.000
 4702.00    0.85408   0.86442    0.000
 4703.00    0.85159   0.86290    0.000
 4704.00    0.86147   0.86296    0.000
 4705.00    0.88177   0.86343    0.000
 4706.00    0.89278   0.86372    0.000
 4707.00    0.88420   0.86414    0.000
 4708.00    0.86401   0.86524    0.000
 4709.00    0.84397   0.86717    0.000
 4710.00    0.83272   0.86926    0.000
 4711.00    0.83365   0.87059    0.000
 4712.00    0.84448   0.87143    0.000
 4713.00    0.85861   0.87295    0.000
 4714.00    0.86826   0.87609    0.000
 4715.00    0.87301   0.88078    0.000
 4716.00    0.87886   0.88620    0.000
 4717.00    0.88645   0.89175    0.000
 4718.00    0.89114   0.89734    0.000
 4719.00    0.89403   0.90250    0.000
 4720.00    0.90131   0.90638    0.000
 4721.00    0.91350   0.90852    0.000
 4722.00    0.92431   0.90909    0.000
 4723.00    0.92518   0.90827    0.000
 4724.00    0.91070   0.90571    0.000
 4725.00    0.88807   0.90090    0.000
 4726.00    0.87152   0.89411    0.000
 4727.00    0.86554   0.88679    0.000
 4728.00    0.86598   0.88025    0.000
 4729.00    0.86987   0.87494    0.000
 4730.00    0.87569   0.87128    0.000
 4731.00    0.87994   0.86993    0.000
 4732.00    0.87991   0.87072    0.000
 4733.00    0.87936   0.87290    0.000
 4734.00    0.88265   0.87549    0.000
 4735.00    0.88397   0.87762    0.000
 4736.00    0.87655   0.87981    0.000
 4737.00    0.86918   0.88263    0.000
 4738.00    0.87330   0.88512    0.000
 4739.00    0.88180   0.88679    0.000
 4740.00    0.88297   0.88829    0.000
 4741.00    0.88256   0.89012    0.000
 4742.00    0.89027   0.89208    0.000
 4743.00    0.89971   0.89367    0.000
 4744.00    0.90029   0.89475    0.000
 4745.00    0.89382   0.89575    0.000
 4746.00    0.88960   0.89654    0.000
 4747.00    0.89623   0.89673    0.000
 4748.00    0.91273   0.89639    0.000
 4749.00    0.92224   0.89545    0.000
 4750.00    0.91225   0.89357    0.000
 4751.00    0.89282   0.89080    0.000
 4752.00    0.87617   0.88753    0.000
 4753.00    0.85857   0.88420    0.000
 4754.00    0.83774   0.88132    0.000
 4755.00    0.82644   0.87920    0.000
 4756.00    0.83188   0.87805    0.000
 4757.00    0.84115   0.87770    0.000
 4758.00    0.84135   0.87751    0.000
 4759.00    0.83430   0.87651    0.000
 4760.00    0.82824   0.87386    0.000
 4761.00    0.83058   0.86978   25.290
 4762.00    0.84265   0.86528   24.867
 4763.00    0.85799   0.86102   24.668
 4764.00    0.87129   0.85755   24.928
 4765.00    0.88288   0.85581   25.269
 4766.00    0.89264   0.85643   25.270
 4767.00    0.89716   0.85927   24.879
 4768.00    0.89409   0.86359   24.490
 4769.00    0.88437   0.86813   24.713
 4770.00    0.87142   0.87209   25.494
 4771.00    0.86025   0.87587   25.873
 4772.00    0.85522   0.87990   25.463
 4773.00    0.85830   0.88378   25.016
 4774.00    0.86619   0.88682   24.946
 4775.00    0.87111   0.88899   25.006
 4776.00    0.86874   0.89071   25.105
 4777.00    0.86108   0.89167   25.462
 4778.00    0.85512   0.89128   25.949
 4779.00    0.85908   0.88975   26.046
 4780.00    0.87174   0.88749   25.781
 4781.00    0.88275   0.88441   25.746
 4782.00    0.88531   0.88074   26.083
 4783.00    0.87995   0.87726   26.432
 4784.00    0.87279   0.87405   26.695
 4785.00    0.87220   0.87093   27.046
 4786.00    0.88133   0.86873   27.135
 4787.00    0.89630   0.86783   26.433
 4788.00    0.90710   0.86795   25.685
 4789.00    0.90459   0.86943   26.066
 4790.00    0.89585   0.87223   27.121
 4791.00    0.89657   0.87600   27.228
 4792.00    0.90576   0.88055   26.575
 4793.00    0.91054   0.88502   26.618
 4794.00    0.90824   0.88823   27.345
 4795.00    0.90526   0.88962   27.694
 4796.00    0.90521   0.88915   27.458
 4797.00    0.90710   0.88705   27.230
 4798.00    0.90660   0.88405   27.275
 4799.00    0.90013   0.88115   27.487
 4800.00    0.89134   0.87898   27.640
 4801.00    0.88705   0.87747   27.518
 4802.00    0.88927   0.87597   27.083
 4803.00    0.89476   0.87404   26.513
 4804.00    0.89677   0.87204   26.150
 4805.00    0.88985   0.87050   26.210
 4806.00    0.87584   0.86910   26.457
 4807.00    0.86036   0.86769   26.532
 4808.00    0.84712   0.86682   26.449
 4809.00    0.83756   0.86674   26.412
 4810.00    0.83151   0.86742   26.495
 4811.00    0.82807   0.86871   26.654
 4812.00    0.82646   0.87050   26.789
 4813.00    0.82427   0.87278   26.860
 4814.00    0.81632   0.87533   26.981
 4815.00    0.80366   0.87775   27.140
 4816.00    0.80088   0.87966   26.963
 4817.00    0.81727   0.88066   26.480
 4818.00    0.84062   0.88046   26.615
 4819.00    0.85639   0.87872   27.680
 4820.00    0.86461   0.87532   28.133
 4821.00    0.86839   0.87013   27.038
 4822.00    0.86452   0.86356   26.176
 4823.00    0.85152   0.85770   26.658
 4824.00    0.83563   0.85406   27.392
 4825.00    0.82497   0.85198   27.323
 4826.00    0.82462   0.85043   27.181
 4827.00    0.83320   0.84912   27.486
 4828.00    0.84220   0.84850   27.410
 4829.00    0.84506   0.84856   26.683
 4830.00    0.84227   0.84810   26.430
 4831.00    0.83725   0.84684   27.100
 4832.00    0.83330   0.84564   27.715
 4833.00    0.83126   0.84468   27.528
 4834.00    0.82897   0.84338   27.050
 4835.00    0.82485   0.84149   26.918
 4836.00    0.81940   0.83926   27.313
 4837.00    0.81357   0.83645   27.926
 4838.00    0.80805   0.83280   28.045
 4839.00    0.80406   0.82894   27.521
 4840.00    0.80299   0.82554   26.987
 4841.00    0.80367   0.82236   26.840
 4842.00    0.80199   0.81897   27.041
 4843.00    0.79395   0.81583   27.585
 4844.00    0.77851   0.81294   28.515
 4845.00    0.76331   0.80935   29.286
 4846.00    0.76051   0.80409   28.923
 4847.00    0.76679   0.79726   27.859
 4848.00    0.76587   0.79002    0.000
 4849.00    0.75660   0.78252    0.000
 4850.00    0.75275   0.77351    0.000
 4851.00    0.75709   0.76237    0.000
 4852.00    0.75979   0.74909    0.000
 4853.00    0.75478   0.73301    0.000
 4854.00    0.74410   0.71390    0.000
 4855.00    0.73730   0.69271    0.000
 4856.00    0.74880   0.67003    0.000
 4857.00    0.79237   0.64564    0.000
 4858.00    0.87509   0.62002    0.000
 4859.00    0.98743   0.59537    0.000
 4860.00    1.10260   0.57607    0.000
 4861.00    1.18047   0.56664    0.000
 4862.00    1.18571   0.56762    0.000
 4863.00    1.11974   0.57669    0.000
 4864.00    1.01179   0.59242    0.000
 4865.00    0.89210   0.61340    0.000
 4866.00    0.78636   0.63705    0.000
 4867.00    0.71435   0.66015    0.000
 4868.00    0.68432   0.67989    0.000
 4869.00    0.68548   0.69487    0.000
 4870.00    0.69971   0.70588    0.000
 4871.00    0.71971   0.71553    0.000
 4872.00    0.74348   0.72546    0.000
 4873.00    0.76383   0.73531    0.000
 4874.00    0.77339   0.74472    0.000
 4875.00    0.77249   0.75423   27.324
 4876.00    0.76781   0.76442   27.259
 4877.00    0.76898   0.77479   27.252
 4878.00    0.78055   0.78430   27.056
 4879.00    0.79454   0.79155   26.850
 4880.00    0.80228   0.79588   26.921
 4881.00    0.80645   0.79825   27.312
 4882.00    0.81155   0.79926   27.866
 4883.00    0.81424   0.79864   28.271
 4884.00    0.81163   0.79652   28.266
 4885.00    0.80850   0.79393   27.871
 4886.00    0.80840   0.79224   27.326
 4887.00    0.80678   0.79167   26.957
 4888.00    0.79989   0.79167   26.914
 4889.00    0.79140   0.79210   27.059
 4890.00    0.78557   0.79426   27.220
 4891.00    0.78243   0.80019   27.375
 4892.00    0.78278   0.80910   27.515
 4893.00    0.79078   0.81871   27.558
 4894.00    0.80765   0.82792   27.438
 4895.00    0.82811   0.83620   27.169
 4896.00    0.84413   0.84312   26.866
 4897.00    0.84852   0.84739   26.700
 4898.00    0.84104   0.84807   26.690
 4899.00    0.83017   0.84658   26.653
 4900.00    0.82445   0.84498   26.521
 4901.00    0.82720   0.84333   26.451
 4902.00    0.83403   0.84141   26.520
 4903.00    0.83534   0.84023   26.616
 4904.00    0.83286   0.84055   26.583
 4905.00    0.84074   0.84137   26.351
 4906.00    0.85869   0.84091   26.143
 4907.00    0.86782   0.83882   26.357
 4908.00    0.86030   0.83582   26.873
 4909.00    0.84662   0.83259   27.000
 4910.00    0.83782   0.83017   26.559
 4911.00    0.83792   0.82902   26.111
 4912.00    0.84181   0.82861   26.105
 4913.00    0.83933   0.82829   26.627
 4914.00    0.82988   0.82756   27.281
 4915.00    0.82187   0.82533   27.395
 4916.00    0.81672   0.82011   27.137
 4917.00    0.80843   0.81133   27.338
 4918.00    0.79565   0.80049   28.029
 4919.00    0.78349   0.79014   28.460
 4920.00    0.77893   0.78239   28.330
 4921.00    0.78578   0.77843   28.045
 4922.00    0.79575   0.77795   28.174
 4923.00    0.79548   0.78119   29.019
 4924.00    0.78656   0.78905   29.843
 4925.00    0.78153   0.80052   29.495
 4926.00    0.78600   0.81246   28.719
 4927.00    0.79716   0.82279   28.989
 4928.00    0.80859   0.83115   29.896
 4929.00    0.81453   0.83716   29.953
 4930.00    0.81579   0.84018   29.304
 4931.00    0.81668   0.83924   29.086
 4932.00    0.81795   0.83453   29.378
 4933.00    0.81672   0.82873   29.636
 4934.00    0.80864   0.82406   29.746
 4935.00    0.79293   0.81995   29.901
 4936.00    0.77877   0.81556   30.124
 4937.00    0.77599   0.81197   30.327
 4938.00    0.78129   0.81159   30.482
 4939.00    0.78615   0.81520   30.599
 4940.00    0.78929   0.82058    0.000
 4941.00    0.79347   0.82581    0.000
 4942.00    0.79975   0.83133    0.000
 4943.00    0.80855   0.83715    0.000
 4944.00    0.82144   0.84199    0.000
 4945.00    0.83913   0.84535    0.000
 4946.00    0.85922   0.84774    0.000
 4947.00    0.87735   0.84941    0.000
 4948.00    0.88892   0.85015    0.000
 4949.00    0.89169   0.85003    0.000
 4950.00    0.88788   0.84924    0.000
 4951.00    0.88170   0.84713    0.000
 4952.00    0.87682   0.84347    0.000
 4953.00    0.87506   0.83914    0.000
 4954.00    0.87549   0.83438    0.000
 4955.00    0.87578   0.82832    0.000
 4956.00    0.87353   0.82140    0.000
 4957.00    0.86876   0.81769    0.000
 4958.00    0.86488   0.81917    0.000
 4959.00    0.86395   0.82265    0.000
 4960.00    0.86382   0.82565    0.000
 4961.00    0.86077   0.82872    0.000
 4962.00    0.85173   0.83282    0.000
 4963.00    0.83729   0.83604    0.000
 4964.00    0.82227   0.83593    0.000
 4965.00    0.81012   0.83364    0.000
 4966.00    0.80085   0.83133    0.000
 4967.00    0.79572   0.82947    0.000
 4968.00    0.79820   0.82813    0.000
 4969.00    0.80671   0.82766    0.000
 4970.00    0.81358   0.82885    0.000
 4971.00    0.81563   0.83138    0.000
 4972.00    0.81697   0.83400    0.000
 4973.00    0.82070   0.83614    0.000
 4974.00    0.82583   0.83719    0.000
 4975.00    0.82901   0.83652    0.000
 4976.00    0.82652   0.83353    0.000
 4977.00    0.81845   0.82797    0.000
 4978.00    0.80861   0.82068    0.000
 4979.00    0.79899   0.81237    0.000
 4980.00    0.78954   0.80306    0.000
 4981.00    0.78292   0.79341    0.000
 4982.00    0.78317   0.78563    0.000
 4983.00    0.78779   0.78166    0.000
 4984.00    0.78943   0.78131    0.000
 4985.00    0.78661   0.78379    0.000
 4986.00    0.78388   0.78865    0.000
 4987.00    0.78488   0.79470    0.000
 4988.00    0.78971   0.80049    0.000
 4989.00    0.79310   0.80513    0.000
 4990.00    0.78905   0.80859    0.000
 4991.00    0.78144   0.81127    0.000
 4992.00    0.77948   0.81252    0.000
 4993.00    0.78386   0.81265    0.000
 4994.00    0.78861   0.81287    0.000
 4995.00    0.78964   0.81272    0.000
 4996.00    0.78628   0.81150    0.000
 4997.00    0.78075   0.80880    0.000
 4998.00    0.77638   0.80450    0.000
 4999.00    0.77497   0.79910    0.000
 5000.00    0.77805   0.79307    0.000
 5001.00    0.78930   0.78735    0.000
 5002.00    0.81219   0.78289    0.000
 5003.00    0.84620   0.77912    0.000
 5004.00    0.88782   0.77560    0.000
 5005.00    0.93250   0.77332    0.000
 5006.00    0.97202   0.77377    0.000
 5007.00    0.99148   0.77618    0.000
 5008.00    0.97955   0.77783    0.000
 5009.00    0.94037   0.77772    0.000
 5010.00    0.88758   0.77655    0.000
 5011.00    0.83597   0.77431    0.000
 5012.00    0.79665   0.77063    0.000
 5013.00    0.77314   0.76580    0.000
 5014.00    0.76276   0.76130    0.000
 5015.00    0.75894   0.75814    0.000
 5016.00    0.75776   0.75550    0.000
 5017.00    0.76249   0.75382    0.000
 5018.00    0.77469   0.75502    0.000
 5019.00    0.78739   0.75901    0.000
 5020.00    0.79409   0.76348    0.000
 5021.00    0.79552   0.76739    0.000
 5022.00    0.79374   0.77216    0.000
 5023.00    0.78803   0.77815    0.000
 5024.00    0.77888   0.78349    0.000
 5025.00    0.77062   0.78697    0.000
 5026.00    0.76929   0.78907    0.000
 5027.00    0.77986   0.79170    0.000
 5028.00    0.79822   0.79528    0.000
 5029.00    0.80959   0.79809   12.312
 5030.00    0.80638   0.79977   12.275
 5031.00    0.79597   0.80138   12.669
 5032.00    0.78837   0.80303   13.033
 5033.00    0.78886   0.80272   12.365
 5034.00    0.79534   0.79888   11.699
 5035.00    0.79903   0.79316   13.782
 5036.00    0.79312   0.78781   22.877
 5037.00    0.77700   0.78215   40.041
 5038.00    0.75687   0.77537   38.096
 5039.00    0.74350   0.76873   31.526
 5040.00    0.74272   0.76482   31.977
 5041.00    0.75247   0.76573   34.213
 5042.00    0.76587   0.77003   34.182
 5043.00    0.77473   0.77505   33.293
 5044.00    0.77677   0.78051   33.004
 5045.00    0.77624   0.78623   33.109
 5046.00    0.77796   0.79038   33.360
 5047.00    0.78438   0.79154   33.764
 5048.00    0.79275   0.79068   34.081
 5049.00    0.79710   0.78948   33.910
 5050.00    0.79564   0.78811   33.437
 5051.00    0.79114   0.78721   33.244
 5052.00    0.78626   0.78825   33.406
 5053.00    0.78234   0.79140   33.566
 5054.00    0.77954   0.79520   33.567
 5055.00    0.77840   0.79903   33.451
 5056.00    0.78310   0.80344   33.100
 5057.00    0.79676   0.80802   32.406
 5058.00    0.81068   0.81134   31.709
 5059.00    0.81155   0.81300   31.488
 5060.00    0.79956   0.81360   31.800
 5061.00    0.78499   0.81305   32.330
 5062.00    0.77549   0.81047   32.590
 5063.00    0.77338   0.80548   32.258
 5064.00    0.77537   0.79995   31.700
 5065.00    0.77627   0.79566   31.425
 5066.00    0.77486   0.79176   31.266
 5067.00    0.77192   0.78762   30.901
 5068.00    0.76626   0.78479   30.667
 5069.00    0.75820   0.78404   30.982
 5070.00    0.75472   0.78343   31.488
 5071.00    0.76236   0.78187   31.569
 5072.00    0.77763   0.78085   31.283
 5073.00    0.79190   0.78020   31.024
 5074.00    0.79919   0.77821   30.931
 5075.00    0.79922   0.77529   30.892
 5076.00    0.79891   0.77272   30.658
 5077.00    0.80155   0.76956   30.200
 5078.00    0.79661   0.76460   29.992
 5079.00    0.77744   0.76011   30.383
 5080.00    0.75770   0.75850   31.053
 5081.00    0.75153   0.75871   31.492
 5082.00    0.75519   0.75921   31.562
 5083.00    0.76097   0.76129   31.379
 5084.00    0.76970   0.76598   31.118
 5085.00    0.78256   0.77144   31.067
 5086.00    0.79440   0.77593   31.625
 5087.00    0.80113   0.78007   32.618
 5088.00    0.80477   0.78451   32.803
 5089.00    0.80736   0.78820   31.783
 5090.00    0.80699   0.79058   31.073
 5091.00    0.80174   0.79225   31.557
 5092.00    0.79244   0.79313   32.515
 5093.00    0.78159   0.79221   33.081
 5094.00    0.77230   0.78922   33.258
 5095.00    0.76611   0.78480   33.354
 5096.00    0.76227   0.77951   33.510
 5097.00    0.75999   0.77375   33.596
 5098.00    0.75941   0.76858   33.319
 5099.00    0.75969   0.76564   32.870
 5100.00    0.75880   0.76525   32.946
 5101.00    0.75732   0.76615   33.605
 5102.00    0.75883   0.76743   34.026
 5103.00    0.76357   0.76908   34.036
 5104.00    0.76762   0.77080   34.448
 5105.00    0.77032   0.77150   35.188
 5106.00    0.77545   0.77073   34.990
 5107.00    0.78364   0.76973   33.853
 5108.00    0.79094   0.76930   33.189
 5109.00    0.79443   0.76932   33.369
 5110.00    0.79407   0.77048   33.641
 5111.00    0.79226   0.77312   33.684
 5112.00    0.79217   0.77649   33.849
 5113.00    0.79345   0.77997   34.168
 5114.00    0.79327   0.78325   34.295
 5115.00    0.79288   0.78624   34.276
 5116.00    0.79657   0.78846   34.479
 5117.00    0.80393   0.78903   34.785
 5118.00    0.80970   0.78752   34.688
 5119.00    0.80893   0.78425   34.188
 5120.00    0.79942   0.77978   33.743
 5121.00    0.78427   0.77421   33.667
 5122.00    0.76952   0.76755   34.017
 5123.00    0.75782   0.76090   34.566
 5124.00    0.74879   0.75554   34.947
 5125.00    0.74224   0.75169   35.052
 5126.00    0.73871   0.74901   35.024
 5127.00    0.73903   0.74745   35.018
 5128.00    0.74315   0.74729   35.120
 5129.00    0.74839   0.74868   35.300
 5130.00    0.75093   0.75112   35.426
 5131.00    0.74886   0.75338   35.320
 5132.00    0.74299   0.75500   34.923
 5133.00    0.73734   0.75663   34.498
 5134.00    0.73660   0.75829   34.286
 5135.00    0.74234   0.75844   34.069
 5136.00    0.75188   0.75669   33.649
 5137.00    0.75792   0.75412   33.447
 5138.00    0.75513   0.75154   33.831
 5139.00    0.74809   0.74979   34.282
 5140.00    0.74388   0.74823   34.154
 5141.00    0.74294   0.74581   33.763
 5142.00    0.74347   0.74416   33.599
 5143.00    0.74710   0.74463   33.434
 5144.00    0.75473   0.74530   32.984
 5145.00    0.76213   0.74462   32.579
 5146.00    0.76397   0.74384   32.635
 5147.00    0.75810   0.74417   33.187
 5148.00    0.74682   0.74483   33.856
 5149.00    0.73684   0.74466   33.875
 5150.00    0.73371   0.74415   33.063
 5151.00    0.73741   0.74439   32.407
 5152.00    0.74464   0.74522   32.563
 5153.00    0.75134   0.74627   33.074
 5154.00    0.75563   0.74814   33.273
 5155.00    0.75930   0.75122   33.006
 5156.00    0.76444   0.75468   32.479
 5157.00    0.77116   0.75759   32.002
 5158.00    0.77822   0.75962   31.710
 5159.00    0.78349   0.76055   31.489
 5160.00    0.78422   0.75905   31.312
 5161.00    0.77763   0.75416   31.375
 5162.00    0.76377   0.74672   31.805
 5163.00    0.74625   0.73741   32.522
 5164.00    0.72769   0.72603   33.306
 5165.00    0.70812   0.71299   33.883
 5166.00    0.68893   0.69951   34.196
 5167.00    0.67391   0.68771   34.469
 5168.00    0.66531   0.67996   34.720
 5169.00    0.66268   0.67665   34.657
 5170.00    0.66586   0.67539   34.323
 5171.00    0.67561   0.67578   34.180
 5172.00    0.69102   0.68128   34.418
 5173.00    0.70905   0.69246   34.788
 5174.00    0.72665   0.70442   34.867
 5175.00    0.74150   0.71409   34.373
 5176.00    0.75198   0.72312   33.772
 5177.00    0.75652   0.73148   33.932
 5178.00    0.75196   0.73571   34.873
 5179.00    0.73563   0.73486   35.740
 5180.00    0.71289   0.73109   36.014
 5181.00    0.69478   0.72499   35.936
 5182.00    0.68571   0.71658   36.064
 5183.00    0.68297   0.70967   36.803
 5184.00    0.68432   0.70787   37.577
 5185.00    0.68956   0.70941   37.321
 5186.00    0.69923   0.71126   36.611
 5187.00    0.71225   0.71395   36.837
 5188.00    0.72166   0.71928   37.640
 5189.00    0.71982   0.72493   37.605
 5190.00    0.71066   0.72663    0.000
 5191.00    0.70491   0.72539    0.000
 5192.00    0.70595   0.72552    0.000
 5193.00    0.71117   0.72691    0.000
 5194.00    0.71938   0.72698    0.000
 5195.00    0.73159   0.72707    0.000
 5196.00    0.74963   0.72945    0.000
 5197.00    0.77299   0.73307    0.000
 5198.00    0.79432   0.73618    0.000
 5199.00    0.80385   0.73821    0.000
 5200.00    0.79687   0.73888    0.000
 5201.00    0.77566   0.73811    0.000
 5202.00    0.75020   0.73599    0.000
 5203.00    0.73033   0.73167    0.000
 5204.00    0.71613   0.72575    0.000
 5205.00    0.70416   0.72094    0.000
 5206.00    0.69622   0.71828    0.000
 5207.00    0.69568   0.71660    0.000
 5208.00    0.70231   0.71680    0.000
 5209.00    0.71257   0.72027    0.000
 5210.00    0.72087   0.72553    0.000
 5211.00    0.72426   0.73082   35.431
 5212.00    0.72629   0.73601   35.162
 5213.00    0.73014   0.74059   34.570
 5214.00    0.73285   0.74345   34.470
 5215.00    0.73328   0.74522   35.049
 5216.00    0.73795   0.74724   35.035
 5217.00    0.74829   0.74953   33.906
 5218.00    0.75227   0.75141   33.316
 5219.00    0.74269   0.75263   34.136
 5220.00    0.72924   0.75313   34.945
 5221.00    0.72280   0.75187   34.452
 5222.00    0.72419   0.74818   33.525
 5223.00    0.72844   0.74265   33.162
 5224.00    0.72914   0.73581   33.350
 5225.00    0.72573   0.72791   33.732
 5226.00    0.72557   0.72123   33.983
 5227.00    0.73081   0.71838   34.015
 5228.00    0.73341   0.71827   34.038
 5229.00    0.73010   0.71906   34.165
 5230.00    0.72786   0.72137   34.248
 5231.00    0.73073   0.72504   34.139
 5232.00    0.73514   0.72826   33.861
 5233.00    0.74033   0.73094   33.672
 5234.00    0.75066   0.73407   33.942
 5235.00    0.76400   0.73775   34.549
 5236.00    0.77016   0.74172   34.829
 5237.00    0.76532   0.74609   34.690
 5238.00    0.75593   0.75073   34.784
 5239.00    0.75082   0.75537   35.166
 5240.00    0.75614   0.75936   35.124
 5241.00    0.76908   0.76161   34.490
 5242.00    0.77951   0.76224   33.868
 5243.00    0.78219   0.76255   33.764
 5244.00    0.77870   0.76220   34.328
 5245.00    0.77052   0.75952   35.189
 5246.00    0.75847   0.75549   35.605
 5247.00    0.74711   0.75254   35.474
 5248.00    0.74253   0.75011   35.377
 5249.00    0.74326   0.74652   35.664
 5250.00    0.74269   0.74348   36.228
 5251.00    0.74090   0.74305   36.482
 5252.00    0.74290   0.74390   35.882
 5253.00    0.74784   0.74431   35.118
 5254.00    0.75032   0.74518   35.312
 5255.00    0.74857   0.74757   36.268
 5256.00    0.74492   0.74998   36.829
 5257.00    0.74308   0.75038   36.486
 5258.00    0.74566   0.74857   35.662
 5259.00    0.75056   0.74482   35.100
 5260.00    0.75234   0.73841   35.267
 5261.00    0.74602   0.72911   35.726
 5262.00    0.72963   0.71847   35.698
 5263.00    0.70735   0.70758   35.260
 5264.00    0.68656   0.69651   34.887
 5265.00    0.67267   0.68695   34.458
 5266.00    0.66880   0.68152   33.629
 5267.00    0.67633   0.67886   32.486
 5268.00    0.69329   0.67614   31.390
 5269.00    0.71247   0.67556   30.691
 5270.00    0.72653   0.67980   30.483
 5271.00    0.73450   0.68580   30.400
 5272.00    0.73923   0.69065   30.067
 5273.00    0.74332   0.69626   29.620
 5274.00    0.74851   0.70341   29.313
 5275.00    0.75532   0.71063   29.113
 5276.00    0.76284   0.71759   28.968
 5277.00    0.76854   0.72378   29.076
 5278.00    0.76889   0.72782   29.528
 5279.00    0.76036   0.73039   29.985
 5280.00    0.74448   0.73302   30.173
 5281.00    0.73109   0.73520   30.381
 5282.00    0.72802   0.73602   30.860
 5283.00    0.73311   0.73706   31.316
 5284.00    0.74032   0.74070   31.488
 5285.00    0.74523   0.74638   31.636
 5286.00    0.74753   0.75173   31.943
 5287.00    0.75145   0.75651   32.111
 5288.00    0.75931   0.76162   31.981
 5289.00    0.76743   0.76617   31.910
 5290.00    0.76987   0.76829   32.164
 5291.00    0.76176   0.76771   32.580
 5292.00    0.74441   0.76519   32.841
 5293.00    0.72665   0.76161   32.723
 5294.00    0.71633   0.75717   32.446
 5295.00    0.71562   0.75157   32.622
 5296.00    0.72240   0.74511   33.287
 5297.00    0.73178   0.73979   33.612
 5298.00    0.73955   0.73726   33.271
 5299.00    0.74399   0.73659   32.961
 5300.00    0.74603   0.73643   33.176
 5301.00    0.74852   0.73774   33.793
 5302.00    0.75272   0.74160   34.370
 5303.00    0.75730   0.74654   34.424
 5304.00    0.76035   0.75062   34.191
 5305.00    0.76054   0.75383   34.491
 5306.00    0.75840   0.75691   35.301
 5307.00    0.75620   0.75978   35.641
 5308.00    0.75605   0.76175   35.331
 5309.00    0.75868   0.76250   35.210
 5310.00    0.76164   0.76227   35.532
 5311.00    0.76079   0.76118   35.848
 5312.00    0.75575   0.75915   36.059
 5313.00    0.74980   0.75667   36.470
 5314.00    0.74489   0.75375   36.926
 5315.00    0.74132   0.74999   36.920
 5316.00    0.74039   0.74664   36.599
 5317.00    0.74390   0.74502   36.539
 5318.00    0.75157   0.74374   36.608
 5319.00    0.76028   0.74137   36.253
 5320.00    0.76426   0.73909   35.696
 5321.00    0.75825   0.73723   35.592
 5322.00    0.74400   0.73342   35.961
 5323.00    0.72819   0.72682   36.350
 5324.00    0.71583   0.72031   36.511
 5325.00    0.70839   0.71528   36.491
 5326.00    0.70302   0.70952   36.494
 5327.00    0.69589   0.70325   36.642
 5328.00    0.68797   0.70110   36.651
 5329.00    0.68376   0.70404   36.200
 5330.00    0.68762   0.70798   35.578
 5331.00    0.70086   0.71161   35.190
 5332.00    0.71860   0.71720   34.841
 5333.00    0.73312   0.72428   34.240
 5334.00    0.73919   0.72942   33.691
 5335.00    0.73643   0.73125   33.623
 5336.00    0.73088   0.73153   34.006
 5337.00    0.72816   0.73177   34.546
 5338.00    0.72568   0.73096   34.950
 5339.00    0.71955   0.72866   35.053
 5340.00    0.71302   0.72718   34.926
 5341.00    0.71133   0.72783   34.708
 5342.00    0.71529   0.72900   34.422
 5343.00    0.72163   0.72976   34.215
 5344.00    0.72443   0.73076   34.530
 5345.00    0.72040   0.73239   35.444
 5346.00    0.71309   0.73426   36.055
 5347.00    0.70799   0.73555   35.788
 5348.00    0.70807   0.73622   35.598
 5349.00    0.71478   0.73803   36.151
 5350.00    0.72869   0.74171   36.564
 5351.00    0.74632   0.74549   36.160
 5352.00    0.75913   0.74881   35.782
 5353.00    0.76412   0.75310   36.059
 5354.00    0.76921   0.75807   36.424
 5355.00    0.77890   0.76173   36.384
 5356.00    0.78652   0.76371   36.301
 5357.00    0.78677   0.76472   36.432
 5358.00    0.78254   0.76454   36.446
 5359.00    0.77745   0.76254   36.289
 5360.00    0.77187   0.75870   36.498
 5361.00    0.76558   0.75357   37.178
 5362.00    0.75917   0.74809   37.623
 5363.00    0.75335   0.74247   37.535
 5364.00    0.74857   0.73647   37.481
 5365.00    0.74489   0.73062   37.607
 5366.00    0.74168   0.72546   37.367
 5367.00    0.73653   0.72118   36.931
 5368.00    0.72616   0.71774   37.258
 5369.00    0.71200   0.71508   38.190
 5370.00    0.70016   0.71385   38.216
 5371.00    0.69314   0.71537   37.203
 5372.00    0.68842   0.71913   -2.000
 5373.00    0.68429   0.72344   -2.000
 5374.00    0.68228   0.72836   -2.000
 5375.00    0.68780   0.73380   -2.000
 5376.00    0.70698   0.73835   -2.000
 5377.00    0.73696   0.74118   -2.000
 5378.00    0.76667   0.74244   -2.000
 5379.00    0.78769   0.74211   -2.000
 5380.00    0.79670   0.74108   -2.000
 5381.00    0.79352   0.74009   -2.000
 5382.00    0.78047   0.73880   -2.000
 5383.00    0.76198   0.73778   -2.000
 5384.00    0.74392   0.73768   -2.000
 5385.00    0.73228   0.73745   -2.000
 5386.00    0.73036   0.73652   -2.000
 5387.00    0.73376   0.73555   34.319
 5388.00    0.73450   0.73400   34.418
 5389.00    0.73120   0.73119   34.266
 5390.00    0.72706   0.72799   34.442
 5391.00    0.72240   0.72461   34.753
 5392.00    0.71559   0.72055   34.727
 5393.00    0.70698   0.71682   34.884
 5394.00    0.69831   0.71425   35.940
 5395.00    0.69069   0.71144   37.116
 5396.00    0.68499   0.70825   37.004
 5397.00    0.68304   0.70701   36.058
 5398.00    0.68594   0.70714   35.544
 5399.00    0.69154   0.70574   35.631
 5400.00    0.69625   0.70352   35.919
 5401.00    0.69802   0.70260   36.230
 5402.00    0.69754   0.70115   36.575
 5403.00    0.69906   0.69760   36.979
 5404.00    0.70544   0.69385   37.418
 5405.00    0.71279   0.69146   37.765
 5406.00    0.71571   0.69008   37.928
 5407.00    0.71341   0.68953   38.004
 5408.00    0.70868   0.68987   38.116
 5409.00    0.70577   0.69145   38.234
 5410.00    0.70653   0.69496   38.278
 5411.00    0.70743   0.69972   38.228
 5412.00    0.70617   0.70414   38.148
 5413.00    0.70690   0.70804   38.154
 5414.00    0.71354   0.71255   38.185
 5415.00    0.72424   0.71751   37.893
 5416.00    0.73452   0.72132   37.300
 5417.00    0.74053   0.72342   37.114
 5418.00    0.74232   0.72473   37.624
 5419.00    0.74495   0.72533   38.121
 5420.00    0.74974   0.72492   38.117
 5421.00    0.75006   0.72411   38.137
 5422.00    0.74259   0.72279   38.413
 5423.00    0.73322   0.72059   38.249
 5424.00    0.72821   0.71882   37.494
 5425.00    0.72873   0.71807   37.106
 5426.00    0.73113   0.71706   37.582
 5427.00    0.72890   0.71494   38.392
 5428.00    0.72113   0.71220   38.754
 5429.00    0.71470   0.71025   38.234
 5430.00    0.71398   0.70937   37.233
 5431.00    0.71685   0.70777   36.700
 5432.00    0.71961   0.70559   36.823
 5433.00    0.71961   0.70563   36.918
 5434.00    0.71648   0.70816   36.798
 5435.00    0.71229   0.71114   36.992
 5436.00    0.71015   0.71470   37.298
 5437.00    0.71307   0.71951   36.731
 5438.00    0.72183   0.72461   35.543
 5439.00    0.73444   0.72886   35.046
 5440.00    0.74676   0.73158   35.378
 5441.00    0.75388   0.73250   35.589
 5442.00    0.75348   0.73139   35.547
 5443.00    0.74645   0.72869   36.032
 5444.00    0.73573   0.72503   37.067
 5445.00    0.72545   0.72093   37.755
 5446.00    0.71965   0.71761   37.586
 5447.00    0.72118   0.71631   36.884
 5448.00    0.72981   0.71631   36.413
 5449.00    0.74213   0.71647   36.778
 5450.00    0.75243   0.71700   37.491
 5451.00    0.75465   0.71797   37.490
 5452.00    0.74616   0.71838   37.099
 5453.00    0.72900   0.71756   37.441
 5454.00    0.71041   0.71573   38.397
 5455.00    0.69879   0.71449   39.005
 5456.00    0.69593   0.71486   39.218
 5457.00    0.69867   0.71536   39.523
 5458.00    0.70458   0.71508   39.364
 5459.00    0.71268   0.71545   38.067
 5460.00    0.72273   0.71666   36.694
 5461.00    0.73337   0.71659   36.564
 5462.00    0.73958   0.71515   37.495
 5463.00    0.73743   0.71466   38.477
 5464.00    0.73112   0.71514   38.821
 5465.00    0.72725   0.71475   38.486
 5466.00    0.72569   0.71446   38.065
 5467.00    0.72259   0.71571   38.159
 5468.00    0.71571   0.71637   38.762
 5469.00    0.70538   0.71516   39.411
 5470.00    0.69472   0.71382   39.449
 5471.00    0.68711   0.71202   38.681
 5472.00    0.68337   0.70800   37.903
 5473.00    0.68288   0.70357   37.771
 5474.00    0.68486   0.70029   37.908
 5475.00    0.68796   0.69630   37.785
 5476.00    0.68990   0.69217   37.562
 5477.00    0.68994   0.69104   37.398
 5478.00    0.69075   0.69198   36.861
 5479.00    0.69552   0.69236   35.814
 5480.00    0.70508   0.69367   34.958
 5481.00    0.71662   0.69742   34.781
 5482.00    0.72384   0.70129   -2.000
 5483.00    0.72466   0.70386   -2.000
 5484.00    0.72516   0.70641   -2.000
 5485.00    0.72622   0.70889   -2.000
 5486.00    0.71513   0.71009   -2.000
 5487.00    0.67401   0.71084   -2.000
 5488.00    0.57682   0.71181   -2.000
 5489.00    0.33633   0.71186   -2.000
 5490.00   -0.13799   0.71153   -2.000
 5491.00   -0.43232   0.71196   -2.000
 5492.00    0.38895   0.71202   -2.000
 5493.00    2.35150   0.71139   -2.000
 5494.00    4.14616   0.71151   -2.000
 5495.00    4.84036   0.71163   -2.000
 5496.00    4.57187   0.71037   -2.000
 5497.00    3.71125   0.70927   -2.000
 5498.00    2.51656   0.70923   -2.000
 5499.00    1.40425   0.70829   -2.000
 5500.00    0.90075   0.70612   -2.000
 5501.00    0.97200   0.70437   -2.000
 5502.00    1.01034   0.70320   -2.000
 5503.00    0.79230   0.70174   -2.000
 5504.00    0.63630   0.69998   -2.000
 5505.00    0.67688   0.69824   -2.000
 5506.00    0.73052   0.69730   13.689
 5507.00    0.70737   0.69714   14.137
 5508.00    0.68271   0.69645   14.646
 5509.00    0.69403   0.69555   14.407
 5510.00    0.70784   0.69565   14.131
 5511.00    0.70572   0.69612   14.175
 5512.00    0.69772   0.69648   14.321
 5513.00    0.69116   0.69777   14.455
 5514.00    0.68586   0.70000   14.614
 5515.00    0.68353   0.70237   14.667
 5516.00    0.68717   0.70509   14.455
 5517.00    0.69455   0.70825   14.307
 5518.00    0.69997   0.71096   14.564
 5519.00    0.70131   0.71265   14.494
 5520.00    0.70034   0.71345   13.525
 5521.00    0.70017   0.71337   13.671
 5522.00    0.70347   0.71218   18.293
 5523.00    0.71023   0.70975   32.784
 5524.00    0.71756   0.70647   45.582
 5525.00    0.72027   0.70332   37.565
 5526.00    0.71455   0.70035   34.306
 5527.00    0.70365   0.69729   36.987
 5528.00    0.69479   0.69541   38.423
 5529.00    0.69318   0.69524   37.252
 5530.00    0.69990   0.69525   36.902
 5531.00    0.71045   0.69537   37.477
 5532.00    0.71946   0.69679   37.458
 5533.00    0.72682   0.69835   36.937
 5534.00    0.73330   0.69905   36.716
 5535.00    0.73465   0.70030   36.707
 5536.00    0.72744   0.70218   36.528
 5537.00    0.71600   0.70347   36.311
 5538.00    0.70692   0.70460   36.374
 5539.00    0.70229   0.70621   36.793
 5540.00    0.70079   0.70750   37.408
 5541.00    0.69971   0.70786   37.870
 5542.00    0.69792   0.70775   37.979
 5543.00    0.69801   0.70792   38.010
 5544.00    0.70233   0.70829   38.211
 5545.00    0.70955   0.70836   38.393
 5546.00    0.71705   0.70882   38.447
 5547.00    0.72310   0.71019   38.740
 5548.00    0.72672   0.71152   39.479
 5549.00    0.72753   0.71225   40.223
 5550.00    0.72590   0.71289   40.407
 5551.00    0.72306   0.71323   39.892
 5552.00    0.72063   0.71273   39.082
 5553.00    0.72009   0.71160   38.701
 5554.00    0.72114   0.71042   38.905
 5555.00    0.72137   0.70937   38.998
 5556.00    0.72032   0.70808   38.640
 5557.00    0.72093   0.70667   38.376
 5558.00    0.72496   0.70548   38.398
 5559.00    0.73053   0.70428   38.148
 5560.00    0.73358   0.70278   37.604
 5561.00    0.72996   0.70088   37.590
 5562.00    0.72134   0.69883   38.346
 5563.00    0.71574   0.69710   39.074
 5564.00    0.71721   0.69535   38.968
 5565.00    0.72258   0.69321   37.950
 5566.00    0.72748   0.69182   36.826
 5567.00    0.72946   0.69133   36.676
 5568.00    0.72974   0.69018   37.446
 5569.00    0.73183   0.68933   37.922
 5570.00    0.73468   0.69013   37.597
 5571.00    0.73276   0.69047   37.146
 5572.00    0.72475   0.69014   37.044
 5573.00    0.71477   0.69155   37.239
 5574.00    0.70678   0.69346   37.505
 5575.00    0.70242   0.69408   37.595
 5576.00    0.70043   0.69529   37.410
 5577.00    0.69812   0.69719   37.077
 5578.00    0.69592   0.69785   36.971
 5579.00    0.69674   0.69789   37.428
 5580.00    0.70134   0.69772   38.038
 5581.00    0.70796   0.69614   37.943
 5582.00    0.71432   0.69335   37.255
 5583.00    0.71830   0.69001   36.803
 5584.00    0.71851   0.68569   36.918
 5585.00    0.71447   0.68058   37.422
 5586.00    0.70687   0.67581   37.959
 5587.00    0.69741   0.67190   38.137
 5588.00    0.68836   0.66892   37.763
 5589.00    0.68203   0.66721   37.154
 5590.00    0.67988   0.66696   37.399
 5591.00    0.68221   0.66815   38.937
 5592.00    0.68786   0.67030   38.887
 5593.00    0.69442   0.67242   35.703
 5594.00    0.69851   0.67442   35.448
 5595.00    0.69759   0.67683   41.529
 5596.00    0.69229   0.67837   37.470
 5597.00    0.68563   0.67826   22.012
 5598.00    0.68116   0.67826   14.979
 5599.00    0.68107   0.67881   13.699
 5600.00    0.68414   0.67883   14.554
 5601.00    0.68784   0.67904   14.949
 5602.00    0.69113   0.68091   14.484
 5603.00    0.69435   0.68417   14.157
 5604.00    0.69858   0.68787   14.313
 5605.00    0.70428   0.69194   14.597
 5606.00    0.71007   0.69628   14.059
 5607.00    0.71503   0.70016   13.072
 5608.00    0.72080   0.70274   14.033
 5609.00    0.72823   0.70392   20.127
 5610.00    0.73443   0.70352   34.099
 5611.00    0.73593   0.70132   39.539
 5612.00    0.73153   0.69833   33.975
 5613.00    0.72344   0.69477   33.184
 5614.00    0.71719   0.69015   35.453
 5615.00    0.71613   0.68617   36.275
 5616.00    0.71795   0.68400   35.843
 5617.00    0.72002   0.68233   35.844
 5618.00    0.72259   0.68107   36.106
 5619.00    0.72524   0.68121   36.141
 5620.00    0.72493   0.68182   36.172
 5621.00    0.71962   0.68208   36.461
 5622.00    0.71043   0.68234   36.909
 5623.00    0.70097   0.68224   37.380
 5624.00    0.69585   0.68217   37.872
 5625.00    0.69557   0.68315   38.303
 5626.00    0.69525   0.68439   38.463
 5627.00    0.69244   0.68563   38.478
 5628.00    0.68984   0.68792   38.822
 5629.00    0.69011   0.69051   39.347
 5630.00    0.69361   0.69212   39.135
 5631.00    0.69969   0.69313   38.150
 5632.00    0.70700   0.69359   37.462
 5633.00    0.71252   0.69274   37.574
 5634.00    0.71246   0.69113   38.129
 5635.00    0.70668   0.68941   38.536
 5636.00    0.69920   0.68713   38.354
 5637.00    0.69399   0.68477   37.888
 5638.00    0.69299   0.68338   37.919
 5639.00    0.69464   0.68243   38.428
 5640.00    0.69494   0.68141   38.650
 5641.00    0.69189   0.68137   38.475
 5642.00    0.68657   0.68227   38.505
 5643.00    0.68209   0.68305   38.839
 5644.00    0.68166   0.68398   39.027
 5645.00    0.68453   0.68535   38.862
 5646.00    0.68719   0.68656   38.487
 5647.00    0.68869   0.68738   38.055
 5648.00    0.69028   0.68792   37.682
 5649.00    0.69155   0.68798   37.556
 5650.00    0.69116   0.68736   37.801
 5651.00    0.69012   0.68619   38.145
 5652.00    0.69081   0.68469   38.180
 5653.00    0.69356   0.68221   38.064
 5654.00    0.69692   0.67862   38.169
 5655.00    0.69935   0.67556   38.190
 5656.00    0.70035   0.67288   37.638
 5657.00    0.70172   0.66913   36.937
 5658.00    0.70518   0.66605   36.821
 5659.00    0.70844   0.66534   37.310
 5660.00    0.70803   0.66510   37.915
 5661.00    0.70445   0.66471   38.094
 5662.00    0.69982   0.66604   37.731
 5663.00    0.69371   0.66857   37.594
 5664.00    0.68530   0.67067   38.338
 5665.00    0.67676   0.67268   39.274
 5666.00    0.67122   0.67512   39.390
 5667.00    0.66982   0.67750   39.105
 5668.00    0.67259   0.67965   39.196
 5669.00    0.67986   0.68180   39.344
 5670.00    0.69079   0.68388   39.026
 5671.00    0.70188   0.68593   38.593
 5672.00    0.70967   0.68806   38.551
 5673.00    0.71353   0.68976   38.826
 5674.00    0.71450   0.69060   38.965
 5675.00    0.71407   0.69101   38.446
 5676.00    0.71312   0.69112   37.391
 5677.00    0.71139   0.69012   36.800
 5678.00    0.70852   0.68801   36.918
 5679.00    0.70514   0.68590   36.398
 5680.00    0.70395   0.68368   34.675
 5681.00    0.70957   0.68066   33.220
 5682.00    0.72190   0.67769   32.855
 5683.00    0.73251   0.67554   32.858
 5684.00    0.73272   0.67373   32.726
 5685.00    0.71954   0.67229   33.067
 5686.00    0.69768   0.67180   34.322
 5687.00    0.67876   0.67210   35.984
 5688.00    0.67062   0.67313   37.199
 5689.00    0.67205   0.67477   37.432
 5690.00    0.67917   0.67655   36.915
 5691.00    0.68884   0.67856   36.512
 5692.00    0.69775   0.68067   36.717
 5693.00    0.70237   0.68198   37.341
 5694.00    0.70209   0.68237   37.900
 5695.00    0.69964   0.68256   37.906
 5696.00    0.69641   0.68199   37.495
 5697.00    0.69156   0.68014   37.351
 5698.00    0.68659   0.67812   37.470
 5699.00    0.68563   0.67627   37.058
 5700.00    0.68888   0.67381   36.004
 5701.00    0.69189   0.67105   35.012
 5702.00    0.69213   0.66877   34.305
 5703.00    0.69066   0.66661   33.614
 5704.00    0.68960   0.66388   33.112
 5705.00    0.69062   0.66104   33.343
 5706.00    0.69313   0.65889   34.358
 5707.00    0.69476   0.65673   35.620
 5708.00    0.69428   0.65453   36.594
 5709.00    0.69147   0.65396   37.087
 5710.00    0.68459   0.65458   37.477
 5711.00    0.67196   0.65557   38.327
 5712.00    0.65782   0.65819   39.234
 5713.00    0.65016   0.66203   39.145
 5714.00    0.65253   0.66561   38.298
 5715.00    0.66303   0.66965   37.793
 5716.00    0.67661   0.67399   37.781
 5717.00    0.68786   0.67741   37.750
 5718.00    0.69559   0.68050   37.625
 5719.00    0.70219   0.68344   37.582
 5720.00    0.71057   0.68547   37.302
 5721.00    0.72117   0.68708   36.492
 5722.00    0.72798   0.68835   35.912
 5723.00    0.72403   0.68869   36.378
 5724.00    0.71117   0.68868   37.195
 5725.00    0.69722   0.68849   37.113
 5726.00    0.68882   0.68755   36.564
 5727.00    0.68883   0.68635   36.598
 5728.00    0.69439   0.68556   36.958
 5729.00    0.69988   0.68483   36.904
 5730.00    0.70149   0.68396   36.662
 5731.00    0.69846   0.68361   36.767
 5732.00    0.69380   0.68383   37.044
 5733.00    0.69105   0.68400   37.093
 5734.00    0.69053   0.68416   37.000
 5735.00    0.69094   0.68458   37.021
 5736.00    0.69154   0.68490   37.150
 5737.00    0.69290   0.68483   37.272
 5738.00    0.69702   0.68464   37.373
 5739.00    0.70452   0.68435   37.455
 5740.00    0.71215   0.68392    0.000
 5741.00    0.71566   0.68349    0.000
 5742.00    0.71293   0.68304    0.000
 5743.00    0.70588   0.68248    0.000
 5744.00    0.70115   0.68187    0.000
 5745.00    0.70368   0.68126    0.000
 5746.00    0.71207   0.68035    0.000
 5747.00    0.72242   0.67904    0.000
 5748.00    0.73163   0.67769    0.000
 5749.00    0.73763   0.67621    0.000
 5750.00    0.73937   0.67445    0.000
 5751.00    0.73624   0.67288    0.000
 5752.00    0.72802   0.67174    0.000
 5753.00    0.71681   0.67078    0.000
 5754.00    0.70727   0.67037    0.000
 5755.00    0.70163   0.67053    0.000
 5756.00    0.69760   0.67078    0.000
 5757.00    0.69252   0.67118    0.000
 5758.00    0.68581   0.67151    0.000
 5759.00    0.67954   0.67142    0.000
 5760.00    0.67751   0.67139    0.000
 5761.00    0.68007   0.67139    0.000
 5762.00    0.68308   0.67134    0.000
 5763.00    0.68394   0.67206    0.000
 5764.00    0.68339   0.67336    0.000
 5765.00    0.68231   0.67459    0.000
 5766.00    0.68094   0.67613    0.000
 5767.00    0.68044   0.67772    0.000
 5768.00    0.68273   0.67851    0.000
 5769.00    0.68751   0.67885    0.000
 5770.00    0.69226   0.67881    0.000
 5771.00    0.69537   0.67800    0.000
 5772.00    0.69695   0.67704    0.000
 5773.00    0.69801   0.67598    0.000
 5774.00    0.69923   0.67438    0.000
 5775.00    0.69852   0.67279    0.000
 5776.00    0.69260   0.67103    0.000
 5777.00    0.68292   0.66842    0.000
 5778.00    0.67464   0.66554    0.000
 5779.00    0.67059   0.66263    0.000
 5780.00    0.67028   0.65915    0.000
 5781.00    0.67119   0.65579    0.000
 5782.00    0.67045   0.65351    0.000
 5783.00    0.66757   0.65184    0.000
 5784.00    0.66396   0.65075    0.000
 5785.00    0.66061   0.65118    0.000
 5786.00    0.65755   0.65262    0.000
 5787.00    0.65361   0.65412    0.000
 5788.00    0.64800   0.65625    0.000
 5789.00    0.64301   0.65876    0.000
 5790.00    0.64180   0.66065    0.000
 5791.00    0.64448   0.66248    0.000
 5792.00    0.64952   0.66439    0.000
 5793.00    0.65674   0.66559    0.000
 5794.00    0.66621   0.66663    0.000
 5795.00    0.67615   0.66795    0.000
 5796.00    0.68485   0.66881   -2.000
 5797.00    0.69364   0.66935   -2.000
 5798.00    0.70590   0.67033   -2.000
 5799.00    0.72529   0.67119   -2.000
 5800.00    0.75202   0.67142   -2.000
 5801.00    0.77929   0.67170   -2.000
 5802.00    0.79795   0.67194   -2.000
 5803.00    0.80211   0.67150   -2.000
 5804.00    0.79193   0.67088   -2.000
 5805.00    0.77490   0.67046   -2.000
 5806.00    0.75711   0.67001   -2.000
 5807.00    0.73584   0.66970   -2.000
 5808.00    0.70885   0.66970   -2.000
 5809.00    0.68234   0.66987   -2.000
 5810.00    0.66422   0.67020   -2.000
 5811.00    0.65810   0.67043   -2.000
 5812.00    0.66281   0.67044   -2.000
 5813.00    0.67293   0.67054   -2.000
 5814.00    0.68189   0.67066   -2.000
 5815.00    0.68470   0.67063    0.000
 5816.00    0.68022   0.67094    0.000
 5817.00    0.67207   0.67177    0.000
 5818.00    0.66489   0.67261    0.000
 5819.00    0.66171   0.67357    0.000
 5820.00    0.66278   0.67480    0.000
 5821.00    0.66565   0.67586    0.000
 5822.00    0.66903   0.67657    0.000
 5823.00    0.67418   0.67713    0.000
 5824.00    0.68086   0.67754    0.000
 5825.00    0.68592   0.67771    0.000
 5826.00    0.68662   0.67771    0.000
 5827.00    0.68241   0.67761    0.000
 5828.00    0.67600   0.67746    0.000
 5829.00    0.67228   0.67720    0.000
 5830.00    0.67248   0.67671    0.000
 5831.00    0.67347   0.67612    0.000
 5832.00    0.67401   0.67563    0.000
 5833.00    0.67578   0.67501    0.000
 5834.00    0.67794   0.67425    0.000
 5835.00    0.67688   0.67388    0.000
 5836.00    0.67154   0.67377    0.000
 5837.00    0.66429   0.67353    0.000
 5838.00    0.65772   0.67357    0.000
 5839.00    0.65349   0.67399    0.000
 5840.00    0.65218   0.67411    0.000
 5841.00    0.65319   0.67401    0.000
 5842.00    0.65481   0.67393    0.000
 5843.00    0.65498   0.67340    0.000
 5844.00    0.65302   0.67237    0.000
 5845.00    0.64990   0.67119    0.000
 5846.00    0.64755   0.66963    0.000
 5847.00    0.64781   0.66777    0.000
 5848.00    0.65035   0.66583    0.000
 5849.00    0.65294   0.66357    0.000
 5850.00    0.65298   0.66109    0.000
 5851.00    0.64884   0.65866    0.000
 5852.00    0.64175   0.65595    0.000
 5853.00    0.63479   0.65307    0.000
 5854.00    0.63037   0.65071    0.000
 5855.00    0.62979   0.64867    0.000
 5856.00    0.63325   0.64676    0.000
 5857.00    0.63945   0.64583    0.000
 5858.00    0.64527   0.64581    0.000
 5859.00    0.64737   0.64613    0.000
 5860.00    0.64486   0.64725    0.000
 5861.00    0.63923   0.64900    0.000
 5862.00    0.63386   0.65073    0.000
 5863.00    0.63237   0.65268    0.000
 5864.00    0.63654   0.65472    0.000
 5865.00    0.64516   0.65634    0.000
 5866.00    0.65330   0.65778    0.000
 5867.00    0.65729   0.65918    0.000
 5868.00    0.65979   0.66012    0.000
 5869.00    0.66448   0.66059    0.000
 5870.00    0.67035   0.66082    0.000
 5871.00    0.67563   0.66054    0.000
 5872.00    0.68187   0.65971    0.000
 5873.00    0.69144   0.65857    0.000
 5874.00    0.70474   0.65724    0.000
 5875.00    0.71900   0.65574    0.000
 5876.00    0.72796   0.65420    0.000
 5877.00    0.72705   0.65296    0.000
 5878.00    0.71716   0.65180    0.000
 5879.00    0.70245   0.65039    0.000
 5880.00    0.68809   0.64897    0.000
 5881.00    0.67741   0.64726    0.000
 5882.00    0.67010   0.64446    0.000
 5883.00    0.66316   0.64054    0.000
 5884.00    0.65224   0.63576    0.000
 5885.00    0.63581   0.62920    0.000
 5886.00    0.61711   0.62098    0.000
 5887.00    0.60113   0.61279    0.000
 5888.00    0.59214   0.60407    0.000
 5889.00    0.59030   0.59495    0.000
 5890.00    0.59114   0.58848    0.000
 5891.00    0.59078   0.58381    0.000
 5892.00    0.58848   0.57973    0.000
 5893.00    0.58544   0.57924    0.000
 5894.00    0.58395   0.58112    0.000
 5895.00    0.58607   0.58301    0.000
 5896.00    0.59297   0.58771    0.000
 5897.00    0.60466   0.59448    0.000
 5898.00    0.61966   0.60070    0.000
 5899.00    0.63434   0.60815    0.000
 5900.00    0.64402   0.61655    0.000
 5901.00    0.64766   0.62355   36.393
 5902.00    0.64812   0.62978   36.738
 5903.00    0.64782   0.63555   37.144
 5904.00    0.64721   0.63980   37.206
 5905.00    0.64469   0.64281   37.109
 5906.00    0.63832   0.64516   37.468
 5907.00    0.63030   0.64673   38.250
 5908.00    0.62598   0.64756   38.791
 5909.00    0.62798   0.64785   38.834
 5910.00    0.63543   0.64770   38.632
 5911.00    0.64584   0.64724   38.295
 5912.00    0.65608   0.64641   37.802
 5913.00    0.66331   0.64540   37.403
 5914.00    0.66607   0.64474   37.451
 5915.00    0.66572   0.64426   37.957
 5916.00    0.66511   0.64406   38.636
 5917.00    0.66526   0.64452   39.156
 5918.00    0.66509   0.64523   39.305
 5919.00    0.66231   0.64611   39.219
 5920.00    0.65546   0.64722   39.135
 5921.00    0.64711   0.64808   38.929
 5922.00    0.64104   0.64874   38.424
 5923.00    0.63710   0.64921   37.955
 5924.00    0.63331   0.64920   37.964
 5925.00    0.63016   0.64893   38.400
 5926.00    0.62925   0.64833   38.935
 5927.00    0.63052   0.64748   39.357
 5928.00    0.63284   0.64670   39.530
 5929.00    0.63511   0.64579   39.288
 5930.00    0.63603   0.64508   38.754
 5931.00    0.63379   0.64482   38.612
 5932.00    0.62814   0.64474   39.194
 5933.00    0.62257   0.64490   39.547
 5934.00    0.62055   0.64531   38.989
 5935.00    0.62137   0.64592   38.782
 5936.00    0.62280   0.64647   39.485
 5937.00    0.62400   0.64673   38.790
 5938.00    0.62583   0.64707   37.058
 5939.00    0.63049   0.64725   40.483
 5940.00    0.63875   0.64694   49.264
 5941.00    0.64783   0.64672   37.469
 5942.00    0.65428   0.64648   20.661
 5943.00    0.65656   0.64599   14.861
 5944.00    0.65568   0.64553   14.350
 5945.00    0.65500   0.64499   15.425
 5946.00    0.65591   0.64436   15.630
 5947.00    0.65549   0.64369   15.168
 5948.00    0.65170   0.64280   15.093
 5949.00    0.64642   0.64198   15.584
 5950.00    0.64242   0.64143   16.022
 5951.00    0.64123   0.64079   15.306
 5952.00    0.64264   0.64025   14.481
 5953.00    0.64481   0.64020   16.645
 5954.00    0.64568   0.64028   26.339
 5955.00    0.64401   0.64033   45.498
 5956.00    0.64026   0.64080   46.294
 5957.00    0.63651   0.64159   38.426
 5958.00    0.63436   0.64237   37.713
 5959.00    0.63402   0.64334   39.801
 5960.00    0.63509   0.64453   40.370
 5961.00    0.63723   0.64562   39.639
 5962.00    0.64129   0.64653   39.172
 5963.00    0.64892   0.64744   39.737
 5964.00    0.65934   0.64815   40.672
 5965.00    0.66895   0.64857   40.271
 5966.00    0.67419   0.64907   38.979
 5967.00    0.67302   0.64950   38.990
 5968.00    0.66617   0.64967   40.253
 5969.00    0.65687   0.64986   40.516
 5970.00    0.64872   0.64987   39.603
 5971.00    0.64415   0.64942   39.541
 5972.00    0.64214   0.64862   40.519
 5973.00    0.63900   0.64754   40.914
 5974.00    0.63243   0.64605   40.310
 5975.00    0.62309   0.64430   39.765
 5976.00    0.61573   0.64269   39.840
 5977.00    0.61630   0.64113   40.375
 5978.00    0.62489   0.63959   40.898
 5979.00    0.63675   0.63847   40.943
 5980.00    0.64820   0.63734   40.670
 5981.00    0.65721   0.63617   40.585
 5982.00    0.66218   0.63533   40.710
 5983.00    0.66225   0.63430   40.712
 5984.00    0.65836   0.63341   40.446
 5985.00    0.65253   0.63312   40.079
 5986.00    0.64619   0.63288   40.072
 5987.00    0.64021   0.63297   40.671
 5988.00    0.63552   0.63363   41.117
 5989.00    0.63226   0.63439   40.548
 5990.00    0.62854   0.63509   39.741
 5991.00    0.62346   0.63581   39.834
 5992.00    0.62138   0.63653   40.543
 5993.00    0.62718   0.63680   40.949
 5994.00    0.63931   0.63672   40.882
 5995.00    0.65167   0.63665   40.646
 5996.00    0.65755   0.63615   40.342
 5997.00    0.65422   0.63539   40.081
 5998.00    0.64723   0.63479   40.279
 5999.00    0.64385   0.63394   41.028
 6000.00    0.64532   0.63312   41.409
 6001.00    0.64877   0.63244   40.815
 6002.00    0.65024   0.63146   40.355
 6003.00    0.64818   0.63071   40.926
 6004.00    0.64594   0.62991   41.642
 6005.00    0.64675   0.62885   41.481
 6006.00    0.64928   0.62825   40.998
 6007.00    0.64967   0.62762   40.895
 6008.00    0.64400   0.62700   40.859
 6009.00    0.63179   0.62693   40.614
 6010.00    0.61807   0.62671   40.629
 6011.00    0.60845   0.62654   41.033
 6012.00    0.60533   0.62655   40.972
 6013.00    0.60745   0.62615   40.117
 6014.00    0.61031   0.62579   39.435
 6015.00    0.61054   0.62529   39.403
 6016.00    0.60850   0.62439   39.319
 6017.00    0.60634   0.62379   38.921
 6018.00    0.60648   0.62311   39.016
 6019.00    0.60973   0.62230   39.640
 6020.00    0.61463   0.62201   39.433
 6021.00    0.61951   0.62201   38.238
 6022.00    0.62357   0.62222   37.735
 6023.00    0.62745   0.62289   38.414
 6024.00    0.63273   0.62404   38.946
 6025.00    0.63890   0.62556   38.693
 6026.00    0.64278   0.62708   38.625
 6027.00    0.64143   0.62889   39.305
 6028.00    0.63402   0.63091   40.288
 6029.00    0.62357   0.63255   41.002
 6030.00    0.61601   0.63415   41.211
 6031.00    0.61422   0.63570   41.157
 6032.00    0.61679   0.63683   41.353
 6033.00    0.62120   0.63769   41.846
 6034.00    0.62518   0.63834   42.182
 6035.00    0.62702   0.63869   42.158
 6036.00    0.62615   0.63872   41.970
 6037.00    0.62426   0.63857   41.799
 6038.00    0.62439   0.63828   41.704
 6039.00    0.62730   0.63782   41.695
 6040.00    0.63132   0.63746   41.700
 6041.00    0.63468   0.63713   41.429
 6042.00    0.63614   0.63687   40.657
 6043.00    0.63510   0.63694   39.880
 6044.00    0.63186   0.63703   39.774
 6045.00    0.62815   0.63713   39.985
 6046.00    0.62668   0.63739   39.642
 6047.00    0.62999   0.63744   38.968
 6048.00    0.63870   0.63720   38.738
 6049.00    0.64886   0.63682   38.776
 6050.00    0.65487   0.63613   38.452
 6051.00    0.65556   0.63512   37.966
 6052.00    0.65319   0.63398   37.939
 6053.00    0.64983   0.63282   38.439
 6054.00    0.64678   0.63174   39.136
 6055.00    0.64472   0.63078   39.742
 6056.00    0.64371   0.63011   40.122
 6057.00    0.64308   0.62977   40.348
 6058.00    0.64200   0.62946   40.534
 6059.00    0.64020   0.62918   40.592
 6060.00    0.63762   0.62903   40.449
 6061.00    0.63383   0.62863   40.341
 6062.00    0.62934   0.62803   40.559
 6063.00    0.62698   0.62774   41.102
 6064.00    0.62934   0.62744   41.620
 6065.00    0.63575   0.62732   41.437
 6066.00    0.64334   0.62802   40.413
 6067.00    0.64866   0.62889   39.579
 6068.00    0.64988   0.62998   39.651
 6069.00    0.64856   0.63161   39.976
 6070.00    0.64715   0.63291   39.745
 6071.00    0.64649   0.63386   39.208
 6072.00    0.64624   0.63456   39.054
 6073.00    0.64553   0.63455   39.762
 6074.00    0.64439   0.63394   40.942
 6075.00    0.64443   0.63277   40.855
 6076.00    0.64593   0.63117   39.045
 6077.00    0.64608   0.62932   37.715
 6078.00    0.64281   0.62717   38.099
 6079.00    0.63738   0.62526   39.219
 6080.00    0.63286   0.62352   39.751
 6081.00    0.63237   0.62181   39.447
 6082.00    0.63520   0.62071   38.904
 6083.00    0.63590   0.61990   38.998
 6084.00    0.63228   0.61911   40.022
 6085.00    0.62877   0.61883   41.332
 6086.00    0.62872   0.61873   42.059
 6087.00    0.63077   0.61853   41.792
 6088.00    0.63219   0.61861   41.084
 6089.00    0.63101   0.61873   41.126
 6090.00    0.62790   0.61881   42.172
 6091.00    0.62602   0.61913   43.172
 6092.00    0.62691   0.61942   43.392
 6093.00    0.62913   0.61967   43.156
 6094.00    0.63014   0.62009   42.782
 6095.00    0.62777   0.62019   42.290
 6096.00    0.62236   0.61984   42.129
 6097.00    0.61666   0.61938   42.842
 6098.00    0.61269   0.61836   42.921
 6099.00    0.61105   0.61668   40.346
 6100.00    0.61220   0.61514   39.309
 6101.00    0.61630   0.61358   45.775
 6102.00    0.62162   0.61194   48.170
 6103.00    0.62523   0.61141   29.244
 6104.00    0.62655   0.61141   17.826
 6105.00    0.62726   0.61167   14.908
 6106.00    0.62846   0.61316   15.483
 6107.00    0.62991   0.61473   16.258
 6108.00    0.63033   0.61605   15.998
 6109.00    0.62849   0.61777   15.806
 6110.00    0.62561   0.61893   15.971
 6111.00    0.62436   0.61963   15.964
 6112.00    0.62563   0.62020   15.909
 6113.00    0.62844   0.62010   16.197
 6114.00    0.63126   0.61971   16.067
 6115.00    0.63275   0.61899   14.994
 6116.00    0.63256   0.61765   15.213
 6117.00    0.63146   0.61624   20.353
 6118.00    0.63117   0.61444   36.224
 6119.00    0.63337   0.61235   49.264
 6120.00    0.63809   0.61074   44.128
 6121.00    0.64362   0.60905   40.196
 6122.00    0.64686   0.60772   42.282
 6123.00    0.64523   0.60742   43.518
 6124.00    0.63936   0.60715   42.691
 6125.00    0.63202   0.60736   42.548
 6126.00    0.62620   0.60834   42.854
 6127.00    0.62376   0.60892   42.199
 6128.00    0.62401   0.60939   41.136
 6129.00    0.62491   0.60996   40.756
 6130.00    0.62473   0.60971   40.949
 6131.00    0.62248   0.60875   41.188
 6132.00    0.61832   0.60741   41.421
 6133.00    0.61368   0.60530   41.811
 6134.00    0.61113   0.60261   42.350
 6135.00    0.61170   0.59996   42.803
 6136.00    0.61267   0.59744   42.706
 6137.00    0.61079   0.59556   41.704
 6138.00    0.60546   0.59459   39.874
 6139.00    0.59973   0.59441   37.626
 6140.00    0.60014   0.59536   35.481
 6141.00    0.60937   0.59701   33.890
 6142.00    0.62165   0.59899   33.196
 6143.00    0.63025   0.60111   33.502
 6144.00    0.63311   0.60299   34.602
 6145.00    0.63137   0.60474   36.081
 6146.00    0.62763   0.60590   37.367
 6147.00    0.62305   0.60639   38.189
 6148.00    0.61619   0.60687   38.940
 6149.00    0.60702   0.60703   40.025
 6150.00    0.59884   0.60684   41.380
 6151.00    0.59574   0.60660   42.494
 6152.00    0.60038   0.60621   42.661
 6153.00    0.61036   0.60557   42.217
 6154.00    0.61817   0.60447   42.604
 6155.00    0.61946   0.60301   43.906
 6156.00    0.61618   0.60103   44.238
 6157.00    0.61246   0.59834   43.294
 6158.00    0.61200   0.59540   43.112
 6159.00    0.61529   0.59219   43.655
 6160.00    0.61957   0.58871   42.306
 6161.00    0.62272   0.58587   38.952
 6162.00    0.62432   0.58379   36.049
 6163.00    0.62380   0.58208   34.389
 6164.00    0.62017   0.58150   33.501
 6165.00    0.61371   0.58194   33.465
 6166.00    0.60631   0.58261   34.855
 6167.00    0.60073   0.58375   37.194
 6168.00    0.59945   0.58517   38.594
 6169.00    0.60203   0.58664   38.585
 6170.00    0.60551   0.58835   38.647
 6171.00    0.60780   0.58985   39.099
 6172.00    0.60854   0.59146   39.115
 6173.00    0.60870   0.59350   39.108
 6174.00    0.60959   0.59533   40.331
 6175.00    0.61055   0.59695   42.351
 6176.00    0.60944   0.59879   43.292
 6177.00    0.60484   0.60053   43.235
 6178.00    0.59680   0.60188   43.794
 6179.00    0.58731   0.60299   44.634
 6180.00    0.57903   0.60405   44.212
 6181.00    0.57274   0.60478   43.091
 6182.00    0.56795   0.60483   42.872
 6183.00    0.56488   0.60469   43.554
 6184.00    0.56439   0.60424   44.088
 6185.00    0.56708   0.60282   43.891
 6186.00    0.57263   0.60129   43.186
 6187.00    0.57889   0.59980   42.826
 6188.00    0.58330   0.59772   43.168
 6189.00    0.58495   0.59612   42.714
 6190.00    0.58469   0.59504   40.243
 6191.00    0.58476   0.59423   37.521
 6192.00    0.58664   0.59446   36.214
 6193.00    0.58864   0.59492   35.837
 6194.00    0.58809   0.59584   35.635
 6195.00    0.58446   0.59757   36.216
 6196.00    0.57957   0.59877   38.320
 6197.00    0.57727   0.59981   41.102
 6198.00    0.58089   0.60117   42.833
 6199.00    0.59072   0.60207   43.123
 6200.00    0.60429   0.60281   -2.000
 6201.00    0.61726   0.60353   -2.000
 6202.00    0.62569   0.60423   -2.000
 6203.00    0.62812   0.60505   -2.000
 6204.00    0.62459   0.60564   -2.000
 6205.00    0.61589   0.60595   -2.000
 6206.00    0.60459   0.60607   -2.000
 6207.00    0.59534   0.60564   -2.000
 6208.00    0.59043   0.60470   -2.000
 6209.00    0.58721   0.60320   -2.000
 6210.00    0.58371   0.60106   -2.000
 6211.00    0.58201   0.59877   -2.000
 6212.00    0.58320   0.59621   36.152
 6213.00    0.58441   0.59348   35.633
 6214.00    0.58243   0.59127   35.841
 6215.00    0.57626   0.58929   37.792
 6216.00    0.56816   0.58773   41.419
 6217.00    0.56305   0.58698   43.836
 6218.00    0.56285   0.58651   43.344
 6219.00    0.56449   0.58657   42.806
 6220.00    0.56603   0.58713   43.734
 6221.00    0.56890   0.58760   44.354
 6222.00    0.57399   0.58832   43.491
 6223.00    0.58015   0.58897   42.250
 6224.00    0.58595   0.58909   41.412
 6225.00    0.59028   0.58905   40.762
 6226.00    0.59132   0.58854   40.248
 6227.00    0.58722   0.58754   40.218
 6228.00    0.58001   0.58653   40.857
 6229.00    0.57508   0.58523   41.971
 6230.00    0.57437   0.58407   42.784
 6231.00    0.57537   0.58354   42.274
 6232.00    0.57608   0.58310   40.741
 6233.00    0.57648   0.58315   39.444
 6234.00    0.57764   0.58369   38.628
 6235.00    0.58065   0.58392   37.859
 6236.00    0.58427   0.58407   37.616
 6237.00    0.58562   0.58391   38.936
 6238.00    0.58353   0.58333   41.590
 6239.00    0.57873   0.58232   43.848
 6240.00    0.57224   0.58087   44.671
 6241.00    0.56498   0.57966   44.525
 6242.00    0.55808   0.57826   43.847
 6243.00    0.55260   0.57700   42.845
 6244.00    0.54883   0.57651   42.127
 6245.00    0.54687   0.57584   42.257
 6246.00    0.54786   0.57552   42.811
 6247.00    0.55330   0.57592   42.889
 6248.00    0.56318   0.57577   42.523
 6249.00    0.57576   0.57552   42.234
 6250.00    0.58779   0.57552   41.768
 6251.00    0.59558   0.57475   40.806
 6252.00    0.59674   0.57368   40.226
 6253.00    0.59090   0.57276   40.899
 6254.00    0.58038   0.57163   41.962
 6255.00    0.56888   0.57067   42.093
 6256.00    0.55936   0.57034   42.123
 6257.00    0.55418   0.57060   43.174
 6258.00    0.55555   0.57119   43.644
 6259.00    0.56329   0.57253   41.865
 6260.00    0.57256   0.57439   40.030
 6261.00    0.57846   0.57628   40.317
 6262.00    0.58156   0.57845   41.955
 6263.00    0.58447   0.58036   42.987
 6264.00    0.58750   0.58192   42.641
 6265.00    0.58926   0.58354   41.439
 6266.00    0.58792   0.58466   40.343
 6267.00    0.58344   0.58528   39.862
 6268.00    0.57911   0.58602   39.678
 6269.00    0.57759   0.58670   39.518
 6270.00    0.57756   0.58710   39.791
 6271.00    0.57732   0.58745   40.860
 6272.00    0.57758   0.58789   42.418
 6273.00    0.57863   0.58822   43.784
 6274.00    0.57829   0.58821   44.330
 6275.00    0.57508   0.58818   44.038
 6276.00    0.57028   0.58795   43.692
 6277.00    0.56545   0.58741   43.857
 6278.00    0.56085   0.58711   44.338
 6279.00    0.55722   0.58661   44.623
 6280.00    0.55647   0.58625    0.000
 6281.00    0.55954   0.58646    0.000
 6282.00    0.56526   0.58657    0.000
 6283.00    0.57144   0.58715    0.000
 6284.00    0.57575   0.58801    0.000
 6285.00    0.57669   0.58862    0.000
 6286.00    0.57428   0.58949    0.000
 6287.00    0.57097   0.58995    0.000
 6288.00    0.57091   0.59004    0.000
 6289.00    0.57504   0.59008    0.000
 6290.00    0.57997   0.58944    0.000
 6291.00    0.58243   0.58861    0.000
 6292.00    0.58108   0.58755    0.000
 6293.00    0.57589   0.58610    0.000
 6294.00    0.56828   0.58471    0.000
 6295.00    0.56291   0.58301    0.000
 6296.00    0.56615   0.58129    0.000
 6297.00    0.57931   0.57990    0.000
 6298.00    0.59792   0.57837    0.000
 6299.00    0.61678   0.57706    0.000
 6300.00    0.63185   0.57633    0.000
 6301.00    0.64048   0.57604    0.000
 6302.00    0.64130   0.57617    0.000
 6303.00    0.63352   0.57668    0.000
 6304.00    0.61802   0.57757    0.000
 6305.00    0.60018   0.57881    0.000
 6306.00    0.58766   0.58003    0.000
 6307.00    0.58324   0.58085    0.000
 6308.00    0.58445   0.58129    0.000
 6309.00    0.58677   0.58131    0.000
 6310.00    0.58581   0.58086    0.000
 6311.00    0.58049   0.57966    0.000
 6312.00    0.57267   0.57790    0.000
 6313.00    0.56533   0.57620    0.000
 6314.00    0.56098   0.57431    0.000
 6315.00    0.55984   0.57253    0.000
 6316.00    0.56060   0.57119    0.000
 6317.00    0.56251   0.57012    0.000
 6318.00    0.56533   0.57003    0.000
 6319.00    0.56879   0.57061    0.000
 6320.00    0.57238   0.57128    0.000
 6321.00    0.57522   0.57281   43.426
 6322.00    0.57673   0.57482   42.953
 6323.00    0.57759   0.57666   42.522
 6324.00    0.57889   0.57829   42.119
 6325.00    0.58098   0.57984   42.130
 6326.00    0.58312   0.58117   42.775
 6327.00    0.58340   0.58180   43.418
 6328.00    0.58093   0.58205   43.556
 6329.00    0.57814   0.58175   44.080
 6330.00    0.57782   0.58103   45.631
 6331.00    0.57993   0.58018   46.667
 6332.00    0.58218   0.57864   45.816
 6333.00    0.58128   0.57690   44.797
 6334.00    0.57657   0.57543   45.273
 6335.00    0.57258   0.57394   46.564
 6336.00    0.57303   0.57252   47.344
 6337.00    0.57592   0.57142   47.362
 6338.00    0.57742   0.57060   46.951
 6339.00    0.57539   0.57031   46.343
 6340.00    0.57026   0.57016   45.849
 6341.00    0.56496   0.56974   45.922
 6342.00    0.56167   0.56981   46.493
 6343.00    0.55979   0.56990   46.651
 6344.00    0.55791   0.56970   46.068
 6345.00    0.55524   0.56984   45.703
 6346.00    0.55204   0.57010   45.917
 6347.00    0.54974   0.57068   45.727
 6348.00    0.55029   0.57138   44.723
 6349.00    0.55528   0.57189   43.840
 6350.00    0.56355   0.57268   43.650
 6351.00    0.57070   0.57318   43.803
 6352.00    0.57368   0.57294   43.854
 6353.00    0.57256   0.57247   43.669
 6354.00    0.56837   0.57162   43.481
 6355.00    0.56194   0.57009   43.737
 6356.00    0.55416   0.56825   44.454
 6357.00    0.54622   0.56626   45.082
 6358.00    0.54068   0.56437   45.227
 6359.00    0.54077   0.56268   45.013
 6360.00    0.54642   0.56108   44.958
 6361.00    0.55418   0.56006   45.598
 6362.00    0.56196   0.55983   46.450
 6363.00    0.56971   0.55995   46.132
 6364.00    0.57601   0.56050   44.543
 6365.00    0.57797   0.56166   42.870
 6366.00    0.57449   0.56315   41.555
 6367.00    0.56717   0.56468   40.332
 6368.00    0.56024   0.56619   39.206
 6369.00    0.55841   0.56777   38.457
 6370.00    0.56160   0.56934   38.222
 6371.00    0.56597   0.57070   38.435
 6372.00    0.56994   0.57179   38.825
 6373.00    0.57423   0.57284   39.078
 6374.00    0.57830   0.57383   39.269
 6375.00    0.58064   0.57448   39.758
 6376.00    0.58100   0.57483   40.691
 6377.00    0.58012   0.57484   41.884
 6378.00    0.57846   0.57470   42.779
 6379.00    0.57621   0.57453   42.876
 6380.00    0.57378   0.57411   42.682
 6381.00    0.57176   0.57374   43.045
 6382.00    0.57062   0.57356   43.794
 6383.00    0.57030   0.57343   44.343
 6384.00    0.56982   0.57351   45.140
 6385.00    0.56870   0.57362   46.819
 6386.00    0.56903   0.57357   48.237
 6387.00    0.57230   0.57338   47.835
 6388.00    0.57464   0.57317   46.785
 6389.00    0.57106   0.57267   46.834
 6390.00    0.56173   0.57161   47.424
 6391.00    0.55051   0.57061   47.202
 6392.00    0.54203   0.56963   46.320
 6393.00    0.53959   0.56849   45.733
 6394.00    0.54326   0.56750   46.026
 6395.00    0.55046   0.56658   46.889
 6396.00    0.55714   0.56587   46.615
 6397.00    0.55980   0.56547   44.174
 6398.00    0.55740   0.56536   41.100
 6399.00    0.55154   0.56528   38.822
 6400.00    0.54612   0.56540   37.349
 6401.00    0.54461   0.56565   36.433
 6402.00    0.54767   0.56556   36.177
 6403.00    0.55367   0.56608   36.736
 6404.00    0.55956   0.56654   38.094
 6405.00    0.56325   0.56615   39.913
 6406.00    0.56510   0.56610   41.350
 6407.00    0.56562   0.56586   41.851
 6408.00    0.56413   0.56508   41.952
 6409.00    0.56102   0.56453   42.510
 6410.00    0.55900   0.56389   44.045
 6411.00    0.56026   0.56354   46.308
 6412.00    0.56464   0.56350   47.875
 6413.00    0.56987   0.56299   47.662
 6414.00    0.57216   0.56270   46.320
 6415.00    0.56836   0.56293   45.140
 6416.00    0.55754   0.56274   45.117
 6417.00    0.54261   0.56255   46.378
 6418.00    0.53010   0.56267   48.007
 6419.00    0.52470   0.56288   48.719
 6420.00    0.52686   0.56363   47.707
 6421.00    0.53397   0.56444   45.746
 6422.00    0.54186   0.56531   44.497
 6423.00    0.54834   0.56650   44.121
 6424.00    0.55387   0.56771   43.424
 6425.00    0.55830   0.56883   42.347
 6426.00    0.56012   0.56934   42.100
 6427.00    0.55848   0.56918   42.971
 6428.00    0.55387   0.56876   44.077
 6429.00    0.54796   0.56811   44.759
 6430.00    0.54328   0.56714   44.967
 6431.00    0.54246   0.56619   44.475
 6432.00    0.54730   0.56518   43.002
 6433.00    0.55671   0.56428   41.165
 6434.00    0.56693   0.56401   39.949
 6435.00    0.57362   0.56369   39.482
 6436.00    0.57355   0.56339   39.443
 6437.00    0.56725   0.56366   40.257
 6438.00    0.55832   0.56395   42.740
 6439.00    0.55022   0.56447   46.117
 6440.00    0.54524   0.56507   47.736
 6441.00    0.54396   0.56558   46.737
 6442.00    0.54541   0.56662   44.782
 6443.00    0.54772   0.56742   43.126
 6444.00    0.54905   0.56755   42.095
 6445.00    0.54916   0.56736   41.410
 6446.00    0.54898   0.56640   40.741
 6447.00    0.54936   0.56495   40.406
 6448.00    0.55028   0.56349   40.959
 6449.00    0.55007   0.56174   42.430
 6450.00    0.54685   0.56010   44.093
 6451.00    0.54101   0.55854   44.238
 6452.00    0.53492   0.55709   41.924
 6453.00    0.53187   0.55652   39.082
 6454.00    0.53376   0.55639   37.553
 6455.00    0.53833   0.55629   37.090
 6456.00    0.54219   0.55644   37.031
 6457.00    0.54507   0.55650   37.765
 6458.00    0.54889   0.55653   39.854
 6459.00    0.55585   0.55661   42.632
 6460.00    0.56687   0.55681   44.373
 6461.00    0.58009   0.55711   43.732
 6462.00    0.59149   0.55726   41.260
 6463.00    0.59608   0.55759   39.145
 6464.00    0.59106   0.55781   38.599
 6465.00    0.57862   0.55824   38.992
 6466.00    0.56405   0.55923   39.467
 6467.00    0.55319   0.56002   40.145
 6468.00    0.54865   0.56046   41.221
 6469.00    0.54736   0.56090   42.061
 6470.00    0.54609   0.56142   42.176
 6471.00    0.54566   0.56159   42.140
 6472.00    0.54722   0.56170   42.566
 6473.00    0.54955   0.56175   43.302
 6474.00    0.55084   0.56172   43.522
 6475.00    0.55020   0.56188   42.150
 6476.00    0.54783   0.56169   39.629
 6477.00    0.54508   0.56122   37.847
 6478.00    0.54379   0.56062   37.457
 6479.00    0.54555   0.55988   37.571
 6480.00    0.54951   0.55905   37.852
 6481.00    0.55214   0.55816   39.250
 6482.00    0.55197   0.55742   41.761
 6483.00    0.55127   0.55663   43.113
 6484.00    0.55122   0.55578   42.464
 6485.00    0.55031   0.55508   42.263
 6486.00    0.54802   0.55421   43.629
 6487.00    0.54584   0.55275   45.101
 6488.00    0.54405   0.55057   45.671
 6489.00    0.54110   0.54775   46.114
 6490.00    0.53706   0.54424   46.674
 6491.00    0.53386   0.53987   46.466
 6492.00    0.53126   0.53541   45.560
 6493.00    0.52691   0.53114   45.096
 6494.00    0.52175   0.52756   45.159
 6495.00    0.51995   0.52523   44.797
 6496.00    0.52249   0.52355   44.034
 6497.00    0.52624   0.52371   43.808
 6498.00    0.52780   0.52557   44.053
 6499.00    0.52554   0.52825   43.844
 6500.00    0.52217   0.53211   43.232
 6501.00    0.52292   0.53596   43.053
 6502.00    0.52940   0.53987   43.153
 6503.00    0.53927   0.54387   42.620
 6504.00    0.54980   0.54706   41.377
 6505.00    0.55818   0.54966   40.222
 6506.00    0.56048   0.55163   40.085
 6507.00    0.55402   0.55296   41.577
 6508.00    0.54292   0.55380   44.100
 6509.00    0.53449   0.55404   46.015
 6510.00    0.53003   0.55378   46.743
 6511.00    0.52684   0.55322   46.997
 6512.00    0.52510   0.55235   47.125
 6513.00    0.52684   0.55123   47.016
 6514.00    0.53187   0.55007   46.669
 6515.00    0.53783   0.54889   46.243
 6516.00    0.54168   0.54791   45.971
 6517.00    0.54116   0.54721   45.934
 6518.00    0.53683   0.54670   45.788
 6519.00    0.53107   0.54669   45.285
 6520.00    0.52637   0.54684   44.972
 6521.00    0.52440   0.54707   45.353
 6522.00    0.52498   0.54759   45.817
 6523.00    0.52635   0.54778   45.548
 6524.00    0.52565   0.54772   44.907
 6525.00    0.52199   0.54754   44.603
 6526.00    0.51953   0.54718   44.645
 6527.00    0.52309   0.54681   44.610
 6528.00    0.53306   0.54610    0.000
 6529.00    0.54576   0.54527    0.000
 6530.00    0.55479   0.54464    0.000
 6531.00    0.55595   0.54411    0.000
 6532.00    0.55142   0.54371    0.000
 6533.00    0.54623   0.54327    0.000
 6534.00    0.54462   0.54271    0.000
 6535.00    0.54805   0.54228    0.000
 6536.00    0.55411   0.54195    0.000
 6537.00    0.55920   0.54151    0.000
 6538.00    0.56071   0.54078    0.000
 6539.00    0.55814   0.53962    0.000
 6540.00    0.55367   0.53819    0.000
 6541.00    0.55119   0.53660    0.000
 6542.00    0.55560   0.53457    0.000
 6543.00    0.57238   0.53205    0.000
 6544.00    0.60656   0.52949    0.000
 6545.00    0.65779   0.52689    0.000
 6546.00    0.71786   0.52427    0.000
 6547.00    0.77253   0.52151    0.000
 6548.00    0.80447   0.51839    0.000
 6549.00    0.80246   0.51532    0.000
 6550.00    0.76635   0.51204    0.000
 6551.00    0.70795   0.50802    0.000
 6552.00    0.64789   0.50323    0.000
 6553.00    0.60060   0.49748    0.000
 6554.00    0.56970   0.49076    0.000
 6555.00    0.55662   0.48302    0.000
 6556.00    0.56831   0.47418    0.000
 6557.00    0.63176   0.46449    0.000
 6558.00    0.79018   0.45434    0.000
 6559.00    1.06956   0.44380    0.000
 6560.00    1.45939   0.43403    0.000
 6561.00    1.89137   0.42694    0.000
 6562.00    2.25051   0.42226    0.000
 6563.00    2.43121   0.42024    0.000
 6564.00    2.36972   0.42093    0.000
 6565.00    2.08364   0.42456    0.000
 6566.00    1.66571   0.43219    0.000
 6567.00    1.23524   0.44165    0.000
 6568.00    0.89943   0.45114    0.000
 6569.00    0.69261   0.46063    0.000
 6570.00    0.58440   0.46954    0.000
 6571.00    0.53563   0.47766    0.000
 6572.00    0.51575   0.48495    0.000
 6573.00    0.51047   0.49131    0.000
 6574.00    0.51700   0.49670    0.000
 6575.00    0.53106   0.50141    0.000
 6576.00    0.54858   0.50557    0.000
 6577.00    0.57411   0.50927    0.000
 6578.00    0.62132   0.51270    0.000
 6579.00    0.71035   0.51579    0.000
 6580.00    0.85420   0.51839    0.000
 6581.00    1.03721   0.52051    0.000
 6582.00    1.21929   0.52233    0.000
 6583.00    1.34912   0.52362    0.000
 6584.00    1.38322   0.52482    0.000
 6585.00    1.31055   0.52583    0.000
 6586.00    1.15335   0.52637    0.000
 6587.00    0.96172   0.52680    0.000
 6588.00    0.78938   0.52668    0.000
 6589.00    0.66398   0.52631    0.000
 6590.00    0.58915   0.52575    0.000
 6591.00    0.55232   0.52524    0.000
 6592.00    0.53593   0.52500    0.000
 6593.00    0.52889   0.52471    0.000
 6594.00    0.52559   0.52460    0.000
 6595.00    0.52356   0.52466    0.000
 6596.00    0.52241   0.52557    0.000
 6597.00    0.52304   0.52710    0.000
 6598.00    0.52644   0.52846    0.000
 6599.00    0.53268   0.52975    0.000
 6600.00    0.54007   0.53083    0.000
 6601.00    0.54503   0.53178    0.000
 6602.00    0.54621   0.53263    0.000
 6603.00    0.54694   0.53307    0.000
 6604.00    0.54924   0.53310    0.000
 6605.00    0.54999   0.53285    0.000
 6606.00    0.54702   0.53242    0.000
 6607.00    0.54296   0.53223    0.000
 6608.00    0.54126   0.53235    0.000
 6609.00    0.54321   0.53253   43.627
 6610.00    0.54667   0.53285   43.807
 6611.00    0.54650   0.53334   44.116
 6612.00    0.54075   0.53434   44.200
 6613.00    0.53323   0.53558   43.648
 6614.00    0.52838   0.53660   42.665
 6615.00    0.52817   0.53744   42.071
 6616.00    0.53087   0.53820   42.128
 6617.00    0.53167   0.53898   42.352
 6618.00    0.52841   0.53953   42.645
 6619.00    0.52341   0.53964   43.551
 6620.00    0.52015   0.53946   44.902
 6621.00    0.52100   0.53909   45.479
 6622.00    0.52415   0.53850   44.987
 6623.00    0.52455   0.53792   44.535
 6624.00    0.52160   0.53706   44.641
 6625.00    0.52007   0.53606   44.839
 6626.00    0.52303   0.53506   44.572
 6627.00    0.52983   0.53396   43.662
 6628.00    0.53745   0.53310   42.653
 6629.00    0.54230   0.53213   42.361
 6630.00    0.54393   0.53098   42.768
 6631.00    0.54434   0.53002   43.225
 6632.00    0.54294   0.52932   43.819
 6633.00    0.53777   0.52894   45.136
 6634.00    0.53198   0.52874   46.343
 6635.00    0.53153   0.52860   45.700
 6636.00    0.53536   0.52870   44.069
 6637.00    0.53651   0.52919   43.628
 6638.00    0.53013   0.52988   44.237
 6639.00    0.51653   0.53035   44.272
 6640.00    0.50332   0.53047   43.549
 6641.00    0.50016   0.53057   43.037
 6642.00    0.50772   0.53079   42.940
 6643.00    0.51968   0.53112   42.926
 6644.00    0.53054   0.53130   43.057
 6645.00    0.53712   0.53129   43.537
 6646.00    0.53852   0.53155   44.023
 6647.00    0.53528   0.53211   43.995
 6648.00    0.52808   0.53267   43.650
 6649.00    0.51870   0.53306   43.512
 6650.00    0.51159   0.53338   43.655
 6651.00    0.51122   0.53367   43.917
 6652.00    0.51794   0.53391   44.312
 6653.00    0.52839   0.53392   44.853
 6654.00    0.53694   0.53367   45.240
 6655.00    0.53921   0.53334   45.188
 6656.00    0.53590   0.53277   44.911
 6657.00    0.52999   0.53208   44.770
 6658.00    0.52314   0.53116   44.837
 6659.00    0.51744   0.53009   45.016
 6660.00    0.51726   0.52887   45.208
 6661.00    0.52462   0.52775   45.282
 6662.00    0.53463   0.52684   45.061
 6663.00    0.53927   0.52595   44.610
 6664.00    0.53212   0.52536   44.405
 6665.00    0.51491   0.52490   44.696
 6666.00    0.50138   0.52495   45.033
 6667.00    0.50252   0.52544   44.842
 6668.00    0.51513   0.52585   44.023
 6669.00    0.52922   0.52623   43.052
 6670.00    0.53541   0.52649   42.771
 6671.00    0.53218   0.52668   43.387
 6672.00    0.52869   0.52665   43.985
 6673.00    0.53126   0.52616   43.896
 6674.00    0.53555   0.52507   43.626
 6675.00    0.53671   0.52381   43.623
 6676.00    0.53547   0.52287   43.612
 6677.00    0.53457   0.52221   43.422
 6678.00    0.53614   0.52171   43.391
 6679.00    0.53981   0.52131   43.794
 6680.00    0.54236   0.52145   44.557
 6681.00    0.54131   0.52243   45.290
 6682.00    0.53648   0.52389   45.419
 6683.00    0.52910   0.52530   44.842
 6684.00    0.52084   0.52658   44.090
 6685.00    0.51207   0.52779   43.626
 6686.00    0.50221   0.52891   43.568
 6687.00    0.49454   0.52978   43.685
 6688.00    0.49559   0.53025   43.537
 6689.00    0.50532   0.53042   43.084
 6690.00    0.51625   0.53028   42.751
 6691.00    0.52362   0.52999   42.842
 6692.00    0.52790   0.52946   43.340
 6693.00    0.53033   0.52867   43.783
 6694.00    0.53136   0.52790   43.518
 6695.00    0.53062   0.52714   42.743
 6696.00    0.52782   0.52644    0.000
 6697.00    0.52525   0.52588    0.000
 6698.00    0.52626   0.52530    0.000
 6699.00    0.52944   0.52496    0.000
 6700.00    0.52985   0.52475    0.000
 6701.00    0.52604   0.52452    0.000
 6702.00    0.51998   0.52448    0.000
 6703.00    0.51275   0.52440    0.000
 6704.00    0.50544   0.52422    0.000
 6705.00    0.50317   0.52397    0.000
 6706.00    0.51143   0.52366    0.000
 6707.00    0.52704   0.52331    0.000
 6708.00    0.54117   0.52296    0.000
 6709.00    0.54872   0.52241    0.000
 6710.00    0.55121   0.52162    0.000
 6711.00    0.55856   0.52086    0.000
 6712.00    0.58466   0.51984    0.000
 6713.00    0.63915   0.51882    0.000
 6714.00    0.72054   0.51776    0.000
 6715.00    0.80819   0.51681    0.000
 6716.00    0.87315   0.51637    0.000
 6717.00    0.89575   0.51607    0.000
 6718.00    0.86977   0.51601    0.000
 6719.00    0.80425   0.51620    0.000
 6720.00    0.71885   0.51681    0.000
 6721.00    0.63696   0.51785    0.000
 6722.00    0.57654   0.51880    0.000
 6723.00    0.54074   0.51956    0.000
 6724.00    0.52577   0.52029    0.000
 6725.00    0.53042   0.52104    0.000
 6726.00    0.55396   0.52171    0.000
 6727.00    0.59307   0.52215    0.000
 6728.00    0.64323   0.52238    0.000
 6729.00    0.69981   0.52258    0.000
 6730.00    0.75325   0.52267    0.000
 6731.00    0.78581   0.52272    0.000
 6732.00    0.78305   0.52266    0.000
 6733.00    0.74367   0.52247    0.000
 6734.00    0.67814   0.52211    0.000
 6735.00    0.60604   0.52156    0.000
 6736.00    0.54779   0.52101    0.000
 6737.00    0.51739   0.52049    0.000
 6738.00    0.51289   0.51989    0.000
 6739.00    0.51410   0.51919    0.000
 6740.00    0.50761   0.51838    0.000
 6741.00    0.50025   0.51772    0.000
 6742.00    0.49988   0.51721    0.000
 6743.00    0.50460   0.51665    0.000
 6744.00    0.51059   0.51612    0.000
 6745.00    0.51626   0.51547    0.000
 6746.00    0.51877   0.51506    0.000
 6747.00    0.51357   0.51468    0.000
 6748.00    0.50180   0.51439    0.000
 6749.00    0.49164   0.51425    0.000
 6750.00    0.48764   0.51406    0.000
 6751.00    0.48726   0.51427    0.000
 6752.00    0.48721   0.51450    0.000
 6753.00    0.48613   0.51503   42.675
 6754.00    0.48364   0.51571   41.580
 6755.00    0.47973   0.51637   41.125
 6756.00    0.47421   0.51725   40.301
 6757.00    0.46703   0.51799   36.570
 6758.00    0.46033   0.51868   31.393
 6759.00    0.45855   0.51918   27.589
 6760.00    0.46648   0.51953   25.456
 6761.00    0.48605   0.51967   24.367
 6762.00    0.50913   0.51946   24.138
 6763.00    0.52156   0.51903   24.933
 6764.00    0.52013   0.51829   26.647
 6765.00    0.51358   0.51755   28.581
 6766.00    0.51244   0.51685   29.406
 6767.00    0.52337   0.51615   28.259
 6768.00    0.54229   0.51552   26.693
 6769.00    0.55879   0.51507   26.699
 6770.00    0.56932   0.51501   28.241
 6771.00    0.57679   0.51534   29.865
 6772.00    0.58312   0.51583   30.718
 6773.00    0.58714   0.51639   31.049
 6774.00    0.58390   0.51702   31.115
 6775.00    0.56941   0.51771   31.047
 6776.00    0.54931   0.51835   31.229
 6777.00    0.53318   0.51867   32.007
 6778.00    0.52248   0.51874   33.065
 6779.00    0.51419   0.51840   33.738
 6780.00    0.50964   0.51783   33.995
 6781.00    0.51065   0.51707   34.150
 6782.00    0.51200   0.51622   34.000
 6783.00    0.50883   0.51534   33.164
 6784.00    0.50779   0.51451   31.760
 6785.00    0.51636   0.51385   30.369
 6786.00    0.52777   0.51334   29.785
 6787.00    0.53185   0.51312   30.393
 6788.00    0.53001   0.51307   31.563
 6789.00    0.52793   0.51313   32.428
 6790.00    0.52559   0.51321   33.201
 6791.00    0.52159   0.51322   34.336
 6792.00    0.51872   0.51323   35.173
 6793.00    0.52035   0.51319   34.864
 6794.00    0.52637   0.51316   33.785
 6795.00    0.53361   0.51306   32.665
 6796.00    0.53695   0.51294   31.720
 6797.00    0.53362   0.51295   31.078
 6798.00    0.52635   0.51298   31.070
 6799.00    0.51825   0.51303   31.854
 6800.00    0.50917   0.51309   33.113
 6801.00    0.50065   0.51301   34.332
 6802.00    0.49893   0.51300   35.125
 6803.00    0.50675   0.51290   35.217
 6804.00    0.51839   0.51268   34.461
 6805.00    0.52657   0.51248   33.010
 6806.00    0.52752   0.51213   31.296
 6807.00    0.52174   0.51185   29.802
 6808.00    0.51395   0.51160   28.923
 6809.00    0.51055   0.51129   28.810
 6810.00    0.51677   0.51112   29.417
 6811.00    0.52951   0.51091   30.806
 6812.00    0.53658   0.51072   33.203
 6813.00    0.53230   0.51074   36.077
 6814.00    0.52240   0.51083   37.338
 6815.00    0.50905   0.51090   35.997
 6816.00    0.48808   0.51101   33.684
 6817.00    0.46797   0.51110   31.412
 6818.00    0.46990   0.51139   29.078
 6819.00    0.49370   0.51173   27.107
 6820.00    0.51327   0.51197   26.326
 6821.00    0.51338   0.51219   27.192
 6822.00    0.50044   0.51225   29.880
 6823.00    0.48901   0.51233   33.649
 6824.00    0.49185   0.51233   35.906
 6825.00    0.50468   0.51218   35.800
 6826.00    0.51034   0.51200   35.786
 6827.00    0.50719   0.51177   36.663
 6828.00    0.50864   0.51148   37.073
 6829.00    0.51674   0.51114   36.699
 6830.00    0.52016   0.51074   36.518
 6831.00    0.51016   0.51039   36.390
 6832.00    0.48762   0.51006   35.308
 6833.00    0.46916   0.50954   33.491
 6834.00    0.47496   0.50880   31.940
 6835.00    0.49798   0.50787   30.956
 6836.00    0.51304   0.50672   30.472
 6837.00    0.51196   0.50551   30.822
 6838.00    0.50285   0.50419   32.443
 6839.00    0.49260   0.50293   34.729
 6840.00    0.48322   0.50197   35.759
 6841.00    0.47214   0.50124   33.992
 6842.00    0.45817   0.50097   30.226
 6843.00    0.45132   0.50101   26.936
 6844.00    0.46233   0.50142   25.418
 6845.00    0.48308   0.50217   25.254
 6846.00    0.49702   0.50308   25.730
 6847.00    0.49989   0.50403   26.868
 6848.00    0.49732   0.50480   29.047
 6849.00    0.49641   0.50531   32.009
 6850.00    0.50016   0.50554   34.612
 6851.00    0.50228   0.50540   35.546
 6852.00    0.49578   0.50495   34.786
 6853.00    0.48419   0.50435   34.219
 6854.00    0.47605   0.50367   35.157
 6855.00    0.47664   0.50287   36.281
 6856.00    0.48500   0.50211   35.823
 6857.00    0.49257   0.50135   34.919
 6858.00    0.49152   0.50086   35.066
 6859.00    0.48320   0.50064   35.672
 6860.00    0.47431   0.50060   35.579
 6861.00    0.47188   0.50080   34.765
 6862.00    0.47892   0.50093   33.699
 6863.00    0.49146   0.50102   32.552
 6864.00    0.50427   0.50111   31.373
 6865.00    0.51555   0.50122   30.288
 6866.00    0.52330   0.50134   29.685
 6867.00    0.52286   0.50129   30.236
 6868.00    0.51109   0.50116   31.961
 6869.00    0.48971   0.50090   33.277
 6870.00    0.46560   0.50067   32.576
 6871.00    0.44952   0.50059   30.411
 6872.00    0.44751   0.50058   28.364
 6873.00    0.45618   0.50062   27.524
 6874.00    0.46829   0.50060   27.226
 6875.00    0.47747   0.50068   25.260
 6876.00    0.48439   0.50066   22.009
 6877.00    0.49670   0.50061   19.855
 6878.00    0.51101   0.50049   19.315
 6879.00    0.50953   0.50036   19.692
 6880.00    0.48945   0.50025   20.430
 6881.00    0.47088   0.50008   21.317
 6882.00    0.46596   0.50006   21.758
 6883.00    0.46871   0.50002   20.974
 6884.00    0.47340   0.50020   20.251
 6885.00    0.48073   0.50057   22.264
 6886.00    0.49026   0.50114   28.308
 6887.00    0.49829   0.50181   34.061
 6888.00    0.50199   0.50240   33.612
 6889.00    0.50118   0.50302   32.070
 6890.00    0.49896   0.50352   32.259
 6891.00    0.49954   0.50391   32.136
 6892.00    0.50073   0.50415   31.275
 6893.00    0.49587   0.50428   31.402
 6894.00    0.48645   0.50431   32.490
 6895.00    0.48050   0.50421   32.693
 6896.00    0.47778   0.50412   31.696
 6897.00    0.47283   0.50399   30.878
 6898.00    0.47328   0.50393   30.644
 6899.00    0.49166   0.50395   30.556
 6900.00    0.51480   0.50400   30.602
 6901.00    0.51544   0.50404   31.046
 6902.00    0.49441   0.50410   31.447
 6903.00    0.47465   0.50414   30.992
 6904.00    0.46851   0.50423   29.871
 6905.00    0.47526   0.50421   28.847
 6906.00    0.49007   0.50410   28.094
 6907.00    0.50575   0.50390   27.570
 6908.00    0.51297   0.50351   27.739
 6909.00    0.50667   0.50305   29.060
 6910.00    0.49632   0.50247   30.769
 6911.00    0.49471   0.50177   31.402
 6912.00    0.49807   0.50106   31.260
 6913.00    0.49693   0.50039   31.554
 6914.00    0.49614   0.49976   32.039
 6915.00    0.50311   0.49937   31.861
 6916.00    0.50838   0.49905   31.335
 6917.00    0.50004   0.49900   31.255
 6918.00    0.48495   0.49911   31.783
 6919.00    0.47686   0.49915   32.583
 6920.00    0.47879   0.49935   33.035
 6921.00    0.48626   0.49936   32.705
 6922.00    0.49337   0.49938   31.920
 6923.00    0.49482   0.49930   31.287
 6924.00    0.48782   0.49915   31.153
 6925.00    0.47678   0.49899   31.407
 6926.00    0.47583   0.49869   31.340
 6927.00    0.48901   0.49853   30.655
 6928.00    0.49528   0.49837   30.229
 6929.00    0.48256   0.49841   30.584
 6930.00    0.47383   0.49844   30.879
 6931.00    0.48509   0.49854   30.405
 6932.00    0.49479   0.49865   29.813
 6933.00    0.48651   0.49871   29.544
 6934.00    0.47838   0.49881   28.963
 6935.00    0.48639   0.49881   27.947
 6936.00    0.49988   0.49891   27.528
 6937.00    0.50273   0.49892   28.048
 6938.00    0.48924   0.49882   28.407
 6939.00    0.46789   0.49859   27.823
 6940.00    0.45845   0.49815   26.967
 6941.00    0.46492   0.49766   26.514
 6942.00    0.46648   0.49701   26.494
 6943.00    0.45316   0.49642   26.698
 6944.00    0.44067   0.49578   26.875
 6945.00    0.44429   0.49513   26.934
 6946.00    0.46506   0.49454   27.015
 6947.00    0.48986   0.49402   27.222
 6948.00    0.49768   0.49369   27.507
 6949.00    0.48518   0.49347   27.775
 6950.00    0.47106   0.49339   27.953
 6951.00    0.46798   0.49336   28.070
 6952.00    0.47365   0.49343   28.204
 6953.00    0.48253   0.49346   28.127
 6954.00    0.48991   0.49368   27.461
 6955.00    0.49000   0.49393   26.611
 6956.00    0.47872   0.49430   26.459
 6957.00    0.46469   0.49471   27.047
 6958.00    0.46502   0.49514   27.550
 6959.00    0.48149   0.49559   27.353
 6960.00    0.49984   0.49591   26.589
 6961.00    0.50907   0.49622   26.044
 6962.00    0.50724   0.49641   26.487
 6963.00    0.50114   0.49657   27.473
 6964.00    0.50015   0.49667   27.642
 6965.00    0.50198   0.49671   27.109
 6966.00    0.49769   0.49661   27.112
 6967.00    0.49145   0.49643   27.567
 6968.00    0.49462   0.49607   27.474
 6969.00    0.50325   0.49562   26.977
 6970.00    0.50428   0.49498   26.903
 6971.00    0.49765   0.49405   27.021
 6972.00    0.49235   0.49292   26.544
 6973.00    0.49035   0.49145   25.659
 6974.00    0.48795   0.48992   25.074
 6975.00    0.48337   0.48844   24.981
 6976.00    0.47625   0.48704   25.200
 6977.00    0.46468   0.48599   25.464
 6978.00    0.44941   0.48527   25.545
 6979.00    0.44028   0.48497   25.422
 6980.00    0.44615   0.48514   25.242
 6981.00    0.45971   0.48574   25.179
 6982.00    0.46970   0.48682   25.250
 6983.00    0.47925   0.48807   25.112
 6984.00    0.49440   0.48937   24.661
 6985.00    0.50745   0.49064   24.664
 6986.00    0.50787   0.49167   25.724
 6987.00    0.49708   0.49251   27.080
 6988.00    0.48437   0.49316   27.537
 6989.00    0.47995   0.49358   27.420
 6990.00    0.48740   0.49386   27.426
 6991.00    0.49788   0.49394   27.064
 6992.00    0.50271   0.49391   25.988
 6993.00    0.50506   0.49375   25.084
 6994.00    0.51046   0.49338   24.941
 6995.00    0.51782   0.49288   25.014
 6996.00    0.52403   0.49222   24.703
 6997.00    0.52810   0.49148   24.215
 6998.00    0.52931   0.49068   23.959
 6999.00    0.52559   0.48982   24.081
 7000.00    0.51482   0.48899   24.470
 7001.00    0.49668   0.48816   -2.000
 7002.00    0.47864   0.48748   -2.000
 7003.00    0.47629   0.48698   -2.000
 7004.00    0.48973   0.48667   -2.000
 7005.00    0.49456   0.48651   -2.000
 7006.00    0.48041   0.48639   -2.000
 7007.00    0.46761   0.48635   -2.000
 7008.00    0.46889   0.48630   -2.000
 7009.00    0.47263   0.48628   -2.000
 7010.00    0.47122   0.48614   -2.000
 7011.00    0.47222   0.48583   -2.000
 7012.00    0.47778   0.48539   -2.000
 7013.00    0.47780   0.48487   -2.000
 7014.00    0.46602   0.48432   -2.000
 7015.00    0.44711   0.48386   -2.000
 7016.00    0.43500   0.48347   -2.000
 7017.00    0.44558   0.48317   -2.000
 7018.00    0.47280   0.48291   -2.000
 7019.00    0.48940   0.48279   -2.000
 7020.00    0.48362   0.48288   -2.000
 7021.00    0.46817   0.48306   -2.000
 7022.00    0.46306   0.48335   -2.000
 7023.00    0.47911   0.48361   -2.000
 7024.00    0.48662   0.48386   -2.000
 7025.00    0.44083   0.48408   -2.000
 7026.00    0.38348   0.48441   -2.000
 7027.00    0.40937   0.48476   -2.000
 7028.00    0.49372   0.48524   -2.000
 7029.00    0.52139   0.48569   -2.000
 7030.00    0.48434   0.48610   -2.000
 7031.00    0.46679   0.48649   -2.000
 7032.00    0.48637   0.48667   -2.000
 7033.00    0.49892   0.48683   -2.000
 7034.00    0.49578   0.48692   -2.000
 7035.00    0.49750   0.48714   -2.000
 7036.00    0.49521   0.48742   -2.000
 7037.00    0.46797   0.48788   -2.000
 7038.00    0.43905   0.48850   -2.000
 7039.00    0.44745   0.48923   -2.000
 7040.00    0.47773   0.48998   -2.000
 7041.00    0.48748   0.49087   -2.000
 7042.00    0.47452   0.49177   -2.000
 7043.00    0.46190   0.49260   -2.000
 7044.00    0.45622   0.49339   -2.000
 7045.00    0.45497   0.49385   -2.000
 7046.00    0.46590   0.49407   -2.000
 7047.00    0.49123   0.49391   -2.000
 7048.00    0.50408   0.49353   -2.000
 7049.00    0.48361   0.49296   -2.000
 7050.00    0.46098   0.49218   -2.000
 7051.00    0.47007   0.49139   -2.000
 7052.00    0.48494   0.49038   -2.000
 7053.00    0.47144   0.48942   -2.000
 7054.00    0.45023   0.48836   -2.000
 7055.00    0.45299   0.48738   -2.000
 7056.00    0.47141   0.48660   -2.000
 7057.00    0.48337   0.48592   -2.000
 7058.00    0.48335   0.48549   -2.000
 7059.00    0.47583   0.48515   -2.000
 7060.00    0.46653   0.48489   -2.000
 7061.00    0.46143   0.48457   -2.000
 7062.00    0.46555   0.48424   -2.000
 7063.00    0.47471   0.48388   -2.000
 7064.00    0.47211   0.48357   -2.000
 7065.00    0.45424   0.48336   -2.000
 7066.00    0.44535   0.48319   -2.000
 7067.00    0.45840   0.48309   -2.000
 7068.00    0.47202   0.48300   -2.000
 7069.00    0.46826   0.48308   -2.000
 7070.00    0.45492   0.48318   -2.000
 7071.00    0.44194   0.48346   -2.000
 7072.00    0.42823   0.48385   -2.000
 7073.00    0.41579   0.48430   -2.000
 7074.00    0.41511   0.48469   -2.000
 7075.00    0.42792   0.48494   -2.000
 7076.00    0.44198   0.48497   -2.000
 7077.00    0.45236   0.48470   -2.000
 7078.00    0.46651   0.48417   -2.000
 7079.00    0.47695   0.48323   -2.000
 7080.00    0.46030   0.48208   -2.000
 7081.00    0.42893   0.48069   -2.000
 7082.00    0.43201   0.47913   -2.000
 7083.00    0.46797   0.47743   -2.000
 7084.00    0.47690   0.47568   -2.000
 7085.00    0.44775   0.47398   -2.000
 7086.00    0.43204   0.47239   -2.000
 7087.00    0.44611   0.47106   -2.000
 7088.00    0.45739   0.46996   -2.000
 7089.00    0.45556   0.46922   -2.000
 7090.00    0.45774   0.46872   -2.000
 7091.00    0.45093   0.46849   -2.000
 7092.00    0.40484   0.46842   -2.000
 7093.00    0.35755   0.46855   -2.000
 7094.00    0.38700   0.46899   -2.000
 7095.00    0.47231   0.46942   -2.000
 7096.00    0.51766   0.47017   -2.000
 7097.00    0.50318   0.47083   -2.000
 7098.00    0.48130   0.47159   -2.000
 7099.00    0.48003   0.47239   -2.000
 7100.00    0.49113   0.47301   -2.000
 7101.00    0.49509   0.47367   -2.000
 7102.00    0.47951   0.47396   -2.000
 7103.00    0.46331   0.47423   -2.000
 7104.00    0.47213   0.47420   -2.000
 7105.00    0.48517   0.47398   -2.000
 7106.00    0.46681   0.47356   -2.000
 7107.00    0.43751   0.47302   -2.000
 7108.00    0.43656   0.47247   -2.000
 7109.00    0.44353   0.47186   -2.000
 7110.00    0.42145   0.47125   -2.000
 7111.00    0.39894   0.47074   -2.000
 7112.00    0.41659   0.47030   -2.000
 7113.00    0.43696   0.47002   -2.000
 7114.00    0.41250   0.46982   -2.000
 7115.00    0.38728   0.46965   -2.000
 7116.00    0.41733   0.46963   -2.000
 7117.00    0.46074   0.46952   -2.000
 7118.00    0.45796   0.46955   -2.000
 7119.00    0.43557   0.46948   -2.000
 7120.00    0.43985   0.46940   -2.000
 7121.00    0.45518   0.46929   -2.000
 7122.00    0.44594   0.46911   -2.000
 7123.00    0.40785   0.46906   -2.000
 7124.00    0.36771   0.46885   -2.000
 7125.00    0.37248   0.46871   -2.000
 7126.00    0.43246   0.46849   -2.000
 7127.00    0.48309   0.46840   -2.000
 7128.00    0.49150   0.46839   -2.000
 7129.00    0.53031   0.46840   -2.000
 7130.00    0.62853   0.46853   -2.000
 7131.00    0.67425   0.46877   -2.000
 7132.00    0.59749   0.46925   -2.000
 7133.00    0.48693   0.46978   -2.000
 7134.00    0.43114   0.47040   -2.000
 7135.00    0.41622   0.47103   -2.000
 7136.00    0.40498   0.47179   -2.000
 7137.00    0.38790   0.47236   -2.000
 7138.00    0.35890   0.47275   -2.000
 7139.00    0.30567   0.47294   -2.000
 7140.00    0.24458   0.47287   -2.000
 7141.00    0.22699   0.47262   -2.000
 7142.00    0.26908   0.47215   -2.000
 7143.00    0.32905   0.47146   -2.000
 7144.00    0.37574   0.47076   -2.000
 7145.00    0.41342   0.47014   -2.000
 7146.00    0.43875   0.46953   -2.000
 7147.00    0.43182   0.46906   -2.000
 7148.00    0.40220   0.46880   -2.000
 7149.00    0.39149   0.46878   -2.000
 7150.00    0.40624   0.46892   -2.000
 7151.00    0.41040   0.46935   -2.000
 7152.00    0.39482   0.46994   -2.000
 7153.00    0.38707   0.47064   -2.000
 7154.00    0.39664   0.47141   -2.000
 7155.00    0.40581   0.47196   -2.000
 7156.00    0.40145   0.47235   -2.000
 7157.00    0.38743   0.47253   -2.000
 7158.00    0.38903   0.47239   -2.000
 7159.00    0.42886   0.47197   -2.000
 7160.00    0.46035   0.47135   -2.000
 7161.00    0.41351   0.47079   -2.000
 7162.00    0.35457   0.47019   -2.000
 7163.00    0.42176   0.46963   -2.000
 7164.00    0.57846   0.46929   -2.000
 7165.00    0.66509   0.46920   -2.000
 7166.00    0.64539   0.46943   -2.000
 7167.00    0.58682   0.46996   -2.000
 7168.00    0.50497   0.47064   -2.000
 7169.00    0.38371   0.47148   -2.000
 7170.00    0.27596   0.47244   -2.000
 7171.00    0.26254   0.47328   -2.000
 7172.00    0.34364   0.47389   -2.000
 7173.00    0.45670   0.47419   -2.000
 7174.00    0.54085   0.47414   -2.000
 7175.00    0.56013   0.47377   -2.000
 7176.00    0.52142   0.47316   -2.000
 7177.00    0.45586   0.47238   -2.000
 7178.00    0.38723   0.47146   -2.000
 7179.00    0.32711   0.47050   -2.000
 7180.00    0.27597   0.46945   -2.000
 7181.00    0.24517   0.46851   -2.000
 7182.00    0.28063   0.46759   -2.000
 7183.00    0.40147   0.46672   -2.000
 7184.00    0.52926   0.46590   -2.000
 7185.00    0.57477   0.46516   -2.000
 7186.00    0.54117   0.46464   -2.000
 7187.00    0.48187   0.46419   -2.000
 7188.00    0.44204   0.46388   -2.000
 7189.00    0.43352   0.46357   -2.000
 7190.00    0.42223   0.46352   -2.000
 7191.00    0.39416   0.46359   -2.000
 7192.00    0.40539   0.46382   -2.000
 7193.00    0.47231   0.46437   -2.000
 7194.00    0.49253   0.46490   -2.000
 7195.00    0.41188   0.46554   -2.000
 7196.00    0.33936   0.46609   -2.000
 7197.00    0.34823   0.46653   -2.000
 7198.00    0.34659   0.46697   -2.000
 7199.00    0.27835   0.46731   -2.000
 7200.00    0.24457   0.46746   -2.000
 7201.00    0.31928   0.46735   -2.000
 7202.00    0.44139   0.46707   -2.000
 7203.00    0.53557   0.46676   -2.000
 7204.00    0.58562   0.46634   -2.000
 7205.00    0.60271   0.46585   -2.000
 7206.00    0.60026   0.46543   -2.000
 7207.00    0.57136   0.46504   -2.000
 7208.00    0.48820   0.46495   -2.000
 7209.00    0.35754   0.46480   -2.000
 7210.00    0.23726   0.46489   -2.000
 7211.00    0.18207   0.46499   -2.000
 7212.00    0.21454   0.46533   -2.000
 7213.00    0.31405   0.46586   -2.000
 7214.00    0.42272   0.46623   -2.000
 7215.00    0.48656   0.46662   -2.000
 7216.00    0.48244   0.46681   -2.000
 7217.00    0.45307   0.46693   -2.000
 7218.00    0.47947   0.46699   -2.000
