###################################################################
## OUTPUT of StarlightChains_v04.for    [Cid@UFSC - 01/Apr/2007] ##
###################################################################

## Some input info
1988L.txt                                [arq_obs]
Base.CB07.vall.4m                        [arq_base]
Masks.EmLines.NEW.gm                     [arq_masks]
StCv04.C11.config                        [arq_config]
   66                                    [N_base]
    0                                    [N_YAV_components = # of components with extra extinction!]
    0                                    [i_FitPowerLaw (1/0 = Yes/No)]
-9.99                                    [alpha_PowerLaw]
CCM                                      [red_law_option]
 1.458241                                [q_norm = A(l_norm)/A(V)]

## (Re)Sampling Parameters
 3741.00                                 [l_ini (A)]
 7218.00                                 [l_fin (A)]
    1.00                                 [dl    (A)]     (OBS: dl_cushion =    50.00 A)

## Normalization info
 4020.00                                 [l_norm (A) - for base]
 4010.00                                 [llow_norm (A) - window for f_obs]
 4060.00                                 [lupp_norm (A) - window for f_obs]
1.214434E-15                             [fobs_norm (in input units)]

## S/N
 3691.00                                 [llow_SN (A) - window for S/N]
 7268.00                                 [lupp_SN (A) - window for S/N]
   8.773                                 [S/N in S/N window]
  10.337                                 [S/N in norm. window]
  21.662                                 [S/N_err in S/N window]
  25.522                                 [S/N_err in norm. window]
  1.0000                                 [fscale_chi2]

## etc...
    -2007212                             [idum_orig]
  2393                                   [NOl_eff]
  2392                                   [Nl_eff]
     1    NSIGMA                         [Ntot_cliped & clip_method]
  1835750                                [Nglobal_steps]
   7                                     [N_chains]
  29                                     [NEX0s_base = N_base in EX0s-fits]
 0   0   1       10   2.0   4.381E+01    [Clip-Bug, RC-Crash & Burn-In warning-flags, n_censored_weights, wei_nsig_threshold & wei_limit]
    18     18.505     17.957      0.549  [idt_all, wdt_TotTime, wdt_UsrTime & wdt_SysTime (sec)]

## Synthesis Results - Best model ##

 2.05297E-01                             [chi2/Nl_eff]
     1.51125                             [adev (%)]

   106.78415                             [sum-of-x (%)]
 2.34863E-15                             [Flux_tot (units of input spectrum!)]
 7.27654E-12                             [Mini_tot (???)]
 4.35614E-12                             [Mcor_tot (???)]

  82.28                                  [v0_min  (km/s)]
 183.44                                  [vd_min  (km/s)]
 0.4422                                  [AV_min  (mag)]
 0.0000                                  [YAV_min (mag)]

# j     x_j(%)      Mini_j(%)     Mcor_j(%)     age_j(yr)     Z_j      (L/M)_j    YAV?  Mstars   component_j        a/Fe...       SSP_chi2r SSP_adev(%)   SSP_AV   SSP_x(%)
  1      0.0000     0.0000E+00    0.0000E+00    1.000000E+06  0.00400  1.094E-02    0   1.0000   age020_m42            0.0000     2.0187E+00     5.3169   2.6209    92.2653
  2      0.0000     0.0000E+00    0.0000E+00    3.160000E+06  0.00400  4.007E-02    0   0.9999   age045_m42            0.0000     1.1249E+00     3.5568   1.9276    97.0691
  3      0.0000     0.0000E+00    0.0000E+00    5.010000E+06  0.00400  2.539E-02    0   0.9488   age055_m42            0.0000     1.4383E+00     4.2443   2.2327    95.3657
  4      0.0000     0.0000E+00    0.0000E+00    6.610000E+06  0.00400  2.620E-02    0   0.9220   age061_m42            0.0000     1.0257E+00     3.3099   1.8544    97.2551
  5      0.3104     7.0970E-03    1.0506E-02    1.000000E+07  0.00400  1.322E-02    0   0.8862   age070_m42            0.0000     8.9376E-01     3.0565   1.5580    99.8900
  6      0.0000     0.0000E+00    0.0000E+00    1.445000E+07  0.00400  7.883E-03    0   0.8571   age078_m42            0.0000     1.0939E+00     3.4721   1.8796    97.6483
  7      0.0000     0.0000E+00    0.0000E+00    2.512000E+07  0.00400  5.251E-03    0   0.8174   age090_m42            0.0000     8.9420E-01     3.0436   1.4287   100.3833
  8      0.0000     0.0000E+00    0.0000E+00    4.000000E+07  0.00400  3.649E-03    0   0.7851   age104_m42            0.0000     7.4062E-01     2.7564   1.2054   101.0212
  9      0.4249     4.1453E-02    5.2825E-02    5.500000E+07  0.00400  3.098E-03    0   0.7629   age110_m42            0.0000     6.9545E-01     2.5320   1.3725   100.4364
 10      0.0000     0.0000E+00    0.0000E+00    1.015200E+08  0.00400  2.228E-03    0   0.7207   age116_m42            0.0000     7.1883E-01     2.6110   1.4019   100.2273
 11      0.0000     0.0000E+00    0.0000E+00    2.861200E+08  0.00400  1.093E-03    0   0.6648   age125_m42            0.0000     6.4026E-01     2.7016   0.8353   103.1396
 12      0.0028     1.2984E-03    1.3805E-03    5.088000E+08  0.00400  6.597E-04    0   0.6365   age130_m42            0.0000     6.1381E-01     2.8176   0.8367   103.4858
 13      0.0000     0.0000E+00    0.0000E+00    1.434000E+09  0.00400  2.132E-04    0   0.5798   age139_m42            0.0000     4.2502E-01     2.4136  -0.1292   105.2299
 14      0.0000     0.0000E+00    0.0000E+00    4.250000E+09  0.00400  5.895E-05    0   0.5377   age158_m42            0.0000     9.3115E-01     3.2272  -0.5769   101.6825
 15      2.9651     2.5534E+01    2.2230E+01    7.500000E+09  0.00400  3.510E-05    0   0.5212   age171_m42            0.0000     1.3543E+00     3.8243  -0.7605   100.8876
 16      0.0000     0.0000E+00    0.0000E+00    1.300000E+10  0.00400  2.005E-05    0   0.5034   age193_m42            0.0000     1.8435E+00     4.4017  -0.9218   100.2558
 17      0.0000     0.0000E+00    0.0000E+00    1.800000E+10  0.00400  1.525E-05    0   0.4967   age213_m42            0.0000     1.7832E+00     4.3374  -0.9474    99.9018
 18      0.1408     3.4368E-03    5.7408E-03    1.000000E+06  0.00800  1.238E-02    0   1.0000   age020_m52            0.0000     2.0222E+00     5.3310   2.6173    92.4464
 19      1.8070     1.7768E-02    2.9578E-02    3.160000E+06  0.00800  3.074E-02    0   0.9966   age045_m52            0.0000     1.9577E+00     5.2377   2.5424    93.1759
 20      0.0000     0.0000E+00    0.0000E+00    5.010000E+06  0.00800  2.668E-02    0   0.9443   age055_m52            0.0000     1.5216E+00     4.4472   2.3104    94.7315
 21      1.0523     1.4891E-02    2.2826E-02    6.610000E+06  0.00800  2.136E-02    0   0.9177   age061_m52            0.0000     6.5932E-01     2.9404   1.0490   101.4966
 22      0.0000     0.0000E+00    0.0000E+00    1.000000E+07  0.00800  1.215E-02    0   0.8827   age070_m52            0.0000     1.0206E+00     3.3585   1.7302   100.0006
 23      0.0000     0.0000E+00    0.0000E+00    1.445000E+07  0.00800  8.717E-03    0   0.8552   age078_m52            0.0000     9.9098E-01     3.2657   1.8463    98.9245
 24      1.3944     7.5373E-02    1.0276E-01    2.512000E+07  0.00800  5.592E-03    0   0.8162   age090_m52            0.0000     8.3418E-01     2.9376   1.4945   101.4685
 25      3.0687     2.3808E-01    3.1183E-01    4.000000E+07  0.00800  3.896E-03    0   0.7841   age104_m52            0.0000     6.9423E-01     2.6196   1.4169   101.8109
 26      0.2853     4.0144E-02    4.8455E-02    1.015200E+08  0.00800  2.148E-03    0   0.7226   age116_m52            0.0000     5.9241E-01     2.4031   1.3652   101.2322
 27      0.0000     0.0000E+00    0.0000E+00    2.861200E+08  0.00800  9.925E-04    0   0.6683   age125_m52            0.0000     5.2762E-01     2.6157   0.9030   104.3666
 28      5.9993     5.7732E+00    5.9192E+00    9.047900E+08  0.00800  3.141E-04    0   0.6138   age135_m52            0.0000     6.3243E-01     2.9475   0.1251   107.7341
 29      0.0000     0.0000E+00    0.0000E+00    1.434000E+09  0.00800  1.719E-04    0   0.5853   age139_m52            0.0000     7.3582E-01     3.0369  -0.4655   106.1279
 30      0.0000     0.0000E+00    0.0000E+00    2.500000E+09  0.00800  7.872E-05    0   0.5600   age150_m52            0.0000     1.3880E+00     4.0059  -0.7302   103.2346
 31      0.0000     0.0000E+00    0.0000E+00    4.250000E+09  0.00800  4.336E-05    0   0.5426   age158_m52            0.0000     1.5520E+00     4.1134  -0.7481   102.4027
 32      0.0000     0.0000E+00    0.0000E+00    6.250000E+09  0.00800  3.159E-05    0   0.5319   age166_m52            0.0000     2.2589E+00     4.9680  -0.9424   102.1021
 33      0.0000     0.0000E+00    0.0000E+00    1.300000E+10  0.00800  1.361E-05    0   0.5073   age193_m52            0.0000     6.9685E+00     8.7103  -1.0000    86.3036
 34      0.0000     0.0000E+00    0.0000E+00    1.800000E+10  0.00800  9.886E-06    0   0.4990   age213_m52            0.0000     9.6452E+00    10.2817  -1.0000    82.1120
 35      0.0613     1.2009E-03    2.0060E-03    1.000000E+06  0.02000  1.544E-02    0   1.0000   age020_m62            0.0000     2.0528E+00     5.3866   2.6119    92.7243
 36      1.0164     8.1667E-03    1.3448E-02    3.160000E+06  0.02000  3.762E-02    0   0.9858   age045_m62            0.0000     2.0356E+00     5.3822   2.5515    93.5263
 37      0.0000     0.0000E+00    0.0000E+00    5.010000E+06  0.02000  3.296E-02    0   0.9342   age055_m62            0.0000     1.3118E+00     3.9694   2.1989    96.2741
 38     21.8389     5.7201E-01    8.4667E-01    8.710000E+06  0.02000  1.154E-02    0   0.8861   age067_m62            0.0000     2.6133E+00     6.2775   1.1447   104.3870
 39      3.1229     1.2318E-01    1.7432E-01    1.445000E+07  0.02000  7.663E-03    0   0.8472   age078_m62            0.0000     1.1868E+00     3.8909   1.3689   102.6403
 40      0.0000     0.0000E+00    0.0000E+00    2.512000E+07  0.02000  4.532E-03    0   0.8099   age090_m62            0.0000     1.3367E+00     4.0878   1.3638   102.2197
 41      0.0000     2.8294E-06    3.5896E-06    5.500000E+07  0.02000  2.733E-03    0   0.7595   age110_m62            0.0000     7.2677E-01     2.6707   1.3945   101.3225
 42      0.0005     1.0720E-04    1.2508E-04    1.609000E+08  0.02000  1.369E-03    0   0.6985   age120_m62            0.0000     6.1718E-01     2.5193   1.2556   103.0730
 43      0.0004     1.4179E-04    1.5902E-04    2.861200E+08  0.02000  9.013E-04    0   0.6714   age125_m62            0.0000     6.4383E-01     2.8088   1.0177   105.4034
 44      0.0023     1.3992E-03    1.5072E-03    5.088000E+08  0.02000  5.028E-04    0   0.6449   age130_m62            0.0000     7.4942E-01     3.2303   0.6588   107.3601
 45     17.3967     2.1657E+01    2.2353E+01    9.047900E+08  0.02000  2.428E-04    0   0.6179   age135_m62            0.0000     8.0506E-01     3.2444   0.0716   106.8831
 46      0.0508     1.2156E-01    1.1996E-01    1.434000E+09  0.02000  1.263E-04    0   0.5908   age139_m62            0.0000     1.1804E+00     3.6654  -0.3780   105.6272
 47      0.0000     0.0000E+00    0.0000E+00    2.500000E+09  0.02000  5.985E-05    0   0.5673   age150_m62            0.0000     2.0851E+00     4.8379  -0.7395   104.1001
 48      0.0000     0.0000E+00    0.0000E+00    4.250000E+09  0.02000  3.271E-05    0   0.5468   age158_m62            0.0000     3.3887E+00     6.2879  -1.0000   101.4767
 49      0.0000     0.0000E+00    0.0000E+00    1.000000E+10  0.02000  1.360E-05    0   0.5167   age181_m62            0.0000     7.9680E+00     9.2984  -1.0000    88.1139
 50      0.0000     0.0000E+00    0.0000E+00    1.800000E+10  0.02000  7.124E-06    0   0.5013   age213_m62            0.0000     1.2936E+01    11.8833  -1.0000    80.0768
 51      0.0258     3.0051E-04    5.0188E-04    1.000000E+06  0.05000  2.592E-02    0   0.9998   age020_m72            0.0000     2.1596E+00     5.5426   2.5995    92.9135
 52      0.0162     1.0130E-04    1.6206E-04    3.160000E+06  0.05000  4.845E-02    0   0.9577   age045_m72            0.0000     1.8054E+00     4.9359   2.4451    94.2910
 53      0.0000     0.0000E+00    0.0000E+00    5.010000E+06  0.05000  3.072E-02    0   0.9147   age055_m72            0.0000     1.3115E+00     4.1079   1.9609    98.7349
 54      1.6075     3.3395E-02    4.9518E-02    6.610000E+06  0.05000  1.455E-02    0   0.8877   age061_m72            0.0000     5.0167E+00     8.8665   1.1958   105.6459
 55      0.0000     0.0000E+00    0.0000E+00    1.000000E+07  0.05000  9.074E-03    0   0.8524   age070_m72            0.0000     1.7819E+00     4.9308   2.1596    98.1317
 56      0.0000     0.0000E+00    0.0000E+00    2.512000E+07  0.05000  4.250E-03    0   0.7902   age090_m72            0.0000     1.2926E+00     3.8899   1.8618    99.5080
 57      0.0000     0.0000E+00    0.0000E+00    4.000000E+07  0.05000  3.087E-03    0   0.7618   age104_m72            0.0000     1.2974E+00     3.8078   1.6362   100.9737
 58      0.0000     0.0000E+00    0.0000E+00    1.015200E+08  0.05000  1.700E-03    0   0.7096   age116_m72            0.0000     7.2432E-01     2.6848   1.3931   102.8776
 59      0.0083     3.3916E-03    3.7578E-03    2.861200E+08  0.05000  7.384E-04    0   0.6633   age125_m72            0.0000     6.3685E-01     2.9319   0.8952   106.3776
 60     35.6738     2.8235E+01    3.0053E+01    5.088000E+08  0.05000  3.819E-04    0   0.6372   age130_m72            0.0000     7.3242E-01     3.2643   0.4107   107.7749
 61      7.6253     1.3752E+01    1.4035E+01    9.047900E+08  0.05000  1.676E-04    0   0.6110   age135_m72            0.0000     1.7284E+00     4.7263  -0.2838   106.0464
 62      0.6940     2.3739E+00    2.3293E+00    1.434000E+09  0.05000  8.837E-05    0   0.5874   age139_m72            0.0000     2.3449E+00     5.1265  -0.7369   105.4428
 63      0.1920     1.3712E+00    1.2822E+00    2.500000E+09  0.05000  4.233E-05    0   0.5598   age150_m72            0.0000     3.8111E+00     6.7073  -1.0000   102.3288
 64      0.0000     0.0000E+00    0.0000E+00    6.250000E+09  0.05000  1.435E-05    0   0.5249   age166_m72            0.0000     9.9790E+00    10.4608  -1.0000    84.3081
 65      0.0000     0.0000E+00    0.0000E+00    1.300000E+10  0.05000  6.513E-06    0   0.5036   age193_m72            0.0000     1.7659E+01    13.8652  -1.0000    75.4702
 66      0.0000     0.0000E+00    0.0000E+00    1.800000E+10  0.05000  4.527E-06    0   0.4945   age213_m72            0.0000     2.2958E+01    15.7655  -1.0000    70.1120


## Synthesis Results - Average & Chains ##

# j      x_j: min, <> & last-chain-values for 1 ...  7 chains
  1      0.0000      0.1999      0.0000      0.0000      0.1842      0.0000      0.0000      0.0000      0.0000
  2      0.0000      0.2408      0.5904      0.0000      0.0000      0.2541      0.0000      0.0000      0.3585
  3      0.0000      0.1740      0.0000      0.0000      0.4538      0.0000      0.0000      0.4838      0.6691
  4      0.0000      0.1586      0.0000      0.2858      0.0000      0.0000      0.4800      0.0000      0.4088
  5      0.3104      0.2766      0.2052      1.4685      0.0000      0.0000      0.0143      0.0000      0.0000
  6      0.0000      0.3144      0.0000      0.0228      0.5455      0.3251      0.2542      0.0000      0.7400
  7      0.0000      0.6269      1.3347      0.2571      0.0000      0.0000      0.0000      0.0000      0.0000
  8      0.0000      1.2895      1.4693      0.0000      1.7670      1.6897      0.0000      3.3817      1.0407
  9      0.4249      0.3485      0.0000      0.9092      1.1844      0.5447      0.0000      0.9937      0.0000
 10      0.0000      0.3962      0.0000      0.0656      0.7343      0.1864      0.0000      0.5159      0.5570
 11      0.0000      0.7742      2.2781      0.0000      0.0000      0.3341      0.4053      0.0000      0.0000
 12      0.0028      0.7970      0.0000      0.8645      0.0000      0.2570      0.0000      0.0000      0.2680
 13      0.0000      0.4202      0.0000      0.0000      0.0000      0.0000      0.6463      0.0000      0.5985
 14      0.0000      0.0404      0.0000      0.0000      0.0000      0.0000      0.0000      0.0000      0.1577
 15      2.9651      2.2333      2.0102      1.4980      2.3948      2.6347      2.6215      2.4741      3.1127
 16      0.0000      0.2323      0.0444      0.1548      0.1079      0.0000      0.0000      0.1726      0.0000
 17      0.0000      0.1196      0.0000      0.2294      0.8602      0.0000      0.0000      0.0000      0.0000
 18      0.1408      0.4644      0.7377      1.4722      0.0000      1.1117      0.0000      0.3995      0.8400
 19      1.8070      2.3758      2.7240      2.2214      2.4611      3.3263      1.5970      2.4694      2.7418
 20      0.0000      0.2314      0.3328      0.1423      0.0000      0.3878      0.0000      0.0000      0.0000
 21      1.0523      3.6243      2.0104      2.6213      4.2510      3.1464      5.4369      6.2103      3.2685
 22      0.0000      0.7772      0.0000      0.0000      1.2072      0.0016      1.1107      0.3526      2.6003
 23      0.0000      0.3065      0.0000      0.0000      1.1001      0.0000      0.5584      1.8063      1.0133
 24      1.3944      0.5372      0.9555      1.8427      1.8826      0.0000      1.2179      0.0000      0.0000
 25      3.0687      1.3103      0.0000      2.3118      1.3790      1.4258      2.2037      1.0696      0.0000
 26      0.2853      0.4669      0.1679      1.1858      0.0000      0.3990      0.0000      0.0000      0.0000
 27      0.0000      0.9398      0.6466      0.0000      0.0000      1.0661      0.6552      0.0000      0.9427
 28      5.9993      5.1591      6.0793      6.3994      5.5514      5.4539      5.0074      6.1942      4.8815
 29      0.0000      0.2886      0.0000      0.0000      0.2468      0.0000      0.0000      0.1902      0.7065
 30      0.0000      0.0539      0.0000      0.0000      0.0130      0.3324      0.0000      0.0000      0.0000
 31      0.0000      0.0678      0.0372      0.1965      0.0000      0.0000      0.0000      0.0821      0.0000
 32      0.0000      0.0557      0.0000      0.0000      0.0000      0.0000      0.0000      0.1574      0.0000
 33      0.0000      0.0139      0.0000      0.1220      0.0000      0.0000      0.0000      0.0000      0.0000
 34      0.0000      0.0103      0.0000      0.0000      0.0000      0.0000      0.0000      0.0000      0.0000
 35      0.0613      0.2848      0.0000      0.5077      0.0000      0.0000      0.0000      0.3386      0.0000
 36      1.0164      0.3415      1.9268      0.6152      0.0000      0.5685      0.0000      0.0000      0.0000
 37      0.0000      0.1808      0.0000      0.1756      0.0000      0.0000      0.5718      0.9912      0.0000
 38     21.8389     12.3487     13.8624     13.0778     12.4453     14.9521     14.6291     11.8950     15.3663
 39      3.1229      1.6915      1.1511      2.9621      1.7296      0.0000      2.0324      3.2038      0.0000
 40      0.0000      0.6245      0.0000      0.0000      0.6931      1.5044      0.0000      0.6223      0.9925
 41      0.0000      0.3878      0.2736      0.3429      0.1566      0.1629      0.0000      0.1565      1.3714
 42      0.0005      0.3126      0.3102      0.4117      0.2315      1.0231      0.1037      0.0000      0.0000
 43      0.0004      0.3582      0.0000      0.7436      0.0000      0.3024      1.3108      0.2994      0.0298
 44      0.0023      1.1401      0.0000      1.0853      0.2900      0.0710      0.5605      0.8466      1.3255
 45     17.3967     14.2019     13.5367     12.5055     15.9570     16.0645     14.3246     12.7700     13.0435
 46      0.0508      1.3570      1.5835      1.3472      0.5409      1.3934      1.3298      2.1398      1.3792
 47      0.0000      0.1918      0.7243      0.1395      0.0000      0.0000      0.6587      0.0000      0.1017
 48      0.0000      0.0338      0.0000      0.0000      0.2743      0.0000      0.0613      0.0754      0.0000
 49      0.0000      0.0791      0.0121      0.0000      0.0000      0.0000      0.0000      0.3410      0.3390
 50      0.0000      0.0133      0.0000      0.0000      0.0000      0.0000      0.0000      0.0000      0.0000
 51      0.0258      0.4528      0.3640      0.9311      0.0000      0.0000      1.0042      0.0000      0.3321
 52      0.0162      1.5609      0.6650      1.0226      2.5490      2.6577      1.5974      2.0243      1.5806
 53      0.0000      0.6600      1.3708      0.1856      0.0000      0.0000      0.5886      0.7614      0.0000
 54      1.6075      2.3397      2.5874      2.6122      2.5798      1.9017      2.4099      1.7299      1.5114
 55      0.0000      0.2403      0.0000      0.0195      0.2013      0.0000      0.0000      0.0815      0.0000
 56      0.0000      0.6670      2.4353      0.0000      0.6135      0.9327      1.6823      0.0000      0.0323
 57      0.0000      0.2332      0.0000      0.0000      0.3152      0.0560      0.0000      0.0000      0.0000
 58      0.0000      0.3386      0.0000      0.0000      0.0718      0.0000      0.0000      0.0649      1.7789
 59      0.0083      0.5574      0.0000      0.3720      0.6674      0.0000      0.0000      0.1861      0.0427
 60     35.6738     33.5721     36.2122     33.7458     33.8421     34.6460     34.6936     34.0855     35.0564
 61      7.6253      4.9426      5.8140      7.1729      5.2071      5.6434      5.2199      5.1218      5.4003
 62      0.6940      1.8399      2.0046      1.7644      1.7270      1.1926      1.3992      1.3329      1.7857
 63      0.1920      0.0924      0.0000      0.5316      0.0000      0.2468      0.0000      0.0851      0.0000
 64      0.0000      0.0173      0.0000      0.0000      0.0000      0.0000      0.0000      0.1619      0.0000
 65      0.0000      0.0155      0.0000      0.0039      0.0000      0.0000      0.0000      0.0000      0.0000
 66      0.0000      0.0057      0.0000      0.0000      0.0000      0.1270      0.0000      0.0000      0.0000

# j      m_j: min, <> & last-chain-values for 1 ...  7 chains
  1  0.0000E+00  8.9070E-03  0.0000E+00  0.0000E+00  7.7391E-03  0.0000E+00  0.0000E+00  0.0000E+00  0.0000E+00
  2  0.0000E+00  2.9284E-03  7.6573E-03  0.0000E+00  0.0000E+00  3.0460E-03  0.0000E+00  0.0000E+00  4.2362E-03
  3  0.0000E+00  3.1684E-03  0.0000E+00  0.0000E+00  7.7945E-03  0.0000E+00  0.0000E+00  8.5779E-03  1.1840E-02
  4  0.0000E+00  2.7210E-03  0.0000E+00  5.0059E-03  0.0000E+00  0.0000E+00  8.7953E-03  0.0000E+00  6.8125E-03
  5  1.0506E-02  9.0380E-03  7.1497E-03  4.8989E-02  0.0000E+00  0.0000E+00  5.0047E-04  0.0000E+00  0.0000E+00
  6  0.0000E+00  1.6660E-02  0.0000E+00  1.2329E-03  2.7260E-02  1.6976E-02  1.4392E-02  0.0000E+00  3.8100E-02
  7  0.0000E+00  4.7560E-02  1.0799E-01  1.9915E-02  0.0000E+00  0.0000E+00  0.0000E+00  0.0000E+00  0.0000E+00
  8  0.0000E+00  1.3522E-01  1.6431E-01  0.0000E+00  1.7473E-01  1.7462E-01  0.0000E+00  3.4519E-01  1.0604E-01
  9  5.2825E-02  4.1832E-02  0.0000E+00  1.1142E-01  1.3404E-01  6.4431E-02  0.0000E+00  1.1609E-01  0.0000E+00
 10  0.0000E+00  6.2466E-02  0.0000E+00  1.0561E-02  1.0917E-01  2.8963E-02  0.0000E+00  7.9169E-02  8.5322E-02
 11  0.0000E+00  2.2952E-01  7.2017E-01  0.0000E+00  0.0000E+00  9.7591E-02  1.2835E-01  0.0000E+00  0.0000E+00
 12  1.3805E-03  3.7480E-01  0.0000E+00  4.1507E-01  0.0000E+00  1.1909E-01  0.0000E+00  0.0000E+00  1.2245E-01
 13  0.0000E+00  5.5702E-01  0.0000E+00  0.0000E+00  0.0000E+00  0.0000E+00  9.1517E-01  0.0000E+00  7.7083E-01
 14  0.0000E+00  1.7945E-01  0.0000E+00  0.0000E+00  0.0000E+00  0.0000E+00  0.0000E+00  0.0000E+00  6.8102E-01
 15  2.2230E+01  1.6163E+01  1.5514E+01  1.1070E+01  1.6343E+01  1.8792E+01  2.0268E+01  1.7429E+01  2.1888E+01
 16  0.0000E+00  2.8427E+00  5.7922E-01  1.9342E+00  1.2447E+00  0.0000E+00  0.0000E+00  2.0560E+00  0.0000E+00
 17  0.0000E+00  1.8994E+00  0.0000E+00  3.7182E+00  1.2877E+01  0.0000E+00  0.0000E+00  0.0000E+00  0.0000E+00
 18  5.7408E-03  1.8281E-02  3.0970E-02  5.9178E-02  0.0000E+00  4.3132E-02  0.0000E+00  1.5309E-02  3.2132E-02
 19  2.9578E-02  3.7542E-02  4.5901E-02  3.5840E-02  3.6671E-02  5.1797E-02  2.6956E-02  3.7982E-02  4.2096E-02
 20  0.0000E+00  3.9911E-03  6.1226E-03  2.5069E-03  0.0000E+00  6.5926E-03  0.0000E+00  0.0000E+00  0.0000E+00
 21  2.2826E-02  7.5894E-02  4.4892E-02  5.6045E-02  8.3940E-02  6.4929E-02  1.2162E-01  1.2658E-01  6.6502E-02
 22  0.0000E+00  2.7520E-02  0.0000E+00  0.0000E+00  4.0306E-02  5.4103E-05  4.2012E-02  1.2152E-02  8.9463E-02
 23  0.0000E+00  1.4657E-02  0.0000E+00  0.0000E+00  4.9601E-02  0.0000E+00  2.8522E-02  8.4073E-02  4.7080E-02
 24  1.0276E-01  3.8219E-02  7.2487E-02  1.3385E-01  1.2629E-01  0.0000E+00  9.2556E-02  0.0000E+00  0.0000E+00
 25  3.1183E-01  1.2853E-01  0.0000E+00  2.3154E-01  1.2755E-01  1.3782E-01  2.3092E-01  1.0212E-01  0.0000E+00
 26  4.8455E-02  7.6554E-02  2.9359E-02  1.9851E-01  0.0000E+00  6.4466E-02  0.0000E+00  0.0000E+00  0.0000E+00
 27  0.0000E+00  3.0843E-01  2.2628E-01  0.0000E+00  0.0000E+00  3.4480E-01  2.2970E-01  0.0000E+00  3.0062E-01
 28  5.9192E+00  4.9138E+00  6.1746E+00  6.2233E+00  4.9858E+00  5.1191E+00  5.0947E+00  5.7426E+00  4.5174E+00
 29  0.0000E+00  4.7887E-01  0.0000E+00  0.0000E+00  3.8619E-01  0.0000E+00  0.0000E+00  3.0728E-01  1.1391E+00
 30  0.0000E+00  1.8683E-01  0.0000E+00  0.0000E+00  4.2506E-02  1.1359E+00  0.0000E+00  0.0000E+00  0.0000E+00
 31  0.0000E+00  4.1368E-01  2.4168E-01  1.2235E+00  0.0000E+00  0.0000E+00  0.0000E+00  4.8724E-01  0.0000E+00
 32  0.0000E+00  4.5732E-01  0.0000E+00  0.0000E+00  0.0000E+00  0.0000E+00  0.0000E+00  1.2570E+00  0.0000E+00
 33  0.0000E+00  2.5240E-01  0.0000E+00  2.2628E+00  0.0000E+00  0.0000E+00  0.0000E+00  0.0000E+00  0.0000E+00
 34  0.0000E+00  2.5390E-01  0.0000E+00  0.0000E+00  0.0000E+00  0.0000E+00  0.0000E+00  0.0000E+00  0.0000E+00
 35  2.0060E-03  8.9912E-03  0.0000E+00  1.6365E-02  0.0000E+00  0.0000E+00  0.0000E+00  1.0403E-02  0.0000E+00
 36  1.3448E-02  4.3614E-03  2.6243E-02  8.0230E-03  0.0000E+00  7.1554E-03  0.0000E+00  0.0000E+00  0.0000E+00
 37  0.0000E+00  2.4973E-03  0.0000E+00  2.4766E-03  0.0000E+00  0.0000E+00  8.4385E-03  1.3328E-02  0.0000E+00
 38  8.4667E-01  4.6214E-01  5.5324E-01  4.9973E-01  4.3919E-01  5.5145E-01  5.8485E-01  4.3332E-01  5.5876E-01
 39  1.7432E-01  9.1148E-02  6.6146E-02  1.6297E-01  8.7883E-02  0.0000E+00  1.1699E-01  1.6804E-01  0.0000E+00
 40  0.0000E+00  5.4396E-02  0.0000E+00  0.0000E+00  5.6927E-02  1.2913E-01  0.0000E+00  5.2762E-02  8.3992E-02
 41  3.5896E-06  5.2526E-02  3.9523E-02  4.7419E-02  2.0006E-02  2.1738E-02  0.0000E+00  2.0628E-02  1.8048E-01
 42  1.2508E-04  7.7743E-02  8.2260E-02  1.0455E-01  5.4279E-02  2.5072E-01  2.7542E-02  0.0000E+00  0.0000E+00
 43  1.5902E-04  1.3006E-01  0.0000E+00  2.7567E-01  0.0000E+00  1.0821E-01  5.0839E-01  1.0581E-01  1.0525E-02
 44  1.5072E-03  7.1275E-01  0.0000E+00  6.9275E-01  1.7095E-01  4.3735E-02  3.7427E-01  5.1513E-01  8.0511E-01
 45  2.2353E+01  1.7616E+01  1.7905E+01  1.5838E+01  1.8664E+01  1.9637E+01  1.8980E+01  1.5418E+01  1.5720E+01
 46  1.1996E-01  3.0939E+00  3.8499E+00  3.1361E+00  1.1628E+00  3.1306E+00  3.2387E+00  4.7487E+00  3.0553E+00
 47  0.0000E+00  8.8600E-01  3.5682E+00  6.5804E-01  0.0000E+00  0.0000E+00  3.2508E+00  0.0000E+00  4.5670E-01
 48  0.0000E+00  2.7521E-01  0.0000E+00  0.0000E+00  2.1072E+00  0.0000E+00  5.3373E-01  5.9801E-01  0.0000E+00
 49  0.0000E+00  1.4655E+00  2.3809E-01  0.0000E+00  0.0000E+00  0.0000E+00  0.0000E+00  6.1470E+00  6.0988E+00
 50  0.0000E+00  4.5471E-01  0.0000E+00  0.0000E+00  0.0000E+00  0.0000E+00  0.0000E+00  0.0000E+00  0.0000E+00
 51  5.0188E-04  8.5124E-03  7.2975E-03  1.7873E-02  0.0000E+00  0.0000E+00  2.0166E-02  0.0000E+00  6.0660E-03
 52  1.6206E-04  1.5038E-02  6.8323E-03  1.0059E-02  2.3157E-02  2.5233E-02  1.6440E-02  1.8984E-02  1.4796E-02
 53  0.0000E+00  9.5777E-03  2.1214E-02  2.7501E-03  0.0000E+00  0.0000E+00  9.1251E-03  1.0756E-02  0.0000E+00
 54  4.9518E-02  6.9574E-02  8.2048E-02  7.9310E-02  7.2337E-02  5.5729E-02  7.6551E-02  5.0071E-02  4.3669E-02
 55  0.0000E+00  1.1004E-02  0.0000E+00  9.1193E-04  8.6922E-03  0.0000E+00  0.0000E+00  3.6344E-03  0.0000E+00
 56  0.0000E+00  6.0444E-02  2.3535E-01  0.0000E+00  5.2427E-02  8.3294E-02  1.6286E-01  0.0000E+00  2.8440E-03
 57  0.0000E+00  2.8048E-02  0.0000E+00  0.0000E+00  3.5746E-02  6.6431E-03  0.0000E+00  0.0000E+00  0.0000E+00
 58  0.0000E+00  6.8877E-02  0.0000E+00  0.0000E+00  1.3771E-02  0.0000E+00  0.0000E+00  1.2856E-02  3.5165E-01
 59  3.7578E-03  2.4403E-01  0.0000E+00  1.6632E-01  2.7554E-01  0.0000E+00  0.0000E+00  7.9314E-02  1.8147E-02
 60  3.0053E+01  2.7301E+01  3.1404E+01  2.8020E+01  2.5951E+01  2.7766E+01  3.0139E+01  2.6981E+01  2.7700E+01
 61  1.4035E+01  8.7822E+00  1.1016E+01  1.3013E+01  8.7245E+00  9.8818E+00  9.9078E+00  8.8583E+00  9.3232E+00
 62  2.3293E+00  5.9607E+00  6.9255E+00  5.8364E+00  5.2758E+00  3.8076E+00  4.8423E+00  4.2034E+00  5.6212E+00
 63  1.2822E+00  5.9568E-01  0.0000E+00  3.4989E+00  0.0000E+00  1.5678E+00  0.0000E+00  5.3373E-01  0.0000E+00
 64  0.0000E+00  3.0828E-01  0.0000E+00  0.0000E+00  0.0000E+00  0.0000E+00  0.0000E+00  2.8101E+00  0.0000E+00
 65  0.0000E+00  5.8494E-01  0.0000E+00  1.5094E-01  0.0000E+00  0.0000E+00  0.0000E+00  0.0000E+00  0.0000E+00
 66  0.0000E+00  3.0119E-01  0.0000E+00  0.0000E+00  0.0000E+00  6.6622E+00  0.0000E+00  0.0000E+00  0.0000E+00

# AV, chi2 & Mass for <> & i_chain = 1 ...  7 solutions
AV       0.4422      0.4870      0.4858      0.4843      0.4788      0.4806      0.4886      0.4837      0.4713
chi2 2.0530E-01  2.1020E-01  2.0902E-01  2.0889E-01  2.0891E-01  2.0907E-01  2.0939E-01  2.0981E-01  2.0896E-01
Mass 4.3561E-12  4.7923E-12  4.4867E-12  4.6765E-12  5.0269E-12  4.8217E-12  4.4961E-12  4.9017E-12  4.8298E-12
  82.28                                  [v0_min (km/s) before EX0s...]
 183.44                                  [vd_min (km/s) before EX0s...]


## Synthetic spectrum (Best Model) ##l_obs f_obs f_syn wei
 3478    [Nl_obs]
 3741.00    0.65658   0.68330    0.000
 3742.00    0.68232   0.69862    0.000
 3743.00    0.69002   0.70077    0.000
 3744.00    0.67890   0.69093    0.000
 3745.00    0.65289   0.67131   10.824
 3746.00    0.62063   0.64421   11.008
 3747.00    0.59043   0.61235   10.631
 3748.00    0.56721   0.57978   10.357
 3749.00    0.55355   0.55197   10.481
 3750.00    0.55075   0.53541   10.516
 3751.00    0.56084   0.53579   10.222
 3752.00    0.58633   0.55466   10.115
 3753.00    0.62180   0.58791   10.460
 3754.00    0.65163   0.62755   10.864
 3755.00    0.66735   0.66517   10.922
 3756.00    0.67531   0.69440   10.774
 3757.00    0.68173   0.71234   10.760
 3758.00    0.68524   0.72010   11.127
 3759.00    0.68580   0.72201   11.708
 3760.00    0.68838   0.72281   11.733
 3761.00    0.69441   0.72486   11.125
 3762.00    0.69858   0.72745   10.847
 3763.00    0.69665   0.72819   11.276
 3764.00    0.68886   0.72431   11.886
 3765.00    0.67531   0.71371   12.045
 3766.00    0.65438   0.69547   11.724
 3767.00    0.62678   0.67012   11.340
 3768.00    0.59699   0.64026   11.355
 3769.00    0.56998   0.61067   11.794
 3770.00    0.54967   0.58706   12.149
 3771.00    0.53923   0.57484   12.180
 3772.00    0.54109   0.57784   12.298
 3773.00    0.55639   0.59616   12.648
 3774.00    0.58433   0.62571   12.805
 3775.00    0.62081   0.66076   12.553
 3776.00    0.65913   0.69688   12.224
 3777.00    0.69527   0.73164   12.138
 3778.00    0.72947   0.76385   12.400
 3779.00    0.76309   0.79275   12.812
 3780.00    0.79676   0.81760   12.898
 3781.00    0.82839   0.83756   12.638
 3782.00    0.85328   0.85159   12.551
 3783.00    0.86777   0.85882   12.755
 3784.00    0.87060   0.85905   12.855
 3785.00    0.86270   0.85253   12.773
 3786.00    0.84666   0.84000   12.898
 3787.00    0.82552   0.82320   13.288
 3788.00    0.80238   0.80495   13.509
 3789.00    0.78061   0.78750   13.334
 3790.00    0.76289   0.77108   13.009
 3791.00    0.74747   0.75413   12.895
 3792.00    0.72903   0.73421   13.230
 3793.00    0.70570   0.70885   13.741
 3794.00    0.67965   0.67691   13.708
 3795.00    0.65076   0.63965   13.309
 3796.00    0.61717   0.60117   13.479
 3797.00    0.58352   0.56754   14.265
 3798.00    0.56003   0.54553   14.696
 3799.00    0.55135   0.54089   14.463
 3800.00    0.55567   0.55616   14.339
 3801.00    0.57276   0.58873   14.680
 3802.00    0.60395   0.63158   15.196
 3803.00    0.64483   0.67643   15.315
 3804.00    0.68599   0.71681   14.643
 3805.00    0.72101   0.74941   13.717
 3806.00    0.74830   0.77431   13.344
 3807.00    0.76912   0.79425   13.571
 3808.00    0.78647   0.81262   13.921
 3809.00    0.80351   0.83108   14.097
 3810.00    0.82220   0.84813   14.145
 3811.00    0.84113   0.86021   14.213
 3812.00    0.85653   0.86447   14.407
 3813.00    0.86639   0.86067   14.658
 3814.00    0.87111   0.85144   14.785
 3815.00    0.87250   0.84093   14.798
 3816.00    0.87229   0.83239   14.858
 3817.00    0.86943   0.82640   14.937
 3818.00    0.86138   0.82152   14.892
 3819.00    0.84842   0.81603   14.812
 3820.00    0.83351   0.80955   14.928
 3821.00    0.81941   0.80336   15.225
 3822.00    0.80819   0.79891   15.483
 3823.00    0.80134   0.79538   15.589
 3824.00    0.79863   0.78988   15.585
 3825.00    0.79556   0.78004   15.572
 3826.00    0.78617   0.76592   15.642
 3827.00    0.76995   0.74910   15.820
 3828.00    0.74987   0.73041   16.056
 3829.00    0.72564   0.70924   16.246
 3830.00    0.69550   0.68420   16.323
 3831.00    0.66226   0.65411   16.462
 3832.00    0.63167   0.61902   16.897
 3833.00    0.60710   0.58114   17.485
 3834.00    0.58870   0.54518   17.824
 3835.00    0.57392   0.51732   17.842
 3836.00    0.56018   0.50290   17.778
 3837.00    0.54941   0.50478   17.796
 3838.00    0.54678   0.52250   17.915
 3839.00    0.55711   0.55257   18.035
 3840.00    0.58299   0.59033   18.027
 3841.00    0.62272   0.63172   17.902
 3842.00    0.67078   0.67341   17.750
 3843.00    0.71926   0.71276   17.589
 3844.00    0.76105   0.74780   17.430
 3845.00    0.79433   0.77732   17.387
 3846.00    0.82032   0.80123   17.565
 3847.00    0.83869   0.82019    0.000
 3848.00    0.84889   0.83519    0.000
 3849.00    0.85331   0.84729    0.000
 3850.00    0.85576   0.85741    0.000
 3851.00    0.85859   0.86642    0.000
 3852.00    0.86267   0.87490    0.000
 3853.00    0.86800   0.88240    0.000
 3854.00    0.87394   0.88741    0.000
 3855.00    0.87937   0.88899    0.000
 3856.00    0.88279   0.88786    0.000
 3857.00    0.88256   0.88558    0.000
 3858.00    0.87859   0.88393    0.000
 3859.00    0.87439   0.88433    0.000
 3860.00    0.87435   0.88718    0.000
 3861.00    0.87981   0.89248    0.000
 3862.00    0.89022   0.89982    0.000
 3863.00    0.90504   0.90759    0.000
 3864.00    0.92235   0.91372    0.000
 3865.00    0.93729   0.91725    0.000
 3866.00    0.94554   0.91849    0.000
 3867.00    0.94756   0.91809    0.000
 3868.00    0.94515   0.91626    0.000
 3869.00    0.93726   0.91241    0.000
 3870.00    0.92310   0.90553    0.000
 3871.00    0.90589   0.89524    0.000
 3872.00    0.88992   0.88273    0.000
 3873.00    0.87688   0.87062    0.000
 3874.00    0.86686   0.86125    0.000
 3875.00    0.85965   0.85496    0.000
 3876.00    0.85373   0.84962    0.000
 3877.00    0.84549   0.84235    0.000
 3878.00    0.83247   0.83184    0.000
 3879.00    0.81643   0.81883    0.000
 3880.00    0.79935   0.80456    0.000
 3881.00    0.77957   0.78935   18.992
 3882.00    0.75583   0.77159   18.650
 3883.00    0.73096   0.74881   18.694
 3884.00    0.70723   0.71959   18.953
 3885.00    0.68236   0.68420   19.188
 3886.00    0.65614   0.64439   19.231
 3887.00    0.63568   0.60387   19.138
 3888.00    0.62687   0.56860   19.070
 3889.00    0.62701   0.54532   19.173
 3890.00    0.63039   0.53905   19.493
 3891.00    0.63369   0.55116   19.901
 3892.00    0.63733   0.57875   20.173
 3893.00    0.64578   0.61552   20.116
 3894.00    0.66256   0.65449   19.888
 3895.00    0.68648   0.69067   20.071
 3896.00    0.71349   0.72191   20.816
 3897.00    0.73880   0.74814   21.205
 3898.00    0.75947   0.77037   20.721
 3899.00    0.77608   0.78975   20.427
 3900.00    0.79042   0.80718   20.993
 3901.00    0.80355   0.82306   21.627
 3902.00    0.81509   0.83713   21.538
 3903.00    0.82306   0.84863   21.250
 3904.00    0.82628   0.85711   21.388
 3905.00    0.82592   0.86351   21.852
 3906.00    0.82421   0.87021   22.266
 3907.00    0.82362   0.87960   22.318
 3908.00    0.82754   0.89258   22.007
 3909.00    0.84001   0.90820   21.693
 3910.00    0.86107   0.92383   21.657
 3911.00    0.88463   0.93633   21.881
 3912.00    0.90462   0.94361   22.074
 3913.00    0.91871   0.94539   21.772
 3914.00    0.92708   0.94269   21.004
 3915.00    0.93129   0.93703   20.417
 3916.00    0.93242   0.92969   20.316
 3917.00    0.93039   0.92156   20.419
 3918.00    0.92570   0.91321   20.458
 3919.00    0.92014   0.90545   20.488
 3920.00    0.91547   0.89949   20.652
 3921.00    0.91250   0.89634   21.019
 3922.00    0.91087   0.89589   21.401
 3923.00    0.90894   0.89669   21.341
 3924.00    0.90394   0.89599   20.875
 3925.00    0.89259   0.89077   20.669
 3926.00    0.87385   0.87884   20.987
 3927.00    0.84968   0.85939   21.405
 3928.00    0.82158   0.83267   21.572
 3929.00    0.78927   0.79962   21.620
 3930.00    0.75315   0.76161   21.782
 3931.00    0.71532   0.72078   22.191
 3932.00    0.67916   0.68087   22.879
 3933.00    0.64896   0.64750   23.745
 3934.00    0.62959   0.62697   24.374
 3935.00    0.62570   0.62419   24.165
 3936.00    0.63932   0.64055   23.441
 3937.00    0.66856   0.67300   23.307
 3938.00    0.70686   0.71488   23.868
 3939.00    0.74439   0.75830   24.010
 3940.00    0.77447   0.79680   23.463
 3941.00    0.79594   0.82673   23.293
 3942.00    0.81094   0.84745   23.894
 3943.00    0.82337   0.86060   24.568
 3944.00    0.83625   0.86907   24.550
 3945.00    0.85070   0.87569   23.715
 3946.00    0.86638   0.88195   22.703
 3947.00    0.88175   0.88779   22.344
 3948.00    0.89488   0.89236   22.652
 3949.00    0.90411   0.89499   22.882
 3950.00    0.90957   0.89572   22.634
 3951.00    0.91274   0.89522   22.206
 3952.00    0.91327   0.89405   21.998
 3953.00    0.90893   0.89211   22.230
 3954.00    0.89938   0.88877   22.683
 3955.00    0.88666   0.88344   22.800
 3956.00    0.87243   0.87598   22.571
 3957.00    0.85706   0.86655   22.552
 3958.00    0.83998   0.85514   22.860
 3959.00    0.81982   0.84108   23.121
 3960.00    0.79466   0.82305    0.000
 3961.00    0.76261   0.79955    0.000
 3962.00    0.72375   0.76969    0.000
 3963.00    0.68027   0.73359    0.000
 3964.00    0.63541   0.69203    0.000
 3965.00    0.59316   0.64599    0.000
 3966.00    0.55825   0.59676    0.000
 3967.00    0.53530   0.54682    0.000
 3968.00    0.52640   0.50060    0.000
 3969.00    0.53059   0.46431    0.000
 3970.00    0.54429   0.44415    0.000
 3971.00    0.56245   0.44410    0.000
 3972.00    0.58107   0.46438    0.000
 3973.00    0.59863   0.50137    0.000
 3974.00    0.61810   0.54908    0.000
 3975.00    0.64454   0.60116    0.000
 3976.00    0.67833   0.65253    0.000
 3977.00    0.71521   0.70006    0.000
 3978.00    0.75061   0.74221    0.000
 3979.00    0.78141   0.77819    0.000
 3980.00    0.80732   0.80761    0.000
 3981.00    0.82995   0.83057   23.128
 3982.00    0.84977   0.84796   22.978
 3983.00    0.86623   0.86157   22.843
 3984.00    0.87937   0.87351   22.647
 3985.00    0.89007   0.88549   22.381
 3986.00    0.89956   0.89815   22.246
 3987.00    0.90867   0.91112   22.455
 3988.00    0.91643   0.92360   22.818
 3989.00    0.92153   0.93492   22.927
 3990.00    0.92558   0.94484   22.826
 3991.00    0.93188   0.95342   22.836
 3992.00    0.94148   0.96055   22.896
 3993.00    0.95294   0.96566   22.726
 3994.00    0.96357   0.96801   22.389
 3995.00    0.97053   0.96740   22.169
 3996.00    0.97256   0.96481   22.200
 3997.00    0.97036   0.96233   22.463
 3998.00    0.96657   0.96233   22.859
 3999.00    0.96421   0.96614   23.254
 4000.00    0.96396   0.97318   23.554
 4001.00    0.96472   0.98107   23.687
 4002.00    0.96545   0.98677   23.540
 4003.00    0.96551   0.98810   23.160
 4004.00    0.96484   0.98481   23.043
 4005.00    0.96399   0.97879   23.603
 4006.00    0.96412   0.97321   24.331
 4007.00    0.96625   0.97099   24.326
 4008.00    0.97024   0.97349   23.787
 4009.00    0.97483   0.98002   23.432
 4010.00    0.97827   0.98866   23.256
 4011.00    0.97990   0.99742   22.944
 4012.00    0.98234   1.00507   22.585
 4013.00    0.98875   1.01127   22.386
 4014.00    0.99854   1.01626   22.207
 4015.00    1.00943   1.02050   21.872
 4016.00    1.02110   1.02443   21.625
 4017.00    1.03490   1.02834   21.740
 4018.00    1.05266   1.03223   21.970
 4019.00    1.07360   1.03559   21.436
 4020.00    1.09098   1.03729   19.122
 4021.00    1.09683   1.03597   16.165
 4022.00    1.08863   1.03076   15.121
 4023.00    1.06937   1.02208   17.216
 4024.00    1.04622   1.01181   21.565
 4025.00    1.02671   1.00258   23.481
 4026.00    1.01430   0.99642   22.598
 4027.00    1.00843   0.99358   22.759
 4028.00    1.00549   0.99230   23.715
 4029.00    1.00170   0.98990   23.634
 4030.00    0.99624   0.98466   23.127
 4031.00    0.99044   0.97714   23.434
 4032.00    0.98638   0.97008   23.979
 4033.00    0.98609   0.96703   23.770
 4034.00    0.99078   0.97048   23.343
 4035.00    1.00018   0.98081   23.454
 4036.00    1.01199   0.99619   23.667
 4037.00    1.02357   1.01329   23.303
 4038.00    1.03371   1.02843   22.591
 4039.00    1.04125   1.03871   22.123
 4040.00    1.04381   1.04267   22.255
 4041.00    1.03961   1.04032   22.919
 4042.00    1.02934   1.03265   23.374
 4043.00    1.01517   1.02110   23.110
 4044.00    0.99949   1.00765   22.859
 4045.00    0.98504   0.99510   23.315
 4046.00    0.97495   0.98672   24.101
 4047.00    0.97170   0.98499   24.524
 4048.00    0.97608   0.99010   24.500
 4049.00    0.98606   0.99961   24.148
 4050.00    0.99630   1.00950   23.327
 4051.00    1.00162   1.01611   22.317
 4052.00    1.00000   1.01753   22.039
 4053.00    0.99281   1.01398   22.841
 4054.00    0.98435   1.00721   23.745
 4055.00    0.97889   0.99961   23.785
 4056.00    0.97834   0.99325   23.602
 4057.00    0.98197   0.98934   23.934
 4058.00    0.98671   0.98803   24.406
 4059.00    0.98935   0.98842   24.495
 4060.00    0.98830   0.98882   24.381
 4061.00    0.98319   0.98745   24.378
 4062.00    0.97464   0.98338   24.471
 4063.00    0.96418   0.97725   24.678
 4064.00    0.95423   0.97111   25.236
 4065.00    0.94764   0.96720   25.752
 4066.00    0.94720   0.96660   24.926
 4067.00    0.95357   0.96868   23.716
 4068.00    0.96416   0.97168   25.570
 4069.00    0.97396   0.97359   29.454
 4070.00    0.97695   0.97314   22.905
 4071.00    0.97070   0.97004   13.724
 4072.00    0.95862   0.96484    9.948
 4073.00    0.94514   0.95817    9.404
 4074.00    0.93274   0.95014   11.394
 4075.00    0.92262   0.94049   17.460
 4076.00    0.91532   0.92970   27.429
 4077.00    0.91133   0.91978   28.936
 4078.00    0.91141   0.91389   25.331
 4079.00    0.91646   0.91448   24.745
 4080.00    0.92702   0.92152   25.350
 4081.00    0.94102   0.93210   24.969
 4082.00    0.95333   0.94192   24.404
 4083.00    0.96036   0.94760   24.514
 4084.00    0.96219   0.94825   24.905
 4085.00    0.96016   0.94542   25.163
 4086.00    0.95559   0.94170   25.439
 4087.00    0.95015   0.93895   25.790
 4088.00    0.94552   0.93739   25.892
 4089.00    0.94099   0.93574   25.661
 4090.00    0.93308   0.93211   25.476
 4091.00    0.91966   0.92492   25.609
 4092.00    0.90153   0.91327    0.000
 4093.00    0.87991   0.89684    0.000
 4094.00    0.85535   0.87547    0.000
 4095.00    0.82832   0.84907    0.000
 4096.00    0.79985   0.81766    0.000
 4097.00    0.77288   0.78162    0.000
 4098.00    0.75236   0.74189    0.000
 4099.00    0.74272   0.70034    0.000
 4100.00    0.74605   0.66025    0.000
 4101.00    0.75936   0.62647    0.000
 4102.00    0.77465   0.60463    0.000
 4103.00    0.78371   0.59921    0.000
 4104.00    0.78143   0.61151    0.000
 4105.00    0.77034   0.63875    0.000
 4106.00    0.76013   0.67507    0.000
 4107.00    0.75887   0.71382    0.000
 4108.00    0.76938   0.74978    0.000
 4109.00    0.78877   0.78045    0.000
 4110.00    0.81025   0.80588    0.000
 4111.00    0.83018   0.82767    0.000
 4112.00    0.84941   0.84765    0.000
 4113.00    0.86886   0.86689   26.743
 4114.00    0.88825   0.88524   26.933
 4115.00    0.90725   0.90149   27.076
 4116.00    0.92536   0.91404   26.936
 4117.00    0.94026   0.92179   26.605
 4118.00    0.94855   0.92480   26.452
 4119.00    0.94966   0.92446   26.498
 4120.00    0.94635   0.92308   26.435
 4121.00    0.94163   0.92295   26.274
 4122.00    0.93780   0.92548   26.341
 4123.00    0.93648   0.93070   26.655
 4124.00    0.93830   0.93739   26.907
 4125.00    0.94179   0.94355   27.003
 4126.00    0.94405   0.94722   27.084
 4127.00    0.94328   0.94728   27.029
 4128.00    0.93952   0.94385   26.574
 4129.00    0.93450   0.93817   26.025
 4130.00    0.93079   0.93201   25.988
 4131.00    0.92977   0.92722   26.401
 4132.00    0.93140   0.92544   26.647
 4133.00    0.93543   0.92795   26.537
 4134.00    0.94183   0.93535   26.371
 4135.00    0.95119   0.94721   26.236
 4136.00    0.96390   0.96192   25.987
 4137.00    0.97799   0.97704   25.643
 4138.00    0.98959   0.98992   25.372
 4139.00    0.99524   0.99811   25.253
 4140.00    0.99298   0.99982   25.256
 4141.00    0.98339   0.99447   25.314
 4142.00    0.96961   0.98331   25.363
 4143.00    0.95667   0.96972   25.421
 4144.00    0.94965   0.95819   25.535
 4145.00    0.94993   0.95244   25.644
 4146.00    0.95556   0.95360   25.657
 4147.00    0.96368   0.95986   25.702
 4148.00    0.97155   0.96771   25.968
 4149.00    0.97733   0.97397   26.265
 4150.00    0.98028   0.97698   26.245
 4151.00    0.98072   0.97672   26.132
 4152.00    0.97951   0.97406   26.390
 4153.00    0.97719   0.97012   26.797
 4154.00    0.97393   0.96601   26.779
 4155.00    0.97015   0.96290   26.518
 4156.00    0.96677   0.96188   26.585
 4157.00    0.96574   0.96368   26.859
 4158.00    0.96880   0.96830   26.856
 4159.00    0.97536   0.97496   26.697
 4160.00    0.98308   0.98252   26.821
 4161.00    0.98969   0.98986   27.173
 4162.00    0.99381   0.99628   27.372
 4163.00    0.99576   1.00134   27.289
 4164.00    0.99655   1.00473   27.076
 4165.00    0.99594   1.00615   26.962
 4166.00    0.99331   1.00542   27.096
 4167.00    0.98947   1.00254   27.360
 4168.00    0.98548   0.99759   27.497
 4169.00    0.98044   0.99046   27.401
 4170.00    0.97281   0.98091   27.200
 4171.00    0.96300   0.96909   27.268
 4172.00    0.95299   0.95615   27.861
 4173.00    0.94502   0.94418   28.560
 4174.00    0.94088   0.93532   28.682
 4175.00    0.94094   0.93075   28.271
 4176.00    0.94411   0.93021   27.842
 4177.00    0.94782   0.93252   27.716
 4178.00    0.94981   0.93656   27.905
 4179.00    0.95037   0.94165   28.048
 4180.00    0.95130   0.94744   27.825
 4181.00    0.95394   0.95348   27.526
 4182.00    0.95857   0.95908   27.545
 4183.00    0.96401   0.96364   27.712
 4184.00    0.96861   0.96680   27.708
 4185.00    0.97160   0.96852   27.661
 4186.00    0.97285   0.96911   27.849
 4187.00    0.97233   0.96924   28.229
 4188.00    0.97086   0.96997   28.510
 4189.00    0.97092   0.97238   28.350
 4190.00    0.97458   0.97696   27.754
 4191.00    0.98129   0.98331   27.366
 4192.00    0.98895   0.99005   27.651
 4193.00    0.99560   0.99520   28.154
 4194.00    0.99948   0.99676   28.257
 4195.00    0.99899   0.99347   28.191
 4196.00    0.99371   0.98542   28.360
 4197.00    0.98529   0.97417   28.509
 4198.00    0.97587   0.96226   28.345
 4199.00    0.96634   0.95220   28.259
 4200.00    0.95761   0.94564   28.634
 4201.00    0.95169   0.94302   29.153
 4202.00    0.94983   0.94387   29.329
 4203.00    0.95065   0.94749   29.175
 4204.00    0.95280   0.95325   28.911
 4205.00    0.95734   0.96068   28.594
 4206.00    0.96500   0.96919   28.313
 4207.00    0.97362   0.97797   28.350
 4208.00    0.98118   0.98611   28.799
 4209.00    0.98836   0.99285   29.233
 4210.00    0.99529   0.99780   29.224
 4211.00    0.99883   1.00070   28.904
 4212.00    0.99689   1.00134   28.617
 4213.00    0.99191   0.99953   28.556
 4214.00    0.98696   0.99555   28.749
 4215.00    0.98262   0.99064   29.076
 4216.00    0.97961   0.98686   29.381
 4217.00    0.98073   0.98615   29.549
 4218.00    0.98710   0.98907   29.390
 4219.00    0.99547   0.99427   28.641
 4220.00    1.00159   0.99891   27.590
 4221.00    1.00297   0.99981   27.175
 4222.00    0.99836   0.99455   27.759
 4223.00    0.98730   0.98236   28.540
 4224.00    0.97052   0.96461   28.756
 4225.00    0.95032   0.94480   28.762
 4226.00    0.93168   0.92781   28.991
 4227.00    0.92204   0.91839   29.167
 4228.00    0.92572   0.91923   29.008
 4229.00    0.94041   0.92947   28.723
 4230.00    0.96039   0.94499   28.549
 4231.00    0.97915   0.96022   28.477
 4232.00    0.99136   0.97062   28.496
 4233.00    0.99418   0.97442   28.707
 4234.00    0.98835   0.97283   29.018
 4235.00    0.97829   0.96862   29.024
 4236.00    0.96915   0.96457   28.715
 4237.00    0.96469   0.96257   28.729
 4238.00    0.96573   0.96335   29.319
 4239.00    0.96996   0.96688   29.867
 4240.00    0.97520   0.97276   29.779
 4241.00    0.98109   0.98032   29.146
 4242.00    0.98692   0.98849   28.430
 4243.00    0.99078   0.99576   28.095
 4244.00    0.99179   1.00061   28.242
 4245.00    0.99097   1.00185   28.561
 4246.00    0.98933   0.99906   28.842
 4247.00    0.98699   0.99280   29.202
 4248.00    0.98420   0.98459   29.554
 4249.00    0.98181   0.97628   29.458
 4250.00    0.98049   0.96934   28.971
 4251.00    0.98037   0.96465   28.801
 4252.00    0.98121   0.96253   29.164
 4253.00    0.98250   0.96283   29.487
 4254.00    0.98334   0.96504   29.480
 4255.00    0.98268   0.96834   29.530
 4256.00    0.98083   0.97168   29.706
 4257.00    0.97945   0.97386   29.511
 4258.00    0.97902   0.97406   29.001
 4259.00    0.97830   0.97251   28.952
 4260.00    0.97771   0.97075   29.613
 4261.00    0.97996   0.97106   30.404
 4262.00    0.98644   0.97526   30.711
 4263.00    0.99597   0.98341   30.369
 4264.00    1.00625   0.99356   29.586
 4265.00    1.01459   1.00254   28.764
 4266.00    1.01835   1.00729   28.292
 4267.00    1.01558   1.00588   28.447
 4268.00    1.00686   0.99796   29.150
 4269.00    0.99515   0.98473   29.928
 4270.00    0.98233   0.96852   30.372
 4271.00    0.96879   0.95207   30.401
 4272.00    0.95655   0.93818   30.238
 4273.00    0.94934   0.92933   30.235
 4274.00    0.94849   0.92699   30.434
 4275.00    0.95231   0.93125   30.579
 4276.00    0.95900   0.94079   30.644
 4277.00    0.96732   0.95319   30.854
 4278.00    0.97516   0.96557   31.050
 4279.00    0.97975   0.97533   30.733
 4280.00    0.97982   0.98087   29.968
 4281.00    0.97612   0.98200   29.360
 4282.00    0.97073   0.97963   29.217
 4283.00    0.96612   0.97517   29.467
 4284.00    0.96298   0.96978   29.910
 4285.00    0.96026   0.96376   30.282
 4286.00    0.95707   0.95666   30.337
 4287.00    0.95299   0.94791   29.969
 4288.00    0.94747   0.93784   29.404
 4289.00    0.94012   0.92801   29.061
 4290.00    0.93246   0.92059   29.175
 4291.00    0.92735   0.91734   29.732
 4292.00    0.92622   0.91859   30.416
 4293.00    0.92843   0.92289   30.748
 4294.00    0.93164   0.92751   30.743
 4295.00    0.93263   0.92955   30.802
 4296.00    0.92923   0.92699   30.890
 4297.00    0.92077   0.91915   30.657
 4298.00    0.90795   0.90687   30.320
 4299.00    0.89259   0.89201   30.469
 4300.00    0.87706   0.87703   31.172
 4301.00    0.86368   0.86446   31.984
 4302.00    0.85354   0.85612   32.476
 4303.00    0.84667   0.85238   32.425
 4304.00    0.84305   0.85217   31.829
 4305.00    0.84237   0.85364   30.945
 4306.00    0.84296   0.85509   30.321
 4307.00    0.84285   0.85602   30.444
 4308.00    0.84241   0.85715   31.179
 4309.00    0.84382   0.85986   31.936
 4310.00    0.84849   0.86510   32.379
 4311.00    0.85666   0.87286   32.478
 4312.00    0.86771   0.88236   32.149
 4313.00    0.88065   0.89282   31.372
 4314.00    0.89489   0.90399   30.532
 4315.00    0.91011   0.91588   30.129
 4316.00    0.92563   0.92832   30.331
 4317.00    0.94026   0.94037   30.955
 4318.00    0.95212   0.95029   31.407
 4319.00    0.95910   0.95620   31.065
 4320.00    0.95978   0.95685   30.174
 4321.00    0.95356   0.95171   29.462
 4322.00    0.94059   0.94094   29.307
 4323.00    0.92212   0.92560   29.742
 4324.00    0.90108   0.90788   -2.000
 4325.00    0.88177   0.89097   -2.000
 4326.00    0.86926   0.87797   -2.000
 4327.00    0.86724   0.87077   -2.000
 4328.00    0.87487   0.86929   -2.000
 4329.00    0.88698   0.87150   -2.000
 4330.00    0.89561   0.87426   -2.000
 4331.00    0.89427   0.87448   -2.000
 4332.00    0.88406   0.87016   -2.000
 4333.00    0.86994   0.86022   -2.000
 4334.00    0.85390   0.84364   -2.000
 4335.00    0.83693   0.81943   -2.000
 4336.00    0.82345   0.78723   -2.000
 4337.00    0.82109   0.74796   -2.000
 4338.00    0.83898   0.70472   -2.000
 4339.00    0.88024   0.66322   -2.000
 4340.00    0.93226   0.63033    0.000
 4341.00    0.97391   0.61163    0.000
 4342.00    0.98756   0.61003    0.000
 4343.00    0.96636   0.62508    0.000
 4344.00    0.92124   0.65318    0.000
 4345.00    0.87249   0.68889    0.000
 4346.00    0.83751   0.72687    0.000
 4347.00    0.82463   0.76264    0.000
 4348.00    0.82796   0.79276    0.000
 4349.00    0.83615   0.81520    0.000
 4350.00    0.84368   0.83012    0.000
 4351.00    0.84977   0.83964   31.695
 4352.00    0.85544   0.84685   32.588
 4353.00    0.86268   0.85491   33.029
 4354.00    0.87368   0.86610   32.912
 4355.00    0.88937   0.88065   32.456
 4356.00    0.90791   0.89689   31.990
 4357.00    0.92630   0.91262   31.742
 4358.00    0.94219   0.92646   31.708
 4359.00    0.95470   0.93822   31.832
 4360.00    0.96490   0.94856   32.180
 4361.00    0.97462   0.95847   32.661
 4362.00    0.98499   0.96856   32.756
 4363.00    0.99567   0.97846   32.178
 4364.00    1.00421   0.98674   31.492
 4365.00    1.00812   0.99180   31.242
 4366.00    1.00676   0.99282   31.278
 4367.00    1.00090   0.99015   31.331
 4368.00    0.99208   0.98509   31.513
 4369.00    0.98255   0.97937   31.920
 4370.00    0.97505   0.97433   32.245
 4371.00    0.97077   0.97019   32.163
 4372.00    0.96793   0.96624   31.740
 4373.00    0.96462   0.96213   31.268
 4374.00    0.96134   0.95856   31.029
 4375.00    0.95993   0.95696   31.076
 4376.00    0.96228   0.95849   31.115
 4377.00    0.96873   0.96310   30.962
 4378.00    0.97695   0.96924   30.867
 4379.00    0.98331   0.97403   30.926
 4380.00    0.98415   0.97403   30.707
 4381.00    0.97700   0.96674   30.069
 4382.00    0.96155   0.95234   29.646
 4383.00    0.94047   0.93395   29.826
 4384.00    0.91957   0.91620   30.214
 4385.00    0.90419   0.90324   30.462
 4386.00    0.89660   0.89756   30.876
 4387.00    0.89662   0.89952   31.654
 4388.00    0.90236   0.90735   32.330
 4389.00    0.91129   0.91833   32.456
 4390.00    0.92109   0.93009   32.199
 4391.00    0.93048   0.94092   31.802
 4392.00    0.93950   0.94964   31.239
 4393.00    0.94834   0.95604   30.702
 4394.00    0.95657   0.96097   30.753
 4395.00    0.96351   0.96545   31.495
 4396.00    0.96852   0.96979   32.155
 4397.00    0.97118   0.97355   32.104
 4398.00    0.97135   0.97590   31.645
 4399.00    0.96906   0.97634   31.329
 4400.00    0.96445   0.97502   31.451
 4401.00    0.95848   0.97216   31.837
 4402.00    0.95294   0.96791   31.857
 4403.00    0.94884   0.96294   31.476
 4404.00    0.94585   0.95839   31.585
 4405.00    0.94408   0.95507   32.507
 4406.00    0.94490   0.95345   33.373
 4407.00    0.94916   0.95424   33.485
 4408.00    0.95639   0.95800   33.189
 4409.00    0.96544   0.96442   32.819
 4410.00    0.97488   0.97236   32.227
 4411.00    0.98278   0.97994   31.524
 4412.00    0.98685   0.98469   31.241
 4413.00    0.98524   0.98476   31.616
 4414.00    0.97724   0.98021   32.385
 4415.00    0.96501   0.97298   33.133
 4416.00    0.95354   0.96606   33.508
 4417.00    0.94707   0.96251   33.472
 4418.00    0.94736   0.96392   33.327
 4419.00    0.95363   0.96961   33.255
 4420.00    0.96298   0.97722   33.167
 4421.00    0.97191   0.98429   32.985
 4422.00    0.97751   0.98939   32.776
 4423.00    0.97942   0.99216   32.791
 4424.00    0.97993   0.99300   33.325
 4425.00    0.98095   0.99277   34.064
 4426.00    0.98275   0.99227   34.053
 4427.00    0.98445   0.99175   33.279
 4428.00    0.98446   0.99081   32.836
 4429.00    0.98141   0.98916   33.108
 4430.00    0.97484   0.98684   33.532
 4431.00    0.96615   0.98373   33.753
 4432.00    0.95815   0.97960   33.954
 4433.00    0.95226   0.97483   34.175
 4434.00    0.94824   0.97071   34.191
 4435.00    0.94684   0.96902   34.062
 4436.00    0.94999   0.97101   34.121
 4437.00    0.95812   0.97666   34.209
 4438.00    0.96930   0.98433   33.762
 4439.00    0.97998   0.99113   33.025
 4440.00    0.98606   0.99427   32.896
 4441.00    0.98567   0.99253   33.498
 4442.00    0.97999   0.98715   34.130
 4443.00    0.97294   0.98121   34.436
 4444.00    0.96978   0.97777   34.618
 4445.00    0.97319   0.97823   34.550
 4446.00    0.98230   0.98242   33.833
 4447.00    0.99377   0.98891   32.847
 4448.00    1.00313   0.99533   32.456
 4449.00    1.00782   0.99965   32.833
 4450.00    1.00759   1.00100   33.492
 4451.00    1.00339   0.99910   33.998
 4452.00    0.99671   0.99379   34.182
 4453.00    0.98896   0.98537   34.130
 4454.00    0.98116   0.97506   34.046
 4455.00    0.97367   0.96459   33.954
 4456.00    0.96649   0.95527   33.751
 4457.00    0.96017   0.94787   33.546
 4458.00    0.95546   0.94284   33.601
 4459.00    0.95188   0.94004   33.984
 4460.00    0.94841   0.93908   34.518
 4461.00    0.94579   0.94003    0.000
 4462.00    0.94598   0.94298    0.000
 4463.00    0.94921   0.94728    0.000
 4464.00    0.95401   0.95192    0.000
 4465.00    0.95904   0.95588    0.000
 4466.00    0.96349   0.95807    0.000
 4467.00    0.96681   0.95783    0.000
 4468.00    0.96902   0.95561    0.000
 4469.00    0.97133   0.95291    0.000
 4470.00    0.97572   0.95169    0.000
 4471.00    0.98379   0.95390    0.000
 4472.00    0.99562   0.96048    0.000
 4473.00    1.00814   0.97075    0.000
 4474.00    1.01694   0.98300    0.000
 4475.00    1.02050   0.99519    0.000
 4476.00    1.01973   1.00509    0.000
 4477.00    1.01531   1.01033    0.000
 4478.00    1.00733   1.00913    0.000
 4479.00    0.99583   1.00147    0.000
 4480.00    0.98179   0.98977    0.000
 4481.00    0.96874   0.97825    0.000
 4482.00    0.96174   0.97094   32.012
 4483.00    0.96497   0.96996   32.978
 4484.00    0.97935   0.97515   32.638
 4485.00    0.99951   0.98420   31.354
 4486.00    1.01700   0.99333   30.445
 4487.00    1.02679   0.99920   30.233
 4488.00    1.02798   1.00053   30.448
 4489.00    1.02315   0.99826   30.893
 4490.00    1.01642   0.99451   31.426
 4491.00    1.01048   0.99118   31.791
 4492.00    1.00644   0.98908   31.791
 4493.00    1.00429   0.98821   31.624
 4494.00    1.00322   0.98857   31.625
 4495.00    1.00210   0.99022   31.821
 4496.00    1.00049   0.99320   32.005
 4497.00    0.99991   0.99753   31.954
 4498.00    1.00225   1.00276   31.632
 4499.00    1.00733   1.00817   31.399
 4500.00    1.01381   1.01362   31.578
 4501.00    1.02117   1.01979   31.899
 4502.00    1.02936   1.02711   31.920
 4503.00    1.03819   1.03504   31.740
 4504.00    1.04695   1.04261   31.659
 4505.00    1.05418   1.04869   31.610
 4506.00    1.05834   1.05228   31.427
 4507.00    1.05868   1.05327   31.243
 4508.00    1.05555   1.05242   31.233
 4509.00    1.05063   1.05054   31.266
 4510.00    1.04608   1.04794   31.214
 4511.00    1.04339   1.04457   31.353
 4512.00    1.04260   1.04030   31.900
 4513.00    1.04159   1.03499   32.415
 4514.00    1.03877   1.02908   32.397
 4515.00    1.03608   1.02344   32.155
 4516.00    1.03580   1.01867   32.123
 4517.00    1.03682   1.01518   32.057
 4518.00    1.03687   1.01318   31.701
 4519.00    1.03515   1.01224   31.507
 4520.00    1.03188   1.01135   31.860
 4521.00    1.02742   1.00928   32.298
 4522.00    1.02220   1.00550   32.301
 4523.00    1.01680   1.00003   32.233
 4524.00    1.01134   0.99271   32.535
 4525.00    1.00515   0.98374   32.886
 4526.00    0.99765   0.97376   32.892
 4527.00    0.98937   0.96360   32.857
 4528.00    0.98141   0.95450   33.082
 4529.00    0.97487   0.94772   33.197
 4530.00    0.97045   0.94382   32.892
 4531.00    0.96821   0.94255   32.587
 4532.00    0.96781   0.94297   32.675
 4533.00    0.96892   0.94469   32.903
 4534.00    0.97169   0.94843   32.914
 4535.00    0.97711   0.95506   32.744
 4536.00    0.98593   0.96456   32.550
 4537.00    0.99780   0.97553   32.335
 4538.00    1.01102   0.98603   32.085
 4539.00    1.02268   0.99451   31.876
 4540.00    1.03041   1.00029   31.844
 4541.00    1.03379   1.00358   32.127
 4542.00    1.03403   1.00475   32.589
 4543.00    1.03340   1.00396   32.666
 4544.00    1.03336   1.00176   32.200
 4545.00    1.03332   0.99876   31.925
 4546.00    1.03141   0.99474   32.225
 4547.00    1.02550   0.98906   32.447
 4548.00    1.01518   0.98186   32.175
 4549.00    1.00289   0.97473   32.064
 4550.00    0.99148   0.96901    0.000
 4551.00    0.98248   0.96459    0.000
 4552.00    0.97608   0.96127    0.000
 4553.00    0.97137   0.95913    0.000
 4554.00    0.96789   0.95857    0.000
 4555.00    0.96655   0.96055    0.000
 4556.00    0.96925   0.96551    0.000
 4557.00    0.97817   0.97291    0.000
 4558.00    0.99341   0.98201    0.000
 4559.00    1.01186   0.99179    0.000
 4560.00    1.02930   1.00066    0.000
 4561.00    1.04195   1.00690    0.000
 4562.00    1.04800   1.00932    0.000
 4563.00    1.04815   1.00837    0.000
 4564.00    1.04421   1.00589    0.000
 4565.00    1.03818   1.00395    0.000
 4566.00    1.03277   1.00390    0.000
 4567.00    1.03098   1.00586    0.000
 4568.00    1.03228   1.00901    0.000
 4569.00    1.03210   1.01185    0.000
 4570.00    1.02947   1.01301    0.000
 4571.00    1.02935   1.01284    0.000
 4572.00    1.03280   1.01259    0.000
 4573.00    1.03377   1.01242    0.000
 4574.00    1.02831   1.01231    0.000
 4575.00    1.01904   1.01242    0.000
 4576.00    1.01330   1.01230    0.000
 4577.00    1.01912   1.01084    0.000
 4578.00    1.03177   1.00705    0.000
 4579.00    1.03282   1.00088    0.000
 4580.00    1.01486   0.99329    0.000
 4581.00    0.98959   0.98534    0.000
 4582.00    0.97209   0.97800    0.000
 4583.00    0.97150   0.97259    0.000
 4584.00    0.98306   0.97008    0.000
 4585.00    0.99051   0.97049    0.000
 4586.00    0.98967   0.97341    0.000
 4587.00    0.99225   0.97801    0.000
 4588.00    1.00018   0.98308    0.000
 4589.00    1.00112   0.98722    0.000
 4590.00    0.99298   0.98944    0.000
 4591.00    0.98867   0.98975    0.000
 4592.00    0.99597   0.98891    0.000
 4593.00    1.01076   0.98757    0.000
 4594.00    1.02220   0.98614    0.000
 4595.00    1.01933   0.98529    0.000
 4596.00    1.00695   0.98545    0.000
 4597.00    1.00347   0.98651    0.000
 4598.00    1.01322   0.98794    0.000
 4599.00    1.02289   0.98905    0.000
 4600.00    1.02376   0.98980    0.000
 4601.00    1.01775   0.99062    0.000
 4602.00    1.01128   0.99160    0.000
 4603.00    1.01094   0.99286    0.000
 4604.00    1.01705   0.99470    0.000
 4605.00    1.02405   0.99768    0.000
 4606.00    1.02864   1.00225    0.000
 4607.00    1.03139   1.00825    0.000
 4608.00    1.03350   1.01481    0.000
 4609.00    1.03530   1.02062    0.000
 4610.00    1.03478   1.02475    0.000
 4611.00    1.02968   1.02687    0.000
 4612.00    1.02459   1.02703    0.000
 4613.00    1.02777   1.02584    0.000
 4614.00    1.03708   1.02388    0.000
 4615.00    1.04216   1.02128    0.000
 4616.00    1.04109   1.01858    0.000
 4617.00    1.04012   1.01588    0.000
 4618.00    1.04085   1.01320    0.000
 4619.00    1.04034   1.01161    0.000
 4620.00    1.04009   1.01172    0.000
 4621.00    1.04422   1.01315    0.000
 4622.00    1.04923   1.01549    0.000
 4623.00    1.04688   1.01809    0.000
 4624.00    1.03749   1.01999    0.000
 4625.00    1.02894   1.02081    0.000
 4626.00    1.02681   1.02056    0.000
 4627.00    1.03135   1.01900    0.000
 4628.00    1.03646   1.01631    0.000
 4629.00    1.03427   1.01376    0.000
 4630.00    1.02530   1.01220    0.000
 4631.00    1.01702   1.01092    0.000
 4632.00    1.01543   1.00906    0.000
 4633.00    1.02144   1.00670    0.000
 4634.00    1.02750   1.00412    0.000
 4635.00    1.02368   1.00128    0.000
 4636.00    1.01115   0.99801    0.000
 4637.00    0.99949   0.99467    0.000
 4638.00    0.99584   0.99191    0.000
 4639.00    1.00277   0.99004    0.000
 4640.00    1.01837   0.98933    0.000
 4641.00    1.03644   0.98944    0.000
 4642.00    1.04674   0.98932    0.000
 4643.00    1.04016   0.98813    0.000
 4644.00    1.01749   0.98506    0.000
 4645.00    0.98824   0.97973    0.000
 4646.00    0.96525   0.97311    0.000
 4647.00    0.95712   0.96700    0.000
 4648.00    0.95752   0.96304    0.000
 4649.00    0.95528   0.96222    0.000
 4650.00    0.95384   0.96449    0.000
 4651.00    0.96297   0.96915    0.000
 4652.00    0.98052   0.97483    0.000
 4653.00    0.99565   0.97970    0.000
 4654.00    0.99899   0.98319    0.000
 4655.00    0.99053   0.98579    0.000
 4656.00    0.98807   0.98852    0.000
 4657.00    1.00756   0.99261    0.000
 4658.00    1.03327   0.99813    0.000
 4659.00    1.04028   1.00385    0.000
 4660.00    1.03248   1.00806    0.000
 4661.00    1.02598   1.00931    0.000
 4662.00    1.01877   1.00688    0.000
 4663.00    1.00285   1.00085    0.000
 4664.00    0.98581   0.99143    0.000
 4665.00    0.97827   0.97895    0.000
 4666.00    0.97435   0.96514    0.000
 4667.00    0.96549   0.95317    0.000
 4668.00    0.96055   0.94552    0.000
 4669.00    0.96972   0.94311    0.000
 4670.00    0.98215   0.94570    0.000
 4671.00    0.98406   0.95200    0.000
 4672.00    0.98318   0.96027    0.000
 4673.00    0.99126   0.96922    0.000
 4674.00    1.00086   0.97779    0.000
 4675.00    0.99944   0.98504    0.000
 4676.00    0.98816   0.98983    0.000
 4677.00    0.97512   0.99157    0.000
 4678.00    0.96530   0.99086    0.000
 4679.00    0.96191   0.98877    0.000
 4680.00    0.96857   0.98615    0.000
 4681.00    0.98436   0.98400    0.000
 4682.00    0.99911   0.98318    0.000
 4683.00    1.00319   0.98366    0.000
 4684.00    0.99778   0.98497    0.000
 4685.00    0.98948   0.98679    0.000
 4686.00    0.98346   0.98863    0.000
 4687.00    0.98186   0.98993    0.000
 4688.00    0.98290   0.99054    0.000
 4689.00    0.98418   0.99043    0.000
 4690.00    0.98556   0.98974    0.000
 4691.00    0.98737   0.98916    0.000
 4692.00    0.98863   0.98924    0.000
 4693.00    0.98885   0.99003    0.000
 4694.00    0.98980   0.99130    0.000
 4695.00    0.99415   0.99234    0.000
 4696.00    1.00374   0.99194    0.000
 4697.00    1.01398   0.98914    0.000
 4698.00    1.01135   0.98433    0.000
 4699.00    0.99104   0.97855    0.000
 4700.00    0.96951   0.97222    0.000
 4701.00    0.96204   0.96560    0.000
 4702.00    0.96525   0.95970    0.000
 4703.00    0.96965   0.95586    0.000
 4704.00    0.97067   0.95430    0.000
 4705.00    0.96823   0.95415    0.000
 4706.00    0.96545   0.95454    0.000
 4707.00    0.96462   0.95517    0.000
 4708.00    0.96475   0.95620    0.000
 4709.00    0.96499   0.95807    0.000
 4710.00    0.96710   0.96088    0.000
 4711.00    0.97374   0.96369    0.000
 4712.00    0.98659   0.96579    0.000
 4713.00    1.00213   0.96754    0.000
 4714.00    1.01039   0.97004    0.000
 4715.00    1.00537   0.97403    0.000
 4716.00    0.99139   0.97940    0.000
 4717.00    0.97782   0.98572    0.000
 4718.00    0.97406   0.99276    0.000
 4719.00    0.98116   0.99997    0.000
 4720.00    0.98901   1.00640    0.000
 4721.00    0.99185   1.01125    0.000
 4722.00    0.99555   1.01426    0.000
 4723.00    1.00368   1.01556    0.000
 4724.00    1.01007   1.01491    0.000
 4725.00    1.00710   1.01170    0.000
 4726.00    0.99145   1.00553    0.000
 4727.00    0.96797   0.99714    0.000
 4728.00    0.94939   0.98808    0.000
 4729.00    0.94346   0.97954    0.000
 4730.00    0.94698   0.97252    0.000
 4731.00    0.95270   0.96817    0.000
 4732.00    0.95440   0.96689    0.000
 4733.00    0.95304   0.96823    0.000
 4734.00    0.95718   0.97134    0.000
 4735.00    0.96945   0.97481    0.000
 4736.00    0.98193   0.97803    0.000
 4737.00    0.98809   0.98151    0.000
 4738.00    0.98806   0.98493    0.000
 4739.00    0.98513   0.98756    0.000
 4740.00    0.98326   0.98954    0.000
 4741.00    0.98447   0.99153    0.000
 4742.00    0.98792   0.99369    0.000
 4743.00    0.99195   0.99574    0.000
 4744.00    0.99483   0.99754    0.000
 4745.00    0.99441   0.99927    0.000
 4746.00    0.98889   1.00085    0.000
 4747.00    0.98065   1.00200    0.000
 4748.00    0.97560   1.00277    0.000
 4749.00    0.97400   1.00305    0.000
 4750.00    0.96979   1.00228    0.000
 4751.00    0.96332   1.00016    0.000
 4752.00    0.96258   0.99699    0.000
 4753.00    0.96803   0.99308    0.000
 4754.00    0.97078   0.98892    0.000
 4755.00    0.96832   0.98523    0.000
 4756.00    0.96709   0.98255    0.000
 4757.00    0.96939   0.98103    0.000
 4758.00    0.97086   0.98038    0.000
 4759.00    0.96899   0.97987    0.000
 4760.00    0.96542   0.97820    0.000
 4761.00    0.96281   0.97457   20.256
 4762.00    0.96283   0.96937   20.146
 4763.00    0.96323   0.96337   20.047
 4764.00    0.95899   0.95731   20.135
 4765.00    0.94927   0.95237   20.341
 4766.00    0.93871   0.94986   20.390
 4767.00    0.93403   0.95031   20.297
 4768.00    0.94032   0.95350   20.352
 4769.00    0.95313   0.95848   20.570
 4770.00    0.96126   0.96375   20.672
 4771.00    0.96185   0.96874   20.547
 4772.00    0.96124   0.97381   20.335
 4773.00    0.96403   0.97902   20.167
 4774.00    0.97076   0.98372   20.101
 4775.00    0.98056   0.98753   20.144
 4776.00    0.99179   0.99069   20.269
 4777.00    1.00155   0.99302   20.418
 4778.00    1.00640   0.99393   20.521
 4779.00    1.00451   0.99338   20.540
 4780.00    0.99628   0.99160   20.483
 4781.00    0.98427   0.98849   20.396
 4782.00    0.97193   0.98427   20.342
 4783.00    0.96084   0.97996   20.357
 4784.00    0.95140   0.97603   20.428
 4785.00    0.94634   0.97210   20.464
 4786.00    0.94839   0.96884   20.373
 4787.00    0.95297   0.96690   20.254
 4788.00    0.95238   0.96601   20.286
 4789.00    0.94901   0.96648   20.388
 4790.00    0.95184   0.96884   20.340
 4791.00    0.96202   0.97281   20.227
 4792.00    0.97392   0.97815   20.308
 4793.00    0.98465   0.98462   20.528
 4794.00    0.99440   0.99095   20.621
 4795.00    1.00266   0.99562   20.566
 4796.00    1.00736   0.99803   20.529
 4797.00    1.00490   0.99793   20.523
 4798.00    0.99252   0.99560   20.470
 4799.00    0.97280   0.99217   20.453
 4800.00    0.95299   0.98893   20.603
 4801.00    0.94171   0.98650   20.786
 4802.00    0.94419   0.98471   20.745
 4803.00    0.95466   0.98297   20.509
 4804.00    0.96144   0.98098   20.306
 4805.00    0.95869   0.97905   20.251
 4806.00    0.94798   0.97722   20.337
 4807.00    0.93689   0.97531   20.496
 4808.00    0.93343   0.97365   20.642
 4809.00    0.93712   0.97266   20.737
 4810.00    0.94266   0.97252   20.800
 4811.00    0.94858   0.97328   20.889
 4812.00    0.95515   0.97490   21.039
 4813.00    0.95893   0.97718   21.156
 4814.00    0.95748   0.97997   21.118
 4815.00    0.95789   0.98316   20.953
 4816.00    0.96763   0.98644   20.794
 4817.00    0.97918   0.98936   20.763
 4818.00    0.98117   0.99146   20.892
 4819.00    0.97805   0.99215   21.039
 4820.00    0.98034   0.99088   21.039
 4821.00    0.98649   0.98713   20.958
 4822.00    0.98850   0.98071   20.970
 4823.00    0.98355   0.97310   21.139
 4824.00    0.97361   0.96664   21.419
 4825.00    0.96256   0.96213   21.697
 4826.00    0.95485   0.95911   21.864
 4827.00    0.95401   0.95706   21.923
 4828.00    0.96004   0.95587   21.962
 4829.00    0.96669   0.95558   22.078
 4830.00    0.96568   0.95554   22.312
 4831.00    0.95295   0.95483   22.588
 4832.00    0.93205   0.95365   22.774
 4833.00    0.91652   0.95263   22.798
 4834.00    0.91739   0.95173   22.649
 4835.00    0.92872   0.95064   22.362
 4836.00    0.93936   0.94927   22.026
 4837.00    0.94801   0.94722   21.789
 4838.00    0.95568   0.94414   21.734
 4839.00    0.95576   0.94029   21.774
 4840.00    0.94308   0.93625   21.804
 4841.00    0.92455   0.93222   21.865
 4842.00    0.91106   0.92820   21.997
 4843.00    0.90754   0.92458   22.075
 4844.00    0.91276   0.92157   21.969
 4845.00    0.92058   0.91859   21.742
 4846.00    0.92478   0.91459   21.556
 4847.00    0.92367   0.90888   21.551
 4848.00    0.91768   0.90191    0.000
 4849.00    0.90678   0.89456    0.000
 4850.00    0.89170   0.88642    0.000
 4851.00    0.87525   0.87658    0.000
 4852.00    0.85998   0.86460    0.000
 4853.00    0.84606   0.84987    0.000
 4854.00    0.83294   0.83196    0.000
 4855.00    0.82158   0.81147    0.000
 4856.00    0.81943   0.78882    0.000
 4857.00    0.84390   0.76361    0.000
 4858.00    0.91501   0.73572    0.000
 4859.00    1.04620   0.70603    0.000
 4860.00    1.22312   0.67763    0.000
 4861.00    1.39058   0.65594    0.000
 4862.00    1.49024   0.64474    0.000
 4863.00    1.49285   0.64399    0.000
 4864.00    1.40108   0.65287    0.000
 4865.00    1.24787   0.67043    0.000
 4866.00    1.08023   0.69437    0.000
 4867.00    0.94384   0.72134    0.000
 4868.00    0.86243   0.74747    0.000
 4869.00    0.82587   0.76909    0.000
 4870.00    0.81361   0.78493    0.000
 4871.00    0.81255   0.79687    0.000
 4872.00    0.81631   0.80753    0.000
 4873.00    0.82334   0.81793    0.000
 4874.00    0.83334   0.82826    0.000
 4875.00    0.84491   0.83892   11.706
 4876.00    0.85678   0.85039   10.988
 4877.00    0.86847   0.86282   11.939
 4878.00    0.87951   0.87569   16.340
 4879.00    0.88883   0.88717   23.316
 4880.00    0.89576   0.89555   24.238
 4881.00    0.90052   0.90100   21.726
 4882.00    0.90358   0.90425   21.449
 4883.00    0.90514   0.90523   22.226
 4884.00    0.90421   0.90398   22.325
 4885.00    0.89867   0.90120   22.174
 4886.00    0.88898   0.89810   22.422
 4887.00    0.87960   0.89581   22.758
 4888.00    0.87402   0.89442   22.866
 4889.00    0.87236   0.89335   22.954
 4890.00    0.87355   0.89316   23.163
 4891.00    0.87687   0.89626   23.276
 4892.00    0.88290   0.90384   23.135
 4893.00    0.89341   0.91465   22.861
 4894.00    0.90772   0.92711   22.623
 4895.00    0.92171   0.93984   22.508
 4896.00    0.93216   0.95169   22.490
 4897.00    0.93879   0.96158   22.447
 4898.00    0.94308   0.96761   22.327
 4899.00    0.94729   0.96919   22.204
 4900.00    0.95236   0.96811   22.170
 4901.00    0.95722   0.96585   22.278
 4902.00    0.96011   0.96293   22.500
 4903.00    0.95972   0.96050   22.724
 4904.00    0.95738   0.95976   22.849
 4905.00    0.95639   0.96071   22.844
 4906.00    0.95467   0.96199   22.792
 4907.00    0.94492   0.96193   22.838
 4908.00    0.92916   0.95994   22.966
 4909.00    0.92034   0.95663   22.969
 4910.00    0.92365   0.95325   22.793
 4911.00    0.93173   0.95073   22.611
 4912.00    0.93786   0.94927   22.522
 4913.00    0.94063   0.94889   22.478
 4914.00    0.94056   0.94933   22.416
 4915.00    0.93828   0.94938   22.331
 4916.00    0.93309   0.94712   22.312
 4917.00    0.92352   0.94070   22.489
 4918.00    0.91132   0.92978   22.802
 4919.00    0.90137   0.91625   22.979
 4920.00    0.89591   0.90311   22.898
 4921.00    0.89328   0.89297   22.694
 4922.00    0.89077   0.88692   22.588
 4923.00    0.88662   0.88543   22.749
 4924.00    0.88316   0.88971   23.070
 4925.00    0.88553   0.90014   23.214
 4926.00    0.89451   0.91448   23.118
 4927.00    0.90562   0.92976   23.034
 4928.00    0.91438   0.94384   23.059
 4929.00    0.91842   0.95542   23.068
 4930.00    0.91849   0.96383   22.987
 4931.00    0.91827   0.96800   22.852
 4932.00    0.92262   0.96668   22.726
 4933.00    0.93457   0.96138   22.656
 4934.00    0.94843   0.95513   22.636
 4935.00    0.95276   0.94882   22.628
 4936.00    0.94411   0.94207   22.645
 4937.00    0.92829   0.93534   22.723
 4938.00    0.91269   0.93045   22.790
 4939.00    0.90339   0.92983   22.693
 4940.00    0.90367   0.93360    0.000
 4941.00    0.91359   0.93929    0.000
 4942.00    0.93017   0.94581    0.000
 4943.00    0.94805   0.95339    0.000
 4944.00    0.96102   0.96130    0.000
 4945.00    0.96469   0.96837    0.000
 4946.00    0.96173   0.97399    0.000
 4947.00    0.95983   0.97801    0.000
 4948.00    0.96380   0.98080    0.000
 4949.00    0.97315   0.98256    0.000
 4950.00    0.98139   0.98316    0.000
 4951.00    0.98079   0.98238    0.000
 4952.00    0.97324   0.97992    0.000
 4953.00    0.96716   0.97553    0.000
 4954.00    0.96566   0.96925    0.000
 4955.00    0.96640   0.96085    0.000
 4956.00    0.96711   0.95031    0.000
 4957.00    0.96733   0.94044    0.000
 4958.00    0.96948   0.93518    0.000
 4959.00    0.97606   0.93488    0.000
 4960.00    0.98402   0.93730    0.000
 4961.00    0.98715   0.94098    0.000
 4962.00    0.98310   0.94582    0.000
 4963.00    0.97368   0.95155    0.000
 4964.00    0.96262   0.95564    0.000
 4965.00    0.95361   0.95598    0.000
 4966.00    0.94724   0.95374    0.000
 4967.00    0.94214   0.95090    0.000
 4968.00    0.93771   0.94858    0.000
 4969.00    0.93459   0.94717    0.000
 4970.00    0.93433   0.94732    0.000
 4971.00    0.93844   0.94968    0.000
 4972.00    0.94688   0.95358    0.000
 4973.00    0.95754   0.95784    0.000
 4974.00    0.96607   0.96153    0.000
 4975.00    0.96794   0.96366    0.000
 4976.00    0.96185   0.96343    0.000
 4977.00    0.94988   0.96015    0.000
 4978.00    0.93673   0.95378    0.000
 4979.00    0.92615   0.94505    0.000
 4980.00    0.91606   0.93413    0.000
 4981.00    0.90291   0.92140    0.000
 4982.00    0.88902   0.90877    0.000
 4983.00    0.87994   0.89894    0.000
 4984.00    0.87927   0.89351    0.000
 4985.00    0.88730   0.89263    0.000
 4986.00    0.90034   0.89576    0.000
 4987.00    0.91236   0.90190    0.000
 4988.00    0.91742   0.90975    0.000
 4989.00    0.91352   0.91763    0.000
 4990.00    0.90666   0.92411    0.000
 4991.00    0.90432   0.92908    0.000
 4992.00    0.90668   0.93240    0.000
 4993.00    0.91020   0.93384    0.000
 4994.00    0.91339   0.93451    0.000
 4995.00    0.91579   0.93511    0.000
 4996.00    0.91592   0.93518    0.000
 4997.00    0.91274   0.93402    0.000
 4998.00    0.90750   0.93062    0.000
 4999.00    0.90233   0.92502    0.000
 5000.00    0.89849   0.91806    0.000
 5001.00    0.89723   0.91047    0.000
 5002.00    0.90100   0.90329    0.000
 5003.00    0.91360   0.89686    0.000
 5004.00    0.93968   0.89082    0.000
 5005.00    0.97918   0.88585    0.000
 5006.00    1.02208   0.88361    0.000
 5007.00    1.05563   0.88468    0.000
 5008.00    1.07235   0.88730    0.000
 5009.00    1.06928   0.88920    0.000
 5010.00    1.04672   0.88974    0.000
 5011.00    1.00875   0.88900    0.000
 5012.00    0.96363   0.88678    0.000
 5013.00    0.92059   0.88265    0.000
 5014.00    0.88663   0.87719    0.000
 5015.00    0.86522   0.87195    0.000
 5016.00    0.85559   0.86748    0.000
 5017.00    0.85481   0.86393    0.000
 5018.00    0.85976   0.86281    0.000
 5019.00    0.86723   0.86502    0.000
 5020.00    0.87407   0.86939    0.000
 5021.00    0.87840   0.87415    0.000
 5022.00    0.88058   0.87925    0.000
 5023.00    0.88261   0.88578    0.000
 5024.00    0.88709   0.89310    0.000
 5025.00    0.89375   0.89929    0.000
 5026.00    0.89747   0.90340    0.000
 5027.00    0.89464   0.90673    0.000
 5028.00    0.88796   0.91086    0.000
 5029.00    0.88334   0.91517   24.364
 5030.00    0.88652   0.91872   24.362
 5031.00    0.89704   0.92195   24.437
 5032.00    0.90556   0.92535   24.664
 5033.00    0.90577   0.92796   24.991
 5034.00    0.90169   0.92754   25.128
 5035.00    0.89789   0.92345   24.971
 5036.00    0.89289   0.91767   24.848
 5037.00    0.88421   0.91095   24.970
 5038.00    0.87201   0.90236   25.129
 5039.00    0.85935   0.89209   25.122
 5040.00    0.85162   0.88265   25.026
 5041.00    0.85271   0.87779   24.967
 5042.00    0.86261   0.87868   24.977
 5043.00    0.87849   0.88319   25.049
 5044.00    0.89567   0.88978   25.168
 5045.00    0.90960   0.89803   25.272
 5046.00    0.91716   0.90654   25.252
 5047.00    0.91777   0.91290   25.143
 5048.00    0.91363   0.91548   25.171
 5049.00    0.90766   0.91496   25.377
 5050.00    0.90229   0.91285   25.482
 5051.00    0.89933   0.91024   25.336
 5052.00    0.89981   0.90870   25.127
 5053.00    0.90320   0.90971   24.999
 5054.00    0.90760   0.91313   24.901
 5055.00    0.91273   0.91790   24.805
 5056.00    0.92058   0.92361   24.790
 5057.00    0.93102   0.93020   24.893
 5058.00    0.94060   0.93653   25.039
 5059.00    0.94845   0.94136   25.103
 5060.00    0.95737   0.94458   24.975
 5061.00    0.96454   0.94629   24.743
 5062.00    0.96029   0.94578   24.676
 5063.00    0.94308   0.94202   24.865
 5064.00    0.92351   0.93570   25.124
 5065.00    0.90973   0.92908   25.274
 5066.00    0.90178   0.92294   25.291
 5067.00    0.89695   0.91680   25.266
 5068.00    0.89265   0.91136   25.331
 5069.00    0.88794   0.90819   25.465
 5070.00    0.88387   0.90711   25.488
 5071.00    0.88245   0.90625   25.387
 5072.00    0.88535   0.90524   25.367
 5073.00    0.89070   0.90476   25.469
 5074.00    0.89353   0.90412   25.505
 5075.00    0.89223   0.90230   25.421
 5076.00    0.88982   0.89964   25.378
 5077.00    0.88875   0.89645   25.476
 5078.00    0.88904   0.89163   25.666
 5079.00    0.88901   0.88538   25.783
 5080.00    0.88672   0.88026   25.648
 5081.00    0.88363   0.87756   25.391
 5082.00    0.88411   0.87628   25.373
 5083.00    0.88897   0.87630   25.587
 5084.00    0.89504   0.87927   25.654
 5085.00    0.90145   0.88528   25.482
 5086.00    0.91009   0.89212   25.349
 5087.00    0.91981   0.89847   25.350
 5088.00    0.92606   0.90470   25.348
 5089.00    0.92576   0.91074   25.390
 5090.00    0.91958   0.91565   25.691
 5091.00    0.91363   0.91937   26.153
 5092.00    0.91585   0.92234   26.371
 5093.00    0.92405   0.92403   26.285
 5094.00    0.92727   0.92337   26.213
 5095.00    0.92060   0.92016   26.277
 5096.00    0.90758   0.91498   26.339
 5097.00    0.89436   0.90827   26.300
 5098.00    0.88656   0.90069   26.177
 5099.00    0.88581   0.89404   26.071
 5100.00    0.88969   0.89005   26.090
 5101.00    0.89464   0.88868   26.215
 5102.00    0.89777   0.88898   26.317
 5103.00    0.89963   0.89043   26.318
 5104.00    0.90247   0.89284   26.233
 5105.00    0.90420   0.89509   26.177
 5106.00    0.90015   0.89564   26.274
 5107.00    0.89100   0.89455   26.467
 5108.00    0.88238   0.89309   26.568
 5109.00    0.87883   0.89200   26.519
 5110.00    0.88161   0.89189   26.405
 5111.00    0.88715   0.89341   26.309
 5112.00    0.88995   0.89663   26.279
 5113.00    0.88976   0.90109   26.339
 5114.00    0.89052   0.90611   26.462
 5115.00    0.89452   0.91141   26.499
 5116.00    0.90133   0.91648   26.306
 5117.00    0.90849   0.92016   26.015
 5118.00    0.91293   0.92154   25.882
 5119.00    0.91356   0.92035   25.916
 5120.00    0.91083   0.91679   25.949
 5121.00    0.90463   0.91120   25.926
 5122.00    0.89478   0.90352   25.913
 5123.00    0.88293   0.89440   26.005
 5124.00    0.87197   0.88560   26.234
 5125.00    0.86437   0.87832   26.444
 5126.00    0.86133   0.87273   26.436
 5127.00    0.86172   0.86868   26.321
 5128.00    0.86286   0.86661   26.368
 5129.00    0.86216   0.86700   26.622
 5130.00    0.85902   0.86948   26.952
 5131.00    0.85747   0.87284   27.238
 5132.00    0.86232   0.87608   27.432
 5133.00    0.87207   0.87929   27.593
 5134.00    0.88117   0.88288   27.819
 5135.00    0.88595   0.88580   28.133
 5136.00    0.88527   0.88632   28.469
 5137.00    0.88009   0.88453   28.701
 5138.00    0.87295   0.88178   28.724
 5139.00    0.86733   0.87933   28.584
 5140.00    0.86605   0.87695   28.391
 5141.00    0.86921   0.87368   28.166
 5142.00    0.87470   0.87040   27.863
 5143.00    0.87952   0.86895   27.440
 5144.00    0.88054   0.86932   26.959
 5145.00    0.87543   0.86932   26.683
 5146.00    0.86507   0.86801   26.827
 5147.00    0.85643   0.86731   27.240
 5148.00    0.85631   0.86797   27.633
 5149.00    0.86255   0.86824   27.961
 5150.00    0.86866   0.86742   28.304
 5151.00    0.87151   0.86670   28.595
 5152.00    0.87117   0.86680   28.669
 5153.00    0.86927   0.86758   28.413
 5154.00    0.86876   0.86904   27.895
 5155.00    0.87344   0.87199   27.442
 5156.00    0.88472   0.87663   27.280
 5157.00    0.89798   0.88200   27.212
 5158.00    0.90689   0.88714   27.025
 5159.00    0.90906   0.89167   26.958
 5160.00    0.90556   0.89443   27.178
 5161.00    0.89949   0.89360   27.183
 5162.00    0.89350   0.88863   26.522
 5163.00    0.88727   0.88004   25.644
 5164.00    0.87804   0.86794   25.045
 5165.00    0.86187   0.85185   24.558
 5166.00    0.83807   0.83251   24.033
 5167.00    0.81318   0.81301   23.916
 5168.00    0.79418   0.79667   24.542
 5169.00    0.78146   0.78470   25.479
 5170.00    0.77326   0.77613   26.213
 5171.00    0.77050   0.77020   27.108
 5172.00    0.77394   0.76969   28.231
 5173.00    0.78116   0.77739   27.940
 5174.00    0.78985   0.79060   26.485
 5175.00    0.80084   0.80385   28.052
 5176.00    0.81536   0.81599   33.246
 5177.00    0.83210   0.82898   27.253
 5178.00    0.84764   0.84109   16.012
 5179.00    0.85726   0.84800   11.537
 5180.00    0.85809   0.84845   10.987
 5181.00    0.85150   0.84379   11.794
 5182.00    0.84033   0.83497   12.155
 5183.00    0.82637   0.82459   12.081
 5184.00    0.81180   0.81753   12.251
 5185.00    0.80023   0.81564   12.497
 5186.00    0.79546   0.81669   12.515
 5187.00    0.79998   0.81945   12.524
 5188.00    0.81272   0.82595   12.546
 5189.00    0.82780   0.83589   12.003
 5190.00    0.83907   0.84371    0.000
 5191.00    0.84370   0.84623    0.000
 5192.00    0.84315   0.84640    0.000
 5193.00    0.84309   0.84758    0.000
 5194.00    0.84898   0.84880    0.000
 5195.00    0.86285   0.84848    0.000
 5196.00    0.88331   0.84923    0.000
 5197.00    0.90609   0.85334    0.000
 5198.00    0.92649   0.85885    0.000
 5199.00    0.94094   0.86317    0.000
 5200.00    0.94584   0.86600    0.000
 5201.00    0.93745   0.86729    0.000
 5202.00    0.91615   0.86632    0.000
 5203.00    0.88858   0.86223    0.000
 5204.00    0.86349   0.85465    0.000
 5205.00    0.84815   0.84559    0.000
 5206.00    0.84260   0.83769    0.000
 5207.00    0.83840   0.83148    0.000
 5208.00    0.83112   0.82706    0.000
 5209.00    0.82619   0.82643    0.000
 5210.00    0.82830   0.83086    0.000
 5211.00    0.83592   0.83870   27.522
 5212.00    0.84531   0.84760   27.783
 5213.00    0.85328   0.85688   27.940
 5214.00    0.85816   0.86535   27.807
 5215.00    0.86020   0.87178   27.677
 5216.00    0.86086   0.87710   27.751
 5217.00    0.86211   0.88204   27.898
 5218.00    0.86447   0.88624   27.966
 5219.00    0.86639   0.88933   27.946
 5220.00    0.86611   0.89184   27.879
 5221.00    0.86286   0.89354   27.806
 5222.00    0.85769   0.89292   27.739
 5223.00    0.85329   0.88893   27.661
 5224.00    0.85068   0.88153   27.584
 5225.00    0.84853   0.87144   27.557
 5226.00    0.84670   0.86063   27.634
 5227.00    0.84716   0.85239   27.841
 5228.00    0.85038   0.84847   28.129
 5229.00    0.85449   0.84768   28.377
 5230.00    0.85880   0.84903   28.565
 5231.00    0.86454   0.85301   28.796
 5232.00    0.87175   0.85894   29.047
 5233.00    0.87842   0.86436   29.137
 5234.00    0.88260   0.86872   29.102
 5235.00    0.88358   0.87332   29.218
 5236.00    0.88283   0.87802   29.439
 5237.00    0.88333   0.88288   29.363
 5238.00    0.88581   0.88878   29.013
 5239.00    0.88836   0.89542   28.881
 5240.00    0.89066   0.90187   29.020
 5241.00    0.89430   0.90671   28.954
 5242.00    0.89838   0.90936   28.523
 5243.00    0.89921   0.91081   28.056
 5244.00    0.89531   0.91145   27.843
 5245.00    0.88856   0.90992   27.971
 5246.00    0.88175   0.90557   28.288
 5247.00    0.87748   0.90067   28.493
 5248.00    0.87752   0.89683   28.539
 5249.00    0.88191   0.89237   28.643
 5250.00    0.88680   0.88682   28.789
 5251.00    0.88601   0.88326   28.716
 5252.00    0.87826   0.88313   28.436
 5253.00    0.86812   0.88390   28.232
 5254.00    0.86207   0.88437   28.164
 5255.00    0.86543   0.88675   28.059
 5256.00    0.87737   0.89138   27.885
 5257.00    0.89169   0.89541   27.770
 5258.00    0.90340   0.89681   27.773
 5259.00    0.90983   0.89562   27.844
 5260.00    0.90831   0.89193   27.876
 5261.00    0.89679   0.88435   27.797
 5262.00    0.87723   0.87263   27.759
 5263.00    0.85486   0.85809   28.004
 5264.00    0.83383   0.84195   28.414
 5265.00    0.81639   0.82614   28.597
 5266.00    0.80416   0.81360   28.540
 5267.00    0.79818   0.80517   28.545
 5268.00    0.79847   0.79853   28.576
 5269.00    0.80358   0.79371   28.373
 5270.00    0.81007   0.79432   28.083
 5271.00    0.81416   0.80070   28.082
 5272.00    0.81595   0.80803   28.273
 5273.00    0.81865   0.81444   28.249
 5274.00    0.82461   0.82307   28.055
 5275.00    0.83413   0.83466   28.054
 5276.00    0.84506   0.84658   28.256
 5277.00    0.85478   0.85711   28.383
 5278.00    0.86452   0.86553   28.335
 5279.00    0.87701   0.87154   28.205
 5280.00    0.88968   0.87645   28.091
 5281.00    0.89685   0.88072   28.050
 5282.00    0.89711   0.88266   28.127
 5283.00    0.89317   0.88276   28.311
 5284.00    0.88857   0.88436   28.455
 5285.00    0.88619   0.88929   28.401
 5286.00    0.88681   0.89589   28.259
 5287.00    0.88999   0.90244   28.246
 5288.00    0.89609   0.90964   28.306
 5289.00    0.90554   0.91789   28.258
 5290.00    0.91686   0.92470   28.186
 5291.00    0.92708   0.92770   28.312
 5292.00    0.93342   0.92722   28.668
 5293.00    0.93381   0.92479   29.107
 5294.00    0.92753   0.92084   29.426
 5295.00    0.91557   0.91444   29.473
 5296.00    0.90104   0.90547   29.310
 5297.00    0.88780   0.89605   29.087
 5298.00    0.87814   0.88914   28.820
 5299.00    0.87247   0.88518   28.499
 5300.00    0.86964   0.88260   28.286
 5301.00    0.86871   0.88168   28.340
 5302.00    0.87152   0.88461   28.529
 5303.00    0.87987   0.89134   28.618
 5304.00    0.89094   0.89876   28.611
 5305.00    0.90022   0.90481   28.626
 5306.00    0.90667   0.91023   28.632
 5307.00    0.91133   0.91573   28.505
 5308.00    0.91427   0.92058   28.182
 5309.00    0.91494   0.92372   27.794
 5310.00    0.91323   0.92498   27.758
 5311.00    0.90987   0.92498   28.014
 5312.00    0.90665   0.92415   27.167
 5313.00    0.90547   0.92245   25.259
 5314.00    0.90698   0.91960   25.778
 5315.00    0.90999   0.91540   30.002
 5316.00    0.91123   0.91067   26.521
 5317.00    0.90889   0.90709   16.048
 5318.00    0.90664   0.90479   11.198
 5319.00    0.90863   0.90226   10.303
 5320.00    0.91327   0.89938   10.905
 5321.00    0.91642   0.89722   11.202
 5322.00    0.91604   0.89433   10.933
 5323.00    0.91166   0.88827   10.802
 5324.00    0.90333   0.88015   11.059
 5325.00    0.89176   0.87236   11.480
 5326.00    0.87853   0.86377   11.400
 5327.00    0.86507   0.85299   10.903
 5328.00    0.85158   0.84402   11.714
 5329.00    0.83898   0.84164   16.320
 5330.00    0.83084   0.84395   26.819
 5331.00    0.83158   0.84706   31.774
 5332.00    0.84410   0.85225   27.411
 5333.00    0.86601   0.86195   26.099
 5334.00    0.88712   0.87297   27.416
 5335.00    0.89885   0.88046   28.084
 5336.00    0.90288   0.88409   27.813
 5337.00    0.90295   0.88624   27.755
 5338.00    0.89723   0.88703   27.934
 5339.00    0.88478   0.88498   27.958
 5340.00    0.87152   0.88143   27.830
 5341.00    0.86463   0.87958   27.695
 5342.00    0.86712   0.87979   27.565
 5343.00    0.87735   0.88013   27.445
 5344.00    0.88946   0.88047   27.433
 5345.00    0.89772   0.88214   27.571
 5346.00    0.89993   0.88504   27.726
 5347.00    0.89659   0.88741   27.750
 5348.00    0.88976   0.88843   27.620
 5349.00    0.88233   0.88970   27.430
 5350.00    0.87718   0.89324   27.341
 5351.00    0.87602   0.89840   27.455
 5352.00    0.87862   0.90343   27.727
 5353.00    0.88464   0.90907   28.026
 5354.00    0.89475   0.91650   28.196
 5355.00    0.90884   0.92411   28.172
 5356.00    0.92472   0.92977   28.062
 5357.00    0.93839   0.93360   28.039
 5358.00    0.94485   0.93622   28.236
 5359.00    0.94243   0.93684   28.599
 5360.00    0.93490   0.93456   28.821
 5361.00    0.92615   0.92973   28.777
 5362.00    0.91678   0.92348   28.772
 5363.00    0.90645   0.91654   29.021
 5364.00    0.89566   0.90876   29.350
 5365.00    0.88642   0.90045   29.513
 5366.00    0.88204   0.89257   29.436
 5367.00    0.88287   0.88567   29.239
 5368.00    0.88457   0.87944   29.174
 5369.00    0.88310   0.87351   29.359
 5370.00    0.87770   0.86858   29.662
 5371.00    0.86997   0.86636   29.912
 5372.00    0.86305   0.86777   30.033
 5373.00    0.86074   0.87168   29.973
 5374.00    0.86636   0.87718   29.703
 5375.00    0.87903   0.88455   29.373
 5376.00    0.89276   0.89303   29.293
 5377.00    0.90299   0.90061   29.477
 5378.00    0.90933   0.90592   29.524
 5379.00    0.91210   0.90861   29.240
 5380.00    0.91074   0.90916   28.897
 5381.00    0.90564   0.90861   28.730
 5382.00    0.89878   0.90729   28.725
 5383.00    0.89212   0.90545   28.703
 5384.00    0.88703   0.90416   28.429
 5385.00    0.88494   0.90359   27.935
 5386.00    0.88716   0.90285   27.556
 5387.00    0.89208   0.90182   27.511
 5388.00    0.89512   0.90057   27.757
 5389.00    0.89404   0.89824   27.971
 5390.00    0.89031   0.89464   27.709
 5391.00    0.88472   0.89034   27.279
 5392.00    0.87625   0.88532   27.638
 5393.00    0.86582   0.87993   28.855
 5394.00    0.85692   0.87527   29.705
 5395.00    0.85174   0.87095   29.568
 5396.00    0.84979   0.86612   29.268
 5397.00    0.84920   0.86254   29.362
 5398.00    0.84799   0.86163   29.652
 5399.00    0.84654   0.86096   29.905
 5400.00    0.84752   0.85903   30.091
 5401.00    0.85199   0.85796   30.163
 5402.00    0.85833   0.85792   30.020
 5403.00    0.86367   0.85568   29.728
 5404.00    0.86507   0.85080   29.509
 5405.00    0.86111   0.84612   29.481
 5406.00    0.85304   0.84306   29.597
 5407.00    0.84638   0.84097   29.720
 5408.00    0.84849   0.83954   29.707
 5409.00    0.85909   0.83983   29.605
 5410.00    0.87018   0.84332   29.616
 5411.00    0.87660   0.84969   29.791
 5412.00    0.87874   0.85659   29.995
 5413.00    0.87954   0.86278   30.112
 5414.00    0.88244   0.86939   30.108
 5415.00    0.88781   0.87704   29.967
 5416.00    0.89310   0.88412   29.705
 5417.00    0.89623   0.88902   29.448
 5418.00    0.89648   0.89209   29.373
 5419.00    0.89377   0.89415   29.525
 5420.00    0.88853   0.89511   -2.000
 5421.00    0.88177   0.89495   -2.000
 5422.00    0.87481   0.89368   -2.000
 5423.00    0.86823   0.89106   -2.000
 5424.00    0.86266   0.88810   -2.000
 5425.00    0.86164   0.88639   -2.000
 5426.00    0.86915   0.88530   -2.000
 5427.00    0.88144   0.88293   -2.000
 5428.00    0.88925   0.87898   -2.000
 5429.00    0.88837   0.87517   -2.000
 5430.00    0.88069   0.87273   -2.000
 5431.00    0.86992   0.87004   -2.000
 5432.00    0.85952   0.86564   -2.000
 5433.00    0.85059   0.86214   -2.000
 5434.00    0.84323   0.86224   -2.000
 5435.00    0.84074   0.86457   29.393
 5436.00    0.84737   0.86775   29.465
 5437.00    0.86122   0.87284   29.317
 5438.00    0.87614   0.88020   29.475
 5439.00    0.88908   0.88823   29.727
 5440.00    0.89983   0.89535   29.538
 5441.00    0.90670   0.90065   29.466
 5442.00    0.90750   0.90347   30.267
 5443.00    0.90308   0.90332   30.468
 5444.00    0.89648   0.90014   28.697
 5445.00    0.88979   0.89438   28.896
 5446.00    0.88386   0.88760   35.030
 5447.00    0.87923   0.88209   34.160
 5448.00    0.87617   0.87864   19.363
 5449.00    0.87459   0.87630   12.205
 5450.00    0.87426   0.87510   10.635
 5451.00    0.87523   0.87572   11.222
 5452.00    0.87717   0.87713   11.708
 5453.00    0.87801   0.87722   11.460
 5454.00    0.87543   0.87527   11.316
 5455.00    0.86963   0.87284   11.475
 5456.00    0.86326   0.87194   11.623
 5457.00    0.86030   0.87218   11.631
 5458.00    0.86340   0.87209   11.572
 5459.00    0.86997   0.87257   11.494
 5460.00    0.87494   0.87480   11.423
 5461.00    0.87602   0.87688   11.410
 5462.00    0.87434   0.87684   11.468
 5463.00    0.87377   0.87618   11.460
 5464.00    0.87754   0.87660   11.306
 5465.00    0.88341   0.87678   11.280
 5466.00    0.88689   0.87627   11.531
 5467.00    0.88679   0.87716   11.381
 5468.00    0.88431   0.87911   10.633
 5469.00    0.88046   0.87958   11.068
 5470.00    0.87619   0.87883   15.514
 5471.00    0.87311   0.87785   28.912
 5472.00    0.87221   0.87505   39.449
 5473.00    0.87228   0.87018   31.930
 5474.00    0.87125   0.86542   29.046
 5475.00    0.86818   0.86038   30.802
 5476.00    0.86332   0.85406   31.643
 5477.00    0.85786   0.84952   30.823
 5478.00    0.85357   0.84859   30.635
 5479.00    0.85226   0.84840   31.060
 5480.00    0.85478   0.84829   31.071
 5481.00    0.85981   0.85110   30.726
 5482.00    0.86457   0.85639   30.555
 5483.00    0.86596   0.86100   30.555
 5484.00    0.86375   0.86477   30.501
 5485.00    0.86340   0.86892   30.400
 5486.00    0.86968   0.87235   30.344
 5487.00    0.87949   0.87442   30.319
 5488.00    0.88670   0.87615   30.341
 5489.00    0.88832   0.87726   30.594
 5490.00    0.88551   0.87729   31.106
 5491.00    0.88359   0.87758   31.404
 5492.00    0.88659   0.87825   31.151
 5493.00    0.89207   0.87814   30.847
 5494.00    0.89546   0.87814   30.982
 5495.00    0.89481   0.87867   31.265
 5496.00    0.89111   0.87796   31.267
 5497.00    0.88766   0.87636   31.101
 5498.00    0.88649   0.87600   31.008
 5499.00    0.88523   0.87579   30.932
 5500.00    0.88092   0.87359   30.827
 5501.00    0.87350   0.87084   30.912
 5502.00    0.86502   0.86927   31.303
 5503.00    0.85840   0.86775   31.699
 5504.00    0.85566   0.86521   31.770
 5505.00    0.85670   0.86237   31.560
 5506.00    0.86019   0.86045   31.266
 5507.00    0.86454   0.85981   30.995
 5508.00    0.86833   0.85920   30.815
 5509.00    0.87066   0.85786   30.799
 5510.00    0.87113   0.85708   30.957
 5511.00    0.86987   0.85720   31.203
 5512.00    0.86796   0.85704   31.451
 5513.00    0.86747   0.85707   31.687
 5514.00    0.86978   0.85836   31.767
 5515.00    0.87436   0.86058   31.347
 5516.00    0.87971   0.86359   30.480
 5517.00    0.88428   0.86787   29.816
 5518.00    0.88704   0.87291   29.634
 5519.00    0.88792   0.87744   29.479
 5520.00    0.88764   0.88103   29.273
 5521.00    0.88749   0.88382   29.836
 5522.00    0.88846   0.88519   31.319
 5523.00    0.89057   0.88443   32.126
 5524.00    0.89197   0.88183   31.495
 5525.00    0.88911   0.87834   31.239
 5526.00    0.88074   0.87424   31.711
 5527.00    0.87003   0.86939   30.451
 5528.00    0.86168   0.86501   28.803
 5529.00    0.85976   0.86270   32.553
 5530.00    0.86615   0.86172   39.714
 5531.00    0.87915   0.86113   -2.000
 5532.00    0.89084   0.86211   -2.000
 5533.00    0.88931   0.86449   -2.000
 5534.00    0.87997   0.86626   -2.000
 5535.00    0.89031   0.86765   -2.000
 5536.00    0.92816   0.86997   -2.000
 5537.00    0.96488   0.87225   -2.000
 5538.00    0.97223   0.87389   -2.000
 5539.00    0.94329   0.87620   -2.000
 5540.00    0.89365   0.87897   -2.000
 5541.00    0.85653   0.88066   -2.000
 5542.00    0.85728   0.88127   -2.000
 5543.00    0.89930   0.88186   -2.000
 5544.00    0.95981   0.88251   -2.000
 5545.00    0.99724   0.88249   -2.000
 5546.00    0.99422   0.88233   -2.000
 5547.00    0.97078   0.88341   -2.000
 5548.00    0.94789   0.88534   -2.000
 5549.00    0.93156   0.88686   -2.000
 5550.00    0.92091   0.88824   -2.000
 5551.00    0.91294   0.88978   -2.000
 5552.00    0.90576   0.89041   -2.000
 5553.00    0.89947   0.88962   -2.000
 5554.00    0.89439   0.88830   -2.000
 5555.00    0.89039   0.88695   31.470
 5556.00    0.88785   0.88518   31.754
 5557.00    0.88765   0.88303   31.972
 5558.00    0.88984   0.88124   31.977
 5559.00    0.89333   0.87989   31.993
 5560.00    0.89680   0.87825   32.043
 5561.00    0.89895   0.87605   31.871
 5562.00    0.89799   0.87367   31.585
 5563.00    0.89228   0.87141   31.647
 5564.00    0.88359   0.86899   32.096
 5565.00    0.87663   0.86597   32.428
 5566.00    0.87352   0.86330   32.291
 5567.00    0.87297   0.86181   31.780
 5568.00    0.87462   0.86018   31.306
 5569.00    0.87937   0.85834   31.292
 5570.00    0.88522   0.85820   31.530
 5571.00    0.88786   0.85884   31.335
 5572.00    0.88696   0.85835   30.822
 5573.00    0.88619   0.85893   30.802
 5574.00    0.88645   0.86152   31.318
 5575.00    0.88523   0.86312   31.627
 5576.00    0.88140   0.86415   31.566
 5577.00    0.87624   0.86685   31.679
 5578.00    0.87181   0.86936   31.996
 5579.00    0.87004   0.87032   32.005
 5580.00    0.87150   0.87106   31.712
 5581.00    0.87534   0.87099   31.632
 5582.00    0.87989   0.86909   31.845
 5583.00    0.88317   0.86607   31.953
 5584.00    0.88365   0.86174   31.673
 5585.00    0.88038   0.85555   31.125
 5586.00    0.87277   0.84862   30.996
 5587.00    0.86136   0.84199   31.840
 5588.00    0.84987   0.83590   32.168
 5589.00    0.84378   0.83086   30.297
 5590.00    0.84547   0.82790   30.134
 5591.00    0.85342   0.82751   36.746
 5592.00    0.86322   0.82909   38.008
 5593.00    0.86989   0.83164   21.205
 5594.00    0.87246   0.83473   12.663
 5595.00    0.87328   0.83862   10.639
 5596.00    0.87371   0.84211   11.136
 5597.00    0.87384   0.84338   11.782
 5598.00    0.87412   0.84365   11.576
 5599.00    0.87497   0.84452   11.245
 5600.00    0.87510   0.84442   11.316
 5601.00    0.87290   0.84296   11.725
 5602.00    0.87002   0.84304   11.719
 5603.00    0.86998   0.84573   10.875
 5604.00    0.87366   0.84960   10.874
 5605.00    0.87986   0.85425   14.446
 5606.00    0.88835   0.86034   26.815
 5607.00    0.89872   0.86739   41.656
 5608.00    0.90713   0.87367   34.199
 5609.00    0.90904   0.87827   29.531
 5610.00    0.90528   0.88085   30.933
 5611.00    0.90017   0.88123   32.634
 5612.00    0.89570   0.87971   32.255
 5613.00    0.89128   0.87638   31.633
 5614.00    0.88518   0.87078   31.702
 5615.00    0.87632   0.86427   32.188
 5616.00    0.86663   0.85929   32.613
 5617.00    0.85917   0.85527   32.634
 5618.00    0.85418   0.85125   32.428
 5619.00    0.85036   0.84925   32.385
 5620.00    0.84788   0.84977   32.507
 5621.00    0.84730   0.85058   32.572
 5622.00    0.84719   0.85087   32.515
 5623.00    0.84587   0.85088   32.423
 5624.00    0.84471   0.85088   32.400
 5625.00    0.84603   0.85152   32.491
 5626.00    0.84912   0.85246   32.601
 5627.00    0.85210   0.85314   32.570
 5628.00    0.85539   0.85507   32.314
 5629.00    0.86058   0.85890   31.906
 5630.00    0.86818   0.86254   31.629
 5631.00    0.87706   0.86515   31.667
 5632.00    0.88431   0.86742   31.739
 5633.00    0.88709   0.86867   31.501
 5634.00    0.88522   0.86828   31.158
 5635.00    0.88033   0.86672   31.058
 5636.00    0.87430   0.86419   31.131
 5637.00    0.86851   0.86094   31.151
 5638.00    0.86315   0.85816   31.132
 5639.00    0.85811   0.85593   31.194
 5640.00    0.85401   0.85362   31.327
 5641.00    0.85154   0.85216   31.438
 5642.00    0.85034   0.85236   31.443
 5643.00    0.84992   0.85301   31.327
 5644.00    0.85072   0.85357   31.197
 5645.00    0.85375   0.85509   31.082
 5646.00    0.85988   0.85722   30.748
 5647.00    0.86829   0.85906   30.061
 5648.00    0.87518   0.86065   29.337
 5649.00    0.87731   0.86198   28.892
 5650.00    0.87570   0.86280   28.665
 5651.00    0.87336   0.86310   28.503
 5652.00    0.87220   0.86286   28.442
 5653.00    0.87223   0.86136   28.522
 5654.00    0.87117   0.85834   28.600
 5655.00    0.86684   0.85511   28.590
 5656.00    0.85946   0.85189   28.707
 5657.00    0.85065   0.84671   29.154
 5658.00    0.84218   0.84077   29.823
 5659.00    0.83566   0.83767   30.470
 5660.00    0.83233   0.83602   30.945
 5661.00    0.83253   0.83327   31.192
 5662.00    0.83536   0.83233   31.225
 5663.00    0.83938   0.83491   31.177
 5664.00    0.84342   0.83783   31.302
 5665.00    0.84672   0.83978   31.696
 5666.00    0.84911   0.84251   32.073
 5667.00    0.85078   0.84614   32.155
 5668.00    0.85223   0.84939   32.045
 5669.00    0.85445   0.85210   31.994
 5670.00    0.85885   0.85463   32.160
 5671.00    0.86580   0.85742   32.490
 5672.00    0.87353   0.86083   32.661
 5673.00    0.87912   0.86413   32.520
 5674.00    0.87976   0.86649   32.383
 5675.00    0.87559   0.86847   32.513
 5676.00    0.87114   0.87050   32.763
 5677.00    0.86954   0.87124   32.923
 5678.00    0.86883   0.86995   32.971
 5679.00    0.86694   0.86825   32.942
 5680.00    0.86493   0.86661   32.817
 5681.00    0.86402   0.86354   32.638
 5682.00    0.86340   0.85937   32.557
 5683.00    0.86133   0.85608   32.646
 5684.00    0.85630   0.85351   32.792
 5685.00    0.84908   0.85061   32.888
 5686.00    0.84343   0.84837   32.953
 5687.00    0.84196   0.84772   33.025
 5688.00    0.84384   0.84817   33.089
 5689.00    0.84740   0.84929   33.089
 5690.00    0.85180   0.85107   32.969
 5691.00    0.85644   0.85366   32.776
 5692.00    0.86058   0.85700   32.691
 5693.00    0.86404   0.86004   32.796
 5694.00    0.86729   0.86190   32.972
 5695.00    0.87015   0.86328   33.064
 5696.00    0.87124   0.86387   32.989
 5697.00    0.86956   0.86257   32.825
 5698.00    0.86528   0.86016   32.791
 5699.00    0.85903   0.85784   32.936
 5700.00    0.85147   0.85486   33.046
 5701.00    0.84368   0.85084   32.987
 5702.00    0.83716   0.84743   32.868
 5703.00    0.83350   0.84477   32.846
 5704.00    0.83372   0.84150   33.002
 5705.00    0.83610   0.83782   33.222
 5706.00    0.83618   0.83486   33.219
 5707.00    0.83178   0.83207   33.001
 5708.00    0.82502   0.82853   32.950
 5709.00    0.82022   0.82564   33.213
 5710.00    0.82179   0.82464   33.508
 5711.00    0.82987   0.82441   33.525
 5712.00    0.83957   0.82552   33.188
 5713.00    0.84623   0.82943   32.775
 5714.00    0.84801   0.83419   32.769
 5715.00    0.84676   0.83922   33.199
 5716.00    0.84702   0.84570   33.536
 5717.00    0.85048   0.85187   33.510
 5718.00    0.85493   0.85695   33.376
 5719.00    0.85874   0.86194   33.314
 5720.00    0.86236   0.86619   33.238
 5721.00    0.86620   0.86937   33.047
 5722.00    0.86986   0.87211   32.737
 5723.00    0.87258   0.87386   32.463
 5724.00    0.87355   0.87467   32.450
 5725.00    0.87276   0.87509   32.647
 5726.00    0.87098   0.87441   32.726
 5727.00    0.86884   0.87277   32.586
 5728.00    0.86659   0.87153   32.391
 5729.00    0.86466   0.87035   32.030
 5730.00    0.86362   0.86855   31.186
 5731.00    0.86357   0.86740   30.079
 5732.00    0.86425   0.86756   29.315
 5733.00    0.86638   0.86784   29.067
 5734.00    0.87107   0.86780   29.115
 5735.00    0.87693   0.86841   29.379
 5736.00    0.88045   0.86953   29.963
 5737.00    0.88040   0.87015   30.784
 5738.00    0.87827   0.87033   31.516
 5739.00    0.87563   0.87029   31.950
 5740.00    0.87323   0.87012    0.000
 5741.00    0.87115   0.86988    0.000
 5742.00    0.86915   0.86950    0.000
 5743.00    0.86745   0.86907    0.000
 5744.00    0.86670   0.86883    0.000
 5745.00    0.86685   0.86867    0.000
 5746.00    0.86715   0.86812    0.000
 5747.00    0.86660   0.86718    0.000
 5748.00    0.86445   0.86617    0.000
 5749.00    0.86089   0.86504    0.000
 5750.00    0.85706   0.86315    0.000
 5751.00    0.85447   0.86088    0.000
 5752.00    0.85423   0.85921    0.000
 5753.00    0.85546   0.85786    0.000
 5754.00    0.85623   0.85667    0.000
 5755.00    0.85651   0.85618    0.000
 5756.00    0.85786   0.85620    0.000
 5757.00    0.86099   0.85656    0.000
 5758.00    0.86500   0.85745    0.000
 5759.00    0.86701   0.85810    0.000
 5760.00    0.86396   0.85809    0.000
 5761.00    0.85676   0.85775    0.000
 5762.00    0.84968   0.85708    0.000
 5763.00    0.84700   0.85682    0.000
 5764.00    0.85120   0.85761    0.000
 5765.00    0.86055   0.85873    0.000
 5766.00    0.87063   0.86048    0.000
 5767.00    0.87822   0.86349    0.000
 5768.00    0.88189   0.86612    0.000
 5769.00    0.88155   0.86766    0.000
 5770.00    0.87819   0.86881    0.000
 5771.00    0.87355   0.86910    0.000
 5772.00    0.86933   0.86837    0.000
 5773.00    0.86600   0.86732    0.000
 5774.00    0.86336   0.86575    0.000
 5775.00    0.86205   0.86374    0.000
 5776.00    0.86261   0.86185    0.000
 5777.00    0.86351   0.85921    0.000
 5778.00    0.86210   0.85587    0.000
 5779.00    0.85695   0.85238    0.000
 5780.00    0.84834   0.84785    0.000
 5781.00    0.83858   0.84258    0.000
 5782.00    0.83046   0.83808    0.000
 5783.00    0.82492   0.83402    0.000
 5784.00    0.82190   0.83021    0.000
 5785.00    0.82215   0.82847    0.000
 5786.00    0.82662   0.82912    0.000
 5787.00    0.83490   0.83042    0.000
 5788.00    0.84506   0.83240    0.000
 5789.00    0.85367   0.83607    0.000
 5790.00    0.85800   0.83999    0.000
 5791.00    0.85881   0.84325    0.000
 5792.00    0.85879   0.84693    0.000
 5793.00    0.85959   0.84998    0.000
 5794.00    0.86170   0.85217    0.000
 5795.00    0.86473   0.85495    0.000
 5796.00    0.86774   0.85733    0.000
 5797.00    0.86968   0.85872    0.000
 5798.00    0.87059   0.86060    0.000
 5799.00    0.87278   0.86274    0.000
 5800.00    0.87832   0.86379    0.000
 5801.00    0.88568   0.86468    0.000
 5802.00    0.89097   0.86625    0.000
 5803.00    0.89022   0.86695    0.000
 5804.00    0.88262   0.86644    0.000
 5805.00    0.87383   0.86610    0.000
 5806.00    0.87059   0.86560    0.000
 5807.00    0.87420   0.86453    0.000
 5808.00    0.88123   0.86384    0.000
 5809.00    0.88553   0.86370    0.000
 5810.00    0.88331   0.86382    0.000
 5811.00    0.87791   0.86396    0.000
 5812.00    0.87454   0.86385    0.000
 5813.00    0.87421   0.86377    0.000
 5814.00    0.87553   0.86370    0.000
 5815.00    0.87736   0.86312    0.000
 5816.00    0.87915   0.86263    0.000
 5817.00    0.88106   0.86298    0.000
 5818.00    0.88355   0.86361    0.000
 5819.00    0.88688   0.86427    0.000
 5820.00    0.89056   0.86581    0.000
 5821.00    0.89292   0.86783    0.000
 5822.00    0.89306   0.86924    0.000
 5823.00    0.89233   0.87033    0.000
 5824.00    0.89238   0.87146    0.000
 5825.00    0.89334   0.87216    0.000
 5826.00    0.89464   0.87238    0.000
 5827.00    0.89591   0.87253    0.000
 5828.00    0.89641   0.87280    0.000
 5829.00    0.89477   0.87284    0.000
 5830.00    0.89053   0.87255    0.000
 5831.00    0.88530   0.87211    0.000
 5832.00    0.88102   0.87180    0.000
 5833.00    0.87851   0.87118    0.000
 5834.00    0.87736   0.87003    0.000
 5835.00    0.87615   0.86923    0.000
 5836.00    0.87396   0.86893    0.000
 5837.00    0.87144   0.86831    0.000
 5838.00    0.86970   0.86782    0.000
 5839.00    0.86949   0.86841    0.000
 5840.00    0.87107   0.86908    0.000
 5841.00    0.87419   0.86918    0.000
 5842.00    0.87770   0.86959    0.000
 5843.00    0.87958   0.86995    0.000
 5844.00    0.87852   0.86939    0.000
 5845.00    0.87476   0.86820    0.000
 5846.00    0.86871   0.86661    0.000
 5847.00    0.86027   0.86434   -2.000
 5848.00    0.85082   0.86162   -2.000
 5849.00    0.84394   0.85861   -2.000
 5850.00    0.84129   0.85521   -2.000
 5851.00    0.84062   0.85176   -2.000
 5852.00    0.84001   0.84808   -2.000
 5853.00    0.84000   0.84394   -2.000
 5854.00    0.84033   0.84015   -2.000
 5855.00    0.83840   0.83663   -2.000
 5856.00    0.83209   0.83288   -2.000
 5857.00    0.82156   0.83003   -2.000
 5858.00    0.80974   0.82873   -2.000
 5859.00    0.80174   0.82800   -2.000
 5860.00    0.80004   0.82786   -2.000
 5861.00    0.80276   0.82931   -2.000
 5862.00    0.80812   0.83150   -2.000
 5863.00    0.81620   0.83383   -2.000
 5864.00    0.82565   0.83672   -2.000
 5865.00    0.83293   0.83927   -2.000
 5866.00    0.83710   0.84136   -2.000
 5867.00    0.84136   0.84383    0.000
 5868.00    0.84872   0.84599    0.000
 5869.00    0.85970   0.84730    0.000
 5870.00    0.87263   0.84854    0.000
 5871.00    0.88445   0.84973    0.000
 5872.00    0.89399   0.84999    0.000
 5873.00    0.90270   0.84956    0.000
 5874.00    0.91177   0.84885    0.000
 5875.00    0.92067   0.84738    0.000
 5876.00    0.92699   0.84536    0.000
 5877.00    0.92716   0.84339    0.000
 5878.00    0.91966   0.84137    0.000
 5879.00    0.90600   0.83888    0.000
 5880.00    0.88919   0.83641    0.000
 5881.00    0.87261   0.83422    0.000
 5882.00    0.85836   0.83107    0.000
 5883.00    0.84667   0.82665    0.000
 5884.00    0.83665   0.82146    0.000
 5885.00    0.82677   0.81438    0.000
 5886.00    0.81587   0.80432    0.000
 5887.00    0.80364   0.79274    0.000
 5888.00    0.79099   0.77978    0.000
 5889.00    0.77977   0.76465    0.000
 5890.00    0.77147   0.75076    0.000
 5891.00    0.76669   0.73979    0.000
 5892.00    0.76516   0.72927    0.000
 5893.00    0.76579   0.72230    0.000
 5894.00    0.76700   0.72147    0.000
 5895.00    0.76750   0.72166    0.000
 5896.00    0.76838   0.72395    0.000
 5897.00    0.77250   0.73188    0.000
 5898.00    0.78045   0.74019    0.000
 5899.00    0.79036   0.74885    0.000
 5900.00    0.80119   0.76191    0.000
 5901.00    0.81297   0.77490   32.450
 5902.00    0.82426   0.78561   32.281
 5903.00    0.83225   0.79701   32.199
 5904.00    0.83512   0.80736   32.426
 5905.00    0.83312   0.81455   32.533
 5906.00    0.82943   0.82038   32.362
 5907.00    0.82851   0.82529   32.132
 5908.00    0.83098   0.82839   31.961
 5909.00    0.83403   0.83027   31.841
 5910.00    0.83610   0.83164   31.877
 5911.00    0.83760   0.83225   32.185
 5912.00    0.83930   0.83184   32.438
 5913.00    0.84158   0.83079   32.098
 5914.00    0.84349   0.82975   31.363
 5915.00    0.84359   0.82868   30.895
 5916.00    0.84234   0.82751   30.814
 5917.00    0.84136   0.82702   30.852
 5918.00    0.84013   0.82741   31.050
 5919.00    0.83709   0.82811   31.658
 5920.00    0.83375   0.82941   32.517
 5921.00    0.83362   0.83094   33.102
 5922.00    0.83781   0.83221   33.150
 5923.00    0.84472   0.83363   32.820
 5924.00    0.85159   0.83462   32.479
 5925.00    0.85557   0.83491   32.454
 5926.00    0.85538   0.83506   32.748
 5927.00    0.85110   0.83481   33.114
 5928.00    0.84299   0.83410   33.332
 5929.00    0.83206   0.83324   33.314
 5930.00    0.82147   0.83223   33.191
 5931.00    0.81532   0.83155   33.133
 5932.00    0.81582   0.83120   33.007
 5933.00    0.82237   0.83083   32.606
 5934.00    0.83096   0.83099   32.165
 5935.00    0.83640   0.83181   32.081
 5936.00    0.83637   0.83259   32.335
 5937.00    0.83213   0.83304   32.604
 5938.00    0.82822   0.83379   32.617
 5939.00    0.82921   0.83479   32.314
 5940.00    0.83436   0.83480   31.977
 5941.00    0.83973   0.83453   31.953
 5942.00    0.84323   0.83490   32.250
 5943.00    0.84475   0.83473   32.654
 5944.00    0.84509   0.83411   33.008
 5945.00    0.84516   0.83400   33.257
 5946.00    0.84499   0.83379   33.451
 5947.00    0.84432   0.83314   33.631
 5948.00    0.84360   0.83231   33.660
 5949.00    0.84316   0.83137   33.433
 5950.00    0.84195   0.83053   33.220
 5951.00    0.83876   0.82947   33.325
 5952.00    0.83438   0.82815   33.588
 5953.00    0.83055   0.82753   33.687
 5954.00    0.82802   0.82741   33.679
 5955.00    0.82662   0.82689   33.764
 5956.00    0.82559   0.82683   33.857
 5957.00    0.82462   0.82782   33.760
 5958.00    0.82493   0.82880   33.481
 5959.00    0.82810   0.82975   33.179
 5960.00    0.83428   0.83153   33.036
 5961.00    0.84192   0.83361   33.151
 5962.00    0.84783   0.83536   33.450
 5963.00    0.84916   0.83712   33.678
 5964.00    0.84585   0.83885   33.464
 5965.00    0.83990   0.84002   32.899
 5966.00    0.83412   0.84096   32.985
 5967.00    0.83097   0.84204   33.951
 5968.00    0.83128   0.84267   33.412
 5969.00    0.83415   0.84314   31.263
 5970.00    0.83719   0.84396   33.383
 5971.00    0.83810   0.84426   42.491
 5972.00    0.83649   0.84387   34.663
 5973.00    0.83329   0.84332   18.040
 5974.00    0.83001   0.84210   12.087
 5975.00    0.82816   0.83994   11.220
 5976.00    0.82861   0.83761   12.066
 5977.00    0.83095   0.83526   12.402
 5978.00    0.83298   0.83264   12.001
 5979.00    0.83276   0.83042   11.786
 5980.00    0.83055   0.82867   12.049
 5981.00    0.82787   0.82691   12.454
 5982.00    0.82623   0.82555   12.073
 5983.00    0.82639   0.82437   11.231
 5984.00    0.82770   0.82296   12.209
 5985.00    0.82889   0.82224   18.496
 5986.00    0.82883   0.82195   35.818
 5987.00    0.82692   0.82157   43.018
 5988.00    0.82340   0.82222   33.795
 5989.00    0.81970   0.82373   32.141
 5990.00    0.81839   0.82498   34.881
 5991.00    0.82109   0.82640   35.702
 5992.00    0.82681   0.82836   34.594
 5993.00    0.83359   0.82988   34.096
 5994.00    0.83985   0.83057   34.107
 5995.00    0.84496   0.83116   33.917
 5996.00    0.84939   0.83146   33.740
 5997.00    0.85351   0.83084   33.877
 5998.00    0.85664   0.82992   34.089
 5999.00    0.85723   0.82894   34.108
 6000.00    0.85341   0.82768   34.035
 6001.00    0.84547   0.82646   34.057
 6002.00    0.83720   0.82512   34.223
 6003.00    0.83158   0.82385   34.439
 6004.00    0.82811   0.82285   34.511
 6005.00    0.82510   0.82141   34.416
 6006.00    0.82155   0.82011   34.435
 6007.00    0.81746   0.81929   34.654
 6008.00    0.81393   0.81814   34.734
 6009.00    0.81213   0.81746   34.533
 6010.00    0.81266   0.81738   34.435
 6011.00    0.81533   0.81707   34.599
 6012.00    0.81912   0.81707   34.625
 6013.00    0.82239   0.81720   34.367
 6014.00    0.82336   0.81704   34.317
 6015.00    0.82194   0.81676   34.714
 6016.00    0.82031   0.81597   35.135
 6017.00    0.81986   0.81523   35.224
 6018.00    0.81974   0.81473   35.123
 6019.00    0.81887   0.81360   35.037
 6020.00    0.81723   0.81273   34.986
 6021.00    0.81580   0.81278   34.928
 6022.00    0.81618   0.81282   34.842
 6023.00    0.81850   0.81304   34.758
 6024.00    0.82074   0.81432   34.749
 6025.00    0.82153   0.81638   34.843
 6026.00    0.82137   0.81842   34.982
 6027.00    0.82170   0.82074   35.050
 6028.00    0.82400   0.82392   34.920
 6029.00    0.82833   0.82685   34.628
 6030.00    0.83303   0.82922   34.392
 6031.00    0.83744   0.83192   34.341
 6032.00    0.84246   0.83439   34.441
 6033.00    0.84738   0.83607   34.630
 6034.00    0.84937   0.83753   34.869
 6035.00    0.84772   0.83881   35.064
 6036.00    0.84503   0.83947   35.068
 6037.00    0.84353   0.83973   34.911
 6038.00    0.84357   0.83981   34.805
 6039.00    0.84403   0.83952   34.768
 6040.00    0.84319   0.83917   34.601
 6041.00    0.84129   0.83890   34.405
 6042.00    0.84068   0.83854   34.577
 6043.00    0.84244   0.83866   35.000
 6044.00    0.84544   0.83911   34.981
 6045.00    0.84802   0.83943   34.482
 6046.00    0.84888   0.84016   34.246
 6047.00    0.84767   0.84103   34.498
 6048.00    0.84516   0.84131   34.768
 6049.00    0.84296   0.84141   34.826
 6050.00    0.84262   0.84135   34.912
 6051.00    0.84283   0.84054   35.168
 6052.00    0.84012   0.83920   35.476
 6053.00    0.83495   0.83771   35.663
 6054.00    0.83157   0.83605   35.623
 6055.00    0.83057   0.83421   35.442
 6056.00    0.82842   0.83257   35.349
 6057.00    0.82435   0.83148   35.431
 6058.00    0.82120   0.83065   35.588
 6059.00    0.82081   0.82997   35.632
 6060.00    0.82276   0.82971   35.439
 6061.00    0.82520   0.82940   35.275
 6062.00    0.82599   0.82871   35.565
 6063.00    0.82496   0.82820   35.966
 6064.00    0.82371   0.82766   35.604
 6065.00    0.82290   0.82689   34.757
 6066.00    0.82207   0.82709   34.480
 6067.00    0.82116   0.82811   34.600
 6068.00    0.82094   0.82925   34.128
 6069.00    0.82268   0.83150   33.581
 6070.00    0.82736   0.83440   34.172
 6071.00    0.83389   0.83677   34.424
 6072.00    0.83953   0.83898   32.168
 6073.00    0.84212   0.84074   31.545
 6074.00    0.84082   0.84136   37.893
 6075.00    0.83644   0.84092   39.238
 6076.00    0.83102   0.83970   22.266
 6077.00    0.82688   0.83769   13.388
 6078.00    0.82552   0.83477   11.291
 6079.00    0.82593   0.83170   11.811
 6080.00    0.82551   0.82891   12.356
 6081.00    0.82307   0.82579   12.182
 6082.00    0.81928   0.82314   12.317
 6083.00    0.81597   0.82154   12.447
 6084.00    0.81502   0.82000   11.686
 6085.00    0.81651   0.81881   11.627
 6086.00    0.81903   0.81848   15.304
 6087.00    0.82111   0.81822   28.436
 6088.00    0.82162   0.81802   43.808
 6089.00    0.81992   0.81802   38.045
 6090.00    0.81608   0.81797   32.963
 6091.00    0.81108   0.81824   34.801
 6092.00    0.80653   0.81856   36.680
 6093.00    0.80384   0.81878   36.008
 6094.00    0.80394   0.81963   35.535
 6095.00    0.80698   0.82057   35.917
 6096.00    0.81237   0.82090   35.958
 6097.00    0.81894   0.82131   35.379
 6098.00    0.82506   0.82133   34.766
 6099.00    0.82889   0.81996   34.450
 6100.00    0.82912   0.81820   34.418
 6101.00    0.82602   0.81623   34.428
 6102.00    0.82104   0.81317   34.256
 6103.00    0.81575   0.81077   34.065
 6104.00    0.81128   0.80965   34.106
 6105.00    0.80770   0.80854   34.171
 6106.00    0.80506   0.80893   33.952
 6107.00    0.80510   0.81097   33.713
 6108.00    0.80917   0.81292   33.883
 6109.00    0.81485   0.81549   34.313
 6110.00    0.81851   0.81832   34.610
 6111.00    0.81981   0.82035   34.823
 6112.00    0.82073   0.82219   35.093
 6113.00    0.82292   0.82345   34.970
 6114.00    0.82651   0.82390   34.209
 6115.00    0.82914   0.82390   33.862
 6116.00    0.82814   0.82300   34.552
 6117.00    0.82378   0.82157   34.304
 6118.00    0.81805   0.81947   32.498
 6119.00    0.81250   0.81627   34.367
 6120.00    0.80777   0.81328   43.179
 6121.00    0.80340   0.81017   36.969
 6122.00    0.79912   0.80660   19.552
 6123.00    0.79626   0.80459   12.825
 6124.00    0.79647   0.80351   11.654
 6125.00    0.79976   0.80254   12.432
 6126.00    0.80454   0.80340   12.809
 6127.00    0.80795   0.80509   12.405
 6128.00    0.80782   0.80632   12.155
 6129.00    0.80480   0.80814   12.403
 6130.00    0.80130   0.80980   12.849
 6131.00    0.79990   0.81016   12.539
 6132.00    0.80168   0.80981   11.623
 6133.00    0.80475   0.80847   12.348
 6134.00    0.80591   0.80553   18.046
 6135.00    0.80277   0.80191   34.396
 6136.00    0.79494   0.79788   43.808
 6137.00    0.78495   0.79356   35.013
 6138.00    0.77683   0.79040   32.810
 6139.00    0.77430   0.78867   35.396
 6140.00    0.77826   0.78815   36.377
 6141.00    0.78470   0.78937   35.582
 6142.00    0.78931   0.79209   35.707
 6143.00    0.79190   0.79553   36.319
 6144.00    0.79431   0.79893   36.165
 6145.00    0.79806   0.80225   35.755
 6146.00    0.80353   0.80522   35.887
 6147.00    0.80948   0.80698   36.240
 6148.00    0.81421   0.80788   36.262
 6149.00    0.81666   0.80838   36.059
 6150.00    0.81644   0.80817   35.960
 6151.00    0.81379   0.80749   36.071
 6152.00    0.80953   0.80680   36.266
 6153.00    0.80482   0.80602   36.235
 6154.00    0.80043   0.80465   35.856
 6155.00    0.79615   0.80287   35.444
 6156.00    0.79169   0.80074   35.264
 6157.00    0.78740   0.79732   35.222
 6158.00    0.78381   0.79282   35.120
 6159.00    0.78113   0.78790   34.864
 6160.00    0.77840   0.78199   34.425
 6161.00    0.77324   0.77565   33.825
 6162.00    0.76487   0.77005   33.377
 6163.00    0.75603   0.76522   33.644
 6164.00    0.75052   0.76166   34.132
 6165.00    0.75102   0.75987   32.923
 6166.00    0.75725   0.75935   31.555
 6167.00    0.76523   0.76033   35.809
 6168.00    0.77134   0.76224   43.808
 6169.00    0.77473   0.76408   31.674
 6170.00    0.77578   0.76659   17.065
 6171.00    0.77491   0.76956   12.442
 6172.00    0.77305   0.77202   12.174
 6173.00    0.77176   0.77484   13.137
 6174.00    0.77229   0.77828   13.284
 6175.00    0.77498   0.78143   12.812
 6176.00    0.77877   0.78436   12.616
 6177.00    0.78143   0.78748   12.906
 6178.00    0.78231   0.79043   13.189
 6179.00    0.78344   0.79275   12.512
 6180.00    0.78633   0.79473   11.764
 6181.00    0.79033   0.79669   13.567
 6182.00    0.79417   0.79786   22.177
 6183.00    0.79683   0.79820   41.629
 6184.00    0.79803   0.79828   42.625
 6185.00    0.79817   0.79734   34.274
 6186.00    0.79736   0.79539   34.269
 6187.00    0.79495   0.79311   37.121
 6188.00    0.79029   0.78998   37.274
 6189.00    0.78316   0.78672   36.422
 6190.00    0.77472   0.78395   36.576
 6191.00    0.76752   0.78114   36.526
 6192.00    0.76388   0.77963   35.342
 6193.00    0.76491   0.77944   33.762
 6194.00    0.76997   0.77966   32.352
 6195.00    0.77675   0.78128   31.027
 6196.00    0.78289   0.78357   29.849
 6197.00    0.78680   0.78564   29.160
 6198.00    0.78818   0.78797   29.254
 6199.00    0.78780   0.78992   30.289
 6200.00    0.78582   0.79146   32.012
 6201.00    0.78170   0.79298   33.552
 6202.00    0.77669   0.79425   34.309
 6203.00    0.77405   0.79562   34.569
 6204.00    0.77561   0.79703   34.771
 6205.00    0.78060   0.79827   35.098
 6206.00    0.78667   0.79937   35.531
 6207.00    0.79097   0.79983   35.941
 6208.00    0.79244   0.79962   36.330
 6209.00    0.79212   0.79868   36.840
 6210.00    0.79094   0.79647   37.378
 6211.00    0.78890   0.79354   37.610
 6212.00    0.78544   0.78999   37.611
 6213.00    0.77978   0.78551   37.806
 6214.00    0.77201   0.78121   37.863
 6215.00    0.76332   0.77718   36.820
 6216.00    0.75580   0.77325   34.875
 6217.00    0.75171   0.77052   33.146
 6218.00    0.75137   0.76862   31.984
 6219.00    0.75310   0.76731   31.152
 6220.00    0.75525   0.76714   30.801
 6221.00    0.75687   0.76740   31.373
 6222.00    0.75749   0.76803   32.639
 6223.00    0.75706   0.76905   33.611
 6224.00    0.75583   0.76971   33.897
 6225.00    0.75425   0.77038   34.012
 6226.00    0.75282   0.77062   34.160
 6227.00    0.75183   0.76983   34.126
 6228.00    0.75073   0.76896   34.173
 6229.00    0.74868   0.76756   34.891
 6230.00    0.74618   0.76543   36.060
 6231.00    0.74477   0.76411   36.698
 6232.00    0.74487   0.76318   36.666
 6233.00    0.74557   0.76242   36.734
 6234.00    0.74571   0.76296   37.113
 6235.00    0.74433   0.76393   37.404
 6236.00    0.74117   0.76465   37.518
 6237.00    0.73650   0.76540   37.710
 6238.00    0.73066   0.76571   38.005
 6239.00    0.72434   0.76502   38.227
 6240.00    0.71940   0.76345   38.446
 6241.00    0.71814   0.76191   38.844
 6242.00    0.72105   0.75989   39.129
 6243.00    0.72657   0.75748   38.718
 6244.00    0.73191   0.75628   37.574
 6245.00    0.73448   0.75532   36.136
 6246.00    0.73442   0.75444   34.741
 6247.00    0.73400   0.75499   33.562
 6248.00    0.73505   0.75558   32.721
 6249.00    0.73825   0.75581   32.358
 6250.00    0.74280   0.75658   32.732
 6251.00    0.74712   0.75658   33.981
 6252.00    0.75027   0.75555   35.423
 6253.00    0.75264   0.75445   36.026
 6254.00    0.75656   0.75269   36.412
 6255.00    0.76323   0.75042   37.180
 6256.00    0.76683   0.74874   -2.000
 6257.00    0.75806   0.74762   -2.000
 6258.00    0.73282   0.74693   -2.000
 6259.00    0.69594   0.74759   -2.000
 6260.00    0.66457   0.74953   -2.000
 6261.00    0.65797   0.75181   -2.000
 6262.00    0.67892   0.75504   -2.000
 6263.00    0.71533   0.75886   -2.000
 6264.00    0.74882   0.76219   -2.000
 6265.00    0.76465   0.76538   -2.000
 6266.00    0.76505   0.76830   -2.000
 6267.00    0.76182   0.77040   -2.000
 6268.00    0.76083   0.77206   32.311
 6269.00    0.76206   0.77351   32.240
 6270.00    0.76374   0.77458   33.907
 6271.00    0.76416   0.77542   35.719
 6272.00    0.76355   0.77642   36.804
 6273.00    0.76325   0.77726   37.382
 6274.00    0.76402   0.77774   37.676
 6275.00    0.76568   0.77832   37.787
 6276.00    0.76708   0.77858   37.862
 6277.00    0.76702   0.77824   37.910
 6278.00    0.76566   0.77799   37.573
 6279.00    0.76367   0.77746   36.646
 6280.00    0.76096   0.77669    0.000
 6281.00    0.75733   0.77653    0.000
 6282.00    0.75364   0.77645    0.000
 6283.00    0.75099   0.77680    0.000
 6284.00    0.74954   0.77801    0.000
 6285.00    0.74885   0.77924    0.000
 6286.00    0.74858   0.78090    0.000
 6287.00    0.74891   0.78267    0.000
 6288.00    0.75089   0.78395    0.000
 6289.00    0.75519   0.78510    0.000
 6290.00    0.76061   0.78543    0.000
 6291.00    0.76523   0.78513    0.000
 6292.00    0.76790   0.78443    0.000
 6293.00    0.76877   0.78282    0.000
 6294.00    0.76956   0.78101    0.000
 6295.00    0.77253   0.77893    0.000
 6296.00    0.77922   0.77646    0.000
 6297.00    0.79095   0.77428    0.000
 6298.00    0.80910   0.77204    0.000
 6299.00    0.83232   0.76996    0.000
 6300.00    0.85401   0.76858    0.000
 6301.00    0.86718   0.76754    0.000
 6302.00    0.86941   0.76700    0.000
 6303.00    0.86186   0.76741    0.000
 6304.00    0.84769   0.76845    0.000
 6305.00    0.83077   0.76990    0.000
 6306.00    0.81451   0.77191    0.000
 6307.00    0.80172   0.77409    0.000
 6308.00    0.79445   0.77594    0.000
 6309.00    0.79302   0.77746    0.000
 6310.00    0.79524   0.77841    0.000
 6311.00    0.79804   0.77828    0.000
 6312.00    0.79893   0.77730    0.000
 6313.00    0.79631   0.77595    0.000
 6314.00    0.78966   0.77372    0.000
 6315.00    0.78009   0.77100    0.000
 6316.00    0.77049   0.76883    0.000
 6317.00    0.76402   0.76669    0.000
 6318.00    0.76263   0.76498    0.000
 6319.00    0.76491   0.76453    0.000
 6320.00    0.76544   0.76468    0.000
 6321.00    0.76135   0.76580   28.064
 6322.00    0.75671   0.76799   23.619
 6323.00    0.75689   0.77047   21.055
 6324.00    0.76409   0.77325   19.901
 6325.00    0.77701   0.77631   19.901
 6326.00    0.79116   0.77907   21.398
 6327.00    0.80129   0.78109   24.861
 6328.00    0.80342   0.78284   29.939
 6329.00    0.79792   0.78402   34.864
 6330.00    0.79048   0.78418   37.569
 6331.00    0.78564   0.78405   37.830
 6332.00    0.78287   0.78311   37.486
 6333.00    0.77996   0.78146   37.713
 6334.00    0.77540   0.77987   37.921
 6335.00    0.76874   0.77766   37.593
 6336.00    0.76077   0.77531   37.295
 6337.00    0.75399   0.77363   37.313
 6338.00    0.75225   0.77204   37.059
 6339.00    0.75674   0.77088   36.386
 6340.00    0.76429   0.77037   36.085
 6341.00    0.77123   0.76986   36.528
 6342.00    0.77561   0.76983   37.143
 6343.00    0.77672   0.76979   37.339
 6344.00    0.77473   0.76928   37.093
 6345.00    0.77039   0.76936   36.689
 6346.00    0.76501   0.76949   36.459
 6347.00    0.76064   0.76958   36.587
 6348.00    0.75975   0.77039   37.041
 6349.00    0.76309   0.77136   37.649
 6350.00    0.76888   0.77257   38.148
 6351.00    0.77451   0.77379   38.409
 6352.00    0.77772   0.77434   38.535
 6353.00    0.77769   0.77463   38.619
 6354.00    0.77534   0.77419   38.646
 6355.00    0.77219   0.77249   38.608
 6356.00    0.76956   0.77031   38.545
 6357.00    0.76780   0.76764   38.465
 6358.00    0.76619   0.76430   38.328
 6359.00    0.76408   0.76094   38.150
 6360.00    0.76162   0.75784   38.010
 6361.00    0.76049   0.75520   37.919
 6362.00    0.76344   0.75340   37.797
 6363.00    0.77097   0.75243   37.625
 6364.00    0.78058   0.75249   37.486
 6365.00    0.78921   0.75382   37.487
 6366.00    0.79455   0.75590   37.696
 6367.00    0.79540   0.75842   38.054
 6368.00    0.79198   0.76155   38.369
 6369.00    0.78610   0.76485   38.485
 6370.00    0.78062   0.76796   38.368
 6371.00    0.77716   0.77084   38.117
 6372.00    0.77549   0.77346   37.908
 6373.00    0.77491   0.77587   37.854
 6374.00    0.77487   0.77784   37.973
 6375.00    0.77537   0.77924   38.254
 6376.00    0.77689   0.78034   38.641
 6377.00    0.77930   0.78097   38.890
 6378.00    0.78182   0.78095   38.696
 6379.00    0.78371   0.78066   38.270
 6380.00    0.78453   0.78008   38.194
 6381.00    0.78408   0.77928   38.470
 6382.00    0.78235   0.77874   38.543
 6383.00    0.77972   0.77824   38.275
 6384.00    0.77671   0.77792   38.051
 6385.00    0.77354   0.77804   38.066
 6386.00    0.77026   0.77817   38.211
 6387.00    0.76787   0.77826   38.311
 6388.00    0.76796   0.77845   38.236
 6389.00    0.77053   0.77822   37.994
 6390.00    0.77379   0.77734   37.714
 6391.00    0.77537   0.77646   37.501
 6392.00    0.77346   0.77532   37.422
 6393.00    0.76900   0.77353   37.580
 6394.00    0.76510   0.77210   38.035
 6395.00    0.76405   0.77104   38.521
 6396.00    0.76606   0.76984   38.604
 6397.00    0.76819   0.76905   38.359
 6398.00    0.76639   0.76890   38.282
 6399.00    0.76075   0.76883   38.644
 6400.00    0.75514   0.76899   39.328
 6401.00    0.75282   0.76968   39.771
 6402.00    0.75520   0.77024   39.387
 6403.00    0.76132   0.77129   38.668
 6404.00    0.76860   0.77252   38.598
 6405.00    0.77482   0.77280   39.100
 6406.00    0.77865   0.77368   39.337
 6407.00    0.77959   0.77425   39.100
 6408.00    0.77787   0.77329   38.805
 6409.00    0.77400   0.77289   38.662
 6410.00    0.76887   0.77234   38.599
 6411.00    0.76398   0.77109   38.458
 6412.00    0.76057   0.77047   38.156
 6413.00    0.75780   0.76971   37.887
 6414.00    0.75403   0.76914   37.904
 6415.00    0.74984   0.76919   38.063
 6416.00    0.74732   0.76871   38.038
 6417.00    0.74741   0.76831   37.900
 6418.00    0.74950   0.76844   37.912
 6419.00    0.75155   0.76830   37.941
 6420.00    0.75133   0.76841   37.646
 6421.00    0.74836   0.76899   37.025
 6422.00    0.74422   0.76985   36.303
 6423.00    0.74218   0.77135   35.606
 6424.00    0.74506   0.77314   35.008
 6425.00    0.75180   0.77496   34.687
 6426.00    0.75860   0.77665   34.757
 6427.00    0.76187   0.77775   34.970
 6428.00    0.75987   0.77832   35.001
 6429.00    0.75447   0.77820   35.001
 6430.00    0.74944   0.77718   35.308
 6431.00    0.74730   0.77597   35.868
 6432.00    0.74829   0.77467   36.388
 6433.00    0.74956   0.77325   36.767
 6434.00    0.74790   0.77251   37.199
 6435.00    0.74380   0.77182   38.170
 6436.00    0.73999   0.77117   39.442
 6437.00    0.73845   0.77164   38.510
 6438.00    0.73957   0.77202   35.470
 6439.00    0.74179   0.77231   36.984
 6440.00    0.74332   0.77340   43.808
 6441.00    0.74449   0.77453   41.526
 6442.00    0.74676   0.77607   21.340
 6443.00    0.75083   0.77768   13.667
 6444.00    0.75659   0.77870   12.261
 6445.00    0.76317   0.77978   13.010
 6446.00    0.76888   0.77975   13.403
 6447.00    0.77127   0.77839   13.003
 6448.00    0.76862   0.77680   12.778
 6449.00    0.76183   0.77413   13.095
 6450.00    0.75335   0.77106   13.657
 6451.00    0.74561   0.76847   13.469
 6452.00    0.74030   0.76586   12.595
 6453.00    0.73771   0.76427   13.418
 6454.00    0.73733   0.76358   19.591
 6455.00    0.73861   0.76321   36.800
 6456.00    0.74141   0.76392   43.808
 6457.00    0.74632   0.76496   33.698
 6458.00    0.75321   0.76577   30.571
 6459.00    0.75990   0.76649   32.510
 6460.00    0.76403   0.76705   34.255
 6461.00    0.76506   0.76750   34.818
 6462.00    0.76350   0.76754   35.682
 6463.00    0.75993   0.76773   36.537
 6464.00    0.75556   0.76803   36.521
 6465.00    0.75263   0.76835   36.222
 6466.00    0.75273   0.76933   36.482
 6467.00    0.75518   0.77027   37.159
 6468.00    0.75807   0.77112   37.755
 6469.00    0.75953   0.77256   38.104
 6470.00    0.75871   0.77379   38.260
 6471.00    0.75650   0.77418   38.293
 6472.00    0.75407   0.77454   38.277
 6473.00    0.75164   0.77493   38.291
 6474.00    0.74904   0.77481   38.379
 6475.00    0.74625   0.77471   38.519
 6476.00    0.74407   0.77454   38.690
 6477.00    0.74440   0.77414   38.907
 6478.00    0.74811   0.77369   39.076
 6479.00    0.75349   0.77279   38.914
 6480.00    0.75777   0.77155   38.357
 6481.00    0.75867   0.77027   37.807
 6482.00    0.75647   0.76893   37.598
 6483.00    0.75497   0.76746   37.692
 6484.00    0.75695   0.76613   37.921
 6485.00    0.76099   0.76527   38.175
 6486.00    0.76384   0.76436   38.412
 6487.00    0.76255   0.76303   38.628
 6488.00    0.75636   0.76147   38.564
 6489.00    0.74761   0.75932   37.647
 6490.00    0.73876   0.75581   35.955
 6491.00    0.73047   0.75071   34.441
 6492.00    0.72272   0.74484   33.725
 6493.00    0.71571   0.73829   33.776
 6494.00    0.71045   0.73125   34.455
 6495.00    0.70865   0.72509   35.733
 6496.00    0.70964   0.71975   37.388
 6497.00    0.70943   0.71654   38.753
 6498.00    0.70624   0.71597   39.260
 6499.00    0.70326   0.71677   38.983
 6500.00    0.70396   0.72025   38.294
 6501.00    0.70921   0.72551   37.520
 6502.00    0.71763   0.73140   36.892
 6503.00    0.72629   0.73818   36.548
 6504.00    0.73287   0.74434   36.564
 6505.00    0.73676   0.74981   36.954
 6506.00    0.73844   0.75476   37.654
 6507.00    0.73902   0.75853   38.458
 6508.00    0.73950   0.76124   38.864
 6509.00    0.74034   0.76304   38.183
 6510.00    0.74095   0.76407   36.507
 6511.00    0.74000   0.76446   34.767
 6512.00    0.73766   0.76415   33.591
 6513.00    0.73617   0.76324   33.115
 6514.00    0.73700   0.76214   33.470
 6515.00    0.73951   0.76075   34.883
 6516.00    0.74186   0.75925   37.028
 6517.00    0.74189   0.75799   38.541
 6518.00    0.73971   0.75691   38.361
 6519.00    0.73797   0.75641   36.919
 6520.00    0.73828   0.75630   35.228
 6521.00    0.73996   0.75655   34.073
 6522.00    0.74202   0.75754   33.732
 6523.00    0.74390   0.75831   34.095
 6524.00    0.74490   0.75889   34.933
 6525.00    0.74418   0.75970   35.948
 6526.00    0.74210   0.75997   36.850
 6527.00    0.74030   0.75982   37.425
 6528.00    0.74007   0.75933    0.000
 6529.00    0.74154   0.75860    0.000
 6530.00    0.74283   0.75800    0.000
 6531.00    0.74084   0.75717    0.000
 6532.00    0.73536   0.75640    0.000
 6533.00    0.72967   0.75593    0.000
 6534.00    0.72752   0.75546    0.000
 6535.00    0.73125   0.75521    0.000
 6536.00    0.73978   0.75511    0.000
 6537.00    0.74889   0.75484    0.000
 6538.00    0.75474   0.75450    0.000
 6539.00    0.75549   0.75389    0.000
 6540.00    0.75253   0.75294    0.000
 6541.00    0.74994   0.75155    0.000
 6542.00    0.75151   0.74922    0.000
 6543.00    0.76044   0.74615    0.000
 6544.00    0.78185   0.74296    0.000
 6545.00    0.82171   0.73934    0.000
 6546.00    0.88156   0.73526    0.000
 6547.00    0.95580   0.73117    0.000
 6548.00    1.02901   0.72698    0.000
 6549.00    1.07959   0.72307    0.000
 6550.00    1.09256   0.71909    0.000
 6551.00    1.06370   0.71437    0.000
 6552.00    1.00034   0.70947    0.000
 6553.00    0.91942   0.70404    0.000
 6554.00    0.84170   0.69749    0.000
 6555.00    0.78655   0.68971    0.000
 6556.00    0.76302   0.68045    0.000
 6557.00    0.77738   0.67003    0.000
 6558.00    0.85794   0.65836    0.000
 6559.00    1.05485   0.64479    0.000
 6560.00    1.42253   0.63084    0.000
 6561.00    1.98451   0.61851    0.000
 6562.00    2.66174   0.60713    0.000
 6563.00    3.28829   0.59796    0.000
 6564.00    3.69048   0.59310    0.000
 6565.00    3.73835   0.59246    0.000
 6566.00    3.41695   0.59673    0.000
 6567.00    2.82486   0.60429    0.000
 6568.00    2.13225   0.61416    0.000
 6569.00    1.52363   0.62739    0.000
 6570.00    1.09740   0.64104    0.000
 6571.00    0.86023   0.65291    0.000
 6572.00    0.76327   0.66387    0.000
 6573.00    0.73445   0.67365    0.000
 6574.00    0.72738   0.68166    0.000
 6575.00    0.72456   0.68877    0.000
 6576.00    0.72335   0.69525    0.000
 6577.00    0.73011   0.70086    0.000
 6578.00    0.75464   0.70601    0.000
 6579.00    0.81052   0.71084    0.000
 6580.00    0.91723   0.71520    0.000
 6581.00    1.08919   0.71909    0.000
 6582.00    1.31517   0.72262    0.000
 6583.00    1.55711   0.72544    0.000
 6584.00    1.75556   0.72788    0.000
 6585.00    1.85010   0.73012    0.000
 6586.00    1.81255   0.73155    0.000
 6587.00    1.65329   0.73292    0.000
 6588.00    1.42116   0.73388    0.000
 6589.00    1.18248   0.73395    0.000
 6590.00    0.98703   0.73364    0.000
 6591.00    0.85881   0.73287    0.000
 6592.00    0.79116   0.73192    0.000
 6593.00    0.76068   0.73076    0.000
 6594.00    0.74960   0.72972    0.000
 6595.00    0.74731   0.72909    0.000
 6596.00    0.74730   0.72926    0.000
 6597.00    0.74644   0.73018    0.000
 6598.00    0.74441   0.73127    0.000
 6599.00    0.74237   0.73323    0.000
 6600.00    0.74112   0.73566    0.000
 6601.00    0.74069   0.73771    0.000
 6602.00    0.74019   0.73948    0.000
 6603.00    0.73870   0.74072    0.000
 6604.00    0.73647   0.74137    0.000
 6605.00    0.73413   0.74159    0.000
 6606.00    0.73157   0.74121    0.000
 6607.00    0.72866   0.74063    0.000
 6608.00    0.72633   0.74013    0.000
 6609.00    0.72564   0.73958   39.537
 6610.00    0.72652   0.73944   39.620
 6611.00    0.72888   0.73982   39.875
 6612.00    0.73395   0.74088   40.108
 6613.00    0.74262   0.74228   40.070
 6614.00    0.75337   0.74361   39.835
 6615.00    0.76346   0.74537   39.585
 6616.00    0.77054   0.74720   39.317
 6617.00    0.77325   0.74879   39.015
 6618.00    0.77168   0.74990   38.842
 6619.00    0.76705   0.75055   38.870
 6620.00    0.76135   0.75103   38.822
 6621.00    0.75665   0.75096   38.508
 6622.00    0.75435   0.75029   38.256
 6623.00    0.75456   0.74944   38.300
 6624.00    0.75571   0.74820   38.242
 6625.00    0.75554   0.74673   37.824
 6626.00    0.75243   0.74532   37.644
 6627.00    0.74693   0.74373   38.139
 6628.00    0.74287   0.74235   38.708
 6629.00    0.74350   0.74093   38.694
 6630.00    0.74810   0.73932   38.455
 6631.00    0.75371   0.73812   38.549
 6632.00    0.75716   0.73702   38.956
 6633.00    0.75662   0.73594   39.450
 6634.00    0.75261   0.73517   39.975
 6635.00    0.74659   0.73474   40.426
 6636.00    0.73972   0.73470   40.480
 6637.00    0.73335   0.73516   40.105
 6638.00    0.72939   0.73588   39.880
 6639.00    0.72932   0.73657   40.100
 6640.00    0.73327   0.73725   40.187
 6641.00    0.73982   0.73796   39.676
 6642.00    0.74609   0.73848   38.982
 6643.00    0.74944   0.73871   38.609
 6644.00    0.74880   0.73873   38.604
 6645.00    0.74495   0.73866   38.757
 6646.00    0.74031   0.73890   38.759
 6647.00    0.73721   0.73926   38.518
 6648.00    0.73651   0.73940   38.318
 6649.00    0.73751   0.73966   38.346
 6650.00    0.73825   0.74018   38.423
 6651.00    0.73760   0.74060   38.428
 6652.00    0.73653   0.74082   38.541
 6653.00    0.73607   0.74082   38.797
 6654.00    0.73598   0.74070   38.852
 6655.00    0.73538   0.74056   38.617
 6656.00    0.73333   0.74005   38.556
 6657.00    0.73014   0.73934   38.901
 6658.00    0.72784   0.73849   39.262
 6659.00    0.72808   0.73732   39.348
 6660.00    0.73082   0.73592   39.382
 6661.00    0.73425   0.73442   39.477
 6662.00    0.73535   0.73289   39.334
 6663.00    0.73320   0.73131   38.844
 6664.00    0.73040   0.73006   38.319
 6665.00    0.72999   0.72911   37.905
 6666.00    0.73334   0.72870   37.398
 6667.00    0.73914   0.72900   36.881
 6668.00    0.74357   0.72947   36.862
 6669.00    0.74449   0.73039   37.446
 6670.00    0.74312   0.73170   38.032
 6671.00    0.74124   0.73284   38.095
 6672.00    0.73975   0.73370   37.730
 6673.00    0.73921   0.73405   37.610
 6674.00    0.74011   0.73359   38.518
 6675.00    0.74254   0.73259   39.360
 6676.00    0.74607   0.73128   37.466
 6677.00    0.74998   0.72947   36.043
 6678.00    0.75337   0.72750   42.717
 6679.00    0.75549   0.72588   43.808
 6680.00    0.75600   0.72488   30.709
 6681.00    0.75527   0.72478   16.388
 6682.00    0.75433   0.72534   12.502
 6683.00    0.75403   0.72622   12.605
 6684.00    0.75458   0.72788   13.551
 6685.00    0.75540   0.72990   13.525
 6686.00    0.75528   0.73173   13.089
 6687.00    0.75348   0.73330   13.067
 6688.00    0.75016   0.73447   13.522
 6689.00    0.74632   0.73541   13.789
 6690.00    0.74348   0.73595   13.007
 6691.00    0.74250   0.73609   12.515
 6692.00    0.74312   0.73583   15.257
 6693.00    0.74408   0.73516   26.544
 6694.00    0.74367   0.73443   43.808
 6695.00    0.74154   0.73352   43.808
 6696.00    0.73896   0.73246    0.000
 6697.00    0.73707   0.73159    0.000
 6698.00    0.73626   0.73075    0.000
 6699.00    0.73600   0.73023    0.000
 6700.00    0.73533   0.73003    0.000
 6701.00    0.73459   0.72978    0.000
 6702.00    0.73531   0.72990    0.000
 6703.00    0.73769   0.73009    0.000
 6704.00    0.74049   0.73009    0.000
 6705.00    0.74296   0.73016    0.000
 6706.00    0.74519   0.73005    0.000
 6707.00    0.74703   0.72980    0.000
 6708.00    0.74814   0.72946    0.000
 6709.00    0.74906   0.72886    0.000
 6710.00    0.75200   0.72793    0.000
 6711.00    0.76219   0.72691    0.000
 6712.00    0.78803   0.72545    0.000
 6713.00    0.84053   0.72362    0.000
 6714.00    0.92873   0.72169    0.000
 6715.00    1.04821   0.71953    0.000
 6716.00    1.17899   0.71771    0.000
 6717.00    1.28908   0.71608    0.000
 6718.00    1.34354   0.71473    0.000
 6719.00    1.32460   0.71420    0.000
 6720.00    1.23697   0.71425    0.000
 6721.00    1.10695   0.71505    0.000
 6722.00    0.97308   0.71612    0.000
 6723.00    0.86428   0.71736    0.000
 6724.00    0.79443   0.71904    0.000
 6725.00    0.76315   0.72063    0.000
 6726.00    0.76190   0.72201    0.000
 6727.00    0.78736   0.72318    0.000
 6728.00    0.84088   0.72414    0.000
 6729.00    0.91977   0.72505    0.000
 6730.00    1.01368   0.72574    0.000
 6731.00    1.10110   0.72618    0.000
 6732.00    1.15573   0.72652    0.000
 6733.00    1.16126   0.72666    0.000
 6734.00    1.11569   0.72658    0.000
 6735.00    1.03319   0.72623    0.000
 6736.00    0.93815   0.72574    0.000
 6737.00    0.85244   0.72508    0.000
 6738.00    0.79029   0.72425    0.000
 6739.00    0.75375   0.72325    0.000
 6740.00    0.73601   0.72216    0.000
 6741.00    0.72956   0.72119    0.000
 6742.00    0.72838   0.72024    0.000
 6743.00    0.72897   0.71919    0.000
 6744.00    0.72988   0.71825    0.000
 6745.00    0.73037   0.71728    0.000
 6746.00    0.72997   0.71651    0.000
 6747.00    0.72801   0.71578    0.000
 6748.00    0.72448   0.71495    0.000
 6749.00    0.72150   0.71439    0.000
 6750.00    0.72131   0.71383    0.000
 6751.00    0.72288   0.71373    0.000
 6752.00    0.72347   0.71380    0.000
 6753.00    0.72209   0.71415   38.852
 6754.00    0.71953   0.71504   39.334
 6755.00    0.71760   0.71602   39.596
 6756.00    0.71790   0.71757   39.163
 6757.00    0.72047   0.71920   38.645
 6758.00    0.72412   0.72079   38.837
 6759.00    0.72742   0.72245   39.424
 6760.00    0.72934   0.72389   39.616
 6761.00    0.72991   0.72503   39.392
 6762.00    0.72960   0.72569   39.207
 6763.00    0.72843   0.72591   39.278
 6764.00    0.72608   0.72561   39.523
 6765.00    0.72240   0.72506   39.613
 6766.00    0.71797   0.72422   39.331
 6767.00    0.71475   0.72309   39.019
 6768.00    0.71426   0.72201   39.069
 6769.00    0.71535   0.72115   39.285
 6770.00    0.71638   0.72071   39.321
 6771.00    0.71808   0.72068   39.303
 6772.00    0.72167   0.72100   39.424
 6773.00    0.72627   0.72171   39.392
 6774.00    0.73000   0.72285   38.943
 6775.00    0.73172   0.72419   38.447
 6776.00    0.73185   0.72552   38.333
 6777.00    0.73285   0.72656   38.462
 6778.00    0.73609   0.72723   38.516
 6779.00    0.73855   0.72742   38.459
 6780.00    0.73646   0.72700   38.338
 6781.00    0.72958   0.72605   38.004
 6782.00    0.72030   0.72459   37.101
 6783.00    0.71217   0.72275   35.233
 6784.00    0.70784   0.72081   32.690
 6785.00    0.70737   0.71901   30.549
 6786.00    0.70934   0.71741   29.411
 6787.00    0.71220   0.71636   29.024
 6788.00    0.71471   0.71574   28.985
 6789.00    0.71620   0.71549   29.148
 6790.00    0.71711   0.71561   29.407
 6791.00    0.71925   0.71584   29.525
 6792.00    0.72305   0.71625   29.556
 6793.00    0.72557   0.71659   30.178
 6794.00    0.72410   0.71690   31.842
 6795.00    0.71958   0.71709   33.861
 6796.00    0.71501   0.71722   35.135
 6797.00    0.71372   0.71759   35.537
 6798.00    0.71706   0.71786   35.532
 6799.00    0.72290   0.71824   35.381
 6800.00    0.72831   0.71870   35.335
 6801.00    0.73184   0.71902   35.818
 6802.00    0.73308   0.71951   36.893
 6803.00    0.73206   0.71981   37.801
 6804.00    0.72888   0.71985   38.005
 6805.00    0.72359   0.71996   38.135
 6806.00    0.71735   0.71971   38.692
 6807.00    0.71297   0.71946   39.096
 6808.00    0.71214   0.71924   38.885
 6809.00    0.71381   0.71871   38.626
 6810.00    0.71673   0.71839   38.837
 6811.00    0.72113   0.71801   39.296
 6812.00    0.72659   0.71756   39.548
 6813.00    0.73076   0.71745   39.332
 6814.00    0.73108   0.71730   38.794
 6815.00    0.72633   0.71717   38.390
 6816.00    0.71873   0.71728   37.853
 6817.00    0.71430   0.71739   35.924
 6818.00    0.71634   0.71783   32.220
 6819.00    0.72203   0.71841   27.995
 6820.00    0.72846   0.71881   25.230
 6821.00    0.73560   0.71941   25.463
 6822.00    0.74200   0.71992   26.724
 6823.00    0.74335   0.72050   22.318
 6824.00    0.74123   0.72101   15.934
 6825.00    0.74594   0.72115   13.030
 6826.00    0.76296   0.72126   12.668
 6827.00    0.78654   0.72113   12.807
 6828.00    0.80841   0.72087   12.412
 6829.00    0.82296   0.72054   12.193
 6830.00    0.82773   0.72005   12.334
 6831.00    0.82361   0.71974   11.917
 6832.00    0.81543   0.71945   11.452
 6833.00    0.81041   0.71903   13.282
 6834.00    0.80910   0.71849   20.934
 6835.00    0.80337   0.71777   -1.000
 6836.00    0.78941   0.71685   35.873
 6837.00    0.77265   0.71567   30.466
 6838.00    0.75954   0.71411   30.804
 6839.00    0.75291   0.71229   32.966
 6840.00    0.74933   0.71059   33.149
 6841.00    0.74100   0.70894   32.987
 6842.00    0.72921   0.70771   33.671
 6843.00    0.72608   0.70694   33.494
 6844.00    0.73513   0.70671   31.829
 6845.00    0.74635   0.70727   30.267
 6846.00    0.75251   0.70819   29.641
 6847.00    0.75500   0.70944   29.685
 6848.00    0.75766   0.71076   30.110
 6849.00    0.76319   0.71189   30.879
 6850.00    0.76995   0.71289   31.981
 6851.00    0.77240   0.71338   33.286
 6852.00    0.76778   0.71335   34.389
 6853.00    0.75858   0.71298   34.667
 6854.00    0.75144   0.71218   33.995
 6855.00    0.75335   0.71108   32.915
 6856.00    0.75956   0.70988   32.033
 6857.00    0.75619   0.70854   31.697
 6858.00    0.74521   0.70752   31.696
 6859.00    0.74392   0.70687   31.501
 6860.00    0.75168   0.70635   31.409
 6861.00    0.74920   0.70621   32.356
 6862.00    0.73606   0.70620   33.977
 6863.00    0.73236   0.70639   34.338
 6864.00    0.74173   0.70689   33.309
 6865.00    0.74818   0.70740   32.745
 6866.00    0.74616   0.70788   32.676
 6867.00    0.74463   0.70805   31.616
 6868.00    0.74883   0.70800   30.086
 6869.00    0.75614   0.70791   29.828
 6870.00    0.76172   0.70786   30.336
 6871.00    0.76116   0.70789   29.858
 6872.00    0.75329   0.70787   30.775
 6873.00    0.74085   0.70790   38.352
 6874.00    0.73018   0.70802   43.366
 6875.00    0.72777   0.70839   25.995
 6876.00    0.73139   0.70889   15.398
 6877.00    0.73337   0.70933   12.720
 6878.00    0.73573   0.70969   13.169
 6879.00    0.74672   0.70992   13.754
 6880.00    0.76143   0.71014   13.305
 6881.00    0.76560   0.71012   12.879
 6882.00    0.75791   0.71008   13.058
 6883.00    0.74866   0.70995   13.620
 6884.00    0.74252   0.71005   13.744
 6885.00    0.73757   0.71048   12.939
 6886.00    0.73376   0.71110   12.909
 6887.00    0.73287   0.71210   16.591
 6888.00    0.73393   0.71310   28.825
 6889.00    0.73408   0.71437   43.808
 6890.00    0.73323   0.71574   38.707
 6891.00    0.73307   0.71698   33.992
 6892.00    0.73277   0.71802   35.106
 6893.00    0.73035   0.71873   36.059
 6894.00    0.72774   0.71923   34.567
 6895.00    0.72935   0.71946   33.022
 6896.00    0.73703   0.71955   32.383
 6897.00    0.74877   0.71947   32.287
 6898.00    0.75842   0.71938   32.641
 6899.00    0.75924   0.71938   33.570
 6900.00    0.75072   0.71941   34.796
 6901.00    0.73757   0.71951   35.467
 6902.00    0.72508   0.71971   34.470
 6903.00    0.71796   0.72001   31.690
 6904.00    0.71969   0.72052   28.823
 6905.00    0.73018   0.72094   27.260
 6906.00    0.74183   0.72122   26.962
 6907.00    0.74494   0.72150   27.479
 6908.00    0.73814   0.72157   28.815
 6909.00    0.72689   0.72159   31.142
 6910.00    0.71763   0.72127   33.790
 6911.00    0.71475   0.72058   35.337
 6912.00    0.71724   0.71981   35.604
 6913.00    0.72091   0.71885   35.579
 6914.00    0.72278   0.71782   35.635
 6915.00    0.72236   0.71697   35.647
 6916.00    0.72240   0.71612   35.721
 6917.00    0.72555   0.71564   36.042
 6918.00    0.72939   0.71552   36.478
 6919.00    0.72970   0.71536   36.750
 6920.00    0.72639   0.71555   36.804
 6921.00    0.72220   0.71567   36.680
 6922.00    0.71951   0.71582   36.222
 6923.00    0.71899   0.71599   35.383
 6924.00    0.71833   0.71577   34.579
 6925.00    0.71528   0.71560   34.163
 6926.00    0.71165   0.71523   33.863
 6927.00    0.71058   0.71505   33.399
 6928.00    0.71239   0.71499   33.259
 6929.00    0.71556   0.71513   33.898
 6930.00    0.71877   0.71539   34.679
 6931.00    0.72187   0.71554   34.312
 6932.00    0.72658   0.71594   32.138
 6933.00    0.73485   0.71623   29.012
 6934.00    0.74672   0.71674   26.690
 6935.00    0.75923   0.71709   25.996
 6936.00    0.76580   0.71747   26.510
 6937.00    0.76118   0.71792   27.671
 6938.00    0.74699   0.71813   29.669
 6939.00    0.72900   0.71831   32.807
 6940.00    0.71335   0.71821   35.967
 6941.00    0.70411   0.71815   37.277
 6942.00    0.70126   0.71789   37.165
 6943.00    0.70181   0.71739   37.147
 6944.00    0.70153   0.71674   37.330
 6945.00    0.69803   0.71589   37.286
 6946.00    0.69346   0.71524   37.163
 6947.00    0.69179   0.71459   37.202
 6948.00    0.69554   0.71422   37.193
 6949.00    0.70364   0.71403   36.938
 6950.00    0.71016   0.71382   36.702
 6951.00    0.71009   0.71366   36.685
 6952.00    0.70463   0.71363   36.571
 6953.00    0.69788   0.71364   36.207
 6954.00    0.69322   0.71391   36.124
 6955.00    0.69269   0.71427   36.491
 6956.00    0.69661   0.71473   36.326
 6957.00    0.70257   0.71541   35.312
 6958.00    0.70544   0.71613   34.988
 6959.00    0.70407   0.71708   35.687
 6960.00    0.70549   0.71791   34.758
 6961.00    0.71065   0.71879   32.728
 6962.00    0.70535   0.71956   35.740
 6963.00    0.68614   0.72030   43.808
 6964.00    0.67731   0.72095   34.896
 6965.00    0.69386   0.72133   19.197
 6966.00    0.71580   0.72159   13.679
 6967.00    0.72361   0.72175   13.071
 6968.00    0.72387   0.72171   13.919
 6969.00    0.72632   0.72158   14.049
 6970.00    0.72722   0.72128   13.711
 6971.00    0.72159   0.72044   13.759
 6972.00    0.71215   0.71932   14.058
 6973.00    0.70317   0.71760   14.259
 6974.00    0.69609   0.71566   14.359
 6975.00    0.69118   0.71362   14.454
 6976.00    0.68870   0.71115   14.523
 6977.00    0.68789   0.70875   14.542
 6978.00    0.68654   0.70656   14.565
 6979.00    0.68358   0.70494   14.627
 6980.00    0.68047   0.70417   14.696
 6981.00    0.67933   0.70409   14.721
 6982.00    0.68172   0.70516   14.669
 6983.00    0.68796   0.70687   14.536
 6984.00    0.69688   0.70880   14.350
 6985.00    0.70665   0.71100   14.151
 6986.00    0.71539   0.71303   13.978
 6987.00    0.72200   0.71506   13.850
 6988.00    0.72641   0.71670   13.766
 6989.00    0.72850   0.71774   13.727
 6990.00    0.72764   0.71850   13.743
 6991.00    0.72345   0.71883   13.823
 6992.00    0.71647   0.71902   13.957
 6993.00    0.70942   0.71911   14.096
 6994.00    0.70696   0.71893   14.145
 6995.00    0.71137   0.71859   14.057
 6996.00    0.72054   0.71800   13.878
 6997.00    0.72983   0.71732   13.702
 6998.00    0.73395   0.71663   13.625
 6999.00    0.73182   0.71566   13.664
 7000.00    0.72762   0.71457   13.743
 7001.00    0.72487   0.71336   -2.000
 7002.00    0.72387   0.71227   -2.000
 7003.00    0.72283   0.71153   -2.000
 7004.00    0.71926   0.71093   -2.000
 7005.00    0.71314   0.71045   -2.000
 7006.00    0.70750   0.70997   -2.000
 7007.00    0.70495   0.70983   -2.000
 7008.00    0.70601   0.70999   -2.000
 7009.00    0.70892   0.71030   -2.000
 7010.00    0.71063   0.71049   -2.000
 7011.00    0.71113   0.71041   -2.000
 7012.00    0.71360   0.71022   -2.000
 7013.00    0.71814   0.70982   -2.000
 7014.00    0.72075   0.70933   -2.000
 7015.00    0.71927   0.70880   -2.000
 7016.00    0.71511   0.70811   -2.000
 7017.00    0.71075   0.70743   -2.000
 7018.00    0.70829   0.70678   -2.000
 7019.00    0.70782   0.70659   -2.000
 7020.00    0.70755   0.70695   -2.000
 7021.00    0.70635   0.70735   -2.000
 7022.00    0.70441   0.70764   -2.000
 7023.00    0.70233   0.70785   -2.000
 7024.00    0.70082   0.70810   -2.000
 7025.00    0.70080   0.70842   -2.000
 7026.00    0.70305   0.70882   -2.000
 7027.00    0.70727   0.70935   -2.000
 7028.00    0.71219   0.71009   -2.000
 7029.00    0.71676   0.71081   -2.000
 7030.00    0.72009   0.71154   -2.000
 7031.00    0.71990   0.71243   -2.000
 7032.00    0.71455   0.71323   -2.000
 7033.00    0.70986   0.71396   -2.000
 7034.00    0.71413   0.71448   -2.000
 7035.00    0.71834   0.71500   -2.000
 7036.00    0.70444   0.71556   -2.000
 7037.00    0.68330   0.71618   -2.000
 7038.00    0.68536   0.71698   -2.000
 7039.00    0.70667   0.71796   -2.000
 7040.00    0.71500   0.71900   -2.000
 7041.00    0.70437   0.72054   -2.000
 7042.00    0.69543   0.72256   -2.000
 7043.00    0.69891   0.72458   -2.000
 7044.00    0.71035   0.72632   -2.000
 7045.00    0.72128   0.72766   -2.000
 7046.00    0.72480   0.72867   -2.000
 7047.00    0.72172   0.72918   -2.000
 7048.00    0.71822   0.72920   -2.000
 7049.00    0.71703   0.72867   -2.000
 7050.00    0.71666   0.72733   -2.000
 7051.00    0.71471   0.72544   -2.000
 7052.00    0.70961   0.72279   -2.000
 7053.00    0.70276   0.71985   -2.000
 7054.00    0.69735   0.71659   -2.000
 7055.00    0.69495   0.71314   -2.000
 7056.00    0.69514   0.71013   -2.000
 7057.00    0.69638   0.70730   -2.000
 7058.00    0.69711   0.70500   -2.000
 7059.00    0.69758   0.70303   -2.000
 7060.00    0.69891   0.70133   -2.000
 7061.00    0.70068   0.69998   -2.000
 7062.00    0.70134   0.69881   -2.000
 7063.00    0.69994   0.69803   -2.000
 7064.00    0.69659   0.69751   -2.000
 7065.00    0.69263   0.69707   -2.000
 7066.00    0.68960   0.69669   -2.000
 7067.00    0.68737   0.69642   -2.000
 7068.00    0.68495   0.69610   -2.000
 7069.00    0.68255   0.69612   -2.000
 7070.00    0.68118   0.69640   -2.000
 7071.00    0.68145   0.69706   -2.000
 7072.00    0.68323   0.69819   -2.000
 7073.00    0.68555   0.69936   -2.000
 7074.00    0.68712   0.70053   -2.000
 7075.00    0.68738   0.70164   -2.000
 7076.00    0.68669   0.70268   -2.000
 7077.00    0.68652   0.70339   -2.000
 7078.00    0.68832   0.70370   -2.000
 7079.00    0.69175   0.70338   -2.000
 7080.00    0.69513   0.70261   -2.000
 7081.00    0.69636   0.70125   -2.000
 7082.00    0.69409   0.69922   -2.000
 7083.00    0.68906   0.69673   -2.000
 7084.00    0.68321   0.69363   -2.000
 7085.00    0.67812   0.69023   -2.000
 7086.00    0.67435   0.68671   -2.000
 7087.00    0.67102   0.68334   -2.000
 7088.00    0.66715   0.68047   -2.000
 7089.00    0.66348   0.67784   -2.000
 7090.00    0.66122   0.67551   -2.000
 7091.00    0.66021   0.67382   -2.000
 7092.00    0.66008   0.67260   -2.000
 7093.00    0.66195   0.67191   -2.000
 7094.00    0.66623   0.67190   -2.000
 7095.00    0.66994   0.67196   -2.000
 7096.00    0.66976   0.67256   -2.000
 7097.00    0.66607   0.67329   -2.000
 7098.00    0.66199   0.67418   -2.000
 7099.00    0.66138   0.67545   -2.000
 7100.00    0.66507   0.67652   -2.000
 7101.00    0.66748   0.67787   -2.000
 7102.00    0.66406   0.67880   -2.000
 7103.00    0.65923   0.67965   -2.000
 7104.00    0.65953   0.68028   -2.000
 7105.00    0.66543   0.68064   -2.000
 7106.00    0.67204   0.68088   -2.000
 7107.00    0.67163   0.68082   -2.000
 7108.00    0.66371   0.68055   -2.000
 7109.00    0.66283   0.67998   -2.000
 7110.00    0.67653   0.67938   -2.000
 7111.00    0.68568   0.67887   -2.000
 7112.00    0.67464   0.67832   -2.000
 7113.00    0.65916   0.67784   -2.000
 7114.00    0.65770   0.67764   -2.000
 7115.00    0.66430   0.67765   -2.000
 7116.00    0.66702   0.67791   -2.000
 7117.00    0.66603   0.67801   -2.000
 7118.00    0.66649   0.67833   -2.000
 7119.00    0.67079   0.67853   -2.000
 7120.00    0.67736   0.67852   -2.000
 7121.00    0.68091   0.67844   -2.000
 7122.00    0.67850   0.67799   -2.000
 7123.00    0.67404   0.67758   -2.000
 7124.00    0.67206   0.67669   -2.000
 7125.00    0.67275   0.67569   -2.000
 7126.00    0.67429   0.67468   -2.000
 7127.00    0.67511   0.67335   -2.000
 7128.00    0.67486   0.67209   -2.000
 7129.00    0.67484   0.67095   -2.000
 7130.00    0.67655   0.67009   -2.000
 7131.00    0.68040   0.66946   -2.000
 7132.00    0.68472   0.66910   -2.000
 7133.00    0.68588   0.66915   -2.000
 7134.00    0.68337   0.66983   -2.000
 7135.00    0.68228   0.67079   -2.000
 7136.00    0.68500   0.67203   -2.000
 7137.00    0.68671   0.67334   -2.000
 7138.00    0.68470   0.67444   -2.000
 7139.00    0.68345   0.67558   -2.000
 7140.00    0.68542   0.67635   -2.000
 7141.00    0.68630   0.67687   -2.000
 7142.00    0.68414   0.67705   -2.000
 7143.00    0.68327   0.67698   -2.000
 7144.00    0.68152   0.67664   -2.000
 7145.00    0.66645   0.67597   -2.000
 7146.00    0.64092   0.67529   -2.000
 7147.00    0.63183   0.67454   -2.000
 7148.00    0.64993   0.67391   -2.000
 7149.00    0.67261   0.67354   -2.000
 7150.00    0.68088   0.67326   -2.000
 7151.00    0.67801   0.67371   -2.000
 7152.00    0.67223   0.67477   -2.000
 7153.00    0.66707   0.67596   -2.000
 7154.00    0.66402   0.67745   -2.000
 7155.00    0.66392   0.67891   -2.000
 7156.00    0.66574   0.68026   -2.000
 7157.00    0.66661   0.68128   -2.000
 7158.00    0.66542   0.68194   -2.000
 7159.00    0.66402   0.68248   -2.000
 7160.00    0.66432   0.68225   -2.000
 7161.00    0.66703   0.68166   -2.000
 7162.00    0.67248   0.68085   -2.000
 7163.00    0.68039   0.67995   -2.000
 7164.00    0.68662   0.67914   -2.000
 7165.00    0.68402   0.67842   -2.000
 7166.00    0.67224   0.67797   -2.000
 7167.00    0.65984   0.67802   -2.000
 7168.00    0.65372   0.67882   -2.000
 7169.00    0.65506   0.68017   -2.000
 7170.00    0.66193   0.68173   -2.000
 7171.00    0.67089   0.68327   -2.000
 7172.00    0.67838   0.68476   -2.000
 7173.00    0.68167   0.68608   -2.000
 7174.00    0.68028   0.68713   -2.000
 7175.00    0.67588   0.68768   -2.000
 7176.00    0.66954   0.68772   -2.000
 7177.00    0.66142   0.68727   -2.000
 7178.00    0.65355   0.68642   -2.000
 7179.00    0.64972   0.68539   -2.000
 7180.00    0.65100   0.68436   -2.000
 7181.00    0.65504   0.68306   -2.000
 7182.00    0.65954   0.68152   -2.000
 7183.00    0.66294   0.68012   -2.000
 7184.00    0.66257   0.67898   -2.000
 7185.00    0.65554   0.67809   -2.000
 7186.00    0.64377   0.67723   -2.000
 7187.00    0.63399   0.67617   -2.000
 7188.00    0.63191   0.67528   -2.000
 7189.00    0.63998   0.67422   -2.000
 7190.00    0.65649   0.67365   -2.000
 7191.00    0.67628   0.67359   -2.000
 7192.00    0.69379   0.67367   -2.000
 7193.00    0.70470   0.67431   -2.000
 7194.00    0.70823   0.67477   -2.000
 7195.00    0.70698   0.67549   -2.000
 7196.00    0.70491   0.67626   -2.000
 7197.00    0.70495   0.67719   -2.000
 7198.00    0.70463   0.67811   -2.000
 7199.00    0.69849   0.67861   -2.000
 7200.00    0.68815   0.67919   -2.000
 7201.00    0.68023   0.67948   -2.000
 7202.00    0.67410   0.67938   -2.000
 7203.00    0.66367   0.67913   -2.000
 7204.00    0.65058   0.67861   -2.000
 7205.00    0.64281   0.67812   -2.000
 7206.00    0.64254   0.67763   -2.000
 7207.00    0.64590   0.67693   -2.000
 7208.00    0.64976   0.67634   -2.000
 7209.00    0.65323   0.67557   -2.000
 7210.00    0.65690   0.67549   -2.000
 7211.00    0.66168   0.67590   -2.000
 7212.00    0.66667   0.67654   -2.000
 7213.00    0.66863   0.67763   -2.000
 7214.00    0.66229   0.67848   -2.000
 7215.00    0.64681   0.67940   -2.000
 7216.00    0.63878   0.68023   -2.000
 7217.00    0.65223   0.68122   -2.000
 7218.00    0.65268   0.68218   -2.000
