###################################################################
## OUTPUT of StarlightChains_v04.for    [Cid@UFSC - 01/Apr/2007] ##
###################################################################

## Some input info
1989R.txt                                [arq_obs]
Base.CB07.vall.4m                        [arq_base]
Masks.EmLines.NEW.gm                     [arq_masks]
StCv04.C11.config                        [arq_config]
   66                                    [N_base]
    0                                    [N_YAV_components = # of components with extra extinction!]
    0                                    [i_FitPowerLaw (1/0 = Yes/No)]
-9.99                                    [alpha_PowerLaw]
CCM                                      [red_law_option]
 1.458241                                [q_norm = A(l_norm)/A(V)]

## (Re)Sampling Parameters
 3741.00                                 [l_ini (A)]
 7218.00                                 [l_fin (A)]
    1.00                                 [dl    (A)]     (OBS: dl_cushion =    50.00 A)

## Normalization info
 4020.00                                 [l_norm (A) - for base]
 4010.00                                 [llow_norm (A) - window for f_obs]
 4060.00                                 [lupp_norm (A) - window for f_obs]
5.044456E-17                             [fobs_norm (in input units)]

## S/N
 3691.00                                 [llow_SN (A) - window for S/N]
 7268.00                                 [lupp_SN (A) - window for S/N]
   3.767                                 [S/N in S/N window]
   3.574                                 [S/N in norm. window]
   3.534                                 [S/N_err in S/N window]
   3.353                                 [S/N_err in norm. window]
  1.0000                                 [fscale_chi2]

## etc...
    -2007214                             [idum_orig]
  2324                                   [NOl_eff]
  2147                                   [Nl_eff]
   177    NSIGMA                         [Ntot_cliped & clip_method]
   967470                                [Nglobal_steps]
   7                                     [N_chains]
  18                                     [NEX0s_base = N_base in EX0s-fits]
 0   0   1       36   2.0   2.073E+01    [Clip-Bug, RC-Crash & Burn-In warning-flags, n_censored_weights, wei_nsig_threshold & wei_limit]
    12     12.310     11.774      0.536  [idt_all, wdt_TotTime, wdt_UsrTime & wdt_SysTime (sec)]

## Synthesis Results - Best model ##

 3.74599E-01                             [chi2/Nl_eff]
    18.08578                             [adev (%)]

    93.90672                             [sum-of-x (%)]
 9.21806E-17                             [Flux_tot (units of input spectrum!)]
 8.04116E-13                             [Mini_tot (???)]
 4.63194E-13                             [Mcor_tot (???)]

 113.97                                  [v0_min  (km/s)]
 176.28                                  [vd_min  (km/s)]
 0.4957                                  [AV_min  (mag)]
 0.0000                                  [YAV_min (mag)]

# j     x_j(%)      Mini_j(%)     Mcor_j(%)     age_j(yr)     Z_j      (L/M)_j    YAV?  Mstars   component_j        a/Fe...       SSP_chi2r SSP_adev(%)   SSP_AV   SSP_x(%)
  1      2.7598     3.0796E-02    5.3462E-02    1.000000E+06  0.00400  1.094E-02    0   1.0000   age020_m42            0.0000     5.0123E-01    18.7040   3.5779    72.6723
  2      0.0000     0.0000E+00    0.0000E+00    3.160000E+06  0.00400  4.007E-02    0   0.9999   age045_m42            0.0000     4.8153E-01    18.7649   2.8027    79.6930
  3      0.0000     0.0000E+00    0.0000E+00    5.010000E+06  0.00400  2.539E-02    0   0.9488   age055_m42            0.0000     4.9233E-01    18.7174   3.1438    76.8327
  4      0.0000     0.0000E+00    0.0000E+00    6.610000E+06  0.00400  2.620E-02    0   0.9220   age061_m42            0.0000     4.9358E-01    18.7526   2.7251    79.8994
  5      0.0000     0.0000E+00    0.0000E+00    1.000000E+07  0.00400  1.322E-02    0   0.8862   age070_m42            0.0000     5.3134E-01    18.8823   2.4369    80.9611
  6      0.0000     0.0000E+00    0.0000E+00    1.445000E+07  0.00400  7.883E-03    0   0.8571   age078_m42            0.0000     5.3293E-01    18.9057   2.7753    78.5391
  7      0.0000     0.0000E+00    0.0000E+00    2.512000E+07  0.00400  5.251E-03    0   0.8174   age090_m42            0.0000     5.3971E-01    18.9604   2.3016    81.4786
  8      0.0000     0.0000E+00    0.0000E+00    4.000000E+07  0.00400  3.649E-03    0   0.7851   age104_m42            0.0000     5.2736E-01    18.8658   2.0650    82.6704
  9      0.0000     0.0000E+00    0.0000E+00    5.500000E+07  0.00400  3.098E-03    0   0.7629   age110_m42            0.0000     5.2115E-01    18.8262   2.2158    83.1781
 10      0.0000     0.0000E+00    0.0000E+00    1.015200E+08  0.00400  2.228E-03    0   0.7207   age116_m42            0.0000     5.2293E-01    18.8175   2.2350    83.6320
 11      0.0000     0.0000E+00    0.0000E+00    2.861200E+08  0.00400  1.093E-03    0   0.6648   age125_m42            0.0000     5.4782E-01    19.0499   1.6311    87.2891
 12      0.0000     0.0000E+00    0.0000E+00    5.088000E+08  0.00400  6.597E-04    0   0.6365   age130_m42            0.0000     5.2425E-01    18.8293   1.6114    88.9850
 13      0.0000     2.2050E-05    2.2195E-05    1.434000E+09  0.00400  2.132E-04    0   0.5798   age139_m42            0.0000     4.4111E-01    18.2363   0.6078    92.7757
 14     10.1779     2.1077E+01    1.9674E+01    4.250000E+09  0.00400  5.895E-05    0   0.5377   age158_m42            0.0000     3.8104E-01    17.9534   0.1561    90.5282
 15      0.0000     0.0000E+00    0.0000E+00    7.500000E+09  0.00400  3.510E-05    0   0.5212   age171_m42            0.0000     3.8588E-01    17.8519  -0.0385    90.5224
 16      0.0000     0.0000E+00    0.0000E+00    1.300000E+10  0.00400  2.005E-05    0   0.5034   age193_m42            0.0000     3.9973E-01    17.7716  -0.2067    90.4156
 17      0.0000     0.0000E+00    0.0000E+00    1.800000E+10  0.00400  1.525E-05    0   0.4967   age213_m42            0.0000     3.9812E-01    17.7896  -0.2287    89.9199
 18      0.0000     0.0000E+00    0.0000E+00    1.000000E+06  0.00800  1.238E-02    0   1.0000   age020_m52            0.0000     5.0105E-01    18.7087   3.5729    72.8722
 19      0.0000     0.0000E+00    0.0000E+00    3.160000E+06  0.00800  3.074E-02    0   0.9966   age045_m52            0.0000     4.9781E-01    18.6912   3.4930    73.6812
 20      0.0000     0.0000E+00    0.0000E+00    5.010000E+06  0.00800  2.668E-02    0   0.9443   age055_m52            0.0000     4.9466E-01    18.6926   3.2321    75.8921
 21      0.0000     0.0000E+00    0.0000E+00    6.610000E+06  0.00800  2.136E-02    0   0.9177   age061_m52            0.0000     4.7128E-01    18.3320   1.9262    82.5870
 22      0.0000     0.0000E+00    0.0000E+00    1.000000E+07  0.00800  1.215E-02    0   0.8827   age070_m52            0.0000     5.5104E-01    19.0791   2.6127    80.6531
 23      0.0000     0.0000E+00    0.0000E+00    1.445000E+07  0.00800  8.717E-03    0   0.8552   age078_m52            0.0000     5.2907E-01    18.9004   2.7347    79.8508
 24      0.0000     0.0000E+00    0.0000E+00    2.512000E+07  0.00800  5.592E-03    0   0.8162   age090_m52            0.0000     5.4632E-01    19.0507   2.3578    82.7006
 25      0.0000     0.0000E+00    0.0000E+00    4.000000E+07  0.00800  3.896E-03    0   0.7841   age104_m52            0.0000     5.3688E-01    19.0253   2.2564    84.1122
 26      0.0000     0.0000E+00    0.0000E+00    1.015200E+08  0.00800  2.148E-03    0   0.7226   age116_m52            0.0000     5.1405E-01    18.8706   2.1907    84.6136
 27      0.0000     0.0000E+00    0.0000E+00    2.861200E+08  0.00800  9.925E-04    0   0.6683   age125_m52            0.0000     5.2912E-01    18.7763   1.6805    89.5576
 28      0.0000     0.0000E+00    0.0000E+00    9.047900E+08  0.00800  3.141E-04    0   0.6138   age135_m52            0.0000     4.3794E-01    18.6015   0.8062    97.9222
 29      0.0000     0.0000E+00    0.0000E+00    1.434000E+09  0.00800  1.719E-04    0   0.5853   age139_m52            0.0000     4.0963E-01    18.3058   0.2357    95.6269
 30      0.0000     0.0000E+00    0.0000E+00    2.500000E+09  0.00800  7.872E-05    0   0.5600   age150_m52            0.0000     3.9204E-01    18.0572  -0.0303    93.7420
 31      0.0000     0.0000E+00    0.0000E+00    4.250000E+09  0.00800  4.336E-05    0   0.5426   age158_m52            0.0000     3.9105E-01    18.0110  -0.0469    92.9861
 32      0.0000     0.0000E+00    0.0000E+00    6.250000E+09  0.00800  3.159E-05    0   0.5319   age166_m52            0.0000     4.1104E-01    18.0261  -0.2566    93.7512
 33      0.0000     0.0000E+00    0.0000E+00    1.300000E+10  0.00800  1.361E-05    0   0.5073   age193_m52            0.0000     4.5415E-01    18.1089  -0.7302    93.8802
 34      0.0000     0.0000E+00    0.0000E+00    1.800000E+10  0.00800  9.886E-06    0   0.4990   age213_m52            0.0000     4.8917E-01    18.3062  -0.8414    93.9827
 35      0.0000     0.0000E+00    0.0000E+00    1.000000E+06  0.02000  1.544E-02    0   1.0000   age020_m62            0.0000     5.0168E-01    18.7071   3.5706    72.9839
 36      1.5150     4.9161E-03    8.4132E-03    3.160000E+06  0.02000  3.762E-02    0   0.9858   age045_m62            0.0000     5.0362E-01    18.6747   3.5085    73.6973
 37      0.0000     0.0000E+00    0.0000E+00    5.010000E+06  0.02000  3.296E-02    0   0.9342   age055_m62            0.0000     4.9328E-01    18.7144   3.0977    78.1113
 38      0.0000     0.0000E+00    0.0000E+00    8.710000E+06  0.02000  1.154E-02    0   0.8861   age067_m62            0.0000     7.3196E-01    20.4675   2.0628    81.1394
 39      0.0000     0.0000E+00    0.0000E+00    1.445000E+07  0.02000  7.663E-03    0   0.8472   age078_m62            0.0000     5.9270E-01    19.4010   2.2477    82.4296
 40      0.0000     0.0000E+00    0.0000E+00    2.512000E+07  0.02000  4.532E-03    0   0.8099   age090_m62            0.0000     6.1943E-01    19.5985   2.2364    82.2015
 41      0.0000     0.0000E+00    0.0000E+00    5.500000E+07  0.02000  2.733E-03    0   0.7595   age110_m62            0.0000     5.3715E-01    18.9405   2.2483    83.1173
 42      0.0000     0.0000E+00    0.0000E+00    1.609000E+08  0.02000  1.369E-03    0   0.6985   age120_m62            0.0000     5.4543E-01    18.8616   2.0732    86.4939
 43      0.0000     0.0000E+00    0.0000E+00    2.861200E+08  0.02000  9.013E-04    0   0.6714   age125_m62            0.0000     5.5222E-01    18.8065   1.8056    90.0523
 44      0.0000     0.0000E+00    0.0000E+00    5.088000E+08  0.02000  5.028E-04    0   0.6449   age130_m62            0.0000     4.9678E-01    18.7476   1.3830    95.4552
 45      0.0000     0.0000E+00    0.0000E+00    9.047900E+08  0.02000  2.428E-04    0   0.6179   age135_m62            0.0000     4.0644E-01    18.5622   0.7517    97.7056
 46      0.0000     0.0000E+00    0.0000E+00    1.434000E+09  0.02000  1.263E-04    0   0.5908   age139_m62            0.0000     3.8972E-01    18.3536   0.3051    96.6897
 47      3.9625     8.0822E+00    7.9598E+00    2.500000E+09  0.02000  5.985E-05    0   0.5673   age150_m62            0.0000     4.0445E-01    18.2152  -0.0568    95.7666
 48      4.5507     1.6983E+01    1.6122E+01    4.250000E+09  0.02000  3.271E-05    0   0.5468   age158_m62            0.0000     4.4187E-01    18.2252  -0.3653    95.7240
 49      0.0000     0.0000E+00    0.0000E+00    1.000000E+10  0.02000  1.360E-05    0   0.5167   age181_m62            0.0000     5.0795E-01    18.6001  -0.7283    96.6790
 50      0.0000     0.0000E+00    0.0000E+00    1.800000E+10  0.02000  7.124E-06    0   0.5013   age213_m62            0.0000     5.6400E-01    19.0399  -0.9435    96.6769
 51      9.5179     4.4826E-02    7.7804E-02    1.000000E+06  0.05000  2.592E-02    0   0.9998   age020_m72            0.0000     5.0406E-01    18.7193   3.5624    72.9652
 52      0.0000     0.0000E+00    0.0000E+00    3.160000E+06  0.05000  4.845E-02    0   0.9577   age045_m72            0.0000     4.9764E-01    18.7159   3.3792    75.2198
 53      0.0000     0.0000E+00    0.0000E+00    5.010000E+06  0.05000  3.072E-02    0   0.9147   age055_m72            0.0000     5.7894E-01    19.3212   2.8485    79.3231
 54      0.0000     0.0000E+00    0.0000E+00    6.610000E+06  0.05000  1.455E-02    0   0.8877   age061_m72            0.0000     1.0291E+00    22.4355   2.0842    81.9825
 55      0.0000     0.0000E+00    0.0000E+00    1.000000E+07  0.05000  9.074E-03    0   0.8524   age070_m72            0.0000     6.6142E-01    19.8339   3.0250    79.3561
 56      0.0000     0.0000E+00    0.0000E+00    2.512000E+07  0.05000  4.250E-03    0   0.7902   age090_m72            0.0000     6.1951E-01    19.6880   2.7110    81.3051
 57      0.0000     0.0000E+00    0.0000E+00    4.000000E+07  0.05000  3.087E-03    0   0.7618   age104_m72            0.0000     6.3926E-01    19.8221   2.4744    82.8417
 58      0.0000     0.0000E+00    0.0000E+00    1.015200E+08  0.05000  1.700E-03    0   0.7096   age116_m72            0.0000     5.7112E-01    19.1409   2.2167    85.7539
 59      0.0000     0.0000E+00    0.0000E+00    2.861200E+08  0.05000  7.384E-04    0   0.6633   age125_m72            0.0000     5.3427E-01    18.8283   1.6526    92.6652
 60      0.0000     0.0000E+00    0.0000E+00    5.088000E+08  0.05000  3.819E-04    0   0.6372   age130_m72            0.0000     4.4034E-01    18.6647   1.1150    97.2606
 61     52.6786     3.8369E+01    4.0699E+01    9.047900E+08  0.05000  1.676E-04    0   0.6110   age135_m72            0.0000     3.9556E-01    18.6541   0.3927    97.9266
 62      6.5286     9.0186E+00    9.1966E+00    1.434000E+09  0.05000  8.837E-05    0   0.5874   age139_m72            0.0000     4.1221E-01    18.4722  -0.0753    98.1680
 63      2.2155     6.3893E+00    6.2093E+00    2.500000E+09  0.05000  4.233E-05    0   0.5598   age150_m72            0.0000     4.5604E-01    18.4602  -0.3724    97.0576
 64      0.0000     0.0000E+00    0.0000E+00    6.250000E+09  0.05000  1.435E-05    0   0.5249   age166_m72            0.0000     5.1918E-01    18.8280  -0.8240    96.4188
 65      0.0000     0.0000E+00    0.0000E+00    1.300000E+10  0.05000  6.513E-06    0   0.5036   age193_m72            0.0000     6.0423E-01    18.7941  -1.0000    93.2319
 66      0.0000     0.0000E+00    0.0000E+00    1.800000E+10  0.05000  4.527E-06    0   0.4945   age213_m72            0.0000     7.0334E-01    18.5085  -1.0000    86.3683


## Synthesis Results - Average & Chains ##

# j      x_j: min, <> & last-chain-values for 1 ...  7 chains
  1      2.7598      0.5421      1.0764      1.0591      0.0000      0.3329      0.4683      1.2043      0.3818
  2      0.0000      0.2629      1.5972      0.0000      0.0000      0.0000      1.4336      0.0000      0.0000
  3      0.0000      0.3857      0.0000      0.0000      0.0000      0.0000      0.0000      1.1245      0.0000
  4      0.0000      0.1847      1.7615      0.0588      0.0000      1.2502      0.0000      0.0000      0.0000
  5      0.0000      0.6351      0.0000      0.2790      0.0000      0.3269      2.9342      0.0000      0.6119
  6      0.0000      0.5208      0.0000      0.0000      0.0000      2.8627      0.0000      0.0000      0.0623
  7      0.0000      0.2455      0.0000      0.0000      0.0000      0.0000      0.0000      0.0000      0.0000
  8      0.0000      0.6303      0.0000      1.7116      0.0000      1.5613      0.2392      0.0000      0.0000
  9      0.0000      0.3650      0.0000      0.0119      0.6081      0.0000      0.0000      0.0000      0.0000
 10      0.0000      0.3786      0.1827      0.0000      0.0000      0.0000      0.0000      0.0000      0.0000
 11      0.0000      0.6591      0.0000      0.0000      0.5492      0.0000      0.0000      0.0000      0.0000
 12      0.0000      0.3668      0.0000      0.0000      0.0000      0.0000      0.0000      1.9250      0.0000
 13      0.0000      1.7539      0.0000      1.0300      0.3507      0.0000      0.1525      0.0000      0.0000
 14     10.1779      6.1583      7.7397     10.0250     12.7679      1.2468      0.0000      4.9843     10.5058
 15      0.0000      3.2203      2.7880      0.0000      5.3054      9.0439      0.0000      5.0728      4.0596
 16      0.0000      0.6656      2.5931      0.0000      0.1154      2.6865      0.4716      0.5639      0.7372
 17      0.0000      0.9469      0.0000      0.0000      0.0000      0.0000      0.0000      0.2047      0.0000
 18      0.0000      0.4913      0.0000      0.0000      0.0000      1.9526      0.0000      0.0000      0.0000
 19      0.0000      0.2334      0.0000      0.0000      1.4408      0.0000      0.0000      0.0000      2.0422
 20      0.0000      0.3152      0.0000      1.0312      2.1756      0.0000      0.0000      0.1422      1.6837
 21      0.0000      0.8467      0.0000      0.3645      1.1129      3.1492      0.2024      1.7372      1.8445
 22      0.0000      0.1716      0.1274      0.0000      0.0000      0.0000      0.3527      0.2008      0.0000
 23      0.0000      0.7247      0.0000      0.7535      0.0000      0.0000      2.5766      0.0000      0.0000
 24      0.0000      0.3670      1.9469      0.0000      0.0000      2.4283      1.4424      0.0000      1.1914
 25      0.0000      0.2584      0.0000      0.0000      0.0000      0.0000      0.0000      0.0000      0.0000
 26      0.0000      0.2014      0.0000      1.0245      0.0000      0.0000      0.0000      0.0000      0.7194
 27      0.0000      0.1502      0.0000      0.0000      0.0000      0.0000      0.0000      0.0000      0.0000
 28      0.0000      0.6663      0.0000      0.0000      0.0000      0.0000      0.0000      0.0000      0.0000
 29      0.0000      1.1621      0.0000      0.0000      0.0000      0.0000      0.5005      3.6569      0.0000
 30      0.0000      1.2692      1.0635      0.0000      2.8217      0.0000      2.5379      0.4857      0.0000
 31      0.0000      2.1391      0.0000      0.0000      0.0200      3.4397      5.5408      0.0000      1.9652
 32      0.0000      1.4011      0.7853      0.9680      0.0000      3.5057      2.3982      2.4953      1.0913
 33      0.0000      0.1137      0.0000      0.0000      0.0000      0.0000      0.0000      0.0000      0.0000
 34      0.0000      0.0758      0.0000      0.0000      0.0000      0.0000      0.0000      0.0000      0.0000
 35      0.0000      0.8753      1.6510      0.0000      0.0000      1.8972      4.4428      1.1582      0.9696
 36      1.5150      0.4512      0.0000      3.9652      0.9685      0.0000      0.0000      2.3783      0.0000
 37      0.0000      0.2363      0.0000      1.3205      0.0000      0.0000      0.0000      0.0000      0.0000
 38      0.0000      0.5230      1.4927      0.0000      1.8333      0.0000      0.0000      0.0000      0.0000
 39      0.0000      0.2864      0.0000      0.0000      0.0000      1.2233      0.0000      0.0000      0.0000
 40      0.0000      0.2398      0.0000      0.0000      0.0000      0.0000      0.0000      0.0000      1.7888
 41      0.0000      0.7149      0.0000      0.3447      0.0000      0.0000      0.0000      0.0000      3.0566
 42      0.0000      0.3598      0.0000      0.2405      0.0000      0.0000      0.0000      0.0932      0.0000
 43      0.0000      0.4052      0.0000      0.0000      0.0000      0.0000      0.0000      0.0000      0.0000
 44      0.0000      0.3924      0.0000      0.0000      0.0000      2.0465      0.0000      0.0000      0.0000
 45      0.0000      1.8074      0.0000      0.0000      0.0000      1.0705      0.6516      2.0134      0.6273
 46      0.0000      6.2849      4.7933      2.6619      0.0000      0.2988      0.0000      0.0000      4.6298
 47      3.9625      6.4681      6.1993      5.2863      3.7380     10.4885      6.5168      5.9853      6.5226
 48      4.5507      4.6458      6.4656      5.2027      5.1674      3.5403      7.9129      3.1673      3.1096
 49      0.0000      0.1917      0.0000      0.0000      0.0000      0.0000      0.0000      0.0000      0.0000
 50      0.0000      0.1846      0.0000      0.0000      0.0000      0.0000      0.0000      1.1609      0.0000
 51      9.5179      1.9867      2.4713      2.4863      3.7120      0.0000      1.7394      3.3389      1.9281
 52      0.0000      0.3797      1.2069      0.0000      1.7273      0.0000      1.1525      1.0337      0.0000
 53      0.0000      0.2799      0.0000      0.0000      0.0000      0.0000      0.0000      0.0000      1.8278
 54      0.0000      0.2486      0.0000      0.0000      0.0000      0.0000      0.0000      0.0000      0.0000
 55      0.0000      0.4210      2.5671      0.0000      0.0000      0.0000      0.0000      1.6181      0.0000
 56      0.0000      0.1993      0.0000      0.0000      0.0000      0.0000      0.0000      0.0000      0.0000
 57      0.0000      0.3267      0.0000      0.0000      0.9685      0.0000      0.4323      0.0000      0.0000
 58      0.0000      0.2878      0.0000      0.0000      0.0000      0.0000      0.1940      0.0000      0.0000
 59      0.0000      0.3608      1.2967      0.0000      0.0000      0.0000      2.3047      0.0000      0.0000
 60      0.0000      1.2437      1.2706      0.0000      2.4706      0.0000      0.6894      0.0000      0.0000
 61     52.6786     27.4149     33.2702     45.1146     39.3849     36.2716     35.1162     39.9499     39.1137
 62      6.5286      4.8899      4.7148      6.7629      4.3583      0.0000      9.9436      4.8113      0.0030
 63      2.2155      1.6426      2.1975      1.4411      0.0000      2.1505      0.0000      2.1042      1.4067
 64      0.0000      0.1964      1.2424      0.0000      0.9568      0.0000      0.0000      0.3648      0.0000
 65      0.0000      0.0519      0.3515      0.0000      0.0000      0.0000      0.0000      0.0000      0.0099
 66      0.0000      0.0489      0.0000      0.7141      0.0000      0.0000      0.0000      0.0000      0.7855

# j      m_j: min, <> & last-chain-values for 1 ...  7 chains
  1  5.3462E-02  8.2740E-03  1.5234E-02  1.7044E-02  0.0000E+00  4.7332E-03  7.9844E-03  1.7829E-02  5.7737E-03
  2  0.0000E+00  1.0955E-03  6.1707E-03  0.0000E+00  0.0000E+00  0.0000E+00  6.6722E-03  0.0000E+00  0.0000E+00
  3  0.0000E+00  2.4067E-03  0.0000E+00  0.0000E+00  0.0000E+00  0.0000E+00  0.0000E+00  6.8063E-03  0.0000E+00
  4  0.0000E+00  1.0850E-03  9.5976E-03  3.6445E-04  0.0000E+00  6.8440E-03  0.0000E+00  0.0000E+00  0.0000E+00
  5  0.0000E+00  7.1081E-03  0.0000E+00  3.2926E-03  0.0000E+00  3.4092E-03  3.6686E-02  0.0000E+00  6.7852E-03
  6  0.0000E+00  9.4545E-03  0.0000E+00  0.0000E+00  0.0000E+00  4.8417E-02  0.0000E+00  0.0000E+00  1.1215E-03
  7  0.0000E+00  6.3812E-03  0.0000E+00  0.0000E+00  0.0000E+00  0.0000E+00  0.0000E+00  0.0000E+00  0.0000E+00
  8  0.0000E+00  2.2643E-02  0.0000E+00  6.4839E-02  0.0000E+00  5.2255E-02  9.6002E-03  0.0000E+00  0.0000E+00
  9  0.0000E+00  1.5009E-02  0.0000E+00  5.1711E-04  2.7025E-02  0.0000E+00  0.0000E+00  0.0000E+00  0.0000E+00
 10  0.0000E+00  2.0451E-02  9.1483E-03  0.0000E+00  0.0000E+00  0.0000E+00  0.0000E+00  0.0000E+00  0.0000E+00
 11  0.0000E+00  6.6937E-02  0.0000E+00  0.0000E+00  6.0287E-02  0.0000E+00  0.0000E+00  0.0000E+00  0.0000E+00
 12  0.0000E+00  5.9099E-02  0.0000E+00  0.0000E+00  0.0000E+00  0.0000E+00  0.0000E+00  3.0082E-01  0.0000E+00
 13  2.2195E-05  7.9640E-01  0.0000E+00  4.9318E-01  1.7209E-01  0.0000E+00  7.7338E-02  0.0000E+00  0.0000E+00
 14  1.9674E+01  9.3791E+00  1.0930E+01  1.6099E+01  2.1016E+01  1.7691E+00  0.0000E+00  7.3635E+00  1.5852E+01
 15  0.0000E+00  7.9842E+00  6.4095E+00  0.0000E+00  1.4217E+01  2.0890E+01  0.0000E+00  1.2200E+01  9.9722E+00
 16  0.0000E+00  2.7903E+00  1.0080E+01  0.0000E+00  5.2283E-01  1.0492E+01  2.2086E+00  2.2933E+00  3.0617E+00
 17  0.0000E+00  5.1495E+00  0.0000E+00  0.0000E+00  0.0000E+00  0.0000E+00  0.0000E+00  1.0799E+00  0.0000E+00
 18  0.0000E+00  6.6266E-03  0.0000E+00  0.0000E+00  0.0000E+00  2.4535E-02  0.0000E+00  0.0000E+00  0.0000E+00
 19  0.0000E+00  1.2634E-03  0.0000E+00  0.0000E+00  8.4295E-03  0.0000E+00  0.0000E+00  0.0000E+00  1.0953E-02
 20  0.0000E+00  1.8629E-03  0.0000E+00  6.4260E-03  1.3896E-02  0.0000E+00  0.0000E+00  8.1509E-04  9.8584E-03
 21  0.0000E+00  6.0742E-03  0.0000E+00  2.7569E-03  8.6286E-03  2.1047E-02  1.6219E-03  1.2089E-02  1.3109E-02
 22  0.0000E+00  2.0814E-03  1.4328E-03  0.0000E+00  0.0000E+00  0.0000E+00  4.7788E-03  2.3633E-03  0.0000E+00
 23  0.0000E+00  1.1871E-02  0.0000E+00  1.3015E-02  0.0000E+00  0.0000E+00  4.7147E-02  0.0000E+00  0.0000E+00
 24  0.0000E+00  8.9431E-03  4.3995E-02  0.0000E+00  0.0000E+00  5.5135E-02  3.9267E-02  0.0000E+00  2.8767E-02
 25  0.0000E+00  8.6827E-03  0.0000E+00  0.0000E+00  0.0000E+00  0.0000E+00  0.0000E+00  0.0000E+00  0.0000E+00
 26  0.0000E+00  1.1311E-02  0.0000E+00  6.0681E-02  0.0000E+00  0.0000E+00  0.0000E+00  0.0000E+00  4.0038E-02
 27  0.0000E+00  1.6886E-02  0.0000E+00  0.0000E+00  0.0000E+00  0.0000E+00  0.0000E+00  0.0000E+00  0.0000E+00
 28  0.0000E+00  2.1740E-01  0.0000E+00  0.0000E+00  0.0000E+00  0.0000E+00  0.0000E+00  0.0000E+00  0.0000E+00
 29  0.0000E+00  6.6067E-01  0.0000E+00  0.0000E+00  0.0000E+00  0.0000E+00  3.1787E-01  2.0167E+00  0.0000E+00
 30  0.0000E+00  1.5076E+00  1.1713E+00  0.0000E+00  3.6224E+00  0.0000E+00  3.3673E+00  5.5965E-01  0.0000E+00
 31  0.0000E+00  4.4697E+00  0.0000E+00  0.0000E+00  4.5146E-02  6.6958E+00  1.2932E+01  0.0000E+00  4.0683E+00
 32  0.0000E+00  3.9392E+00  2.0472E+00  2.8697E+00  0.0000E+00  9.1822E+00  7.5312E+00  6.8051E+00  3.0398E+00
 33  0.0000E+00  7.0786E-01  0.0000E+00  0.0000E+00  0.0000E+00  0.0000E+00  0.0000E+00  0.0000E+00  0.0000E+00
 34  0.0000E+00  6.3844E-01  0.0000E+00  0.0000E+00  0.0000E+00  0.0000E+00  0.0000E+00  0.0000E+00  0.0000E+00
 35  0.0000E+00  9.4659E-03  1.6555E-02  0.0000E+00  0.0000E+00  1.9114E-02  5.3667E-02  1.2150E-02  1.0389E-02
 36  8.4132E-03  1.9742E-03  0.0000E+00  1.8294E-02  4.5801E-03  0.0000E+00  0.0000E+00  1.0094E-02  0.0000E+00
 37  0.0000E+00  1.1185E-03  0.0000E+00  6.5894E-03  0.0000E+00  0.0000E+00  0.0000E+00  0.0000E+00  0.0000E+00
 38  0.0000E+00  6.7052E-03  1.7745E-02  0.0000E+00  2.5404E-02  0.0000E+00  0.0000E+00  0.0000E+00  0.0000E+00
 39  0.0000E+00  5.2874E-03  0.0000E+00  0.0000E+00  0.0000E+00  2.1038E-02  0.0000E+00  0.0000E+00  0.0000E+00
 40  0.0000E+00  7.1569E-03  0.0000E+00  0.0000E+00  0.0000E+00  0.0000E+00  0.0000E+00  0.0000E+00  5.2883E-02
 41  0.0000E+00  3.3172E-02  0.0000E+00  1.6863E-02  0.0000E+00  0.0000E+00  0.0000E+00  0.0000E+00  1.4052E-01
 42  0.0000E+00  3.0649E-02  0.0000E+00  2.1603E-02  0.0000E+00  0.0000E+00  0.0000E+00  7.7057E-03  0.0000E+00
 43  0.0000E+00  5.0400E-02  0.0000E+00  0.0000E+00  0.0000E+00  0.0000E+00  0.0000E+00  0.0000E+00  0.0000E+00
 44  0.0000E+00  8.4032E-02  0.0000E+00  0.0000E+00  0.0000E+00  4.0832E-01  0.0000E+00  0.0000E+00  0.0000E+00
 45  0.0000E+00  7.6802E-01  0.0000E+00  0.0000E+00  0.0000E+00  4.2378E-01  3.0927E-01  8.2991E-01  2.6408E-01
 46  0.0000E+00  4.9088E+00  3.4715E+00  2.1923E+00  0.0000E+00  2.1740E-01  0.0000E+00  0.0000E+00  3.5827E+00
 47  7.9598E+00  1.0237E+01  9.0978E+00  8.8221E+00  6.3940E+00  1.5465E+01  1.1521E+01  9.1889E+00  1.0228E+01
 48  1.6122E+01  1.2967E+01  1.6734E+01  1.5312E+01  1.5589E+01  9.2060E+00  2.4671E+01  8.5755E+00  8.5993E+00
 49  0.0000E+00  1.2160E+00  0.0000E+00  0.0000E+00  0.0000E+00  0.0000E+00  0.0000E+00  0.0000E+00  0.0000E+00
 50  0.0000E+00  2.1686E+00  0.0000E+00  0.0000E+00  0.0000E+00  0.0000E+00  0.0000E+00  1.3231E+01  0.0000E+00
 51  7.7804E-02  1.2796E-02  1.4759E-02  1.6885E-02  2.5838E-02  0.0000E+00  1.2514E-02  2.0860E-02  1.2303E-02
 52  0.0000E+00  1.2532E-03  3.6937E-03  0.0000E+00  6.1614E-03  0.0000E+00  4.2488E-03  3.3094E-03  0.0000E+00
 53  0.0000E+00  1.3917E-03  0.0000E+00  0.0000E+00  0.0000E+00  0.0000E+00  0.0000E+00  0.0000E+00  9.0030E-03
 54  0.0000E+00  2.5322E-03  0.0000E+00  0.0000E+00  0.0000E+00  0.0000E+00  0.0000E+00  0.0000E+00  0.0000E+00
 55  0.0000E+00  6.6041E-03  3.7336E-02  0.0000E+00  0.0000E+00  0.0000E+00  0.0000E+00  2.4619E-02  0.0000E+00
 56  0.0000E+00  6.1887E-03  0.0000E+00  0.0000E+00  0.0000E+00  0.0000E+00  0.0000E+00  0.0000E+00  0.0000E+00
 57  0.0000E+00  1.3460E-02  0.0000E+00  0.0000E+00  4.3129E-02  0.0000E+00  1.9899E-02  0.0000E+00  0.0000E+00
 58  0.0000E+00  2.0060E-02  0.0000E+00  0.0000E+00  0.0000E+00  0.0000E+00  1.5103E-02  0.0000E+00  0.0000E+00
 59  0.0000E+00  5.4118E-02  1.8035E-01  0.0000E+00  0.0000E+00  0.0000E+00  3.8613E-01  0.0000E+00  0.0000E+00
 60  0.0000E+00  3.4650E-01  3.2823E-01  0.0000E+00  7.4391E-01  0.0000E+00  2.1453E-01  0.0000E+00  0.0000E+00
 61  4.0699E+01  1.6688E+01  1.8779E+01  2.8957E+01  2.5911E+01  2.0569E+01  2.3877E+01  2.3589E+01  2.3589E+01
 62  9.1966E+00  5.4272E+00  4.8521E+00  7.9147E+00  5.2279E+00  0.0000E+00  1.2328E+01  5.1798E+00  3.2947E-03
 63  6.2093E+00  3.6270E+00  4.4993E+00  3.3554E+00  0.0000E+00  4.4241E+00  0.0000E+00  4.5070E+00  3.0775E+00
 64  0.0000E+00  1.1994E+00  7.0361E+00  0.0000E+00  6.3156E+00  0.0000E+00  0.0000E+00  2.1610E+00  0.0000E+00
 65  0.0000E+00  6.6969E-01  4.2081E+00  0.0000E+00  0.0000E+00  0.0000E+00  0.0000E+00  0.0000E+00  1.2701E-01
 66  0.0000E+00  8.9215E-01  0.0000E+00  1.3735E+01  0.0000E+00  0.0000E+00  0.0000E+00  0.0000E+00  1.4194E+01

# AV, chi2 & Mass for <> & i_chain = 1 ...  7 solutions
AV       0.4957      0.4700      0.4356      0.4491      0.4748      0.4405      0.5021      0.4532      0.5017
chi2 3.7460E-01  3.8083E-01  3.7810E-01  3.7659E-01  3.7734E-01  3.7796E-01  3.7953E-01  3.7756E-01  3.7811E-01
Mass 4.6319E-13  5.6798E-13  5.8489E-13  5.2374E-13  5.2890E-13  5.8595E-13  5.3089E-13  5.7246E-13  5.9817E-13
 113.97                                  [v0_min (km/s) before EX0s...]
 176.28                                  [vd_min (km/s) before EX0s...]


## Synthetic spectrum (Best Model) ##l_obs f_obs f_syn wei
 3478    [Nl_obs]
 3741.00    1.55909   0.55200    0.000
 3742.00    1.18550   0.56836    0.000
 3743.00    0.94775   0.57211    0.000
 3744.00    0.93734   0.56417    0.000
 3745.00    1.12606   0.54721   -1.000
 3746.00    1.36827   0.52429   -1.000
 3747.00    1.50524   0.49840   -1.000
 3748.00    1.45088   0.47291   -1.000
 3749.00    1.34005   0.45205   -1.000
 3750.00    1.44215   0.44099   -1.000
 3751.00    1.70423   0.44432   -1.000
 3752.00    1.76114   0.46327   -1.000
 3753.00    1.44236   0.49455   -1.000
 3754.00    0.91649   0.53099   -1.000
 3755.00    0.63200   0.56360   15.823
 3756.00    1.02678   0.58484   -1.000
 3757.00    1.84640   0.59133   -1.000
 3758.00    2.33634   0.58506   -1.000
 3759.00    2.12734   0.57227   -1.000
 3760.00    1.38954   0.56035   -1.000
 3761.00    0.67311   0.55471   14.856
 3762.00    0.52895   0.55690   18.905
 3763.00    0.83737   0.56446   -1.000
 3764.00    1.06304   0.57272   -1.000
 3765.00    0.98595   0.57730   -1.000
 3766.00    0.73112   0.57561   13.678
 3767.00    0.56834   0.56722   17.595
 3768.00    0.70318   0.55391   14.221
 3769.00    1.01083   0.53913   -1.000
 3770.00    1.17129   0.52691   -1.000
 3771.00    0.94335   0.52105   -1.000
 3772.00    0.40499   0.52400   20.733
 3773.00    0.16621   0.53562   -1.000
 3774.00    0.51220   0.55334   19.524
 3775.00    0.41235   0.57397   -1.000
 3776.00   -0.93706   0.59526   -2.000
 3777.00   -2.34372   0.61631   -2.000
 3778.00   -2.48300   0.63713   -2.000
 3779.00   -1.95722   0.65790   -2.000
 3780.00   -1.71896   0.67786   -2.000
 3781.00   -1.41789   0.69536   -2.000
 3782.00   -0.51288   0.70835   -2.000
 3783.00    0.63666   0.71518   15.707
 3784.00    1.35536   0.71488   -1.000
 3785.00    1.24230   0.70678   -1.000
 3786.00    0.32059   0.69112   -1.000
 3787.00   -0.92454   0.67006   -2.000
 3788.00   -1.88077   0.64744   -2.000
 3789.00   -2.08534   0.62723   -2.000
 3790.00   -1.43005   0.61178   -2.000
 3791.00   -0.29348   0.60100   -2.000
 3792.00    0.43054   0.59253   -1.000
 3793.00   -0.34203   0.58243   -2.000
 3794.00   -2.01094   0.56754   -2.000
 3795.00   -2.02112   0.54716   -2.000
 3796.00    0.06959   0.52316   -1.000
 3797.00    1.42484   0.49962   -1.000
 3798.00    0.62948   0.48216   15.886
 3799.00   -0.69531   0.47645   -2.000
 3800.00   -0.98664   0.48606   -2.000
 3801.00   -0.07052   0.51055   -2.000
 3802.00    1.25337   0.54534   -1.000
 3803.00    1.76234   0.58334   -1.000
 3804.00    1.10294   0.61738   -1.000
 3805.00   -0.03516   0.64256   -2.000
 3806.00   -0.99221   0.65800   -2.000
 3807.00   -1.47822   0.66667   -2.000
 3808.00   -1.42923   0.67322   -2.000
 3809.00   -0.94503   0.68090   -2.000
 3810.00   -0.25241   0.68964   -2.000
 3811.00    0.31678   0.69605   -1.000
 3812.00    0.36036   0.69575   -1.000
 3813.00   -0.32010   0.68650   -2.000
 3814.00   -1.10277   0.67016   -2.000
 3815.00   -1.03426   0.65194   -2.000
 3816.00   -0.24102   0.63743   -2.000
 3817.00    0.44228   0.62948   -1.000
 3818.00    0.89669   0.62709   -1.000
 3819.00    1.45734   0.62690   -1.000
 3820.00    1.85574   0.62573   -1.000
 3821.00    1.57987   0.62248   -1.000
 3822.00    0.84842   0.61770   -1.000
 3823.00    0.23692   0.61161   -1.000
 3824.00   -0.19379   0.60339   -2.000
 3825.00   -0.61493   0.59235   -2.000
 3826.00   -0.80778   0.57914   -2.000
 3827.00   -0.40315   0.56564   -2.000
 3828.00    0.64464   0.55353   15.512
 3829.00    1.83542   0.54298   -1.000
 3830.00    2.02037   0.53223   -1.000
 3831.00    0.75521   0.51848   -1.000
 3832.00   -0.26241   0.49979   -2.000
 3833.00    0.60804   0.47677   16.446
 3834.00    2.50780   0.45271   -1.000
 3835.00    3.66152   0.43238   -1.000
 3836.00    3.24687   0.42006   -1.000
 3837.00    1.52746   0.41810   -1.000
 3838.00   -0.29349   0.42649   -2.000
 3839.00   -1.06892   0.44354   -2.000
 3840.00   -0.56035   0.46710   -2.000
 3841.00    0.57388   0.49528   17.425
 3842.00    1.03400   0.52616   -1.000
 3843.00    0.34038   0.55742   -1.000
 3844.00   -0.36478   0.58644   -2.000
 3845.00   -0.18548   0.61105   -2.000
 3846.00    0.40751   0.63017   -1.000
 3847.00    0.81884   0.64402    0.000
 3848.00    1.07999   0.65349    0.000
 3849.00    1.40179   0.65976    0.000
 3850.00    1.84737   0.66423    0.000
 3851.00    2.11449   0.66833    0.000
 3852.00    1.63755   0.67287    0.000
 3853.00    0.60031   0.67745    0.000
 3854.00    0.06326   0.68054    0.000
 3855.00    0.30103   0.68047    0.000
 3856.00    0.43172   0.67669    0.000
 3857.00    0.04502   0.66995    0.000
 3858.00   -0.37108   0.66208   -2.000
 3859.00   -0.45867   0.65567   -2.000
 3860.00   -0.29256   0.65348   -2.000
 3861.00   -0.00444   0.65734   -2.000
 3862.00    0.32115   0.66717    0.000
 3863.00    0.53528   0.68060    0.000
 3864.00    0.49858   0.69389    0.000
 3865.00    0.39850   0.70396    0.000
 3866.00    0.54839   0.70970    0.000
 3867.00    0.60526   0.71159    0.000
 3868.00   -0.05771   0.71053   -2.000
 3869.00   -0.91167   0.70680   -2.000
 3870.00   -0.74833   0.69995   -2.000
 3871.00    0.40198   0.68986    0.000
 3872.00    1.44809   0.67802    0.000
 3873.00    1.58655   0.66756    0.000
 3874.00    0.73675   0.66148    0.000
 3875.00   -0.22756   0.66055   -2.000
 3876.00   -0.21136   0.66251   -2.000
 3877.00    0.72754   0.66357    0.000
 3878.00    1.65066   0.66116    0.000
 3879.00    1.63575   0.65543    0.000
 3880.00    0.37129   0.64817    0.000
 3881.00   -1.21814   0.64066   -2.000
 3882.00   -1.81613   0.63254   -2.000
 3883.00   -1.03894   0.62200   -2.000
 3884.00    0.58441   0.60702   17.111
 3885.00    1.94004   0.58651   -1.000
 3886.00    2.16253   0.56102   -1.000
 3887.00    1.53930   0.53317   -1.000
 3888.00    0.85798   0.50773   -1.000
 3889.00    0.55974   0.49039   17.865
 3890.00    0.74268   0.48578   -1.000
 3891.00    1.25713   0.49548   -1.000
 3892.00    1.69996   0.51714   -1.000
 3893.00    1.47776   0.54536   -1.000
 3894.00    0.53196   0.57392   18.798
 3895.00   -0.18172   0.59847   -2.000
 3896.00   -0.04649   0.61753   -2.000
 3897.00    0.25551   0.63184   -1.000
 3898.00    0.14408   0.64297   -1.000
 3899.00    0.09839   0.65246   -1.000
 3900.00    0.54751   0.66139   18.264
 3901.00    1.13587   0.67007   -1.000
 3902.00    1.28597   0.67776   -1.000
 3903.00    0.67780   0.68305   14.754
 3904.00   -0.24859   0.68492   -2.000
 3905.00   -0.33600   0.68410   -2.000
 3906.00    0.52482   0.68334   19.054
 3907.00    0.90720   0.68623   11.023
 3908.00    0.26215   0.69519   -1.000
 3909.00   -0.29117   0.70999   -2.000
 3910.00   -0.03826   0.72770   -2.000
 3911.00    0.60494   0.74403   16.530
 3912.00    1.22149   0.75523   -1.000
 3913.00    1.76501   0.75947   -1.000
 3914.00    2.05108   0.75705   -1.000
 3915.00    1.73741   0.74968   -1.000
 3916.00    0.98274   0.73942   10.176
 3917.00    0.42274   0.72792   -1.000
 3918.00    0.30578   0.71612   -1.000
 3919.00    0.37913   0.70462   -1.000
 3920.00    0.43431   0.69411   -1.000
 3921.00    0.45181   0.68546   -1.000
 3922.00    0.51781   0.67920   19.312
 3923.00    0.71881   0.67478   13.912
 3924.00    0.94390   0.67021   -1.000
 3925.00    0.97882   0.66242   -1.000
 3926.00    0.84236   0.64833   11.871
 3927.00    0.72169   0.62594   13.856
 3928.00    0.65873   0.59493   15.181
 3929.00    0.57510   0.55650   17.388
 3930.00    0.46145   0.51296   20.733
 3931.00    0.38630   0.46746   20.733
 3932.00    0.43890   0.42386   20.733
 3933.00    0.69201   0.38681   -1.000
 3934.00    1.15202   0.36121   -1.000
 3935.00    1.63976   0.35125   -1.000
 3936.00    1.64838   0.35901   -1.000
 3937.00    0.89115   0.38354   -1.000
 3938.00    0.06521   0.42083   -1.000
 3939.00   -0.08653   0.46484   -2.000
 3940.00   -0.09099   0.50904   -2.000
 3941.00   -0.54720   0.54819   -2.000
 3942.00   -0.56600   0.57944   -2.000
 3943.00    0.50951   0.60289   19.627
 3944.00    1.13903   0.62092   -1.000
 3945.00    0.10351   0.63658   -1.000
 3946.00   -0.87946   0.65179   -2.000
 3947.00   -0.06190   0.66661   -2.000
 3948.00    1.47708   0.67983   -1.000
 3949.00    2.12638   0.69046   -1.000
 3950.00    1.93343   0.69855   -1.000
 3951.00    1.57365   0.70497   -1.000
 3952.00    1.35198   0.71056   -1.000
 3953.00    1.30026   0.71549   -1.000
 3954.00    1.32309   0.71921   -1.000
 3955.00    1.30563   0.72072   -1.000
 3956.00    1.18658   0.71926   -1.000
 3957.00    0.97329   0.71466   -1.000
 3958.00    0.74696   0.70717   13.388
 3959.00    0.64983   0.69657   15.389
 3960.00    0.82665   0.68158    0.000
 3961.00    1.14954   0.66040    0.000
 3962.00    1.20002   0.63202    0.000
 3963.00    0.95420   0.59700    0.000
 3964.00    0.93654   0.55693    0.000
 3965.00    1.26969   0.51334    0.000
 3966.00    1.40828   0.46746    0.000
 3967.00    0.97716   0.42126    0.000
 3968.00    0.12910   0.37857    0.000
 3969.00   -0.54875   0.34507   -2.000
 3970.00   -0.33934   0.32664   -2.000
 3971.00    0.68103   0.32718    0.000
 3972.00    1.63130   0.34692    0.000
 3973.00    1.93652   0.38254    0.000
 3974.00    1.62394   0.42854    0.000
 3975.00    1.02672   0.47913    0.000
 3976.00    0.56761   0.52978    0.000
 3977.00    0.43349   0.57761    0.000
 3978.00    0.56307   0.62099    0.000
 3979.00    0.86392   0.65879    0.000
 3980.00    1.26382   0.68988    0.000
 3981.00    1.68935   0.71342   -1.000
 3982.00    2.03570   0.72959   -1.000
 3983.00    2.11727   0.74015   -1.000
 3984.00    1.80092   0.74794   -1.000
 3985.00    1.29249   0.75564   -1.000
 3986.00    1.02841   0.76463   -1.000
 3987.00    1.34768   0.77475   -1.000
 3988.00    2.16168   0.78501   -1.000
 3989.00    2.54235   0.79453   -1.000
 3990.00    1.68995   0.80302   -1.000
 3991.00    0.52166   0.81069   -1.000
 3992.00    0.42579   0.81762   -1.000
 3993.00    1.10302   0.82314   -1.000
 3994.00    1.48200   0.82584   -1.000
 3995.00    1.37447   0.82453   -1.000
 3996.00    1.05785   0.81951    9.453
 3997.00    0.49788   0.81319   -1.000
 3998.00   -0.23726   0.80933   -2.000
 3999.00   -0.45188   0.81104   -2.000
 4000.00    0.33011   0.81888   -1.000
 4001.00    1.46629   0.83027   -1.000
 4002.00    2.06673   0.84062   -1.000
 4003.00    1.93432   0.84562   -1.000
 4004.00    1.35515   0.84340   -1.000
 4005.00    0.79181   0.83556   12.629
 4006.00    0.58183   0.82652   -1.000
 4007.00    0.71639   0.82144   13.959
 4008.00    0.96742   0.82356   10.337
 4009.00    1.03979   0.83273    9.617
 4010.00    0.85586   0.84587   11.684
 4011.00    0.69484   0.85905   14.392
 4012.00    0.77452   0.86963   12.911
 4013.00    1.00000   0.87694   10.000
 4014.00    1.20193   0.88180   -1.000
 4015.00    1.29268   0.88541   -1.000
 4016.00    1.25471   0.88868   -1.000
 4017.00    1.12790   0.89210    8.866
 4018.00    1.00051   0.89580    9.995
 4019.00    1.00906   0.89955    9.910
 4020.00    1.35845   0.90245   -1.000
 4021.00    2.20117   0.90313   -1.000
 4022.00    3.07752   0.90048   -1.000
 4023.00    3.04352   0.89468   -1.000
 4024.00    2.18155   0.88767   -1.000
 4025.00    1.68032   0.88223   -1.000
 4026.00    1.80392   0.88029   -1.000
 4027.00    1.64847   0.88127   -1.000
 4028.00    0.99169   0.88184   10.084
 4029.00    0.55144   0.87757   -1.000
 4030.00    0.71465   0.86573   13.993
 4031.00    1.23094   0.84741   -1.000
 4032.00    1.55844   0.82751   -1.000
 4033.00    1.24300   0.81259   -1.000
 4034.00    0.61745   0.80795   16.196
 4035.00    0.48726   0.81560   -1.000
 4036.00    0.90518   0.83377   11.048
 4037.00    1.26477   0.85784   -1.000
 4038.00    1.21922   0.88189   -1.000
 4039.00    0.85417   0.90062   11.707
 4040.00    0.57816   0.91077   -1.000
 4041.00    0.72752   0.91158   13.745
 4042.00    0.88472   0.90404   11.303
 4043.00    0.42853   0.88995   -1.000
 4044.00   -0.28683   0.87163   -2.000
 4045.00   -0.49133   0.85256   -2.000
 4046.00   -0.23544   0.83764   -2.000
 4047.00    0.05604   0.83164   -1.000
 4048.00    0.53223   0.83664   -1.000
 4049.00    1.34154   0.85033   -1.000
 4050.00    1.70176   0.86691   -1.000
 4051.00    0.99841   0.88011   10.016
 4052.00    0.25662   0.88582   -1.000
 4053.00    0.62671   0.88337   -1.000
 4054.00    1.46085   0.87487   -1.000
 4055.00    1.60658   0.86388   -1.000
 4056.00    1.03649   0.85390    9.648
 4057.00    0.39299   0.84742   -1.000
 4058.00    0.30304   0.84536   -1.000
 4059.00    0.88935   0.84699   11.244
 4060.00    1.47213   0.85006   -1.000
 4061.00    1.52504   0.85144   -1.000
 4062.00    1.42497   0.84861   -1.000
 4063.00    1.53770   0.84132   -1.000
 4064.00    1.53293   0.83210   -1.000
 4065.00    1.16191   0.82505   -1.000
 4066.00    0.79501   0.82326   12.578
 4067.00    0.86175   0.82720   11.604
 4068.00    1.43723   0.83474   -1.000
 4069.00    2.23108   0.84260   -1.000
 4070.00    2.69000   0.84796   -1.000
 4071.00    2.54495   0.84948   -1.000
 4072.00    2.04166   0.84742   -1.000
 4073.00    1.45769   0.84290   -1.000
 4074.00    0.89466   0.83655   11.177
 4075.00    0.58282   0.82799   -1.000
 4076.00    0.88578   0.81686   11.290
 4077.00    1.62245   0.80469   -1.000
 4078.00    2.00423   0.79547   -1.000
 4079.00    1.66991   0.79389   -1.000
 4080.00    0.98169   0.80212   10.186
 4081.00    0.44842   0.81801   -1.000
 4082.00    0.41121   0.83602   -1.000
 4083.00    0.77340   0.85039   12.931
 4084.00    1.09810   0.85835    9.106
 4085.00    1.22027   0.86110   -1.000
 4086.00    1.31208   0.86242   -1.000
 4087.00    1.46778   0.86591   -1.000
 4088.00    1.60874   0.87282   -1.000
 4089.00    1.58123   0.88166   -1.000
 4090.00    1.23204   0.88941   -1.000
 4091.00    0.52784   0.89327   -1.000
 4092.00   -0.27534   0.89175   -2.000
 4093.00   -0.34152   0.88458   -2.000
 4094.00    0.98512   0.87193    0.000
 4095.00    2.48014   0.85393    0.000
 4096.00    2.28032   0.83065    0.000
 4097.00    0.98374   0.80243    0.000
 4098.00    0.51549   0.77008    0.000
 4099.00    0.98027   0.73483    0.000
 4100.00    1.26521   0.69880    0.000
 4101.00    1.01601   0.66568    0.000
 4102.00    0.54890   0.64084   -2.000
 4103.00    0.18882   0.62992   -2.000
 4104.00    0.16001   0.63613    0.000
 4105.00    0.56928   0.65820    0.000
 4106.00    1.27083   0.69041    0.000
 4107.00    1.72886   0.72497    0.000
 4108.00    1.55612   0.75521   -2.000
 4109.00    1.14331   0.77782    0.000
 4110.00    1.03808   0.79325    0.000
 4111.00    1.19189   0.80447    0.000
 4112.00    1.31400   0.81497    0.000
 4113.00    1.31549   0.82710   -1.000
 4114.00    1.21373   0.84107   -1.000
 4115.00    1.00821   0.85518    9.938
 4116.00    0.77031   0.86664   12.562
 4117.00    0.70264   0.87297   14.490
 4118.00    0.87576   0.87314   13.700
 4119.00    1.05082   0.86822    9.028
 4120.00    1.02675   0.86085    6.853
 4121.00    0.89313   0.85411   14.546
 4122.00    0.86800   0.85022   -2.000
 4123.00    1.14067   0.84985    5.104
 4124.00    1.67355   0.85224    1.223
 4125.00    2.13955   0.85562    0.776
 4126.00    2.28585   0.85783    0.769
 4127.00    2.12627   0.85712    0.857
 4128.00    1.77592   0.85278    0.858
 4129.00    1.35493   0.84542    0.818
 4130.00    0.99602   0.83656    0.810
 4131.00    0.83170   0.82800    0.820
 4132.00    0.91018   0.82154    0.825
 4133.00    1.16555   0.81902    0.826
 4134.00    1.46112   0.82219    0.824
 4135.00    1.63294   0.83202    0.819
 4136.00    1.58077   0.84779    0.817
 4137.00    1.33786   0.86702    0.827
 4138.00    1.18323   0.88603    0.838
 4139.00    1.47275   0.90095    0.826
 4140.00    1.96609   0.90860    0.800
 4141.00    1.99945   0.90709    0.796
 4142.00    1.68379   0.89674    0.811
 4143.00    1.75644   0.88070    0.812
 4144.00    2.13198   0.86435    0.798
 4145.00    2.05804   0.85324    0.802
 4146.00    1.58088   0.85029    0.822
 4147.00    1.38895   0.85454    0.834
 4148.00    1.52682   0.86198    0.836
 4149.00    1.49438   0.86825    0.854
 4150.00    1.14995   0.87083    0.889
 4151.00    0.72389   0.86951    0.919
 4152.00    0.43019   0.86546    0.925
 4153.00    0.34804   0.86000    0.906
 4154.00    0.36208   0.85419    0.882
 4155.00    0.33052   0.84908    0.870
 4156.00    0.37893   0.84604    0.870
 4157.00    0.67322   0.84649    0.869
 4158.00    0.99909   0.85121    0.863
 4159.00    1.06916   0.85975    0.854
 4160.00    1.04547   0.87063    0.850
 4161.00    1.18458   0.88196    0.855
 4162.00    1.28673   0.89227    0.870
 4163.00    1.12530   0.90069    0.890
 4164.00    1.02788   0.90673    0.893
 4165.00    1.28703   0.91005    0.869
 4166.00    1.46343   0.91046    0.853
 4167.00    1.13803   0.90808    0.867
 4168.00    0.72463   0.90321    0.891
 4169.00    0.70469   0.89581    0.896
 4170.00    0.85638   0.88519    0.895
 4171.00    0.87781   0.87060    0.908
 4172.00    0.95166   0.85243    0.919
 4173.00    1.14478   0.83310    0.916
 4174.00    0.97708   0.81640    0.913
 4175.00    0.34582   0.80567    0.923
 4176.00    0.09045   0.80204    0.932
 4177.00    0.65513   0.80430    0.927
 4178.00    1.29214   0.81019    0.919
 4179.00    1.38605   0.81790    0.918
 4180.00    1.23592   0.82643    0.920
 4181.00    1.22393   0.83520    0.923
 4182.00    1.32834   0.84353    0.927
 4183.00    1.42443   0.85077    0.935
 4184.00    1.47399   0.85653    0.946
 4185.00    1.54373   0.86071    0.950
 4186.00    1.74756   0.86337    0.934
 4187.00    1.95436   0.86488    0.908
 4188.00    1.79431   0.86615    0.906
 4189.00    1.28915   0.86865    0.933
 4190.00    0.94173   0.87365    0.960
 4191.00    0.97097   0.88140    0.967
 4192.00    1.13573   0.89065    0.965
 4193.00    1.25702   0.89890    0.963
 4194.00    1.35583   0.90319    0.965
 4195.00    1.43541   0.90104    0.972
 4196.00    1.44383   0.89158    0.989
 4197.00    1.39873   0.87622    1.003
 4198.00    1.38589   0.85833    0.995
 4199.00    1.43972   0.84189    0.968
 4200.00    1.50855   0.82995    0.950
 4201.00    1.46137   0.82375    0.950
 4202.00    1.19908   0.82298    0.964
 4203.00    0.90866   0.82657    0.973
 4204.00    0.88508   0.83360    0.958
 4205.00    1.00501   0.84349    0.939
 4206.00    0.92181   0.85563    0.945
 4207.00    0.70567   0.86903    0.964
 4208.00    0.70126   0.88226    0.960
 4209.00    1.00094   0.89391    0.943
 4210.00    1.39151   0.90305    0.944
 4211.00    1.46097   0.90934    0.964
 4212.00    1.00455   0.91268    0.982
 4213.00    0.60776   0.91286    0.985
 4214.00    0.93747   0.90987    0.977
 4215.00    1.58823   0.90476    0.965
 4216.00    1.77012   0.90004    0.958
 4217.00    1.46778   0.89889    0.958
 4218.00    1.08767   0.90323    0.966
 4219.00    0.81361   0.91220    0.982
 4220.00    0.67685   0.92206    1.008
 4221.00    0.72691   0.92771    1.037
 4222.00    0.96128   0.92467    1.058
 4223.00    1.23565   0.91060    1.069
 4224.00    1.35079   0.88619    1.076
 4225.00    1.16586   0.85544    1.093
 4226.00    0.76232   0.82522    1.120
 4227.00    0.53676   0.80364    1.139
 4228.00    0.74118   0.79715    1.134
 4229.00    1.12996   0.80753    1.116
 4230.00    1.38062   0.83056    1.106
 4231.00    1.43359   0.85773    1.110
 4232.00    1.35758   0.88008    1.121
 4233.00    1.22414   0.89213    1.123
 4234.00    1.04713   0.89353    1.110
 4235.00    0.77894   0.88793    1.101
 4236.00    0.51262   0.88033    1.100
 4237.00    0.53131   0.87476    1.086
 4238.00    0.86209   0.87339    1.050
 4239.00    1.13416   0.87677    1.013
 4240.00    1.20740   0.88450    0.993
 4241.00    1.36898   0.89562    0.994
 4242.00    1.63298   0.90861    1.012
 4243.00    1.58710   0.92132    1.033
 4244.00    1.26941   0.93121    1.050
 4245.00    1.28826   0.93594    1.065
 4246.00    1.67098   0.93416    1.086
 4247.00    1.70023   0.92619    1.114
 4248.00    1.12807   0.91403    1.142
 4249.00    0.43910   0.90078    1.156
 4250.00    0.10954   0.88950    1.149
 4251.00    0.28038   0.88226    1.132
 4252.00    0.59594   0.87972    1.112
 4253.00    0.48748   0.88124    1.091
 4254.00    0.12668   0.88552    1.079
 4255.00    0.23977   0.89107    1.087
 4256.00    0.84617   0.89646    1.106
 4257.00    1.29873   0.90025    1.117
 4258.00    1.25745   0.90120    1.126
 4259.00    0.83969   0.89898    1.160
 4260.00    0.37724   0.89515    1.209
 4261.00    0.19709   0.89312    1.234
 4262.00    0.29334   0.89667    1.234
 4263.00    0.42508   0.90770    1.237
 4264.00    0.44540   0.92473    1.241
 4265.00    0.38841   0.94323    1.228
 4266.00    0.49325   0.95750    1.204
 4267.00    0.93171   0.96285    1.189
 4268.00    1.37344   0.95703    1.177
 4269.00    1.35345   0.94052    1.159
 4270.00    0.93009   0.91622    1.140
 4271.00    0.50337   0.88859    1.133
 4272.00    0.40577   0.86293    1.138
 4273.00    0.70869   0.84421    1.146
 4274.00    1.07460   0.83593   -2.000
 4275.00    1.16864   0.83922   -2.000
 4276.00    1.14361   0.85256   -2.000
 4277.00    1.22740   0.87223   -2.000
 4278.00    1.23727   0.89331   -2.000
 4279.00    0.99090   0.91106   -2.000
 4280.00    0.74297   0.92231   -2.000
 4281.00    0.77893   0.92624   -2.000
 4282.00    1.01747   0.92422   -2.000
 4283.00    1.28462   0.91864   -2.000
 4284.00    1.56026   0.91148   -2.000
 4285.00    1.76198   0.90344   -2.000
 4286.00    1.62089   0.89397   -2.000
 4287.00    1.20390   0.88212   -2.000
 4288.00    1.16812   0.86765   -2.000
 4289.00    1.73181   0.85199    1.055
 4290.00    2.13743   0.83819    1.051
 4291.00    1.89132   0.82982    1.059
 4292.00    1.43110   0.82901    1.074
 4293.00    1.22119   0.83493    1.083
 4294.00    1.25165   0.84386    1.086
 4295.00    1.36348   0.85078    1.085
 4296.00    1.44557   0.85146    1.086
 4297.00    1.45547   0.84379    1.087
 4298.00    1.42162   0.82802    1.078
 4299.00    1.42231   0.80639    1.063
 4300.00    1.52864   0.78266    1.061
 4301.00    1.61384   0.76116    1.077
 4302.00    1.40966   0.74565    1.098
 4303.00    1.02617   0.73786    1.121
 4304.00    0.91196   0.73700    1.159
 4305.00    0.99637   0.74028    1.199
 4306.00    0.72300   0.74439    1.199
 4307.00    0.16788   0.74728    1.167
 4308.00    0.01112   0.74907    1.155
 4309.00    0.33112   0.75183    1.170
 4310.00    0.57287   0.75826    1.179
 4311.00    0.49392   0.77001    1.172
 4312.00    0.28433   0.78691    1.169
 4313.00    0.17406   0.80755    1.180
 4314.00    0.29416   0.83064    1.195
 4315.00    0.60306   0.85568    1.193
 4316.00    0.94560   0.88249    1.161
 4317.00    1.21604   0.90988    1.131
 4318.00    1.36445   0.93497    1.140
 4319.00    1.33869   0.95388    1.164
 4320.00    1.12503   0.96335    1.154
 4321.00    0.84062   0.96198    1.125
 4322.00    0.67050   0.95042    1.123
 4323.00    0.72860   0.93090    1.141
 4324.00    0.96901   0.90686    1.153
 4325.00    1.10337   0.88292    1.162
 4326.00    0.92167   0.86451    1.184
 4327.00    0.74067   0.85633    1.200
 4328.00    0.91411   0.86023    1.184
 4329.00    1.13460   0.87405    1.162
 4330.00    0.97950   0.89243    0.000
 4331.00    0.66090   0.90951    0.000
 4332.00    0.59875   0.92112    0.000
 4333.00    0.84388   0.92543    0.000
 4334.00    1.19318   0.92168    0.000
 4335.00    1.39374   0.90879    0.000
 4336.00    1.32895   0.88518    0.000
 4337.00    1.15551   0.85018    0.000
 4338.00    1.06300   0.80590    0.000
 4339.00    1.05333   0.75807    0.000
 4340.00    1.00417   0.71515    0.000
 4341.00    0.76652   0.68578    0.000
 4342.00    0.40238   0.67586    0.000
 4343.00    0.28627   0.68653   -2.000
 4344.00    0.55432   0.71430   -2.000
 4345.00    0.81765   0.75266    0.000
 4346.00    0.89557   0.79446    0.000
 4347.00    1.17215   0.83354    0.000
 4348.00    1.76248   0.86540    0.000
 4349.00    2.14458   0.88717    0.000
 4350.00    1.99722   0.89782    0.000
 4351.00    1.58028   0.89873   -1.000
 4352.00    1.21504   0.89390   -1.000
 4353.00    1.00759   0.88904    8.947
 4354.00    0.86809   0.88937    8.626
 4355.00    0.60846   0.89732   -1.000
 4356.00    0.29109   0.91163   -2.000
 4357.00    0.23976   0.92852   -1.000
 4358.00    0.48776   0.94412    1.710
 4359.00    0.70120   0.95657    1.171
 4360.00    0.71493   0.96655    1.210
 4361.00    0.65349   0.97618    1.357
 4362.00    0.65556   0.98717    1.368
 4363.00    0.75907   0.99950    1.310
 4364.00    0.85290   1.01123    1.280
 4365.00    0.77709   1.01944    1.286
 4366.00    0.63743   1.02169    1.308
 4367.00    0.71504   1.01714    1.312
 4368.00    1.00004   1.00708    1.296
 4369.00    1.21335   0.99430    1.283
 4370.00    1.16106   0.98177    1.290
 4371.00    0.86033   0.97119    1.323
 4372.00    0.60982   0.96245    1.359
 4373.00    0.73865   0.95439    1.365
 4374.00    1.08154   0.94643    1.355
 4375.00    1.22322   0.93979    1.359
 4376.00    1.14965   0.93699    1.375
 4377.00    1.09754   0.94003    1.377
 4378.00    1.08608   0.94823    1.368
 4379.00    1.03237   0.95764    1.368
 4380.00    1.05584   0.96231    1.377
 4381.00    1.29118   0.95704    1.381
 4382.00    1.55434   0.93987    1.371
 4383.00    1.54930   0.91331    1.351
 4384.00    1.21719   0.88381    1.330
 4385.00    0.76598   0.85937    1.322
 4386.00    0.61696   0.84643    1.327
 4387.00    0.97346   0.84728    1.339
 4388.00    1.38045   0.85950    1.346
 4389.00    1.36790   0.87770    1.341
 4390.00    1.14710   0.89632    1.336
 4391.00    1.08600   0.91179    1.340
 4392.00    1.14776   0.92298    1.347
 4393.00    1.19169   0.93049    1.345
 4394.00    1.27482   0.93566    1.334
 4395.00    1.44977   0.93990    1.317
 4396.00    1.59018   0.94423    1.298
 4397.00    1.54365   0.94889    1.287
 4398.00    1.27270   0.95303    1.301
 4399.00    0.92870   0.95516    1.338
 4400.00    0.83708   0.95414    1.368
 4401.00    1.08243   0.95004    1.369
 4402.00    1.31228   0.94397    1.359
 4403.00    1.25110   0.93725    1.357
 4404.00    0.98669   0.93076    1.356
 4405.00    0.73519   0.92502    1.352
 4406.00    0.66595   0.92082    1.354
 4407.00    0.74261   0.91946    1.361
 4408.00    0.72651   0.92230    1.357
 4409.00    0.57160   0.92995    1.344
 4410.00    0.52848   0.94172    1.349
 4411.00    0.75161   0.95540    1.370
 4412.00    1.14796   0.96760    1.370
 4413.00    1.49675   0.97475    1.346
 4414.00    1.56550   0.97459    1.338
 4415.00    1.33858   0.96759    1.358
 4416.00    1.02750   0.95721    1.384
 4417.00    0.81190   0.94860    1.391
 4418.00    0.75757   0.94607    1.375
 4419.00    0.85238   0.95100    1.353
 4420.00    1.02179   0.96129    1.344
 4421.00    1.13832   0.97282    1.349
 4422.00    1.06666   0.98180    1.356
 4423.00    0.77416   0.98649    1.355
 4424.00    0.37385   0.98760    1.351
 4425.00    0.14834   0.98707    1.341
 4426.00    0.35803   0.98659    1.323
 4427.00    0.81034   0.98669    1.304
 4428.00    1.06042   0.98684    1.294
 4429.00    1.02674   0.98614    1.294
 4430.00    0.91757   0.98392    1.293
 4431.00    0.83934   0.97997    1.288
 4432.00    0.80430   0.97452    1.280
 4433.00    0.87592   0.96822    1.279
 4434.00    1.06870   0.96231    1.291
 4435.00    1.15775   0.95874    1.305
 4436.00    0.95872   0.95961    1.308
 4437.00    0.76914   0.96616    1.316
 4438.00    0.93453   0.97744    1.343
 4439.00    1.18607   0.98991    1.364
 4440.00    1.12282   0.99870    1.347
 4441.00    0.91897   1.00009    1.328
 4442.00    0.93322   0.99371    1.345
 4443.00    1.15448   0.98302    1.374
 4444.00    1.38433   0.97371    1.381
 4445.00    1.50541   0.97069    1.389
 4446.00    1.46795   0.97572    1.427
 4447.00    1.25420   0.98683    1.458
 4448.00    0.94084   0.99975    1.448
 4449.00    0.73682   1.01009    1.442
 4450.00    0.76068   1.01507    1.473
 4451.00    0.87151   1.01390    1.498
 4452.00    0.89937   1.00714    1.480
 4453.00    0.83274   0.99583    1.457
 4454.00    0.75068   0.98119    1.461
 4455.00    0.74710   0.96479    1.466
 4456.00    0.82302   0.94861    1.448
 4457.00    0.84405   0.93471    1.430
 4458.00    0.72116   0.92454    1.434
 4459.00    0.52033   0.91847    1.460
 4460.00    0.41901   0.91604    1.493
 4461.00    0.61915   0.91663    0.000
 4462.00    1.04439   0.92004    0.000
 4463.00    1.28503   0.92625    0.000
 4464.00    1.11846   0.93485    0.000
 4465.00    0.70749   0.94447    0.000
 4466.00    0.30853   0.95309    0.000
 4467.00    0.11228   0.95896    0.000
 4468.00    0.16595   0.96162    0.000
 4469.00    0.37600   0.96236    0.000
 4470.00    0.63602   0.96379    0.000
 4471.00    0.87490   0.96878    0.000
 4472.00    1.04729   0.97910    0.000
 4473.00    1.14253   0.99468    0.000
 4474.00    1.22405   1.01361    0.000
 4475.00    1.37299   1.03270    0.000
 4476.00    1.48966   1.04857    0.000
 4477.00    1.36744   1.05836    0.000
 4478.00    1.05210   1.06026    0.000
 4479.00    0.80482   1.05389    0.000
 4480.00    0.75799   1.04076    0.000
 4481.00    0.87185   1.02442    0.000
 4482.00    1.04440   1.00987    1.614
 4483.00    1.16729   1.00186    1.612
 4484.00    1.18703   1.00282    1.607
 4485.00    1.12686   1.01146    1.608
 4486.00    1.09863   1.02335    1.615
 4487.00    1.20250   1.03297    1.624
 4488.00    1.34856   1.03637    1.631
 4489.00    1.37201   1.03282    1.636
 4490.00    1.27541   1.02465    1.635
 4491.00    1.17272   1.01561    1.631
 4492.00    1.13908   1.00876    1.628
 4493.00    1.18722   1.00530    1.631
 4494.00    1.27057   1.00470    1.633
 4495.00    1.33865   1.00595    1.628
 4496.00    1.40258   1.00872    1.621
 4497.00    1.44417   1.01347    1.625
 4498.00    1.31445   1.02064    1.650
 4499.00    0.97878   1.03004    1.699
 4500.00    0.76680   1.04083    1.743
 4501.00    0.92660   1.05223    1.749
 4502.00    1.17928   1.06408    1.719
 4503.00    1.19358   1.07657    1.681
 4504.00    1.05419   1.08952    1.669
 4505.00    0.98524   1.10178    1.691
 4506.00    1.07201   1.11141    1.712
 4507.00    1.29538   1.11685    1.703
 4508.00    1.58108   1.11786    1.687
 4509.00    1.82191   1.11561    1.685
 4510.00    1.89801   1.11167    1.680
 4511.00    1.71831   1.10704    1.666
 4512.00    1.27048   1.10172    1.678
 4513.00    0.75964   1.09505    1.728
 4514.00    0.60730   1.08666    1.768
 4515.00    0.92427   1.07711    1.766
 4516.00    1.30147   1.06782    1.744
 4517.00    1.39849   1.06035    1.735
 4518.00    1.23813   1.05567    1.753
 4519.00    1.00913   1.05373    1.777
 4520.00    0.92020   1.05344    1.762
 4521.00    1.03027   1.05308    1.719
 4522.00    1.20406   1.05089    1.704
 4523.00    1.25470   1.04544    1.677
 4524.00    1.06858   1.03611    1.531
 4525.00    0.83457   1.02321    1.345
 4526.00    0.94349   1.00776    1.257
 4527.00    1.32008   0.99132    1.253
 4528.00    1.45649   0.97573    1.242
 4529.00    1.32070   0.96292    1.236
 4530.00    1.35743   0.95427    1.340
 4531.00    1.56296   0.95017    1.580
 4532.00    1.50924   0.95012    1.787
 4533.00    1.21252   0.95316    1.815
 4534.00    1.08525   0.95856    1.783
 4535.00    1.17604   0.96643    1.768
 4536.00    1.21171   0.97739    1.751
 4537.00    1.16926   0.99158    1.740
 4538.00    1.22056   1.00773    1.764
 4539.00    1.31336   1.02317    1.790
 4540.00    1.26027   1.03501    1.760
 4541.00    1.10015   1.04158    1.718
 4542.00    1.01135   1.04309    1.743
 4543.00    1.01759   1.04109    1.807
 4544.00    1.03986   1.03750    1.824
 4545.00    1.07740   1.03351    1.796
 4546.00    1.17450   1.02928    1.777
 4547.00    1.31863   1.02429    1.766
 4548.00    1.43370   1.01821    1.741
 4549.00    1.40019   1.01124    1.730
 4550.00    1.16268   1.00418    0.000
 4551.00    0.85932   0.99814    0.000
 4552.00    0.66758   0.99386    0.000
 4553.00    0.60166   0.99145    0.000
 4554.00    0.64052   0.99101    0.000
 4555.00    0.88463   0.99309    0.000
 4556.00    1.34122   0.99854    0.000
 4557.00    1.71008   1.00784    0.000
 4558.00    1.72478   1.02069    0.000
 4559.00    1.48534   1.03569    0.000
 4560.00    1.22851   1.05016    0.000
 4561.00    1.09349   1.06111    0.000
 4562.00    1.13490   1.06647    0.000
 4563.00    1.34761   1.06592    0.000
 4564.00    1.65022   1.06117    0.000
 4565.00    1.88426   1.05538    0.000
 4566.00    1.91149   1.05167    0.000
 4567.00    1.69197   1.05192    0.000
 4568.00    1.33573   1.05606    0.000
 4569.00    1.08559   1.06223    0.000
 4570.00    1.02470   1.06793    0.000
 4571.00    0.96918   1.07123    0.000
 4572.00    0.86855   1.07187    0.000
 4573.00    0.94262   1.07111    0.000
 4574.00    1.20448   1.07070    0.000
 4575.00    1.32462   1.07140    0.000
 4576.00    1.18030   1.07234    0.000
 4577.00    1.01896   1.07175    0.000
 4578.00    1.00309   1.06793    0.000
 4579.00    1.05589   1.05986    0.000
 4580.00    1.06998   1.04816    0.000
 4581.00    0.99991   1.03497    0.000
 4582.00    0.87413   1.02265    0.000
 4583.00    0.76893   1.01320    0.000
 4584.00    0.71049   1.00807    0.000
 4585.00    0.67664   1.00796    0.000
 4586.00    0.70586   1.01258    0.000
 4587.00    0.87715   1.02054    0.000
 4588.00    1.15498   1.02987    0.000
 4589.00    1.38738   1.03860    0.000
 4590.00    1.42264   1.04495    0.000
 4591.00    1.20100   1.04768    0.000
 4592.00    0.89069   1.04682    0.000
 4593.00    0.75166   1.04352    0.000
 4594.00    0.76700   1.03944    0.000
 4595.00    0.76024   1.03623    0.000
 4596.00    0.80014   1.03486    0.000
 4597.00    1.05041   1.03544    0.000
 4598.00    1.33692   1.03732    0.000
 4599.00    1.37535   1.03945    0.000
 4600.00    1.29809   1.04111    0.000
 4601.00    1.39470   1.04230    0.000
 4602.00    1.55888   1.04336    0.000
 4603.00    1.52048   1.04489    0.000
 4604.00    1.31321   1.04766    0.000
 4605.00    1.12558   1.05236    0.000
 4606.00    1.00582   1.05958    0.000
 4607.00    0.92420   1.06920    0.000
 4608.00    0.89823   1.08021    0.000
 4609.00    0.93189   1.09128    0.000
 4610.00    0.93753   1.10076    0.000
 4611.00    0.87312   1.10719    0.000
 4612.00    0.88056   1.10972    0.000
 4613.00    1.06519   1.10862    0.000
 4614.00    1.28211   1.10514    0.000
 4615.00    1.35558   1.10090    0.000
 4616.00    1.28958   1.09719    0.000
 4617.00    1.16459   1.09449    0.000
 4618.00    1.03572   1.09266    0.000
 4619.00    0.94939   1.09172    0.000
 4620.00    0.95587   1.09188    0.000
 4621.00    1.05967   1.09346    0.000
 4622.00    1.19400   1.09667    0.000
 4623.00    1.29931   1.10074    0.000
 4624.00    1.37071   1.10451    0.000
 4625.00    1.41348   1.10698    0.000
 4626.00    1.41735   1.10717    0.000
 4627.00    1.37968   1.10499    0.000
 4628.00    1.31785   1.10149    0.000
 4629.00    1.26005   1.09778    0.000
 4630.00    1.23545   1.09458    0.000
 4631.00    1.25290   1.09220    0.000
 4632.00    1.29483   1.09018    0.000
 4633.00    1.33559   1.08770    0.000
 4634.00    1.34933   1.08435    0.000
 4635.00    1.30676   1.08003    0.000
 4636.00    1.18519   1.07468    0.000
 4637.00    1.01032   1.06898    0.000
 4638.00    0.85857   1.06439    0.000
 4639.00    0.80986   1.06188    0.000
 4640.00    0.89529   1.06132    0.000
 4641.00    0.99083   1.06201    0.000
 4642.00    0.89841   1.06296    0.000
 4643.00    0.67514   1.06283    0.000
 4644.00    0.58687   1.06002    0.000
 4645.00    0.72094   1.05366    0.000
 4646.00    0.95261   1.04423    0.000
 4647.00    1.13160   1.03358    0.000
 4648.00    1.15602   1.02476    0.000
 4649.00    1.02835   1.02054    0.000
 4650.00    0.85804   1.02209    0.000
 4651.00    0.83439   1.02880    0.000
 4652.00    1.07705   1.03840    0.000
 4653.00    1.37187   1.04770    0.000
 4654.00    1.40710   1.05429    0.000
 4655.00    1.27358   1.05774    0.000
 4656.00    1.24876   1.05961    0.000
 4657.00    1.30232   1.06230    0.000
 4658.00    1.24852   1.06748    0.000
 4659.00    1.09700   1.07552    0.000
 4660.00    0.97706   1.08484    0.000
 4661.00    0.95608   1.09218    0.000
 4662.00    1.03013   1.09413    0.000
 4663.00    1.14612   1.08846    0.000
 4664.00    1.22359   1.07497    0.000
 4665.00    1.18323   1.05579    0.000
 4666.00    1.02078   1.03429    0.000
 4667.00    0.87147   1.01399    0.000
 4668.00    0.85303   0.99815    0.000
 4669.00    0.90880   0.98906    0.000
 4670.00    0.92086   0.98801    0.000
 4671.00    0.83814   0.99534    0.000
 4672.00    0.73827   1.00971    0.000
 4673.00    0.83232   1.02748    0.000
 4674.00    1.12833   1.04456    0.000
 4675.00    1.23553   1.05835    0.000
 4676.00    0.96437   1.06774    0.000
 4677.00    0.69640   1.07266    0.000
 4678.00    0.74181   1.07366    0.000
 4679.00    0.94256   1.07132    0.000
 4680.00    1.09696   1.06648    0.000
 4681.00    1.21440   1.06056    0.000
 4682.00    1.32184   1.05560    0.000
 4683.00    1.36524   1.05350    0.000
 4684.00    1.33824   1.05467    0.000
 4685.00    1.31875   1.05802    0.000
 4686.00    1.29068   1.06212    0.000
 4687.00    1.12250   1.06572    0.000
 4688.00    0.87758   1.06778    0.000
 4689.00    0.84359   1.06828    0.000
 4690.00    1.05541   1.06812    0.000
 4691.00    1.21754   1.06802    0.000
 4692.00    1.19272   1.06852    0.000
 4693.00    1.11107   1.07003    0.000
 4694.00    1.06550   1.07236    0.000
 4695.00    1.03654   1.07487    0.000
 4696.00    1.01601   1.07665    0.000
 4697.00    1.02732   1.07623    0.000
 4698.00    1.06005   1.07241    0.000
 4699.00    1.07076   1.06521    0.000
 4700.00    1.04090   1.05555    0.000
 4701.00    0.98568   1.04492    0.000
 4702.00    0.93382   1.03533    0.000
 4703.00    0.91361   1.02858    0.000
 4704.00    0.93332   1.02486    0.000
 4705.00    0.98395   1.02305    0.000
 4706.00    1.05449   1.02243    0.000
 4707.00    1.12024   1.02299    0.000
 4708.00    1.11547   1.02470    0.000
 4709.00    0.99234   1.02690    0.000
 4710.00    0.83451   1.02947    0.000
 4711.00    0.79429   1.03327    0.000
 4712.00    0.94924   1.03888    0.000
 4713.00    1.23782   1.04578    0.000
 4714.00    1.41162   1.05297    0.000
 4715.00    1.27200   1.05979    0.000
 4716.00    1.00082   1.06635    0.000
 4717.00    0.87233   1.07387    0.000
 4718.00    0.82750   1.08341    0.000
 4719.00    0.72723   1.09473    0.000
 4720.00    0.70923   1.10606    0.000
 4721.00    0.92142   1.11513    0.000
 4722.00    1.19329   1.12113    0.000
 4723.00    1.28171   1.12419    0.000
 4724.00    1.15988   1.12406    0.000
 4725.00    0.95968   1.12038    0.000
 4726.00    0.87049   1.11310    0.000
 4727.00    0.96730   1.10252    0.000
 4728.00    1.09475   1.08914    0.000
 4729.00    1.13080   1.07411    0.000
 4730.00    1.18122   1.05980    0.000
 4731.00    1.32501   1.04917    0.000
 4732.00    1.43799   1.04448    0.000
 4733.00    1.40816   1.04559    0.000
 4734.00    1.28302   1.05053    0.000
 4735.00    1.17817   1.05735    0.000
 4736.00    1.19314   1.06462    0.000
 4737.00    1.30346   1.07110    0.000
 4738.00    1.34342   1.07644    0.000
 4739.00    1.25590   1.08098    0.000
 4740.00    1.18055   1.08528    0.000
 4741.00    1.18991   1.09011    0.000
 4742.00    1.19634   1.09514    0.000
 4743.00    1.16303   1.09920    0.000
 4744.00    1.16583   1.10250    0.000
 4745.00    1.22001   1.10599    0.000
 4746.00    1.23623   1.10970    0.000
 4747.00    1.15126   1.11290    0.000
 4748.00    0.98412   1.11514    0.000
 4749.00    0.84182   1.11648    0.000
 4750.00    0.86523   1.11659    0.000
 4751.00    1.04932   1.11463    0.000
 4752.00    1.24547   1.11047    0.000
 4753.00    1.35502   1.10474    0.000
 4754.00    1.37108   1.09799    0.000
 4755.00    1.32091   1.09106    0.000
 4756.00    1.22805   1.08533    0.000
 4757.00    1.06216   1.08180    0.000
 4758.00    0.80307   1.08039    0.000
 4759.00    0.61814   1.08005    0.000
 4760.00    0.73285   1.07916    0.000
 4761.00    1.06007   1.07608    2.266
 4762.00    1.31039   1.06974    2.262
 4763.00    1.38110   1.06026    2.284
 4764.00    1.33868   1.04903    2.299
 4765.00    1.23521   1.03870    2.299
 4766.00    1.10617   1.03240    2.301
 4767.00    1.02464   1.03186    2.313
 4768.00    1.04953   1.03671    2.333
 4769.00    1.13090   1.04565    2.363
 4770.00    1.14956   1.05709    2.405
 4771.00    1.00396   1.06905    2.459
 4772.00    0.72596   1.07985    2.510
 4773.00    0.59793   1.08880    2.519
 4774.00    0.82491   1.09612    2.474
 4775.00    1.13670   1.10283    2.442
 4776.00    1.20501   1.10969    2.476
 4777.00    1.15259   1.11593    2.514
 4778.00    1.20030   1.11982    2.482
 4779.00    1.25406   1.12055    2.427
 4780.00    1.17648   1.11866    2.412
 4781.00    1.07285   1.11454    2.419
 4782.00    1.05544   1.10835    2.417
 4783.00    1.02899   1.10112    2.417
 4784.00    0.91758   1.09399    2.430
 4785.00    0.84344   1.08716    2.436
 4786.00    0.89586   1.08086    2.420
 4787.00    0.96755   1.07621    2.404
 4788.00    0.96292   1.07371    2.405
 4789.00    0.93619   1.07307    2.404
 4790.00    0.95004   1.07514    2.388
 4791.00    0.98460   1.08068    2.374
 4792.00    0.99644   1.08896    2.374
 4793.00    0.96388   1.09919    2.379
 4794.00    0.91782   1.11039    2.373
 4795.00    0.93273   1.12056    2.344
 4796.00    0.99772   1.12785    2.330
 4797.00    0.99275   1.13103    2.394
 4798.00    0.89783   1.12956    2.425
 4799.00    0.84041   1.12442    2.167
 4800.00    0.85662   1.11793    1.815
 4801.00    0.83796   1.11234    1.674
 4802.00    0.75180   1.10894    1.708
 4803.00    0.68688   1.10783    1.714
 4804.00    0.68089   1.10780    1.684
 4805.00    0.69686   1.10703    1.838
 4806.00    0.76742   1.10428    2.248
 4807.00    0.97252   1.09989    2.536
 4808.00    1.21540   1.09567    2.425
 4809.00    1.28040   1.09346    2.315
 4810.00    1.20059   1.09347    2.359
 4811.00    1.20502   1.09528    2.429
 4812.00    1.29487   1.09882    2.438
 4813.00    1.27399   1.10364    2.409
 4814.00    1.10490   1.10912    2.395
 4815.00    0.92852   1.11518    2.426
 4816.00    0.90222   1.12181    2.472
 4817.00    1.08844   1.12855    2.469
 4818.00    1.31198   1.13436    2.428
 4819.00    1.31918   1.13807    2.411
 4820.00    1.13180   1.13864    2.437
 4821.00    0.96026   1.13539    2.486
 4822.00    0.92905   1.12843    2.524
 4823.00    1.03459   1.11861    2.527
 4824.00    1.16238   1.10762    2.514
 4825.00    1.18129   1.09748    2.517
 4826.00    1.07732   1.08995    2.526
 4827.00    0.91455   1.08701    2.523
 4828.00    0.75328   1.08853    2.544
 4829.00    0.64618   1.09131    2.613
 4830.00    0.64617   1.09272    2.660
 4831.00    0.78226   1.09249    2.617
 4832.00    1.02972   1.09169    2.557
 4833.00    1.30794   1.09112    2.565
 4834.00    1.48980   1.09056    2.605
 4835.00    1.49117   1.09023    2.615
 4836.00    1.35463   1.09063    2.606
 4837.00    1.18891   1.09081    2.609
 4838.00    1.09634   1.08928    2.612
 4839.00    1.09582   1.08599    2.587
 4840.00    1.08012   1.08199    2.526
 4841.00    0.97309   1.07773    2.459
 4842.00    0.84427   1.07384    2.452
 4843.00    0.80133   1.07165    2.514
 4844.00    0.89880   1.07147    2.554
 4845.00    1.10009   1.07184    2.522
 4846.00    1.27319   1.07147    2.510
 4847.00    1.30296   1.07048    2.574
 4848.00    1.17053   1.06844    0.000
 4849.00    0.99612   1.06415    0.000
 4850.00    1.00070   1.05747    0.000
 4851.00    1.18734   1.04944    0.000
 4852.00    1.26646   1.04114    0.000
 4853.00    1.12327   1.03166    0.000
 4854.00    0.96382   1.01827    0.000
 4855.00    0.91695   0.99980    0.000
 4856.00    0.90297   0.97664    0.000
 4857.00    0.85982   0.94906    0.000
 4858.00    0.81230   0.91863    0.000
 4859.00    0.76271   0.88824    0.000
 4860.00    0.67774   0.85906    0.000
 4861.00    0.59350   0.83156    0.000
 4862.00    0.60234   0.80911    0.000
 4863.00    0.69215   0.79690    0.000
 4864.00    0.75123   0.79943    0.000
 4865.00    0.73806   0.81794    0.000
 4866.00    0.69589   0.84692    0.000
 4867.00    0.65172   0.87794    0.000
 4868.00    0.61311   0.90630    0.000
 4869.00    0.63012   0.92939    0.000
 4870.00    0.75144   0.94537    0.000
 4871.00    0.89107   0.95463    0.000
 4872.00    0.90689   0.95932    0.000
 4873.00    0.82890   0.96162    0.000
 4874.00    0.80027   0.96480    0.000
 4875.00    0.86685   0.97303    2.540
 4876.00    0.97803   0.98644    2.611
 4877.00    1.06669   1.00152    2.652
 4878.00    1.09964   1.01617    2.632
 4879.00    1.13121   1.02982    2.574
 4880.00    1.20262   1.04140    2.526
 4881.00    1.18437   1.04960    2.520
 4882.00    0.94328   1.05381    2.558
 4883.00    0.60386   1.05275    2.596
 4884.00    0.41715   1.04676    2.583
 4885.00    0.53448   1.03897    2.549
 4886.00    0.90413   1.03111    2.542
 4887.00    1.20842   1.02309    2.556
 4888.00    1.20562   1.01604    2.562
 4889.00    1.08723   1.01162    2.551
 4890.00    1.09675   1.01067    2.527
 4891.00    1.12600   1.01320    2.500
 4892.00    1.02395   1.01947    2.489
 4893.00    0.90410   1.03026    2.524
 4894.00    0.90720   1.04679    2.609
 4895.00    0.98384   1.06900    2.692
 4896.00    1.03448   1.09208    2.713
 4897.00    1.03836   1.11055    2.674
 4898.00    1.05376   1.12221    2.613
 4899.00    1.18496   1.12661    2.566
 4900.00    1.39633   1.12503    2.546
 4901.00    1.44383   1.11967    2.533
 4902.00    1.26419   1.11280    2.520
 4903.00    1.14396   1.10745    2.530
 4904.00    1.21244   1.10533    2.568
 4905.00    1.22464   1.10479    2.595
 4906.00    1.06014   1.10437    2.593
 4907.00    0.92478   1.10424    2.585
 4908.00    0.95239   1.10333    2.598
 4909.00    1.04649   1.09941    2.638
 4910.00    1.10912   1.09214    2.691
 4911.00    1.13874   1.08400    2.728
 4912.00    1.17341   1.07775    2.725
 4913.00    1.24025   1.07527    2.691
 4914.00    1.26496   1.07704    2.680
 4915.00    1.11872   1.08046    2.761
 4916.00    0.90493   1.08117    2.888
 4917.00    0.90206   1.07649    2.894
 4918.00    1.04242   1.06563    2.782
 4919.00    0.96598   1.04866    2.728
 4920.00    0.70440   1.02778    2.762
 4921.00    0.64040   1.00774    2.784
 4922.00    0.81038   0.99396    2.765
 4923.00    0.91766   0.98999    2.767
 4924.00    0.87592   0.99622    2.818
 4925.00    0.82503   1.01003    2.895
 4926.00    0.82930   1.02756    2.936
 4927.00    0.85020   1.04739    2.889
 4928.00    0.84924   1.06907    2.817
 4929.00    0.83611   1.08928    2.816
 4930.00    0.91254   1.10401    2.863
 4931.00    1.14923   1.11223    2.873
 4932.00    1.35423   1.11403    2.836
 4933.00    1.27557   1.10930    2.808
 4934.00    1.00779   1.09937    2.810
 4935.00    0.82679   1.08611    2.839
 4936.00    0.82470   1.07225    2.882
 4937.00    0.94063   1.06170    2.915
 4938.00    1.08969   1.05570    2.900
 4939.00    1.18350   1.05245    2.832
 4940.00    1.13783   1.05201    0.000
 4941.00    0.94786   1.05667    0.000
 4942.00    0.76767   1.06780    0.000
 4943.00    0.75015   1.08362    0.000
 4944.00    0.86244   1.09958    0.000
 4945.00    0.99305   1.11252    0.000
 4946.00    1.08516   1.12228    0.000
 4947.00    1.12367   1.12902    0.000
 4948.00    1.10984   1.13312    0.000
 4949.00    1.06037   1.13630    0.000
 4950.00    1.00695   1.13944    0.000
 4951.00    0.98027   1.14123    0.000
 4952.00    0.99653   1.14035    0.000
 4953.00    1.05620   1.13618    0.000
 4954.00    1.14386   1.12835    0.000
 4955.00    1.22908   1.11702    0.000
 4956.00    1.26908   1.10380    0.000
 4957.00    1.22222   1.09083    0.000
 4958.00    1.07145   1.07949    0.000
 4959.00    0.91136   1.07114    0.000
 4960.00    0.94417   1.06913    0.000
 4961.00    1.16987   1.07623    0.000
 4962.00    1.29930   1.08874    0.000
 4963.00    1.20200   1.09948    0.000
 4964.00    1.06693   1.10538    0.000
 4965.00    1.04941   1.10694    0.000
 4966.00    1.12392   1.10484    0.000
 4967.00    1.20063   1.09963    0.000
 4968.00    1.19939   1.09352    0.000
 4969.00    1.12453   1.08964    0.000
 4970.00    1.06646   1.08930    0.000
 4971.00    1.09972   1.09214    0.000
 4972.00    1.22896   1.09756    0.000
 4973.00    1.34196   1.10464    0.000
 4974.00    1.27871   1.11191    0.000
 4975.00    1.08624   1.11741    0.000
 4976.00    0.97623   1.11944    0.000
 4977.00    0.98014   1.11688    0.000
 4978.00    0.95919   1.10887    0.000
 4979.00    0.89343   1.09558    0.000
 4980.00    0.87045   1.07808    0.000
 4981.00    0.87196   1.05818    0.000
 4982.00    0.80151   1.03851    0.000
 4983.00    0.66219   1.02106    0.000
 4984.00    0.54871   1.00742    0.000
 4985.00    0.54649   1.00036    0.000
 4986.00    0.67990   1.00224    0.000
 4987.00    0.85962   1.01196    0.000
 4988.00    0.96378   1.02606    0.000
 4989.00    0.99240   1.04121    0.000
 4990.00    1.01285   1.05422    0.000
 4991.00    1.03072   1.06302    0.000
 4992.00    1.01194   1.06795    0.000
 4993.00    0.94721   1.07066    0.000
 4994.00    0.86583   1.07271    0.000
 4995.00    0.83688   1.07431    0.000
 4996.00    0.90162   1.07475    0.000
 4997.00    0.99478   1.07418    0.000
 4998.00    1.03657   1.07216    0.000
 4999.00    1.04503   1.06725    0.000
 5000.00    1.05957   1.05908    0.000
 5001.00    1.05215   1.04817    0.000
 5002.00    1.00568   1.03588    0.000
 5003.00    0.99050   1.02458    0.000
 5004.00    1.05524   1.01589    0.000
 5005.00    1.12911   1.01006    0.000
 5006.00    1.10901   1.00653    0.000
 5007.00    0.95078   1.00441    0.000
 5008.00    0.74762   1.00399    0.000
 5009.00    0.74170   1.00656    0.000
 5010.00    0.98812   1.01122    0.000
 5011.00    1.17722   1.01410    0.000
 5012.00    1.10342   1.01222    0.000
 5013.00    0.93181   1.00563    0.000
 5014.00    0.83477   0.99606    0.000
 5015.00    0.78680   0.98620    0.000
 5016.00    0.74643   0.97885    0.000
 5017.00    0.75148   0.97549    0.000
 5018.00    0.83643   0.97566    0.000
 5019.00    0.98385   0.97757    0.000
 5020.00    1.11553   0.98077    0.000
 5021.00    1.12393   0.98692    0.000
 5022.00    1.02188   0.99631    0.000
 5023.00    0.95052   1.00620    0.000
 5024.00    0.94063   1.01484    0.000
 5025.00    0.87898   1.02309    0.000
 5026.00    0.75438   1.03148    0.000
 5027.00    0.69417   1.03883    0.000
 5028.00    0.76256   1.04445    0.000
 5029.00    0.91049   1.04895    3.194
 5030.00    1.04777   1.05413    3.196
 5031.00    1.10222   1.06116    3.234
 5032.00    1.11698   1.06833    3.282
 5033.00    1.19600   1.07359    3.291
 5034.00    1.28651   1.07634    3.271
 5035.00    1.23023   1.07551    3.270
 5036.00    1.03354   1.06895    3.309
 5037.00    0.84919   1.05593    3.363
 5038.00    0.77835   1.03943    3.394
 5039.00    0.82284   1.02397    3.376
 5040.00    0.88736   1.01110    3.332
 5041.00    0.86659   1.00078    3.308
 5042.00    0.80599   0.99492    3.293
 5043.00    0.81478   0.99626    3.263
 5044.00    0.86027   1.00676    3.255
 5045.00    0.84865   1.02434    3.318
 5046.00    0.81365   1.04268    3.409
 5047.00    0.84994   1.05675    3.435
 5048.00    0.96614   1.06476    3.379
 5049.00    1.09534   1.06592    3.294
 5050.00    1.14573   1.06134    3.243
 5051.00    1.07417   1.05497    3.258
 5052.00    0.96377   1.05094    3.308
 5053.00    0.91061   1.05099    3.332
 5054.00    0.88505   1.05539    3.296
 5055.00    0.83244   1.06414    3.228
 5056.00    0.79643   1.07584    3.232
 5057.00    0.85823   1.08799    3.338
 5058.00    1.05541   1.09877    3.359
 5059.00    1.31801   1.10770    3.179
 5060.00    1.44008   1.11429    3.009
 5061.00    1.30816   1.11756    2.998
 5062.00    1.07549   1.11722    3.070
 5063.00    0.92751   1.11343    3.099
 5064.00    0.89068   1.10601    3.048
 5065.00    0.90583   1.09503    2.969
 5066.00    0.90220   1.08179    2.959
 5067.00    0.86187   1.06940    3.051
 5068.00    0.84737   1.06093    3.166
 5069.00    0.91406   1.05594    3.214
 5070.00    1.05275   1.05262    3.197
 5071.00    1.18954   1.05111    3.167
 5072.00    1.21376   1.05155    3.177
 5073.00    1.11618   1.05182    3.248
 5074.00    1.02535   1.05046    3.357
 5075.00    1.01988   1.04844    3.453
 5076.00    1.05558   1.04572    3.481
 5077.00    1.06835   1.04075    3.452
 5078.00    1.02827   1.03375    3.442
 5079.00    0.95732   1.02578    3.472
 5080.00    0.92067   1.01649    3.480
 5081.00    0.96792   1.00638    3.434
 5082.00    1.09893   0.99951    3.365
 5083.00    1.22769   0.99942    3.305
 5084.00    1.22842   1.00500    3.271
 5085.00    1.12042   1.01338    3.259
 5086.00    1.05285   1.02375    3.254
 5087.00    1.07862   1.03582    3.254
 5088.00    1.12468   1.04777    3.274
 5089.00    1.10396   1.05804    3.344
 5090.00    0.98453   1.06700    3.482
 5091.00    0.87726   1.07516    3.599
 5092.00    0.93645   1.08169    3.550
 5093.00    1.08503   1.08574    3.413
 5094.00    1.11886   1.08710    3.369
 5095.00    1.06302   1.08510    3.421
 5096.00    1.08645   1.07885    3.459
 5097.00    1.18350   1.06873    3.444
 5098.00    1.22188   1.05645    3.415
 5099.00    1.14633   1.04415    3.404
 5100.00    0.99162   1.03402    3.424
 5101.00    0.83831   1.02823    3.472
 5102.00    0.76628   1.02844    3.529
 5103.00    0.79544   1.03323    3.565
 5104.00    0.89687   1.03865    3.550
 5105.00    1.02268   1.04185    3.472
 5106.00    1.12397   1.04234    3.363
 5107.00    1.16958   1.04076    3.310
 5108.00    1.15822   1.03783    3.368
 5109.00    1.12669   1.03422    3.485
 5110.00    1.10324   1.03197    3.573
 5111.00    1.06019   1.03270    3.612
 5112.00    0.98773   1.03635    3.627
 5113.00    0.96535   1.04350    3.619
 5114.00    1.04784   1.05349    3.586
 5115.00    1.16070   1.06379    3.545
 5116.00    1.21653   1.07295    3.524
 5117.00    1.21971   1.08019    3.544
 5118.00    1.20207   1.08486    3.597
 5119.00    1.16619   1.08645    3.640
 5120.00    1.11138   1.08360    3.646
 5121.00    1.05461   1.07575    3.649
 5122.00    1.01585   1.06407    3.666
 5123.00    1.00546   1.05023    3.643
 5124.00    1.01601   1.03559    3.581
 5125.00    1.02309   1.02133    3.570
 5126.00    1.01892   1.00959    3.625
 5127.00    1.02576   1.00232    3.624
 5128.00    1.05793   0.99916    3.535
 5129.00    1.10353   0.99871    3.486
 5130.00    1.14128   1.00033    3.532
 5131.00    1.14940   1.00420    3.587
 5132.00    1.10484   1.01054    3.593
 5133.00    0.99534   1.01821    3.588
 5134.00    0.87119   1.02499    3.602
 5135.00    0.83458   1.02964    3.613
 5136.00    0.91220   1.03257    3.590
 5137.00    1.03152   1.03396    3.520
 5138.00    1.12035   1.03187    3.443
 5139.00    1.14619   1.02604    3.425
 5140.00    1.12032   1.01935    3.463
 5141.00    1.07947   1.01376    3.495
 5142.00    1.02813   1.01068    3.489
 5143.00    0.94666   1.00905    3.462
 5144.00    0.86310   1.00626    3.420
 5145.00    0.83304   1.00463    3.360
 5146.00    0.83636   1.00603    3.311
 5147.00    0.81047   1.00719    3.308
 5148.00    0.79121   1.00647    3.339
 5149.00    0.86877   1.00535    3.356
 5150.00    1.01864   1.00488    3.338
 5151.00    1.13496   1.00529    3.303
 5152.00    1.17361   1.00542    3.302
 5153.00    1.15646   1.00509    3.371
 5154.00    1.12298   1.00630    3.458
 5155.00    1.10383   1.00989    3.475
 5156.00    1.09279   1.01598    3.438
 5157.00    1.06637   1.02503    3.420
 5158.00    1.02204   1.03556    3.411
 5159.00    0.97537   1.04504    3.379
 5160.00    0.94598   1.05139    3.359
 5161.00    0.94245   1.05294    3.395
 5162.00    0.94608   1.04897    3.452
 5163.00    0.93234   1.03816    3.468
 5164.00    0.89912   1.01988    3.457
 5165.00    0.85241   0.99667    3.466
 5166.00    0.78783   0.97062    3.521
 5167.00    0.71156   0.94202    3.617
 5168.00    0.66102   0.91235    3.720
 5169.00    0.66340   0.88543    3.795
 5170.00    0.69596   0.86707    3.847
 5171.00    0.71806   0.86080    3.893
 5172.00    0.70617   0.86380    3.931
 5173.00    0.67589   0.87025    3.948
 5174.00    0.68792   0.87976    3.935
 5175.00    0.76683   0.89799    3.904
 5176.00    0.85082   0.92556    3.897
 5177.00    0.89249   0.95431    3.917
 5178.00    0.92104   0.97652    3.907
 5179.00    0.95504   0.99026    3.849
 5180.00    0.95545   0.99556    3.810
 5181.00    0.91038   0.99228    3.831
 5182.00    0.87331   0.98181    3.867
 5183.00    0.87518   0.96657    3.881
 5184.00    0.88758   0.94918    3.888
 5185.00    0.89672   0.93392    3.908
 5186.00    0.93006   0.92883    3.941
 5187.00    0.99379   0.93716    3.975
 5188.00    1.05628   0.95183    3.987
 5189.00    1.10987   0.96550    3.973
 5190.00    1.17853   0.97622    0.000
 5191.00    1.23706   0.98522    0.000
 5192.00    1.21226   0.99145    0.000
 5193.00    1.10775   0.99113    0.000
 5194.00    1.01568   0.98702    0.000
 5195.00    0.99544   0.98636    0.000
 5196.00    1.03702   0.98980    0.000
 5197.00    1.08176   0.99417    0.000
 5198.00    1.06220   1.00002    0.000
 5199.00    0.99265   1.00802    0.000
 5200.00    0.95302   1.01650    0.000
 5201.00    0.97694   1.02295    0.000
 5202.00    1.04070   1.02468    0.000
 5203.00    1.11171   1.02116    0.000
 5204.00    1.16226   1.01334    0.000
 5205.00    1.17280   1.00197    0.000
 5206.00    1.13635   0.98776    0.000
 5207.00    1.06555   0.97368    0.000
 5208.00    0.98278   0.96490    0.000
 5209.00    0.89969   0.96311    0.000
 5210.00    0.83830   0.96609    0.000
 5211.00    0.87110   0.97419    3.635
 5212.00    1.04609   0.98727    3.634
 5213.00    1.26063   1.00233    3.585
 5214.00    1.37119   1.01716    3.498
 5215.00    1.38236   1.02957    3.422
 5216.00    1.37228   1.03787    3.405
 5217.00    1.35389   1.04257    3.460
 5218.00    1.31612   1.04669    3.554
 5219.00    1.29582   1.05260    3.589
 5220.00    1.31545   1.05948    3.518
 5221.00    1.30699   1.06457    3.464
 5222.00    1.20458   1.06541    3.537
 5223.00    1.04943   1.06114    3.669
 5224.00    0.92912   1.05175    3.729
 5225.00    0.90181   1.03821    3.688
 5226.00    0.95809   1.02223    3.609
 5227.00    1.00403   1.00615    3.575
 5228.00    0.97151   0.99298    3.623
 5229.00    0.90364   0.98694    3.700
 5230.00    0.86295   0.99076    3.753
 5231.00    0.85723   0.99987    3.791
 5232.00    0.87310   1.00887    3.825
 5233.00    0.90330   1.01708    3.825
 5234.00    0.93915   1.02341    3.807
 5235.00    0.96728   1.02845    3.870
 5236.00    0.98910   1.03475    4.007
 5237.00    1.02332   1.04307    4.024
 5238.00    1.04963   1.05332    3.870
 5239.00    1.00004   1.06387    3.772
 5240.00    0.88587   1.07326    3.837
 5241.00    0.82875   1.08162    3.961
 5242.00    0.88052   1.08861    4.028
 5243.00    0.96604   1.09314    4.024
 5244.00    1.03059   1.09373    3.985
 5245.00    1.08845   1.09156    3.950
 5246.00    1.14063   1.08841    3.940
 5247.00    1.15155   1.08276    3.951
 5248.00    1.09557   1.07310    3.969
 5249.00    0.97952   1.06248    3.968
 5250.00    0.85550   1.05499    3.929
 5251.00    0.80019   1.04954    3.849
 5252.00    0.83666   1.04440    3.771
 5253.00    0.92364   1.04275    3.752
 5254.00    1.00020   1.04623    3.775
 5255.00    1.01434   1.05201    3.773
 5256.00    0.96169   1.05735    3.728
 5257.00    0.88409   1.06255    3.675
 5258.00    0.83893   1.06918    3.616
 5259.00    0.86702   1.07427    3.537
 5260.00    0.93969   1.07309    3.465
 5261.00    0.99051   1.06408    3.444
 5262.00    1.00687   1.04774    3.456
 5263.00    1.02093   1.02566    3.455
 5264.00    1.05280   1.00054    3.456
 5265.00    1.09212   0.97521    3.506
 5266.00    1.08804   0.95135    3.603
 5267.00    1.00500   0.93146    3.695
 5268.00    0.91296   0.91933    3.702
 5269.00    0.90787   0.91613    3.604
 5270.00    0.97155   0.91650    3.533
 5271.00    1.03545   0.91672    3.602
 5272.00    1.09734   0.92255    3.731
 5273.00    1.17623   0.93821    3.757
 5274.00    1.23616   0.95774    3.685
 5275.00    1.23795   0.97487    3.618
 5276.00    1.20894   0.99015    3.611
 5277.00    1.19140   1.00529    3.652
 5278.00    1.17978   1.02156    3.677
 5279.00    1.16174   1.03753    3.637
 5280.00    1.16225   1.04824    3.583
 5281.00    1.19170   1.05264    3.566
 5282.00    1.19998   1.05400    3.566
 5283.00    1.14617   1.05549    3.563
 5284.00    1.05828   1.05795    3.600
 5285.00    0.98913   1.06118    3.692
 5286.00    0.97442   1.06776    3.754
 5287.00    1.01695   1.08057    3.726
 5288.00    1.08341   1.09620    3.677
 5289.00    1.15005   1.10931    3.670
 5290.00    1.22504   1.11875    3.681
 5291.00    1.28685   1.12607    3.686
 5292.00    1.26321   1.13091    3.701
 5293.00    1.14529   1.13037    3.742
 5294.00    1.02921   1.12317    3.796
 5295.00    0.96924   1.11195    3.845
 5296.00    0.92198   1.10017    3.886
 5297.00    0.87555   1.08791    3.928
 5298.00    0.88921   1.07387    3.989
 5299.00    0.96964   1.06040    4.057
 5300.00    1.04143   1.05304    4.087
 5301.00    1.06844   1.05435    4.069
 5302.00    1.08448   1.06021    4.046
 5303.00    1.10719   1.06664    4.041
 5304.00    1.11983   1.07509    4.048
 5305.00    1.12995   1.08722    4.070
 5306.00    1.16940   1.10069    4.120
 5307.00    1.22476   1.11132    4.184
 5308.00    1.23747   1.11794    4.220
 5309.00    1.17436   1.12259    4.235
 5310.00    1.05113   1.12696    4.279
 5311.00    0.93435   1.13046    4.346
 5312.00    0.90187   1.13119    4.378
 5313.00    0.94401   1.12859    4.338
 5314.00    0.98745   1.12396    4.246
 5315.00    1.01028   1.11860    4.160
 5316.00    1.03852   1.11305    4.134
 5317.00    1.07868   1.10677    4.145
 5318.00    1.11477   1.09993    4.133
 5319.00    1.13285   1.09503    4.080
 5320.00    1.13150   1.09243    4.022
 5321.00    1.13026   1.08916    4.008
 5322.00    1.14034   1.08417    4.059
 5323.00    1.11554   1.07771    4.114
 5324.00    1.01054   1.06813    4.093
 5325.00    0.88050   1.05374    4.048
 5326.00    0.81547   1.03713    4.063
 5327.00    0.82559   1.02361    4.109
 5328.00    0.87359   1.01302    4.105
 5329.00    0.93950   1.00205    4.051
 5330.00    1.01735   0.99452    3.990
 5331.00    1.10040   0.99868    3.949
 5332.00    1.17753   1.01326    3.941
 5333.00    1.23170   1.02909    3.976
 5334.00    1.24799   1.04197    4.030
 5335.00    1.22278   1.05418    4.009
 5336.00    1.16937   1.06625    3.897
 5337.00    1.12021   1.07367    3.845
 5338.00    1.10296   1.07450    3.935
 5339.00    1.11923   1.07232    4.018
 5340.00    1.14897   1.06998    3.960
 5341.00    1.15956   1.06652    3.889
 5342.00    1.13777   1.06218    3.916
 5343.00    1.10721   1.06130    3.963
 5344.00    1.07901   1.06527    3.959
 5345.00    1.02663   1.06964    3.972
 5346.00    0.95642   1.07167    4.054
 5347.00    0.93741   1.07264    4.145
 5348.00    0.99440   1.07498    4.181
 5349.00    1.06178   1.07872    4.166
 5350.00    1.09377   1.08158    4.132
 5351.00    1.11633   1.08513    4.106
 5352.00    1.16868   1.09296    4.110
 5353.00    1.26363   1.10442    4.157
 5354.00    1.35187   1.11602    4.217
 5355.00    1.33604   1.12663    4.226
 5356.00    1.19856   1.13762    4.192
 5357.00    1.03003   1.14788   -2.000
 5358.00    0.91879   1.15430   -2.000
 5359.00    0.90194   1.15620   -2.000
 5360.00    0.95574   1.15484   -2.000
 5361.00    1.01382   1.15048   -2.000
 5362.00    1.03683   1.14242   -2.000
 5363.00    1.02547   1.13108   -2.000
 5364.00    0.98607   1.11844   -2.000
 5365.00    0.93190   1.10650   -2.000
 5366.00    0.91667   1.09481   -2.000
 5367.00    0.99921   1.08262   -2.000
 5368.00    1.12940   1.07127   -2.000
 5369.00    1.18792   1.06191   -2.000
 5370.00    1.15210   1.05491   -2.000
 5371.00    1.08866   1.04954   -2.000
 5372.00    1.04665   1.04630    4.186
 5373.00    1.03934   1.04837    4.260
 5374.00    1.05784   1.05761    4.270
 5375.00    1.07935   1.07144    4.243
 5376.00    1.07774   1.08513    4.222
 5377.00    1.03885   1.09672    4.236
 5378.00    0.98200   1.10586    4.265
 5379.00    0.93640   1.11206    4.277
 5380.00    0.89905   1.11490    4.295
 5381.00    0.85956   1.11429    4.344
 5382.00    0.84442   1.11140    4.355
 5383.00    0.88650   1.10848    4.266
 5384.00    0.97562   1.10652    4.169
 5385.00    1.07355   1.10531    4.154
 5386.00    1.14243   1.10528    4.157
 5387.00    1.16295   1.10569    4.100
 5388.00    1.14974   1.10466    4.058
 5389.00    1.13067   1.10164    4.108
 5390.00    1.12191   1.09682    4.168
 5391.00    1.11818   1.09031    4.151
 5392.00    1.09012   1.08269    4.130
 5393.00    1.03037   1.07430    4.190
 5394.00    0.98892   1.06535    4.282
 5395.00    1.00848   1.05737    4.323
 5396.00    1.07192   1.05154    4.298
 5397.00    1.14312   1.04668    4.255
 5398.00    1.20198   1.04138    4.265
 5399.00    1.24158   1.03814    4.342
 5400.00    1.26402   1.03933    4.395
 5401.00    1.27688   1.04096    4.350
 5402.00    1.28809   1.03902    4.247
 5403.00    1.28784   1.03536    4.176
 5404.00    1.24569   1.03190    4.216
 5405.00    1.15623   1.02606    4.361
 5406.00    1.05664   1.01681    4.478
 5407.00    0.98040   1.00833    4.481
 5408.00    0.93536   1.00529    4.439
 5409.00    0.91892   1.00771    4.426
 5410.00    0.92432   1.01197    4.447
 5411.00    0.93384   1.01665    4.488
 5412.00    0.92652   1.02444    4.533
 5413.00    0.92091   1.03721    4.571
 5414.00    0.96756   1.05138    4.590
 5415.00    1.05723   1.06264    4.588
 5416.00    1.11634   1.07126    4.566
 5417.00    1.11063   1.07977    4.523
 5418.00    1.06957   1.08823    4.463
 5419.00    1.04626   1.09390    4.430
 5420.00    1.08336   1.09528    4.477
 5421.00    1.15578   1.09366    4.543
 5422.00    1.19026   1.09142    4.496
 5423.00    1.16143   1.09000    4.382
 5424.00    1.10299   1.08869    4.362
 5425.00    1.06889   1.08522    4.437
 5426.00    1.10023   1.08038    4.492
 5427.00    1.17533   1.07810    4.497
 5428.00    1.23487   1.07836    4.506
 5429.00    1.25724   1.07633    4.508
 5430.00    1.25135   1.06925    4.465
 5431.00    1.21266   1.06041    4.428
 5432.00    1.13694   1.05535    4.471
 5433.00    1.05844   1.05350    4.537
 5434.00    1.02515   1.05051    4.525
 5435.00    1.04773   1.04798    4.491
 5436.00    1.10247   1.05056    4.534
 5437.00    1.15017   1.05890    4.574
 5438.00    1.16648   1.07025    4.490
 5439.00    1.17734   1.08293    4.352
 5440.00    1.21794   1.09625    4.289
 5441.00    1.27555   1.10799    4.328
 5442.00    1.31225   1.11569    4.417
 5443.00    1.30202   1.11790    4.454
 5444.00    1.25118   1.11515    4.387
 5445.00    1.21112   1.10877    4.331
 5446.00    1.22060   1.09959    4.375
 5447.00    1.25175   1.08878    4.434
 5448.00    1.26955   1.07933    4.416
 5449.00    1.28691   1.07529    4.388
 5450.00    1.31253   1.07708    4.423
 5451.00    1.30809   1.08013    4.465
 5452.00    1.24449   1.08133    4.460
 5453.00    1.14591   1.08173    4.464
 5454.00    1.06008   1.08237    4.512
 5455.00    1.03147   1.08142    4.533
 5456.00    1.08439   1.07752    4.487
 5457.00    1.21141   1.07342    4.439
 5458.00    1.36681   1.07365    4.435
 5459.00    1.47086   1.07771    4.439
 5460.00    1.45593   1.08099    4.446
 5461.00    1.30176   1.08248    4.521
 5462.00    1.07705   1.08389    4.639
 5463.00    0.92893   1.08472    4.629
 5464.00    0.92714   1.08323    4.487
 5465.00    1.01000   1.08149    4.432
 5466.00    1.09272   1.08233    4.539
 5467.00    1.12384   1.08415   -2.000
 5468.00    1.10431   1.08501   -2.000
 5469.00    1.07720   1.08617   -2.000
 5470.00    1.06173   1.08761   -2.000
 5471.00    1.04354   1.08667   -2.000
 5472.00    1.03071   1.08266   -2.000
 5473.00    1.04160   1.07648   -2.000
 5474.00    1.00315   1.06808   -2.000
 5475.00    0.79994   1.05853   -2.000
 5476.00    0.51398   1.05047   -2.000
 5477.00    0.38791   1.04303   -2.000
 5478.00    0.52826   1.03514   -2.000
 5479.00    0.85353   1.03147   -2.000
 5480.00    1.17940   1.03488   -2.000
 5481.00    1.32633   1.04063   -2.000
 5482.00    1.30951   1.04481   -2.000
 5483.00    1.27429   1.05018   -2.000
 5484.00    1.26584   1.05868   -2.000
 5485.00    1.24321   1.06724   -2.000
 5486.00    1.20536   1.07362   -2.000
 5487.00    1.18508   1.07797   -2.000
 5488.00    1.19213   1.08033   -2.000
 5489.00    1.21379   1.08130   -2.000
 5490.00    1.23353   1.08237   -2.000
 5491.00    1.23674   1.08348    4.524
 5492.00    1.21471   1.08376    4.501
 5493.00    1.16656   1.08397    4.493
 5494.00    1.10114   1.08411    4.561
 5495.00    1.03685   1.08383    4.724
 5496.00    0.99949   1.08432    4.818
 5497.00    0.99924   1.08527    4.703
 5498.00    1.00637   1.08394    4.573
 5499.00    0.99339   1.08098    4.617
 5500.00    0.98175   1.08015    4.722
 5501.00    0.99928   1.08043    4.709
 5502.00    1.03451   1.07739    4.639
 5503.00    1.07664   1.07168    4.615
 5504.00    1.15126   1.06776    4.593
 5505.00    1.25619   1.06632    4.524
 5506.00    1.31322   1.06420    4.473
 5507.00    1.26878   1.06035    4.505
 5508.00    1.16965   1.05719    4.611
 5509.00    1.08266   1.05675    4.726
 5510.00    1.03183   1.05722    4.756
 5511.00    1.01594   1.05628    4.681
 5512.00    1.02272   1.05494    4.610
 5513.00    1.02335   1.05479    4.630
 5514.00    0.97826   1.05584    4.744
 5515.00    0.89582   1.05851    4.881
 5516.00    0.84931   1.06346    4.922
 5517.00    0.87858   1.06984    4.842
 5518.00    0.94885   1.07683    4.761
 5519.00    1.02054   1.08472    4.718
 5520.00    1.08344   1.09269    4.630
 5521.00    1.14406   1.09833    4.497
 5522.00    1.21178   1.10071    4.434
 5523.00    1.26933   1.10053    4.493
 5524.00    1.27684   1.09806    4.615
 5525.00    1.23564   1.09265    4.656
 5526.00    1.19548   1.08505    4.511
 5527.00    1.18899   1.07726    4.490
 5528.00    1.20934   1.07025    5.205
 5529.00    1.21841   1.06421    7.144
 5530.00    1.17586   1.06072    9.284
 5531.00    1.11504   1.06130    9.360
 5532.00    1.11136   1.06421    8.734
 5533.00    1.13158   1.06700    8.732
 5534.00    1.06702   1.06994    9.450
 5535.00    0.92721   1.07354   10.790
 5536.00    0.82384   1.07662   12.244
 5537.00    0.81231   1.07940   12.468
 5538.00    0.87477   1.08324   11.017
 5539.00    0.96920   1.08718   10.011
 5540.00    1.05018   1.09023   10.541
 5541.00    1.08804   1.09354    9.936
 5542.00    1.07605   1.09725    6.720
 5543.00    1.03560   1.09923    4.791
 5544.00    1.00126   1.09889    4.417
 5545.00    0.99360   1.09860    4.750
 5546.00    1.01294   1.09971    4.929
 5547.00    1.03830   1.10121    4.792
 5548.00    1.04975   1.10285    4.736
 5549.00    1.05963   1.10595    4.796
 5550.00    1.08895   1.11005    4.816
 5551.00    1.13074   1.11300    4.775
 5552.00    1.16212   1.11430    4.745
 5553.00    1.16621   1.11472    4.762
 5554.00    1.14343   1.11380    4.821
 5555.00    1.11874   1.11106    4.886
 5556.00    1.10935   1.10785    4.920
 5557.00    1.09324   1.10552    4.921
 5558.00    1.04833   1.10347    4.909
 5559.00    0.99189   1.10083    4.894
 5560.00    0.96103   1.09817    4.869
 5561.00    0.98814   1.09610    4.803
 5562.00    1.07014   1.09359    4.703
 5563.00    1.15071   1.08966    4.646
 5564.00    1.17192   1.08505    4.675
 5565.00    1.11640   1.08116    4.745
 5566.00    1.01400   1.07768    4.797
 5567.00    0.93432   1.07382    4.812
 5568.00    0.91924   1.07073    4.790
 5569.00    0.94502   1.06921    4.730
 5570.00    0.96425   1.06788    4.671
 5571.00    0.93995   1.06686    4.687
 5572.00    0.88345   1.06794    4.771
 5573.00    0.85786   1.06974    4.801
 5574.00    0.89069   1.07036    4.738
 5575.00    0.94396   1.07240    4.694
 5576.00    0.98980   1.07702    4.713
 5577.00    1.03662   1.08096    4.716
 5578.00    1.08150   1.08347    4.661
 5579.00    1.09894   1.08656    4.594
 5580.00    1.08214   1.08952    4.551
 5581.00    1.05209   1.09053    4.528
 5582.00    1.02798   1.08942    4.497
 5583.00    1.01506   1.08580    4.429
 5584.00    1.00236   1.07957    4.333
 5585.00    0.97361   1.07156    4.250
 5586.00    0.94185   1.06173    4.214
 5587.00    0.94109   1.04999    4.237
 5588.00    0.97214   1.03823    4.297
 5589.00    1.00545   1.02889    4.347
 5590.00    1.03010   1.02279    4.362
 5591.00    1.05588   1.01989    4.350
 5592.00    1.08568   1.02067    4.332
 5593.00    1.11286   1.02507    4.333
 5594.00    1.13065   1.03134    4.367
 5595.00    1.13498   1.03722    4.436
 5596.00    1.12540   1.04276    4.531
 5597.00    1.10700   1.04882    4.623
 5598.00    1.09289   1.05309    4.675
 5599.00    1.09500   1.05287    4.672
 5600.00    1.10749   1.05076    4.674
 5601.00    1.11234   1.05063    4.740
 5602.00    1.09387   1.05153    4.800
 5603.00    1.05763   1.05201    4.762
 5604.00    1.05191   1.05495    4.726
 5605.00    1.11827   1.06284    4.809
 5606.00    1.22198   1.07395    4.900
 5607.00    1.28908   1.08513    4.856
 5608.00    1.26774   1.09555    4.816
 5609.00    1.16231   1.10492    4.929
 5610.00    1.05725   1.11204    5.034
 5611.00    1.02960   1.11513    4.943
 5612.00    1.05658   1.11346    4.836
 5613.00    1.07592   1.10823    4.897
 5614.00    1.05709   1.10137    5.003
 5615.00    1.01404   1.09263    4.984
 5616.00    1.00319   1.08129    4.913
 5617.00    1.05298   1.07087    4.898
 5618.00    1.11244   1.06576    4.911
 5619.00    1.12551   1.06431    4.903
 5620.00    1.09101   1.06282    4.893
 5621.00    1.04585   1.06203    4.904
 5622.00    1.04130   1.06377    4.919
 5623.00    1.08679   1.06647    4.926
 5624.00    1.12612   1.06729    4.940
 5625.00    1.12187   1.06579    4.972
 5626.00    1.09794   1.06467    5.008
 5627.00    1.07419   1.06678    5.021
 5628.00    1.03652   1.07107    4.986
 5629.00    0.98528   1.07542    4.931
 5630.00    0.95407   1.08069    4.930
 5631.00    0.97175   1.08750    4.984
 5632.00    1.04011   1.09340    5.002
 5633.00    1.12154   1.09643    4.967
 5634.00    1.15430   1.09674    4.970
 5635.00    1.13449   1.09476    5.011
 5636.00    1.12462   1.09110    4.981
 5637.00    1.15811   1.08637    4.902
 5638.00    1.21349   1.08060    4.928
 5639.00    1.25459   1.07500    5.031
 5640.00    1.25328   1.07151    5.005
 5641.00    1.21376   1.06963    4.854
 5642.00    1.16873   1.06783    4.782
 5643.00    1.14555   1.06736    4.830
 5644.00    1.15441   1.06956    4.889
 5645.00    1.18488   1.07284    4.907
 5646.00    1.21641   1.07569    4.913
 5647.00    1.24576   1.07877    4.889
 5648.00    1.27385   1.08248    4.810
 5649.00    1.26157   1.08589    4.779
 5650.00    1.16330   1.08796    4.926
 5651.00    1.01639   1.08836    5.173
 5652.00    0.91097   1.08772    5.270
 5653.00    0.89428   1.08659    5.157
 5654.00    0.95574   1.08386    4.996
 5655.00    1.03657   1.07767    4.939
 5656.00    1.07722   1.06917    5.049
 5657.00    1.08933   1.06201    5.220
 5658.00    1.11153   1.05561    5.268
 5659.00    1.12660   1.04663    5.179
 5660.00    1.09816   1.03832    5.064
 5661.00    1.03842   1.03652    5.000
 5662.00    0.98683   1.03860    4.985
 5663.00    0.96972   1.03935    4.928
 5664.00    0.99144   1.04113    4.762
 5665.00    1.03152   1.04723    4.576
 5666.00    1.06638   1.05449    4.474
 5667.00    1.09266   1.05939    4.482
 5668.00    1.11612   1.06301    4.576
 5669.00    1.13795   1.06745    4.705
 5670.00    1.15783   1.07286    4.813
 5671.00    1.17731   1.07825    4.883
 5672.00    1.19341   1.08318    4.920
 5673.00    1.19496   1.08860    4.933
 5674.00    1.18028   1.09514    4.932
 5675.00    1.16815   1.10103    4.933
 5676.00    1.16920   1.10438    4.935
 5677.00    1.16775   1.10621    4.916
 5678.00    1.14901   1.10755    4.910
 5679.00    1.11548   1.10642    5.014
 5680.00    1.06625   1.10189    5.129
 5681.00    0.98913   1.09655    4.864
 5682.00    0.89611   1.09154    4.326
 5683.00    0.83604   1.08503    4.041
 5684.00    0.84865   1.07741    4.082
 5685.00    0.93807   1.07161    4.122
 5686.00    1.06948   1.06829    4.023
 5687.00    1.17942   1.06592    4.035
 5688.00    1.22703   1.06445    4.271
 5689.00    1.21307   1.06535    4.546
 5690.00    1.15919   1.06907    4.684
 5691.00    1.09464   1.07424    4.731
 5692.00    1.04110   1.07949    4.804
 5693.00    1.00800   1.08507    4.969
 5694.00    0.99727   1.09082    5.146
 5695.00    1.00394   1.09483    5.149
 5696.00    1.01261   1.09628    5.036
 5697.00    1.00612   1.09636    5.061
 5698.00    0.99394   1.09466    5.208
 5699.00    1.00540   1.09005    5.212
 5700.00    1.04744   1.08427    5.057
 5701.00    1.09600   1.07917    4.974
 5702.00    1.10592   1.07345    5.043
 5703.00    1.04382   1.06672    5.187
 5704.00    0.95571   1.06121    5.266
 5705.00    0.92567   1.05696    5.177
 5706.00    0.95458   1.05156    5.035
 5707.00    0.97956   1.04509    5.018
 5708.00    0.96532   1.03965    5.109
 5709.00    0.91696   1.03496    5.171
 5710.00    0.86791   1.03058    5.168
 5711.00    0.85481   1.02882    5.154
 5712.00    0.88014   1.03055    5.149
 5713.00    0.92804   1.03454    5.139
 5714.00    0.99774   1.04153    5.111
 5715.00    1.08671   1.05160    5.057
 5716.00    1.16099   1.06206    4.975
 5717.00    1.18719   1.07222    4.885
 5718.00    1.17882   1.08253    4.831
 5719.00    1.17496   1.09168    4.843
 5720.00    1.20497   1.09923    4.880
 5721.00    1.26576   1.10576    4.886
 5722.00    1.30522   1.11105    4.845
 5723.00    1.27468   1.11503    4.795
 5724.00    1.18395   1.11771    4.811
 5725.00    1.08324   1.11869    4.920
 5726.00    1.03540   1.11858    5.018
 5727.00    1.06749   1.11764    5.012
 5728.00    1.13575   1.11498    4.965
 5729.00    1.17960   1.11157    4.949
 5730.00    1.17034   1.10956    4.936
 5731.00    1.12330   1.10830    4.915
 5732.00    1.09453   1.10625    4.966
 5733.00    1.10952   1.10498    5.119
 5734.00    1.12370   1.10611    5.259
 5735.00    1.09509   1.10797    5.288
 5736.00    1.03028   1.10893    5.260
 5737.00    0.96338   1.10981    5.237
 5738.00    0.93661   1.11116    5.212
 5739.00    0.97156   1.11195    5.177
 5740.00    1.05660   1.11169    0.000
 5741.00    1.16164   1.11092    0.000
 5742.00    1.25119   1.11028    0.000
 5743.00    1.30698   1.10973    0.000
 5744.00    1.33322   1.10886    0.000
 5745.00    1.33396   1.10773    0.000
 5746.00    1.30753   1.10697    0.000
 5747.00    1.26421   1.10642    0.000
 5748.00    1.22571   1.10478    0.000
 5749.00    1.19762   1.10185    0.000
 5750.00    1.16875   1.09897    0.000
 5751.00    1.14279   1.09640    0.000
 5752.00    1.13800   1.09307    0.000
 5753.00    1.15354   1.08933    0.000
 5754.00    1.16591   1.08646    0.000
 5755.00    1.14970   1.08491    0.000
 5756.00    1.09128   1.08490    0.000
 5757.00    1.00749   1.08620    0.000
 5758.00    0.93327   1.08782    0.000
 5759.00    0.88111   1.08928    0.000
 5760.00    0.84844   1.09046    0.000
 5761.00    0.85480   1.09099    0.000
 5762.00    0.92346   1.09083    0.000
 5763.00    1.02851   1.09027    0.000
 5764.00    1.11690   1.09024    0.000
 5765.00    1.16936   1.09246    0.000
 5766.00    1.19646   1.09660    0.000
 5767.00    1.21162   1.10080    0.000
 5768.00    1.22518   1.10497    0.000
 5769.00    1.24272   1.10939    0.000
 5770.00    1.26685   1.11239    0.000
 5771.00    1.29973   1.11322    0.000
 5772.00    1.33224   1.11254    0.000
 5773.00    1.33130   1.11084    0.000
 5774.00    1.27373   1.10864    0.000
 5775.00    1.18852   1.10615    0.000
 5776.00    1.12822   1.10311    0.000
 5777.00    1.12840   1.09979    0.000
 5778.00    1.18973   1.09584    0.000
 5779.00    1.26658   1.09033   -2.000
 5780.00    1.29815   1.08374   -2.000
 5781.00    1.24222   1.07639   -2.000
 5782.00    1.09193   1.06758   -2.000
 5783.00    0.88666   1.05913   -2.000
 5784.00    0.69593   1.05361   -2.000
 5785.00    0.59866   1.05015   -2.000
 5786.00    0.63141   1.04782   -2.000
 5787.00    0.75492   1.04902   -2.000
 5788.00    0.89881   1.05391   -2.000
 5789.00    0.99999   1.05947   -2.000
 5790.00    1.03095   1.06499   -2.000
 5791.00    1.01136   1.07118   -2.000
 5792.00    0.97151   1.07705   -2.000
 5793.00    0.93047   1.08217   -2.000
 5794.00    0.90422   1.08672   -2.000
 5795.00    0.90771   1.08996   -2.000
 5796.00    0.93899   1.09274   -2.000
 5797.00    0.97604   1.09615   -2.000
 5798.00    1.00143   1.09857   -2.000
 5799.00    1.01212   1.10004    0.000
 5800.00    1.00880   1.10273    0.000
 5801.00    0.99297   1.10584    0.000
 5802.00    0.97482   1.10720    0.000
 5803.00    0.97089   1.10798    0.000
 5804.00    0.98382   1.10919    0.000
 5805.00    1.00120   1.10896    0.000
 5806.00    1.01799   1.10716    0.000
 5807.00    1.04168   1.10572    0.000
 5808.00    1.08332   1.10504    0.000
 5809.00    1.14807   1.10435    0.000
 5810.00    1.21749   1.10415    0.000
 5811.00    1.26071   1.10498    0.000
 5812.00    1.27709   1.10626    0.000
 5813.00    1.29004   1.10678    0.000
 5814.00    1.30394   1.10663    0.000
 5815.00    1.30282   1.10682    0.000
 5816.00    1.27215   1.10705    0.000
 5817.00    1.21071   1.10675    0.000
 5818.00    1.14354   1.10739    0.000
 5819.00    1.10284   1.10989    0.000
 5820.00    1.08736   1.11273    0.000
 5821.00    1.07348   1.11528    0.000
 5822.00    1.04901   1.11855    0.000
 5823.00    1.01798   1.12201    0.000
 5824.00    0.99807   1.12414    0.000
 5825.00    1.00548   1.12539    0.000
 5826.00    1.03385   1.12666    0.000
 5827.00    1.06528   1.12756    0.000
 5828.00    1.08977   1.12774    0.000
 5829.00    1.10435   1.12774    0.000
 5830.00    1.10856   1.12798    0.000
 5831.00    1.10670   1.12781    0.000
 5832.00    1.11006   1.12665    0.000
 5833.00    1.12497   1.12531    0.000
 5834.00    1.14062   1.12442    0.000
 5835.00    1.14240   1.12296    0.000
 5836.00    1.12708   1.12090    0.000
 5837.00    1.10711   1.12008    0.000
 5838.00    1.10961   1.12039    0.000
 5839.00    1.14245   1.12026    0.000
 5840.00    1.17059   1.12057    0.000
 5841.00    1.16289   1.12238    0.000
 5842.00    1.12824   1.12412    0.000
 5843.00    1.09297   1.12456    0.000
 5844.00    1.07976   1.12456    0.000
 5845.00    1.09049   1.12398    0.000
 5846.00    1.10150   1.12207    0.000
 5847.00    1.10242   1.11895    0.000
 5848.00    1.11517   1.11513    0.000
 5849.00    1.16059   1.11085    0.000
 5850.00    1.23673   1.10609    0.000
 5851.00    1.31092   1.10081    0.000
 5852.00    1.32962   1.09550    0.000
 5853.00    1.28294   1.09014    0.000
 5854.00    1.21950   1.08379    0.000
 5855.00    1.16984   1.07723    0.000
 5856.00    1.12324   1.07220    0.000
 5857.00    1.07878   1.06786    0.000
 5858.00    1.05605   1.06326    0.000
 5859.00    1.05234   1.06084    0.000
 5860.00    1.03844   1.06157    0.000
 5861.00    1.00259   1.06355    0.000
 5862.00    0.95961   1.06619    0.000
 5863.00    0.92897   1.07014    0.000
 5864.00    0.92766   1.07484    0.000
 5865.00    0.97069   1.07987    0.000
 5866.00    1.06448   1.08493    0.000
 5867.00    1.18882   1.08859    0.000
 5868.00    1.30139   1.09161    0.000
 5869.00    1.36203   1.09559    0.000
 5870.00    1.35198   1.09922    0.000
 5871.00    1.30232   1.10136    0.000
 5872.00    1.27105   1.10320    0.000
 5873.00    1.28106   1.10498    0.000
 5874.00    1.31528   1.10540    0.000
 5875.00    1.33464   1.10475    0.000
 5876.00    1.30254   1.10356    0.000
 5877.00    1.22160   1.10106    0.000
 5878.00    1.12760   1.09759    0.000
 5879.00    1.06695   1.09433    0.000
 5880.00    1.06652   1.09082    0.000
 5881.00    1.09568   1.08603    0.000
 5882.00    1.10313   1.08103    0.000
 5883.00    1.07682   1.07615    0.000
 5884.00    1.03945   1.06940    0.000
 5885.00    1.02941   1.05988    0.000
 5886.00    1.06893   1.04794    0.000
 5887.00    1.13136   1.03186    0.000
 5888.00    1.17718   1.01184    0.000
 5889.00    1.19718   0.99070    0.000
 5890.00    1.19725   0.96769    0.000
 5891.00    1.17857   0.94456    0.000
 5892.00    1.14252   0.92792    0.000
 5893.00    1.09661   0.91666    0.000
 5894.00    1.04834   0.90718    0.000
 5895.00    1.00049   0.90511    0.000
 5896.00    0.96179   0.91065    0.000
 5897.00    0.95301   0.91736    0.000
 5898.00    0.98432   0.92878    0.000
 5899.00    1.03974   0.94668    0.000
 5900.00    1.09182   0.96362    0.000
 5901.00    1.11560   0.98090    5.377
 5902.00    1.10839   1.00301    5.486
 5903.00    1.09591   1.02342    5.540
 5904.00    1.09615   1.03847    5.553
 5905.00    1.10124   1.05163    5.566
 5906.00    1.09784   1.06252    5.602
 5907.00    1.08045   1.06935    5.653
 5908.00    1.05854   1.07413    5.719
 5909.00    1.05441   1.07819    5.817
 5910.00    1.07834   1.08025    5.889
 5911.00    1.11967   1.08054    5.815
 5912.00    1.15855   1.08046    5.660
 5913.00    1.17652   1.07996    5.650
 5914.00    1.17592   1.07776    5.812
 5915.00    1.17793   1.07496    5.926
 5916.00    1.18875   1.07326    5.864
 5917.00    1.19505   1.07236    5.712
 5918.00    1.19010   1.07211    5.582
 5919.00    1.17802   1.07301    5.528
 5920.00    1.15962   1.07514    5.504
 5921.00    1.13255   1.07810    5.425
 5922.00    1.10403   1.08130    5.326
 5923.00    1.08680   1.08380    5.314
 5924.00    1.07997   1.08576    5.383
 5925.00    1.07305   1.08744    5.435
 5926.00    1.06708   1.08802    5.437
 5927.00    1.07058   1.08749    5.431
 5928.00    1.08008   1.08636    5.415
 5929.00    1.08334   1.08504    5.376
 5930.00    1.07446   1.08345    5.374
 5931.00    1.05344   1.08141    5.479
 5932.00    1.02007   1.07972    5.619
 5933.00    0.97969   1.07949    5.656
 5934.00    0.95406   1.07980    5.613
 5935.00    0.96376   1.07966    5.605
 5936.00    0.99880   1.08063    5.662
 5937.00    1.03738   1.08311    5.742
 5938.00    1.07871   1.08475    5.803
 5939.00    1.12901   1.08513    5.831
 5940.00    1.17733   1.08628    5.870
 5941.00    1.20479   1.08769    5.957
 5942.00    1.20064   1.08750    6.031
 5943.00    1.16948   1.08703    6.003
 5944.00    1.13552   1.08745    5.857
 5945.00    1.12182   1.08730    5.663
 5946.00    1.12897   1.08629    5.531
 5947.00    1.14706   1.08562    5.518
 5948.00    1.17035   1.08529    5.567
 5949.00    1.20534   1.08402    5.598
 5950.00    1.27210   1.08165    5.589
 5951.00    1.36225   1.07990    5.557
 5952.00    1.41230   1.07923    5.535
 5953.00    1.37236   1.07770    5.546
 5954.00    1.25766   1.07565    5.587
 5955.00    1.12356   1.07581    5.629
 5956.00    1.03805   1.07715    5.615
 5957.00    1.03376   1.07734    5.529
 5958.00    1.08418   1.07797    5.422
 5959.00    1.14658   1.08068    5.360
 5960.00    1.19030   1.08373    5.387
 5961.00    1.20327   1.08628    5.478
 5962.00    1.19214   1.08944    5.533
 5963.00    1.16807   1.09273    5.535
 5964.00    1.14092   1.09531    5.597
 5965.00    1.12658   1.09772    5.728
 5966.00    1.14243   1.09956    5.766
 5967.00    1.17285   1.10053    5.685
 5968.00    1.17032   1.10175    5.663
 5969.00    1.11899   1.10324    5.765
 5970.00    1.04955   1.10397    5.891
 5971.00    0.99775   1.10458    5.975
 5972.00    0.98547   1.10533    6.048
 5973.00    1.01121   1.10472    6.126
 5974.00    1.05264   1.10281    6.169
 5975.00    1.08407   1.10041    6.131
 5976.00    1.08625   1.09698    6.009
 5977.00    1.05773   1.09271    5.892
 5978.00    1.01282   1.08892    5.895
 5979.00    0.96777   1.08562    6.008
 5980.00    0.93735   1.08259    6.108
 5981.00    0.93566   1.08010    6.101
 5982.00    0.96968   1.07780    5.979
 5983.00    1.02538   1.07585    5.817
 5984.00    1.07564   1.07399    5.706
 5985.00    1.10304   1.07147    5.664
 5986.00    1.10768   1.06964    5.656
 5987.00    1.11185   1.06956    5.629
 5988.00    1.13893   1.06967    5.563
 5989.00    1.17658   1.06992    5.522
 5990.00    1.19675   1.07234    5.575
 5991.00    1.19715   1.07581    5.670
 5992.00    1.18930   1.07798    5.707
 5993.00    1.17145   1.07999    5.690
 5994.00    1.13859   1.08266    5.688
 5995.00    1.10088   1.08416    5.726
 5996.00    1.07299   1.08409    5.783
 5997.00    1.05803   1.08380    5.803
 5998.00    1.05335   1.08316    5.759
 5999.00    1.05867   1.08165    5.714
 6000.00    1.06517   1.07973    5.734
 6001.00    1.04582   1.07790    5.800
 6002.00    0.99018   1.07647    5.856
 6003.00    0.93607   1.07475    5.860
 6004.00    0.92850   1.07260    5.813
 6005.00    0.97878   1.07090    5.775
 6006.00    1.06179   1.06897    5.778
 6007.00    1.12263   1.06659    5.784
 6008.00    1.12630   1.06481    5.764
 6009.00    1.09181   1.06328    5.758
 6010.00    1.05621   1.06195    5.797
 6011.00    1.04451   1.06170    5.842
 6012.00    1.05675   1.06204    5.847
 6013.00    1.06686   1.06190    5.805
 6014.00    1.06195   1.06153    5.756
 6015.00    1.06040   1.06156    5.770
 6016.00    1.07459   1.06152    5.835
 6017.00    1.09268   1.06007    5.830
 6018.00    1.09916   1.05794    5.723
 6019.00    1.08607   1.05725    5.641
 6020.00    1.05192   1.05665    5.658
 6021.00    1.00084   1.05478    5.736
 6022.00    0.94220   1.05411    5.811
 6023.00    0.88912   1.05569    5.838
 6024.00    0.85347   1.05717    5.820
 6025.00    0.84347   1.05854    5.804
 6026.00    0.86296   1.06235    5.824
 6027.00    0.90875   1.06727    5.875
 6028.00    0.96310   1.07115    5.894
 6029.00    0.99947   1.07554    5.815
 6030.00    1.00869   1.08119    5.746
 6031.00    1.00194   1.08585    5.870
 6032.00    0.99457   1.08931    6.080
 6033.00    0.99665   1.09324    6.032
 6034.00    1.00185   1.09678    5.832
 6035.00    0.99557   1.09889    5.873
 6036.00    0.98202   1.10045    6.122
 6037.00    0.97854   1.10172    6.202
 6038.00    0.98768   1.10219    6.065
 6039.00    1.00239   1.10196    5.976
 6040.00    1.02987   1.10128    6.000
 6041.00    1.07860   1.10069    6.036
 6042.00    1.12476   1.10024    6.019
 6043.00    1.13391   1.09961    5.944
 6044.00    1.11044   1.09961    5.836
 6045.00    1.08436   1.10060    5.740
 6046.00    1.07516   1.10148    5.728
 6047.00    1.08926   1.10227    5.820
 6048.00    1.12511   1.10379    5.854
 6049.00    1.16964   1.10488    5.705
 6050.00    1.19353   1.10462    5.591
 6051.00    1.17300   1.10402    5.722
 6052.00    1.11780   1.10313    5.906
 6053.00    1.05853   1.10088    5.869
 6054.00    1.02625   1.09769    5.789
 6055.00    1.03632   1.09501    5.913
 6056.00    1.07478   1.09256    6.118
 6057.00    1.11505   1.08988    6.166
 6058.00    1.13713   1.08815    6.093
 6059.00    1.13500   1.08758    6.044
 6060.00    1.12000   1.08702    6.063
 6061.00    1.10488   1.08652    6.127
 6062.00    1.09048   1.08624    6.181
 6063.00    1.07396   1.08500    6.182
 6064.00    1.05591   1.08361    6.140
 6065.00    1.03734   1.08306    6.118
 6066.00    1.01763   1.08211    6.209
 6067.00    0.99864   1.08205    6.392
 6068.00    0.98699   1.08461    6.446
 6069.00    0.98979   1.08809    6.295
 6070.00    1.01125   1.09176    6.172
 6071.00    1.04945   1.09666    6.172
 6072.00    1.09526   1.10160    6.112
 6073.00    1.13603   1.10487    5.925
 6074.00    1.15812   1.10685    5.787
 6075.00    1.14918   1.10759    5.785
 6076.00    1.10229   1.10612    5.837
 6077.00    1.02931   1.10305    5.857
 6078.00    0.96208   1.09939    5.834
 6079.00    0.93205   1.09438    5.832
 6080.00    0.95851   1.08859    5.932
 6081.00    1.03757   1.08407    6.066
 6082.00    1.14004   1.08002    6.027
 6083.00    1.21886   1.07553    5.867
 6084.00    1.22623   1.07266    5.860
 6085.00    1.15843   1.07148    6.045
 6086.00    1.05710   1.07022    6.210
 6087.00    0.96864   1.06923    6.251
 6088.00    0.92501   1.06925    6.259
 6089.00    0.92674   1.06975    6.277
 6090.00    0.94966   1.06990    6.270
 6091.00    0.97351   1.06965    6.221
 6092.00    0.98981   1.07019    6.155
 6093.00    1.00250   1.07152    6.123
 6094.00    1.02440   1.07215    6.161
 6095.00    1.06930   1.07297    6.231
 6096.00    1.14030   1.07501    6.252
 6097.00    1.21161   1.07621    6.202
 6098.00    1.24852   1.07614    6.130
 6099.00    1.24959   1.07582    6.107
 6100.00    1.23613   1.07350    6.167
 6101.00    1.22156   1.06955    6.207
 6102.00    1.20838   1.06628    6.111
 6103.00    1.19209   1.06188    5.958
 6104.00    1.17007   1.05715    5.894
 6105.00    1.15263   1.05582    5.941
 6106.00    1.15096   1.05614    6.021
 6107.00    1.15986   1.05703    5.991
 6108.00    1.16784   1.06048    5.802
 6109.00    1.17155   1.06504    5.632
 6110.00    1.16782   1.06913    5.634
 6111.00    1.14429   1.07329    5.744
 6112.00    1.09602   1.07670    5.830
 6113.00    1.04211   1.07889    5.876
 6114.00    1.00553   1.08039    5.931
 6115.00    0.99272   1.08111    6.038
 6116.00    0.99888   1.08071    6.208
 6117.00    1.01579   1.07884    6.411
 6118.00    1.04478   1.07635    6.574
 6119.00    1.10252   1.07320    6.599
 6120.00    1.18723   1.06797    6.432
 6121.00    1.25854   1.06280    6.114
 6122.00    1.28111   1.05903    5.749
 6123.00    1.25474   1.05430    5.449
 6124.00    1.20276   1.05084    5.259
 6125.00    1.15825   1.05084    5.163
 6126.00    1.13377   1.05104    5.163
 6127.00    1.11042   1.05174    5.297
 6128.00    1.07515   1.05507    5.521
 6129.00    1.03890   1.05816    5.650
 6130.00    1.02102   1.05970    5.614
 6131.00    1.03770   1.06154    5.580
 6132.00    1.08764   1.06224    5.649
 6133.00    1.14810   1.06032    5.748
 6134.00    1.18622   1.05655    5.798
 6135.00    1.17266   1.05080    5.786
 6136.00    1.11399   1.04396    5.778
 6137.00    1.05232   1.03705    5.865
 6138.00    1.01764   1.02983    6.010
 6139.00    1.01303   1.02437    6.063
 6140.00    1.02513   1.02286    6.057
 6141.00    1.03790   1.02422    6.187
 6142.00    1.06181   1.02702    6.383
 6143.00    1.12147   1.03233    6.300
 6144.00    1.19699   1.03991    5.918
 6145.00    1.23338   1.04654    5.532
 6146.00    1.20820   1.05142    5.300
 6147.00    1.13979   1.05619    5.247
 6148.00    1.06309   1.05976    5.353
 6149.00    1.01217   1.06079    5.580
 6150.00    0.99590   1.06098    5.876
 6151.00    1.00334   1.06130    6.153
 6152.00    1.02534   1.06054    6.265
 6153.00    1.05234   1.05931    6.133
 6154.00    1.06271   1.05897    5.954
 6155.00    1.04278   1.05766    5.957
 6156.00    1.02274   1.05478    6.081
 6157.00    1.03840   1.05206    6.131
 6158.00    1.06371   1.04773    6.102
 6159.00    1.05095   1.04019    6.102
 6160.00    1.00361   1.03210    6.126
 6161.00    0.95413   1.02404    6.113
 6162.00    0.91965   1.01451    6.067
 6163.00    0.90232   1.00556    6.019
 6164.00    0.89723   0.99934    5.975
 6165.00    0.89618   0.99579    5.933
 6166.00    0.89124   0.99431    5.916
 6167.00    0.87958   0.99430    5.963
 6168.00    0.86820   0.99684    6.122
 6169.00    0.87484   1.00141    6.388
 6170.00    0.92515   1.00460    6.620
 6171.00    1.02131   1.00729    6.647
 6172.00    1.11842   1.01248    6.461
 6173.00    1.16727   1.01757    6.178
 6174.00    1.15164   1.02091    5.930
 6175.00    1.08504   1.02587    5.789
 6176.00    1.00240   1.03236    5.758
 6177.00    0.93473   1.03702    5.824
 6178.00    0.89322   1.04070    5.974
 6179.00    0.88309   1.04582    6.174
 6180.00    0.91167   1.05023    6.340
 6181.00    0.97708   1.05250    6.419
 6182.00    1.06361   1.05519    6.411
 6183.00    1.15696   1.05795   -2.000
 6184.00    1.24805   1.05827   -2.000
 6185.00    1.30773   1.05746   -2.000
 6186.00    1.28570   1.05623   -2.000
 6187.00    1.16758   1.05318   -2.000
 6188.00    0.99386   1.04874   -2.000
 6189.00    0.82150   1.04336   -2.000
 6190.00    0.70233   1.03821   -2.000
 6191.00    0.66831   1.03440   -2.000
 6192.00    0.72263   1.03044   -2.000
 6193.00    0.82911   1.02813   -2.000
 6194.00    0.92602   1.02959   -2.000
 6195.00    0.98421   1.03187    5.037
 6196.00    1.01383   1.03441    5.088
 6197.00    1.02144   1.03881    5.283
 6198.00    1.00496   1.04319    5.715
 6199.00    0.97898   1.04635    6.295
 6200.00    0.97142   1.04887    6.681
 6201.00    0.99531   1.05088    6.752
 6202.00    1.04345   1.05275    6.756
 6203.00    1.09462   1.05464    6.802
 6204.00    1.12365   1.05647    6.819
 6205.00    1.12000   1.05858    6.807
 6206.00    1.09127   1.06082    6.806
 6207.00    1.06106   1.06255    6.726
 6208.00    1.05683   1.06300    6.462
 6209.00    1.08801   1.06233    6.159
 6210.00    1.14516   1.06054    6.020
 6211.00    1.20656   1.05650    6.073
 6212.00    1.24997   1.05095    6.215
 6213.00    1.26901   1.04493    6.240
 6214.00    1.26357   1.03758    6.001
 6215.00    1.22262   1.03018    5.642
 6216.00    1.14316   1.02416    5.370
 6217.00    1.05771   1.01853    5.247
 6218.00    1.00394   1.01442    5.262
 6219.00    0.98268   1.01267    5.394
 6220.00    0.97866   1.01182    5.619
 6221.00    0.98999   1.01214    5.932
 6222.00    1.01639   1.01389    6.288
 6223.00    1.04344   1.01616    6.513
 6224.00    1.05133   1.01852    6.506
 6225.00    1.02663   1.02038    6.473
 6226.00    0.97445   1.02202    6.611
 6227.00    0.92585   1.02282    6.833
 6228.00    0.91064   1.02125    6.948
 6229.00    0.93364   1.01908    6.888
 6230.00    0.97757   1.01692    6.747
 6231.00    1.01086   1.01298    6.719
 6232.00    1.01791   1.00990    6.844
 6233.00    1.01665   1.00935    6.894
 6234.00    1.02771   1.00880    6.714
 6235.00    1.05391   1.00938    6.463
 6236.00    1.08757   1.01229    6.310
 6237.00    1.11718   1.01436    6.289
 6238.00    1.13362   1.01487    6.335
 6239.00    1.13320   1.01549    6.308
 6240.00    1.11453   1.01456    6.155
 6241.00    1.07789   1.01081    5.963
 6242.00    1.02991   1.00756    5.788
 6243.00    0.98493   1.00484    5.623
 6244.00    0.95965   1.00027    5.542
 6245.00    0.96700   0.99750    5.678
 6246.00    1.00124   0.99732    5.911
 6247.00    1.03984   0.99613    5.819
 6248.00    1.07316   0.99629    5.428
 6249.00    1.10991   0.99873    5.164
 6250.00    1.15547   0.99962    5.042
 6251.00    1.20220   0.99976    4.846
 6252.00    1.22386   1.00021    4.846
 6253.00    1.19142   0.99840    5.719
 6254.00    1.12287   0.99509    7.988
 6255.00    1.07466   0.99208   10.092
 6256.00    1.07867   0.98840    9.577
 6257.00    1.12790   0.98508    8.627
 6258.00    1.18624   0.98403    8.338
 6259.00    1.20975   0.98404    8.381
 6260.00    1.18839   0.98562    8.479
 6261.00    1.14353   0.99036    8.588
 6262.00    1.10132   0.99561    8.958
 6263.00    1.07830   1.00086    9.736
 6264.00    1.06535   1.00798    9.734
 6265.00    1.03994   1.01428    8.022
 6266.00    0.99366   1.01829    6.523
 6267.00    0.93977   1.02253    6.114
 6268.00    0.91553   1.02629    6.321
 6269.00    0.95002   1.02794    6.448
 6270.00    1.01643   1.02940    6.317
 6271.00    1.06147   1.03145    6.162
 6272.00    1.05757   1.03271    6.097
 6273.00    1.01175   1.03379    6.117
 6274.00    0.96534   1.03539    6.168
 6275.00    0.95940   1.03629    6.204
 6276.00    0.99420   1.03668    6.260
 6277.00    1.04024   1.03694    6.382
 6278.00    1.05835   1.03599    6.554
 6279.00    1.02787   1.03465    6.732
 6280.00    0.97094   1.03347    0.000
 6281.00    0.92514   1.03171    0.000
 6282.00    0.91422   1.03081    0.000
 6283.00    0.93966   1.03101    0.000
 6284.00    0.97848   1.03165    0.000
 6285.00    1.01043   1.03373    0.000
 6286.00    1.03839   1.03653    0.000
 6287.00    1.07328   1.03942    0.000
 6288.00    1.11954   1.04257    0.000
 6289.00    1.16062   1.04500    0.000
 6290.00    1.15719   1.04667    0.000
 6291.00    1.09670   1.04722    0.000
 6292.00    1.01713   1.04649    0.000
 6293.00    0.95794   1.04517    0.000
 6294.00    0.93180   1.04253    0.000
 6295.00    0.93406   1.03903    0.000
 6296.00    0.95131   1.03570    0.000
 6297.00    0.97374   1.03158    0.000
 6298.00    1.00054   1.02723    0.000
 6299.00    1.03683   1.02348    0.000
 6300.00    1.08742   1.01990    0.000
 6301.00    1.13797   1.01711    0.000
 6302.00    1.15616   1.01542    0.000
 6303.00    1.12684   1.01464    0.000
 6304.00    1.06316   1.01558    0.000
 6305.00    0.99585   1.01798    0.000
 6306.00    0.96100   1.02074    0.000
 6307.00    0.97443   1.02424    0.000
 6308.00    1.02639   1.02840    0.000
 6309.00    1.09184   1.03132    0.000
 6310.00    1.14186   1.03288    0.000
 6311.00    1.16549   1.03394    0.000
 6312.00    1.16933   1.03302    0.000
 6313.00    1.16081   1.02994    0.000
 6314.00    1.14429   1.02691    0.000
 6315.00    1.12240   1.02289    0.000
 6316.00    1.09567   1.01721    0.000
 6317.00    1.06120   1.01328    0.000
 6318.00    1.01841   1.01056    0.000
 6319.00    0.98066   1.00712    0.000
 6320.00    0.96529   1.00630    0.000
 6321.00    0.97161   1.00838    6.544
 6322.00    0.98609   1.01053    6.474
 6323.00    0.99831   1.01412    6.554
 6324.00    1.00735   1.01983    6.643
 6325.00    1.02649   1.02521    6.689
 6326.00    1.06695   1.03007    6.709
 6327.00    1.11431   1.03512    6.714
 6328.00    1.14237   1.03884    6.716
 6329.00    1.13657   1.04125    6.760
 6330.00    1.10119   1.04305    6.876
 6331.00    1.06263   1.04307    7.003
 6332.00    1.04611   1.04192    7.066
 6333.00    1.04950   1.04005    7.077
 6334.00    1.05229   1.03676    7.080
 6335.00    1.03010   1.03311    7.073
 6336.00    0.97703   1.02912    7.058
 6337.00    0.92231   1.02480    7.086
 6338.00    0.89488   1.02192    7.160
 6339.00    0.89236   1.01981    7.171
 6340.00    0.90058   1.01790    7.073
 6341.00    0.91202   1.01775    7.016
 6342.00    0.92577   1.01833    7.059
 6343.00    0.94632   1.01851    7.010
 6344.00    0.98259   1.01907    6.797
 6345.00    1.04438   1.01957    6.644
 6346.00    1.12417   1.02034    6.577
 6347.00    1.19106   1.02147    6.298
 6348.00    1.22641   1.02235    5.830
 6349.00    1.24052   1.02445    5.580
 6350.00    1.24405   1.02709    5.647
 6351.00    1.23312   1.02876    5.758
 6352.00    1.19862   1.03040    5.761
 6353.00    1.13518   1.03143    5.837
 6354.00    1.05829   1.03086    6.060
 6355.00    1.00207   1.02896    6.232
 6356.00    0.97562   1.02556    6.248
 6357.00    0.95413   1.02136    6.272
 6358.00    0.91916   1.01662    6.444
 6359.00    0.87430   1.01071    6.778
 6360.00    0.84061   1.00514    7.129
 6361.00    0.84489   1.00094    7.239
 6362.00    0.88782   0.99694    7.129
 6363.00    0.94181   0.99405    7.103
 6364.00    0.97817   0.99377    7.239
 6365.00    0.98025   0.99497    7.364
 6366.00    0.95520   0.99736    7.355
 6367.00    0.92693   1.00158    7.244
 6368.00    0.90952   1.00667    7.158
 6369.00    0.90602   1.01208    7.197
 6370.00    0.92254   1.01764    7.244
 6371.00    0.96358   1.02284    7.097
 6372.00    1.01455   1.02759    6.893
 6373.00    1.05170   1.03193    6.893
 6374.00    1.06988   1.03570    7.015
 6375.00    1.07918   1.03863    7.005
 6376.00    1.08778   1.04074    6.936
 6377.00    1.09708   1.04242    7.025
 6378.00    1.09971   1.04309    7.139
 6379.00    1.08866   1.04248    6.992
 6380.00    1.07213   1.04191    6.644
 6381.00    1.06483   1.04122    6.308
 6382.00    1.07187   1.03967    6.013
 6383.00    1.08613   1.03896    5.762
 6384.00    1.08920   1.03913    5.695
 6385.00    1.06868   1.03888    5.922
 6386.00    1.03833   1.03934    6.327
 6387.00    1.01912   1.04056    6.649
 6388.00    1.01473   1.04093    6.750
 6389.00    1.01600   1.04093    6.687
 6390.00    1.00933   1.04083    6.621
 6391.00    0.98619   1.03928    6.675
 6392.00    0.95126   1.03696    6.856
 6393.00    0.91960   1.03481    7.079
 6394.00    0.91148   1.03153    7.186
 6395.00    0.93676   1.02852    7.097
 6396.00    0.98345   1.02724    6.930
 6397.00    1.03016   1.02527    6.833
 6398.00    1.05825   1.02351    6.868
 6399.00    1.06441   1.02420    6.978
 6400.00    1.06600   1.02429    6.992
 6401.00    1.08013   1.02338    6.876
 6402.00    1.10852   1.02506    6.848
 6403.00    1.13331   1.02693    6.977
 6404.00    1.12141   1.02708    7.016
 6405.00    1.06066   1.02892    6.846
 6406.00    0.97507   1.03065    6.683
 6407.00    0.89593   1.03053    6.678
 6408.00    0.84546   1.03047    6.790
 6409.00    0.83421   1.02929    6.934
 6410.00    0.86119   1.02793    7.044
 6411.00    0.91853   1.02706    7.107
 6412.00    0.99403   1.02470    7.143
 6413.00    1.07303   1.02380    7.067
 6414.00    1.13983   1.02444    6.740
 6415.00    1.18026   1.02323    6.310
 6416.00    1.18572   1.02292    6.064
 6417.00    1.16287   1.02407    6.054
 6418.00    1.13030   1.02337    6.151
 6419.00    1.09773   1.02274    6.274
 6420.00    1.06365   1.02344    6.432
 6421.00    1.02819   1.02355    6.668
 6422.00    0.99715   1.02407    6.990
 6423.00    0.98193   1.02628    7.198
 6424.00    0.99173   1.02921    7.022
 6425.00    1.01521   1.03202    6.681
 6426.00    1.02963   1.03528    6.574
 6427.00    1.03165   1.03862    6.665
 6428.00    1.03585   1.04007    6.672
 6429.00    1.05673   1.04003    6.598
 6430.00    1.09821   1.03964    6.648
 6431.00    1.14187   1.03747    6.841
 6432.00    1.16180   1.03437    7.009
 6433.00    1.15441   1.03241    6.942
 6434.00    1.13570   1.03034    6.598
 6435.00    1.12724   1.02867    6.251
 6436.00    1.14242   1.02850    6.129
 6437.00    1.17023   1.02828    6.118
 6438.00    1.19058   1.02879    6.061
 6439.00    1.19844   1.02974    6.122
 6440.00    1.19710   1.03019    6.496
 6441.00    1.18535   1.03241    6.951
 6442.00    1.15900   1.03504    7.027
 6443.00    1.11509   1.03686    6.770
 6444.00    1.05810   1.04012    6.505
 6445.00    1.00502   1.04293    6.354
 6446.00    0.97233   1.04366    6.299
 6447.00    0.96278   1.04324    6.275
 6448.00    0.97184   1.04120    6.272
 6449.00    0.99497   1.03784    6.414
 6450.00    1.02870   1.03264    6.725
 6451.00    1.06978   1.02703    6.897
 6452.00    1.10643   1.02356    6.750
 6453.00    1.11483   1.01978    6.653
 6454.00    1.08635   1.01675    6.864
 6455.00    1.04393   1.01743    7.172
 6456.00    1.01275   1.01809    7.248
 6457.00    0.99998   1.01834    7.034
 6458.00    0.99904   1.02102    6.684
 6459.00    0.99548   1.02323    6.383
 6460.00    0.98150   1.02346    6.215
 6461.00    0.96325   1.02459    6.167
 6462.00    0.95514   1.02588    6.231
 6463.00    0.97308   1.02473    6.425
 6464.00    1.01800   1.02427    6.674
 6465.00    1.07215   1.02588    6.778
 6466.00    1.11880   1.02587    6.741
 6467.00    1.15109   1.02637    6.829
 6468.00    1.17001   1.02958    7.092
 6469.00    1.18139   1.03140    7.252
 6470.00    1.18797   1.03230    7.236
 6471.00    1.18786   1.03469    7.297
 6472.00    1.17987   1.03578    7.464
 6473.00    1.16539   1.03552    7.473
 6474.00    1.14786   1.03662    7.306
 6475.00    1.12955   1.03719    7.215
 6476.00    1.10298   1.03662    7.250
 6477.00    1.05717   1.03731    7.261
 6478.00    1.00134   1.03784    7.192
 6479.00    0.96207   1.03659    7.120
 6480.00    0.95928   1.03542    7.103
 6481.00    0.99631   1.03462    7.144
 6482.00    1.05217   1.03234    7.182
 6483.00    1.09509   1.02969    7.125
 6484.00    1.11471   1.02834    6.946
 6485.00    1.11891   1.02700    6.693
 6486.00    1.11379   1.02535    6.452
 6487.00    1.10107   1.02443    6.319
 6488.00    1.08089   1.02340    6.391
 6489.00    1.05669   1.02076    6.709
 6490.00    1.04181   1.01649    7.109
 6491.00    1.04546   1.01031    7.298
 6492.00    1.05086   1.00136    7.291
 6493.00    1.03318   0.99095    7.310
 6494.00    0.98957   0.97951    7.420
 6495.00    0.93567   0.96701    7.561
 6496.00    0.89460   0.95715    7.650
 6497.00    0.88556   0.95006    7.638
 6498.00    0.91199   0.94510    7.571
 6499.00    0.96541   0.94577    7.511
 6500.00    1.03141   0.95018    7.457
 6501.00    1.09155   0.95722    7.404
 6502.00    1.12613   0.96795    7.400
 6503.00    1.12916   0.97880    7.450
 6504.00    1.11986   0.98976    7.431
 6505.00    1.11736   1.00093    7.288
 6506.00    1.11907   1.00967    7.176
 6507.00    1.11626   1.01691    7.165
 6508.00    1.10719   1.02291    7.079
 6509.00    1.08859   1.02655    6.894
 6510.00    1.05133   1.02888    6.915
 6511.00    1.00053   1.03041    7.224
 6512.00    0.96490   1.03047    7.359
 6513.00    0.96407   1.02943    7.076
 6514.00    0.98925   1.02811    6.850
 6515.00    1.01769   1.02638    6.933
 6516.00    1.02631   1.02360    7.089
 6517.00    1.01501   1.02091    7.123
 6518.00    1.01065   1.01945    7.164
 6519.00    1.02372   1.01777    7.295
 6520.00    1.03401   1.01662    7.402
 6521.00    1.02719   1.01771    7.441
 6522.00    1.00926   1.01892    7.529
 6523.00    0.99302   1.02014    7.697
 6524.00    0.98910   1.02226    7.809
 6525.00    0.99518   1.02387    7.801
 6526.00    0.99804   1.02484    7.750
 6527.00    0.99553   1.02506    7.703
 6528.00    0.99894   1.02464    0.000
 6529.00    1.01425   1.02421    0.000
 6530.00    1.03868   1.02311    0.000
 6531.00    1.06981   1.02180    0.000
 6532.00    1.10475   1.02101    0.000
 6533.00    1.13001   1.02029    0.000
 6534.00    1.12783   1.01980    0.000
 6535.00    1.09948   1.01963    0.000
 6536.00    1.06369   1.01984    0.000
 6537.00    1.03839   1.02036    0.000
 6538.00    1.03323   1.02063    0.000
 6539.00    1.04346   1.02105    0.000
 6540.00    1.05710   1.02131    0.000
 6541.00    1.07161   1.02041    0.000
 6542.00    1.09100   1.01883    0.000
 6543.00    1.11430   1.01660    0.000
 6544.00    1.13640   1.01314    0.000
 6545.00    1.15325   1.00924    0.000
 6546.00    1.16423   1.00492    0.000
 6547.00    1.17401   0.99995    0.000
 6548.00    1.18511   0.99593    0.000
 6549.00    1.18748   0.99222    0.000
 6550.00    1.17108   0.98799    0.000
 6551.00    1.14378   0.98441    0.000
 6552.00    1.11971   0.98047    0.000
 6553.00    1.10243   0.97540    0.000
 6554.00    1.09193   0.96934    0.000
 6555.00    1.09425   0.96145    0.000
 6556.00    1.11205   0.95166    0.000
 6557.00    1.13439   0.93989    0.000
 6558.00    1.14564   0.92578    0.000
 6559.00    1.13652   0.90962    0.000
 6560.00    1.11588   0.89116    0.000
 6561.00    1.11692   0.87203    0.000
 6562.00    1.16573   0.85489    0.000
 6563.00    1.25536   0.83817    0.000
 6564.00    1.35462   0.82541    0.000
 6565.00    1.42009   0.82263    0.000
 6566.00    1.42375   0.82437    0.000
 6567.00    1.37078   0.83049    0.000
 6568.00    1.29028   0.84622    0.000
 6569.00    1.22253   0.86448    0.000
 6570.00    1.18428   0.88127    0.000
 6571.00    1.15408   0.89948    0.000
 6572.00    1.10660   0.91593    0.000
 6573.00    1.03350   0.92828    0.000
 6574.00    0.94733   0.93917    0.000
 6575.00    0.87733   0.94853    0.000
 6576.00    0.84265   0.95571    0.000
 6577.00    0.84266   0.96274    0.000
 6578.00    0.87120   0.96941    0.000
 6579.00    0.92209   0.97508    0.000
 6580.00    0.98508   0.98083    0.000
 6581.00    1.04716   0.98584    0.000
 6582.00    1.10300   0.98953    0.000
 6583.00    1.15533   0.99295    0.000
 6584.00    1.20290   0.99552    0.000
 6585.00    1.23847   0.99702    0.000
 6586.00    1.25596   0.99856    0.000
 6587.00    1.25159   0.99932    0.000
 6588.00    1.22100   0.99944    0.000
 6589.00    1.16098   0.99950    0.000
 6590.00    1.07635   0.99820    0.000
 6591.00    0.98273   0.99618    0.000
 6592.00    0.90819   0.99428    0.000
 6593.00    0.88055   0.99134    0.000
 6594.00    0.89903   0.98789    0.000
 6595.00    0.94012   0.98631    0.000
 6596.00    0.98299   0.98567    0.000
 6597.00    1.01396   0.98510    0.000
 6598.00    1.02493   0.98690    0.000
 6599.00    1.01654   0.98998    0.000
 6600.00    1.00377   0.99289    0.000
 6601.00    1.00547   0.99652    0.000
 6602.00    1.02587   0.99968    0.000
 6603.00    1.05039   1.00168    0.000
 6604.00    1.04591   1.00307    0.000
 6605.00    0.99165   1.00317    0.000
 6606.00    0.91917   1.00212    0.000
 6607.00    0.87805   1.00064    0.000
 6608.00    0.88558   0.99894    0.000
 6609.00    0.92841   0.99746    7.627
 6610.00    0.97370   0.99634    7.469
 6611.00    0.99354   0.99645    7.410
 6612.00    0.98893   0.99785    7.490
 6613.00    0.97673   0.99958    7.646
 6614.00    0.97290   1.00206    7.722
 6615.00    0.98016   1.00526    7.669
 6616.00    0.98083   1.00865    7.692
 6617.00    0.96164   1.01160    7.887
 6618.00    0.93387   1.01397    7.964
 6619.00    0.91860   1.01621    7.739
 6620.00    0.93177   1.01778    7.524
 6621.00    0.97074   1.01830    7.508
 6622.00    1.00861   1.01816    7.479
 6623.00    1.01853   1.01737    7.318
 6624.00    0.99174   1.01601    7.244
 6625.00    0.94429   1.01393    7.334
 6626.00    0.91383   1.01148    7.334
 6627.00    0.92055   1.00951    7.166
 6628.00    0.95028   1.00710    7.115
 6629.00    0.98475   1.00445    7.301
 6630.00    1.01553   1.00247    7.515
 6631.00    1.03140   1.00009    7.608
 6632.00    1.01739   0.99753    7.700
 6633.00    0.97901   0.99557    7.870
 6634.00    0.94517   0.99349    8.028
 6635.00    0.93485   0.99181    8.098
 6636.00    0.94557   0.99157    8.091
 6637.00    0.96318   0.99173    8.044
 6638.00    0.97155   0.99228    7.981
 6639.00    0.97161   0.99388    7.939
 6640.00    0.97895   0.99535    7.939
 6641.00    0.99562   0.99631    7.923
 6642.00    1.00844   0.99760    7.788
 6643.00    1.01105   0.99835    7.591
 6644.00    1.00833   0.99794    7.478
 6645.00    1.00999   0.99805    7.443
 6646.00    1.02409   0.99875    7.369
 6647.00    1.04589   0.99883    7.215
 6648.00    1.05964   0.99923    7.050
 6649.00    1.04916   1.00042    7.006
 6650.00    1.01008   1.00169    7.170
 6651.00    0.96891   1.00281    7.392
 6652.00    0.96366   1.00374    7.410
 6653.00    0.99882   1.00470    7.326
 6654.00    1.04756   1.00533    7.421
 6655.00    1.07223   1.00534    7.660
 6656.00    1.04654   1.00530    7.821
 6657.00    0.98439   1.00472    7.923
 6658.00    0.92175   1.00348    8.108
 6659.00    0.88178   1.00218    8.282
 6660.00    0.87314   1.00020    8.250
 6661.00    0.89495   0.99744    8.063
 6662.00    0.93490   0.99481    7.884
 6663.00    0.96719   0.99212    7.763
 6664.00    0.97063   0.98882    7.678
 6665.00    0.94934   0.98664    7.613
 6666.00    0.91888   0.98572    7.565
 6667.00    0.88864   0.98478    7.544
 6668.00    0.86610   0.98520    7.548
 6669.00    0.86259   0.98693    7.530
 6670.00    0.88617   0.98876    7.469
 6671.00    0.93455   0.99120    7.414
 6672.00    0.99582   0.99346    7.412
 6673.00    1.05081   0.99487    7.442
 6674.00    1.08241   0.99586    7.476
 6675.00    1.08326   0.99560    7.535
 6676.00    1.05706   0.99412    7.628
 6677.00    1.01769   0.99242    7.729
 6678.00    0.97915   0.98971    7.810
 6679.00    0.94905   0.98664    7.879
 6680.00    0.93188   0.98545    7.961
 6681.00    0.93076   0.98505    8.083
 6682.00    0.94419   0.98490    8.217
 6683.00    0.96494   0.98671    8.269
 6684.00    0.98451   0.98951    8.197
 6685.00    0.99710   0.99241    8.070
 6686.00    1.00607   0.99558    7.954
 6687.00    1.02395   0.99846    7.858
 6688.00    1.05789   1.00091    7.723
 6689.00    1.10199   1.00262    7.481
 6690.00    1.13413   1.00376    7.247
 6691.00    1.12463   1.00430    7.244
 6692.00    1.07288   1.00406    7.439
 6693.00    1.01124   1.00337    7.519
 6694.00    0.96754   1.00211    7.412
 6695.00    0.95201   1.00052    7.366
 6696.00    0.96001   0.99872    0.000
 6697.00    0.97557   0.99645    0.000
 6698.00    0.97856   0.99483    0.000
 6699.00    0.95414   0.99359    0.000
 6700.00    0.91162   0.99236    0.000
 6701.00    0.88039   0.99206    0.000
 6702.00    0.88583   0.99191    0.000
 6703.00    0.93432   0.99184    0.000
 6704.00    0.99399   0.99199    0.000
 6705.00    1.01523   0.99176    0.000
 6706.00    0.98371   0.99162    0.000
 6707.00    0.92294   0.99156    0.000
 6708.00    0.87472   0.99092    0.000
 6709.00    0.86746   0.99012    0.000
 6710.00    0.86804   0.98950    0.000
 6711.00    0.82418   0.98803    0.000
 6712.00    0.74907   0.98623    0.000
 6713.00    0.69977   0.98431    0.000
 6714.00    0.72026   0.98145    0.000
 6715.00    0.81832   0.97855    0.000
 6716.00    0.94766   0.97578    0.000
 6717.00    1.04600   0.97306    0.000
 6718.00    1.08852   0.97085    0.000
 6719.00    1.08391   0.96961    0.000
 6720.00    1.05926   0.97007    0.000
 6721.00    1.03520   0.97113    0.000
 6722.00    1.00241   0.97269    0.000
 6723.00    0.95126   0.97530    0.000
 6724.00    0.90354   0.97821    0.000
 6725.00    0.88996   0.98106    0.000
 6726.00    0.92445   0.98336    0.000
 6727.00    0.99439   0.98518    0.000
 6728.00    1.05780   0.98715    0.000
 6729.00    1.07731   0.98860    0.000
 6730.00    1.04770   0.98951    0.000
 6731.00    0.99004   0.99047    0.000
 6732.00    0.94150   0.99123    0.000
 6733.00    0.92590   0.99162    0.000
 6734.00    0.93559   0.99165    0.000
 6735.00    0.94656   0.99142    0.000
 6736.00    0.93352   0.99085    0.000
 6737.00    0.89506   0.98998    0.000
 6738.00    0.86145   0.98866    0.000
 6739.00    0.85516   0.98699    0.000
 6740.00    0.87140   0.98528    0.000
 6741.00    0.89300   0.98361    0.000
 6742.00    0.90275   0.98204    0.000
 6743.00    0.90210   0.98032    0.000
 6744.00    0.91277   0.97864    0.000
 6745.00    0.94657   0.97755    0.000
 6746.00    0.99519   0.97646    0.000
 6747.00    1.04335   0.97521    0.000
 6748.00    1.07567   0.97423    0.000
 6749.00    1.08197   0.97338    0.000
 6750.00    1.06058   0.97277    0.000
 6751.00    1.02269   0.97215    0.000
 6752.00    0.98668   0.97232    0.000
 6753.00    0.95677   0.97299    6.339
 6754.00    0.92630   0.97355    6.399
 6755.00    0.90549   0.97549    6.433
 6756.00    0.91704   0.97771    6.391
 6757.00    0.96402   0.97997    6.298
 6758.00    1.02730   0.98287    6.237
 6759.00    1.08018   0.98566    6.242
 6760.00    1.09867   0.98822    6.317
 6761.00    1.07567   0.99043    6.503
 6762.00    1.02900   0.99196    6.817
 6763.00    1.00909   0.99250    7.027
 6764.00    1.05931   0.99258    6.821
 6765.00    1.14149   0.99180    6.384
 6766.00    1.17488   0.99013    6.088
 6767.00    1.12726   0.98835    6.052
 6768.00    1.02011   0.98590    6.242
 6769.00    0.90947   0.98385    6.531
 6770.00    0.84971   0.98274    6.762
 6771.00    0.84636   0.98166    6.924
 6772.00    0.87500   0.98136    7.065
 6773.00    0.91639   0.98225    7.067
 6774.00    0.96012   0.98388    6.825
 6775.00    1.00259   0.98612    6.506
 6776.00    1.03668   0.98842    6.286
 6777.00    1.04223   0.99090    6.142
 6778.00    1.01304   0.99295    6.028
 6779.00    0.98275   0.99425    6.003
 6780.00    0.98225   0.99495    6.131
 6781.00    0.99868   0.99444    6.397
 6782.00    1.01419   0.99294    6.727
 6783.00    1.04095   0.99090    7.020
 6784.00    1.08628   0.98807    7.164
 6785.00    1.12521   0.98517    7.090
 6786.00    1.13830   0.98280    6.834
 6787.00    1.13872   0.98072    6.519
 6788.00    1.14221   0.97949    6.244
 6789.00    1.14532   0.97918    6.045
 6790.00    1.13563   0.97916    5.965
 6791.00    1.10182   0.97950    6.087
 6792.00    1.04863   0.98020    6.427
 6793.00    0.99990   0.98081    6.854
 6794.00    0.96624   0.98091    7.198
 6795.00    0.93499   0.98096    7.367
 6796.00    0.91401   0.98109    7.214
 6797.00    0.94145   0.98096    6.611
 6798.00    1.02136   0.98111    5.874
 6799.00    1.10620   0.98137    5.429
 6800.00    1.15831   0.98167    5.303
 6801.00    1.17285   0.98238    5.298
 6802.00    1.15659   0.98300    5.410
 6803.00    1.11791   0.98351    5.881
 6804.00    1.06378   0.98397    6.748
 6805.00    1.00075   0.98390    7.460
 6806.00    0.94174   0.98399    7.599
 6807.00    0.90262   0.98379    7.578
 6808.00    0.88445   0.98295    7.680
 6809.00    0.87448   0.98266    7.792
 6810.00    0.86540   0.98207    7.831
 6811.00    0.85977   0.98115    7.804
 6812.00    0.86618   0.98093    7.577
 6813.00    0.89207   0.98056    7.051
 6814.00    0.92952   0.98039    6.531
 6815.00    0.96185   0.98044    6.306
 6816.00    0.98621   0.98032    6.165
 6817.00    1.00613   0.98099    5.867
 6818.00    1.00636   0.98182    5.934
 6819.00    0.97066   0.98237    7.251
 6820.00    0.92463   0.98323   10.197
 6821.00    0.91375   0.98399   11.895
 6822.00    0.95038   0.98502   10.667
 6823.00    1.01280   0.98605    9.697
 6824.00    1.06043   0.98667    9.425
 6825.00    1.05866   0.98721    9.326
 6826.00    1.01107   0.98738    9.822
 6827.00    0.94199   0.98744   11.385
 6828.00    0.86689   0.98705   11.784
 6829.00    0.80905   0.98608    9.206
 6830.00    0.82141   0.98555    7.273
 6831.00    0.92080   0.98517    6.926
 6832.00    1.01644   0.98473    7.281
 6833.00    1.02454   0.98420    7.389
 6834.00    0.99396   0.98350    7.256
 6835.00    1.00876   0.98281    7.259
 6836.00    1.07889   0.98180    7.291
 6837.00    1.16277   0.97983    7.163
 6838.00    1.20290   0.97720    7.018
 6839.00    1.16967   0.97427    7.029
 6840.00    1.09159   0.97079    7.175
 6841.00    1.01183   0.96744    7.342
 6842.00    0.95220   0.96436    7.395
 6843.00    0.91904   0.96209    7.268
 6844.00    0.90951   0.96126    7.028
 6845.00    0.91230   0.96160    6.800
 6846.00    0.91089   0.96310    6.698
 6847.00    0.90224   0.96533    6.783
 6848.00    0.90407   0.96803    7.043
 6849.00    0.92973   0.97100    7.352
 6850.00    0.97339   0.97348    7.432
 6851.00    1.01200   0.97525    7.130
 6852.00    1.01662   0.97618    6.599
 6853.00    0.99992   0.97610    6.083
 6854.00    1.01842   0.97544    5.750
 6855.00    1.07872   0.97368    5.652
 6856.00    1.11654   0.97102    5.778
 6857.00    1.08797   0.96893    6.106
 6858.00    1.00317   0.96688    6.583
 6859.00    0.90434   0.96479    7.084
 6860.00    0.84442   0.96359    7.412
 6861.00    0.84575   0.96279    7.534
 6862.00    0.89228   0.96220    7.631
 6863.00    0.95260   0.96241    7.747
 6864.00    0.99402   0.96314    7.757
 6865.00    1.00072   0.96402    7.711
 6866.00    0.97826   0.96472    7.798
 6867.00    0.95056   0.96509    7.964
 6868.00    0.94596   0.96514    7.951
 6869.00    0.96566   0.96507    7.757
 6870.00    0.98793   0.96503    7.600
 6871.00    0.99654   0.96479    7.566
 6872.00    0.98935   0.96455    7.602
 6873.00    0.98144   0.96416    7.624
 6874.00    0.99350   0.96427    7.564
 6875.00    1.02826   0.96490    7.434
 6876.00    1.07222   0.96534    7.278
 6877.00    1.10767   0.96597    7.095
 6878.00    1.12032   0.96687    6.880
 6879.00    1.10807   0.96770    6.714
 6880.00    1.07764   0.96820    6.689
 6881.00    1.03743   0.96851    6.832
 6882.00    1.00095   0.96850    7.074
 6883.00    0.99151   0.96838    7.210
 6884.00    1.01915   0.96847    7.071
 6885.00    1.05206   0.96902    6.820
 6886.00    1.05275   0.96995    6.689
 6887.00    1.02474   0.97079    6.728
 6888.00    0.99206   0.97243    6.900
 6889.00    0.97066   0.97467    7.177
 6890.00    0.97068   0.97677    7.493
 6891.00    1.00020   0.97891    7.706
 6892.00    1.04738   0.98068    7.721
 6893.00    1.06835   0.98204    7.642
 6894.00    1.03765   0.98307    7.598
 6895.00    0.98745   0.98361    7.583
 6896.00    0.95149   0.98351    7.556
 6897.00    0.92084   0.98334    7.514
 6898.00    0.87605   0.98326    7.505
 6899.00    0.81531   0.98305    7.604
 6900.00    0.76399   0.98294    7.789
 6901.00    0.77095   0.98275    7.860
 6902.00    0.84950   0.98302    7.703
 6903.00    0.94926   0.98364    7.459
 6904.00    1.01536   0.98405    7.311
 6905.00    1.02605   0.98457    7.360
 6906.00    0.99834   0.98508    7.545
 6907.00    0.97762   0.98541    7.628
 6908.00    0.97566   0.98601    7.562
 6909.00    0.95466   0.98589    7.599
 6910.00    0.89748   0.98545    7.815
 6911.00    0.83006   0.98489    7.958
 6912.00    0.77469   0.98340    7.863
 6913.00    0.73568   0.98204    7.646
 6914.00    0.72404   0.98036    7.464
 6915.00    0.75927   0.97824    7.383
 6916.00    0.84063   0.97700    7.310
 6917.00    0.94109   0.97609    7.086
 6918.00    1.02268   0.97529    6.822
 6919.00    1.05355   0.97546    6.771
 6920.00    1.04185   0.97596    6.852
 6921.00    1.02551   0.97655    6.742
 6922.00    1.01584   0.97744    6.482
 6923.00    0.99673   0.97779    6.383
 6924.00    0.96375   0.97790    6.508
 6925.00    0.92794   0.97747    6.721
 6926.00    0.89997   0.97663    6.948
 6927.00    0.88714   0.97585    7.190
 6928.00    0.89522   0.97536    7.366
 6929.00    0.92387   0.97488    7.379
 6930.00    0.95718   0.97438    7.345
 6931.00    0.97555   0.97443    7.449
 6932.00    0.98031   0.97462    7.593
 6933.00    0.98659   0.97510    7.542
 6934.00    1.00316   0.97532    7.342
 6935.00    1.02821   0.97582    7.181
 6936.00    1.04895   0.97674    7.072
 6937.00    1.05176   0.97724    6.964
 6938.00    1.03665   0.97775    6.905
 6939.00    1.01398   0.97811    6.950
 6940.00    0.99679   0.97852    7.018
 6941.00    0.99512   0.97867    7.006
 6942.00    1.01013   0.97839    6.962
 6943.00    1.03162   0.97756    6.979
 6944.00    1.03776   0.97635    7.066
 6945.00    1.01719   0.97511    7.178
 6946.00    0.98996   0.97335    7.271
 6947.00    0.98324   0.97219    7.318
 6948.00    1.00478   0.97145    7.334
 6949.00    1.03541   0.97056    7.357
 6950.00    1.03056   0.97025    7.417
 6951.00    0.97299   0.96999    7.474
 6952.00    0.90936   0.96970    7.396
 6953.00    0.88833   0.97001    7.164
 6954.00    0.91294   0.97035    6.980
 6955.00    0.95674   0.97067    6.949
 6956.00    0.98216   0.97130    6.966
 6957.00    0.96957   0.97224    6.923
 6958.00    0.93211   0.97349    6.844
 6959.00    0.89258   0.97487    6.800
 6960.00    0.86835   0.97636    6.838
 6961.00    0.86929   0.97770    6.928
 6962.00    0.89632   0.97920    6.946
 6963.00    0.93800   0.98057    6.869
 6964.00    0.97201   0.98143    6.830
 6965.00    0.97982   0.98236    6.927
 6966.00    0.95603   0.98292    7.154
 6967.00    0.91726   0.98299    7.429
 6968.00    0.89676   0.98347    7.613
 6969.00    0.90892   0.98367    7.649
 6970.00    0.94185   0.98334    7.616
 6971.00    0.98331   0.98266    7.589
 6972.00    1.02680   0.98096    7.588
 6973.00    1.05891   0.97918    7.584
 6974.00    1.06066   0.97694    7.529
 6975.00    1.02517   0.97332    7.426
 6976.00    0.96456   0.96923    7.321
 6977.00    0.91288   0.96493    7.226
 6978.00    0.90667   0.96096    7.128
 6979.00    0.93417   0.95737    7.061
 6980.00    0.94998   0.95460    7.079
 6981.00    0.94256   0.95401    7.166
 6982.00    0.93121   0.95491    7.249
 6983.00    0.92238   0.95687    7.291
 6984.00    0.90878   0.96003    7.311
 6985.00    0.88830   0.96364    7.360
 6986.00    0.86649   0.96779    7.482
 6987.00    0.85338   0.97173    7.624
 6988.00    0.85394   0.97482    7.694
 6989.00    0.85372   0.97732    7.705
 6990.00    0.83685   0.97882    7.722
 6991.00    0.81750   0.97981    7.721
 6992.00    0.81827   0.98063    7.650
 6993.00    0.83206   0.98105    7.544
 6994.00    0.84452   0.98100    7.465
 6995.00    0.87015   0.98037    7.395
 6996.00    0.92308   0.97953    7.288
 6997.00    0.97661   0.97870    7.127
 6998.00    0.99915   0.97743    6.941
 6999.00    0.99962   0.97558    6.804
 7000.00    0.99972   0.97317    6.762
 7001.00    0.99999   0.97069   -2.000
 7002.00    0.99689   0.96882   -2.000
 7003.00    1.00047   0.96726   -2.000
 7004.00    1.00776   0.96561   -2.000
 7005.00    0.98348   0.96403   -2.000
 7006.00    0.92262   0.96313   -2.000
 7007.00    0.89265   0.96301   -2.000
 7008.00    0.92974   0.96340   -2.000
 7009.00    0.96878   0.96385   -2.000
 7010.00    0.95341   0.96420   -2.000
 7011.00    0.91001   0.96454   -2.000
 7012.00    0.87868   0.96432   -2.000
 7013.00    0.86675   0.96390   -2.000
 7014.00    0.86889   0.96337   -2.000
 7015.00    0.88038   0.96230   -2.000
 7016.00    0.89126   0.96083   -2.000
 7017.00    0.88732   0.95873   -2.000
 7018.00    0.87436   0.95747   -2.000
 7019.00    0.88096   0.95754   -2.000
 7020.00    0.91007   0.95772   -2.000
 7021.00    0.92976   0.95798   -2.000
 7022.00    0.93673   0.95843   -2.000
 7023.00    0.96522   0.95919   -2.000
 7024.00    1.00591   0.96027   -2.000
 7025.00    1.00188   0.96111   -2.000
 7026.00    0.95870   0.96190   -2.000
 7027.00    0.94798   0.96307   -2.000
 7028.00    0.97514   0.96417   -2.000
 7029.00    0.97379   0.96530   -2.000
 7030.00    0.93534   0.96670   -2.000
 7031.00    0.91300   0.96831   -2.000
 7032.00    0.91080   0.97014   -2.000
 7033.00    0.88661   0.97139   -2.000
 7034.00    0.84864   0.97220   -2.000
 7035.00    0.85096   0.97295   -2.000
 7036.00    0.91642   0.97355   -2.000
 7037.00    1.02193   0.97455   -2.000
 7038.00    1.11118   0.97542   -2.000
 7039.00    1.12756   0.97591   -2.000
 7040.00    1.07487   0.97738   -2.000
 7041.00    1.00224   0.97984   -2.000
 7042.00    0.94988   0.98285   -2.000
 7043.00    0.93238   0.98584   -2.000
 7044.00    0.92965   0.98832   -2.000
 7045.00    0.91279   0.99074   -2.000
 7046.00    0.88810   0.99311   -2.000
 7047.00    0.88396   0.99510   -2.000
 7048.00    0.91886   0.99604   -2.000
 7049.00    0.98081   0.99605   -2.000
 7050.00    1.00961   0.99512   -2.000
 7051.00    0.96008   0.99317   -2.000
 7052.00    0.88180   0.99093   -2.000
 7053.00    0.85101   0.98778   -2.000
 7054.00    0.87928   0.98392   -2.000
 7055.00    0.93643   0.98020   -2.000
 7056.00    0.98859   0.97634   -2.000
 7057.00    1.01134   0.97314   -2.000
 7058.00    0.99908   0.97020   -2.000
 7059.00    0.96494   0.96741   -2.000
 7060.00    0.93688   0.96539   -2.000
 7061.00    0.93089   0.96356   -2.000
 7062.00    0.93138   0.96238   -2.000
 7063.00    0.92181   0.96148   -2.000
 7064.00    0.90927   0.96028   -2.000
 7065.00    0.91330   0.95931   -2.000
 7066.00    0.95102   0.95842   -2.000
 7067.00    1.00131   0.95740   -2.000
 7068.00    0.99639   0.95667   -2.000
 7069.00    0.92139   0.95585   -2.000
 7070.00    0.85717   0.95570   -2.000
 7071.00    0.85681   0.95663   -2.000
 7072.00    0.88613   0.95758   -2.000
 7073.00    0.90355   0.95889   -2.000
 7074.00    0.90247   0.96063   -2.000
 7075.00    0.89685   0.96270   -2.000
 7076.00    0.90727   0.96507   -2.000
 7077.00    0.93553   0.96690   -2.000
 7078.00    0.95999   0.96798   -2.000
 7079.00    0.96388   0.96850   -2.000
 7080.00    0.94786   0.96807   -2.000
 7081.00    0.93059   0.96686   -2.000
 7082.00    0.93609   0.96486   -2.000
 7083.00    0.95089   0.96169   -2.000
 7084.00    0.93244   0.95767   -2.000
 7085.00    0.88510   0.95278   -2.000
 7086.00    0.85754   0.94770   -2.000
 7087.00    0.86013   0.94337   -2.000
 7088.00    0.86846   0.93897   -2.000
 7089.00    0.90059   0.93477   -2.000
 7090.00    0.97529   0.93142   -2.000
 7091.00    0.95772   0.92863   -2.000
 7092.00    0.69373   0.92724   -2.000
 7093.00    0.40160   0.92668   -2.000
 7094.00    0.46602   0.92603   -2.000
 7095.00    0.81112   0.92658   -2.000
 7096.00    1.04950   0.92727   -2.000
 7097.00    1.04343   0.92847   -2.000
 7098.00    0.90049   0.93033   -2.000
 7099.00    0.75603   0.93184   -2.000
 7100.00    0.69888   0.93410   -2.000
 7101.00    0.71864   0.93596   -2.000
 7102.00    0.75760   0.93757   -2.000
 7103.00    0.80316   0.93883   -2.000
 7104.00    0.86450   0.93965   -2.000
 7105.00    0.92052   0.94060   -2.000
 7106.00    0.94528   0.94080   -2.000
 7107.00    0.95037   0.94032   -2.000
 7108.00    0.97359   0.93916   -2.000
 7109.00    1.05621   0.93789   -2.000
 7110.00    1.21438   0.93682   -2.000
 7111.00    1.41156   0.93530   -2.000
 7112.00    1.57786   0.93362   -2.000
 7113.00    1.63902   0.93205   -2.000
 7114.00    1.57688   0.93113   -2.000
 7115.00    1.47287   0.93079   -2.000
 7116.00    1.39174   0.93035   -2.000
 7117.00    1.28772   0.93025   -2.000
 7118.00    1.12005   0.93004   -2.000
 7119.00    0.94526   0.93026   -2.000
 7120.00    0.84309   0.93044   -2.000
 7121.00    0.85100   0.93014   -2.000
 7122.00    0.93787   0.92991   -2.000
 7123.00    1.00430   0.92911   -2.000
 7124.00    0.98722   0.92867   -2.000
 7125.00    0.91671   0.92833   -2.000
 7126.00    0.84653   0.92724   -2.000
 7127.00    0.80808   0.92622   -2.000
 7128.00    0.79925   0.92507   -2.000
 7129.00    0.79026   0.92420   -2.000
 7130.00    0.77740   0.92369   -2.000
 7131.00    0.79516   0.92256   -2.000
 7132.00    0.84512   0.92197   -2.000
 7133.00    0.87827   0.92251   -2.000
 7134.00    0.86385   0.92358   -2.000
 7135.00    0.81486   0.92533   -2.000
 7136.00    0.76774   0.92714   -2.000
 7137.00    0.76287   0.92919   -2.000
 7138.00    0.80699   0.93192   -2.000
 7139.00    0.86941   0.93412   -2.000
 7140.00    0.91549   0.93574   -2.000
 7141.00    0.92850   0.93675   -2.000
 7142.00    0.93873   0.93748   -2.000
 7143.00    0.99979   0.93753   -2.000
 7144.00    1.09868   0.93662   -2.000
 7145.00    1.16864   0.93549   -2.000
 7146.00    1.18763   0.93385   -2.000
 7147.00    1.17067   0.93248   -2.000
 7148.00    1.09064   0.93097   -2.000
 7149.00    0.91584   0.92904   -2.000
 7150.00    0.73090   0.92848   -2.000
 7151.00    0.67834   0.92857   -2.000
 7152.00    0.78800   0.92934   -2.000
 7153.00    0.97683   0.93121   -2.000
 7154.00    1.11758   0.93301   -2.000
 7155.00    1.11491   0.93547   -2.000
 7156.00    1.00876   0.93782   -2.000
 7157.00    0.90760   0.93975   -2.000
 7158.00    0.85593   0.94199   -2.000
 7159.00    0.84466   0.94283   -2.000
 7160.00    0.85738   0.94275   -2.000
 7161.00    0.87415   0.94176   -2.000
 7162.00    0.86984   0.94032   -2.000
 7163.00    0.84828   0.93923   -2.000
 7164.00    0.87751   0.93743   -2.000
 7165.00    0.98792   0.93528   -2.000
 7166.00    1.06325   0.93358   -2.000
 7167.00    0.99814   0.93326   -2.000
 7168.00    0.86623   0.93438   -2.000
 7169.00    0.78380   0.93615   -2.000
 7170.00    0.76433   0.93821   -2.000
 7171.00    0.77382   0.94053   -2.000
 7172.00    0.79324   0.94340   -2.000
 7173.00    0.81920   0.94649   -2.000
 7174.00    0.85751   0.94896   -2.000
 7175.00    0.90075   0.95037   -2.000
 7176.00    0.91623   0.95048   -2.000
 7177.00    0.88327   0.94968   -2.000
 7178.00    0.81753   0.94863   -2.000
 7179.00    0.74838   0.94743   -2.000
 7180.00    0.70090   0.94537   -2.000
 7181.00    0.68414   0.94266   -2.000
 7182.00    0.68553   0.93980   -2.000
 7183.00    0.67648   0.93731   -2.000
 7184.00    0.62671   0.93578   -2.000
 7185.00    0.55907   0.93397   -2.000
 7186.00    0.55208   0.93192   -2.000
 7187.00    0.61873   0.92998   -2.000
 7188.00    0.68022   0.92771   -2.000
 7189.00    0.70725   0.92623   -2.000
 7190.00    0.75275   0.92513   -2.000
 7191.00    0.82834   0.92434   -2.000
 7192.00    0.87759   0.92430   -2.000
 7193.00    0.86733   0.92408   -2.000
 7194.00    0.81743   0.92467   -2.000
 7195.00    0.78136   0.92592   -2.000
 7196.00    0.81578   0.92778   -2.000
 7197.00    0.91084   0.92976   -2.000
 7198.00    0.99728   0.93109   -2.000
 7199.00    1.03018   0.93275   -2.000
 7200.00    1.00811   0.93420   -2.000
 7201.00    0.95658   0.93535   -2.000
 7202.00    0.90836   0.93590   -2.000
 7203.00    0.86798   0.93533   -2.000
 7204.00    0.82262   0.93509   -2.000
 7205.00    0.78550   0.93463   -2.000
 7206.00    0.79541   0.93371   -2.000
 7207.00    0.89401   0.93251   -2.000
 7208.00    1.09345   0.93041   -2.000
 7209.00    1.32642   0.92935   -2.000
 7210.00    1.47986   0.92896   -2.000
 7211.00    1.47157   0.92904   -2.000
 7212.00    1.27563   0.92987   -2.000
 7213.00    0.94145   0.93040   -2.000
 7214.00    0.60331   0.93147   -2.000
 7215.00    0.47866   0.93269   -2.000
 7216.00    0.67363   0.93409   -2.000
 7217.00    0.93723   0.93556   -2.000
 7218.00    0.97755   0.93676   -2.000
