###################################################################
## OUTPUT of StarlightChains_v04.for    [Cid@UFSC - 01/Apr/2007] ##
###################################################################

## Some input info
1989A.txt                                [arq_obs]
Base.CB07.vall.4m                        [arq_base]
Masks.EmLines.NEW.gm                     [arq_masks]
StCv04.C11.config                        [arq_config]
   66                                    [N_base]
    0                                    [N_YAV_components = # of components with extra extinction!]
    0                                    [i_FitPowerLaw (1/0 = Yes/No)]
-9.99                                    [alpha_PowerLaw]
CCM                                      [red_law_option]
 1.458241                                [q_norm = A(l_norm)/A(V)]

## (Re)Sampling Parameters
 3741.00                                 [l_ini (A)]
 7218.00                                 [l_fin (A)]
    1.00                                 [dl    (A)]     (OBS: dl_cushion =    50.00 A)

## Normalization info
 4020.00                                 [l_norm (A) - for base]
 4010.00                                 [llow_norm (A) - window for f_obs]
 4060.00                                 [lupp_norm (A) - window for f_obs]
1.092742E-16                             [fobs_norm (in input units)]

## S/N
 3691.00                                 [llow_SN (A) - window for S/N]
 7268.00                                 [lupp_SN (A) - window for S/N]
   6.678                                 [S/N in S/N window]
   7.923                                 [S/N in norm. window]
   6.314                                 [S/N_err in S/N window]
   7.491                                 [S/N_err in norm. window]
  1.0000                                 [fscale_chi2]

## etc...
    -2007213                             [idum_orig]
  2372                                   [NOl_eff]
  2372                                   [Nl_eff]
     0    NSIGMA                         [Ntot_cliped & clip_method]
  1123710                                [Nglobal_steps]
   7                                     [N_chains]
  24                                     [NEX0s_base = N_base in EX0s-fits]
 0   0   1       57   2.0   1.205E+01    [Clip-Bug, RC-Crash & Burn-In warning-flags, n_censored_weights, wei_nsig_threshold & wei_limit]
    12     11.142     10.612      0.529  [idt_all, wdt_TotTime, wdt_UsrTime & wdt_SysTime (sec)]

## Synthesis Results - Best model ##

 1.82113E-01                             [chi2/Nl_eff]
     9.88644                             [adev (%)]

   104.04084                             [sum-of-x (%)]
 1.43237E-16                             [Flux_tot (units of input spectrum!)]
 1.01668E-12                             [Mini_tot (???)]
 5.68898E-13                             [Mcor_tot (???)]

 -29.14                                  [v0_min  (km/s)]
 128.73                                  [vd_min  (km/s)]
 0.1720                                  [AV_min  (mag)]
 0.0000                                  [YAV_min (mag)]

# j     x_j(%)      Mini_j(%)     Mcor_j(%)     age_j(yr)     Z_j      (L/M)_j    YAV?  Mstars   component_j        a/Fe...       SSP_chi2r SSP_adev(%)   SSP_AV   SSP_x(%)
  1      0.0000     0.0000E+00    0.0000E+00    1.000000E+06  0.00400  1.094E-02    0   1.0000   age020_m42            0.0000     3.2846E-01    15.9505   2.6858    89.6606
  2      0.0000     0.0000E+00    0.0000E+00    3.160000E+06  0.00400  4.007E-02    0   0.9999   age045_m42            0.0000     2.6842E-01    13.2310   1.9897    94.5599
  3      0.0000     0.0000E+00    0.0000E+00    5.010000E+06  0.00400  2.539E-02    0   0.9488   age055_m42            0.0000     2.8758E-01    14.0949   2.2948    92.8747
  4      0.0000     0.0000E+00    0.0000E+00    6.610000E+06  0.00400  2.620E-02    0   0.9220   age061_m42            0.0000     2.5811E-01    12.7752   1.9143    94.8695
  5      0.0000     0.0000E+00    0.0000E+00    1.000000E+07  0.00400  1.322E-02    0   0.8862   age070_m42            0.0000     2.5040E-01    13.4315   1.6001    98.3557
  6      4.3807     7.5252E-02    1.1526E-01    1.445000E+07  0.00400  7.883E-03    0   0.8571   age078_m42            0.0000     2.6442E-01    14.0310   1.9230    96.0330
  7      0.0000     0.0000E+00    0.0000E+00    2.512000E+07  0.00400  5.251E-03    0   0.8174   age090_m42            0.0000     2.5338E-01    13.4227   1.4671    99.0484
  8      8.0992     3.0057E-01    4.2171E-01    4.000000E+07  0.00400  3.649E-03    0   0.7851   age104_m42            0.0000     2.4115E-01    12.9147   1.2469    99.5398
  9      2.9926     1.3081E-01    1.7834E-01    5.500000E+07  0.00400  3.098E-03    0   0.7629   age110_m42            0.0000     2.3398E-01    12.1267   1.4205    98.6228
 10      0.8880     5.3972E-02    6.9514E-02    1.015200E+08  0.00400  2.228E-03    0   0.7207   age116_m42            0.0000     2.3150E-01    11.4638   1.4538    98.2199
 11      0.4437     5.4976E-02    6.5315E-02    2.861200E+08  0.00400  1.093E-03    0   0.6648   age125_m42            0.0000     2.3203E-01    11.0755   0.8756   101.5496
 12      0.7684     1.5772E-01    1.7941E-01    5.088000E+08  0.00400  6.597E-04    0   0.6365   age130_m42            0.0000     2.1734E-01    10.1543   0.8856   101.4810
 13     24.3878     1.5490E+01    1.6050E+01    1.434000E+09  0.00400  2.132E-04    0   0.5798   age139_m42            0.0000     1.8697E-01     9.5691  -0.0738   102.9446
 14      1.6180     3.7167E+00    3.5714E+00    4.250000E+09  0.00400  5.895E-05    0   0.5377   age158_m42            0.0000     2.1095E-01    10.5778  -0.5063    98.6546
 15      0.0842     3.2501E-01    3.0272E-01    7.500000E+09  0.00400  3.510E-05    0   0.5212   age171_m42            0.0000     2.3092E-01    10.7340  -0.6855    97.6270
 16      0.9544     6.4459E+00    5.7989E+00    1.300000E+10  0.00400  2.005E-05    0   0.5034   age193_m42            0.0000     2.5614E-01    11.0044  -0.8429    96.7765
 17      0.0000     0.0000E+00    0.0000E+00    1.800000E+10  0.00400  1.525E-05    0   0.4967   age213_m42            0.0000     2.5276E-01    11.0665  -0.8692    96.4775
 18      0.0000     0.0000E+00    0.0000E+00    1.000000E+06  0.00800  1.238E-02    0   1.0000   age020_m52            0.0000     3.2844E-01    15.9422   2.6822    89.8335
 19      0.0000     0.0000E+00    0.0000E+00    3.160000E+06  0.00800  3.074E-02    0   0.9966   age045_m52            0.0000     3.2371E-01    15.4842   2.6091    90.5008
 20      0.0000     0.0000E+00    0.0000E+00    5.010000E+06  0.00800  2.668E-02    0   0.9443   age055_m52            0.0000     2.9174E-01    14.3564   2.3725    92.2498
 21      0.0000     0.0000E+00    0.0000E+00    6.610000E+06  0.00800  2.136E-02    0   0.9177   age061_m52            0.0000     2.2475E-01    13.6204   1.0967    99.6619
 22      1.2625     1.4071E-02    2.2197E-02    1.000000E+07  0.00800  1.215E-02    0   0.8827   age070_m52            0.0000     2.6512E-01    14.0763   1.7658    98.7302
 23      0.0000     0.0000E+00    0.0000E+00    1.445000E+07  0.00800  8.717E-03    0   0.8552   age078_m52            0.0000     2.5811E-01    13.7710   1.8892    97.3226
 24      0.0000     0.0000E+00    0.0000E+00    2.512000E+07  0.00800  5.592E-03    0   0.8162   age090_m52            0.0000     2.5286E-01    13.2854   1.5301   100.2321
 25      0.7673     2.6670E-02    3.7372E-02    4.000000E+07  0.00800  3.896E-03    0   0.7841   age104_m52            0.0000     2.4293E-01    12.6264   1.4544   100.4511
 26      0.0000     0.0000E+00    0.0000E+00    1.015200E+08  0.00800  2.148E-03    0   0.7226   age116_m52            0.0000     2.2840E-01    11.5968   1.4118    99.4399
 27      0.0000     0.0000E+00    0.0000E+00    2.861200E+08  0.00800  9.925E-04    0   0.6683   age125_m52            0.0000     2.1191E-01    10.0014   0.9496   102.4582
 28      0.0000     0.0000E+00    0.0000E+00    9.047900E+08  0.00800  3.141E-04    0   0.6138   age135_m52            0.0000     2.0053E-01     9.3353   0.1823   105.2130
 29      0.0000     0.0000E+00    0.0000E+00    1.434000E+09  0.00800  1.719E-04    0   0.5853   age139_m52            0.0000     2.0257E-01     9.8821  -0.4083   103.5446
 30      0.0000     0.0000E+00    0.0000E+00    2.500000E+09  0.00800  7.872E-05    0   0.5600   age150_m52            0.0000     2.3265E-01    10.2537  -0.6570    99.9501
 31      0.0000     0.0000E+00    0.0000E+00    4.250000E+09  0.00800  4.336E-05    0   0.5426   age158_m52            0.0000     2.4074E-01    10.5216  -0.6718    99.0067
 32      0.0000     0.0000E+00    0.0000E+00    6.250000E+09  0.00800  3.159E-05    0   0.5319   age166_m52            0.0000     2.7520E-01    10.5774  -0.8596    98.3750
 33      0.0000     0.0000E+00    0.0000E+00    1.300000E+10  0.00800  1.361E-05    0   0.5073   age193_m52            0.0000     4.7318E-01    11.3586  -1.0000    85.3452
 34      0.0000     0.0000E+00    0.0000E+00    1.800000E+10  0.00800  9.886E-06    0   0.4990   age213_m52            0.0000     6.0732E-01    12.0981  -1.0000    81.0741
 35      0.0000     0.0000E+00    0.0000E+00    1.000000E+06  0.02000  1.544E-02    0   1.0000   age020_m62            0.0000     3.3048E-01    15.9562   2.6771    90.0864
 36      0.2267     8.1616E-04    1.4378E-03    3.160000E+06  0.02000  3.762E-02    0   0.9858   age045_m62            0.0000     3.2857E-01    15.6125   2.6178    90.8258
 37      0.0000     0.0000E+00    0.0000E+00    5.010000E+06  0.02000  3.296E-02    0   0.9342   age055_m62            0.0000     2.7699E-01    13.3741   2.2632    93.6595
 38      0.0358     4.2041E-04    6.6573E-04    8.710000E+06  0.02000  1.154E-02    0   0.8861   age067_m62            0.0000     4.0807E-01    17.9082   1.1456   104.9251
 39      0.0000     0.0000E+00    0.0000E+00    1.445000E+07  0.02000  7.663E-03    0   0.8472   age078_m62            0.0000     2.8676E-01    14.8999   1.3917   101.9291
 40      0.0000     0.0000E+00    0.0000E+00    2.512000E+07  0.02000  4.532E-03    0   0.8099   age090_m62            0.0000     3.0142E-01    14.7824   1.3830   101.6879
 41      0.0000     0.0000E+00    0.0000E+00    5.500000E+07  0.02000  2.733E-03    0   0.7595   age110_m62            0.0000     2.3908E-01    12.5913   1.4329    99.9246
 42      0.0000     0.0000E+00    0.0000E+00    1.609000E+08  0.02000  1.369E-03    0   0.6985   age120_m62            0.0000     2.2041E-01    10.7270   1.3017   101.2754
 43      0.0000     0.0000E+00    0.0000E+00    2.861200E+08  0.02000  9.013E-04    0   0.6714   age125_m62            0.0000     2.0948E-01     9.6451   1.0679   103.3834
 44      3.2069     8.6369E-01    9.9540E-01    5.088000E+08  0.02000  5.028E-04    0   0.6449   age130_m62            0.0000     2.0236E-01     8.9539   0.7216   104.6402
 45      0.0000     0.0000E+00    0.0000E+00    9.047900E+08  0.02000  2.428E-04    0   0.6179   age135_m62            0.0000     2.0251E-01     9.4226   0.1396   103.8565
 46      0.0000     0.0000E+00    0.0000E+00    1.434000E+09  0.02000  1.263E-04    0   0.5908   age139_m62            0.0000     2.2130E-01     9.9921  -0.3062   102.4165
 47      0.0000     0.0000E+00    0.0000E+00    2.500000E+09  0.02000  5.985E-05    0   0.5673   age150_m62            0.0000     2.6824E-01    10.4762  -0.6575   100.3707
 48      3.9101     1.6187E+01    1.5818E+01    4.250000E+09  0.02000  3.271E-05    0   0.5468   age158_m62            0.0000     3.3410E-01    10.6697  -0.9419    98.6185
 49      0.0000     0.0000E+00    0.0000E+00    1.000000E+10  0.02000  1.360E-05    0   0.5167   age181_m62            0.0000     5.2680E-01    11.4721  -1.0000    87.1384
 50      0.0000     0.0000E+00    0.0000E+00    1.800000E+10  0.02000  7.124E-06    0   0.5013   age213_m62            0.0000     7.8047E-01    12.9698  -1.0000    78.9969
 51      0.0000     0.0000E+00    0.0000E+00    1.000000E+06  0.05000  2.592E-02    0   0.9998   age020_m72            0.0000     3.3801E-01    16.1447   2.6644    90.2873
 52      0.0000     0.0000E+00    0.0000E+00    3.160000E+06  0.05000  4.845E-02    0   0.9577   age045_m72            0.0000     3.1370E-01    14.6160   2.5122    91.5576
 53      0.0000     0.0000E+00    0.0000E+00    5.010000E+06  0.05000  3.072E-02    0   0.9147   age055_m72            0.0000     2.9456E-01    14.9763   1.9919    97.4208
 54      0.0000     0.0000E+00    0.0000E+00    6.610000E+06  0.05000  1.455E-02    0   0.8877   age061_m72            0.0000     6.5724E-01    20.8122   1.1642   107.2602
 55      0.0000     0.0000E+00    0.0000E+00    1.000000E+07  0.05000  9.074E-03    0   0.8524   age070_m72            0.0000     3.6238E-01    15.5776   2.1774    97.0872
 56      0.0000     0.0000E+00    0.0000E+00    2.512000E+07  0.05000  4.250E-03    0   0.7902   age090_m72            0.0000     3.0828E-01    14.0228   1.8855    98.4800
 57      0.0000     0.0000E+00    0.0000E+00    4.000000E+07  0.05000  3.087E-03    0   0.7618   age104_m72            0.0000     3.1010E-01    13.6299   1.6571   100.1243
 58      0.0000     0.0000E+00    0.0000E+00    1.015200E+08  0.05000  1.700E-03    0   0.7096   age116_m72            0.0000     2.3971E-01    11.2437   1.4315   101.4047
 59     11.1147     2.0383E+00    2.4162E+00    2.861200E+08  0.05000  7.384E-04    0   0.6633   age125_m72            0.0000     2.0131E-01     9.1231   0.9510   104.0650
 60     22.0821     7.8300E+00    8.9163E+00    5.088000E+08  0.05000  3.819E-04    0   0.6372   age130_m72            0.0000     1.9644E-01     9.0485   0.4785   104.8390
 61     13.0280     1.0526E+01    1.1494E+01    9.047900E+08  0.05000  1.676E-04    0   0.6110   age135_m72            0.0000     2.5274E-01    10.0584  -0.1987   102.1883
 62      0.0000     0.0000E+00    0.0000E+00    1.434000E+09  0.05000  8.837E-05    0   0.5874   age139_m72            0.0000     2.8297E-01    10.3982  -0.6551   101.6861
 63      0.0000     0.0000E+00    0.0000E+00    2.500000E+09  0.05000  4.233E-05    0   0.5598   age150_m72            0.0000     3.5875E-01    10.9394  -0.9359    99.1670
 64      3.7896     3.5761E+01    3.3546E+01    6.250000E+09  0.05000  1.435E-05    0   0.5249   age166_m72            0.0000     6.3291E-01    12.2479  -1.0000    83.2638
 65      0.0000     0.0000E+00    0.0000E+00    1.300000E+10  0.05000  6.513E-06    0   0.5036   age193_m72            0.0000     1.0387E+00    14.5700  -1.0000    74.3407
 66      0.0000     0.0000E+00    0.0000E+00    1.800000E+10  0.05000  4.527E-06    0   0.4945   age213_m72            0.0000     1.3335E+00    16.1475  -1.0000    68.9919


## Synthesis Results - Average & Chains ##

# j      x_j: min, <> & last-chain-values for 1 ...  7 chains
  1      0.0000      0.3797      0.0063      0.0000      0.0000      0.0000      2.1690      0.0000      0.0000
  2      0.0000      0.2727      0.0000      0.0000      0.0000      0.0000      0.3384      0.8103      0.4163
  3      0.0000      0.4397      0.0000      0.0000      0.0000      0.1175      0.0000      0.0000      0.0000
  4      0.0000      0.4695      0.1039      0.0000      0.0000      0.0000      0.5304      0.0000      5.5870
  5      0.0000      0.6871      0.0000      0.0000      0.0000      0.0000      0.0000      0.0000      0.0000
  6      4.3807      0.2741      0.0000      0.0000      1.1602      0.0000      0.0000      0.0000      0.0000
  7      0.0000      0.9432      1.9151      3.4596      0.0000      3.2625      0.0000      0.6661      0.0000
  8      8.0992      2.3753      3.6719      0.0000      2.0312      3.4037      1.9624      2.2097      4.3019
  9      2.9926      1.4607      0.0000      0.0000      1.9214      1.8670      5.3057      0.0000      4.3949
 10      0.8880      0.9785      0.0000      3.3810      3.2299      0.2699      0.0000      0.0000      0.1584
 11      0.4437      1.7565      0.0000      0.0000      0.8169      3.9801      0.0000      0.0000      0.0000
 12      0.7684      2.9706      3.8210      0.0000      7.4010      2.2056      0.0000      1.3134      0.0000
 13     24.3878      7.8243      8.4328      8.2297      8.6108      7.7254     19.1706     10.4006      8.3868
 14      1.6180      0.7139      0.0000      0.0000      2.9126      0.5720      0.5674      4.0205      0.0000
 15      0.0842      2.1937      0.0000      2.0832      1.5331      3.9935      0.0000      2.2881      5.3608
 16      0.9544      0.2231      0.0000      0.5519      1.0835      0.7107      1.0690      0.0000      0.0000
 17      0.0000      0.2100      0.0000      0.0000      0.0000      0.0000      0.1811      2.3091      0.0000
 18      0.0000      0.2652      0.0000      0.0000      0.0000      0.0000      0.0000      1.1496      0.3377
 19      0.0000      0.3907      0.0000      1.6585      0.0000      0.0000      0.0000      0.3938      0.0000
 20      0.0000      0.5232      0.0000      0.0000      0.0000      0.0000      0.0000      1.5882      0.0000
 21      0.0000      1.0472      5.3009      0.0000      0.0000      1.0977      0.7919      1.9866      0.1864
 22      1.2625      0.3765      0.5694      0.3658      1.5269      0.0000      0.0000      0.0000      0.0000
 23      0.0000      0.4971      0.0000      1.1087      0.0000      0.0000      0.0000      0.0000      0.0000
 24      0.0000      0.9445      1.7224      0.5457      0.0000      4.8782      0.2516      0.0000      0.0000
 25      0.7673      0.9386      0.0000      0.0000      4.5812      0.0000      0.0000      0.0000      0.0000
 26      0.0000      1.4385      0.6657      2.9650      0.0000      0.4013      5.7544      3.0373      0.0000
 27      0.0000      2.8788      4.8396      1.9446      0.0000      4.6278      7.0939      4.2195      0.0000
 28      0.0000      5.6821      3.2265      0.0000      1.4358      0.0000      0.0000      0.0000      0.0000
 29      0.0000      0.8421      0.0000      1.6107      0.0000      0.0000      2.8246      3.2398      0.0000
 30      0.0000      0.6971      1.2748      1.1200      0.7451      0.3733      0.0000      0.0000      0.0000
 31      0.0000      0.4825      0.0000      1.1049      0.1777      0.0000      1.0271      0.2323      0.4630
 32      0.0000      0.1916      0.0000      0.0000      0.0000      0.0000      0.0000      0.0000      0.0977
 33      0.0000      0.5384      0.0000      0.6453      0.0000      0.0000      1.7274      0.0000      0.0000
 34      0.0000      0.0642      0.0000      0.0000      0.0000      0.0000      0.3657      0.0000      0.0000
 35      0.0000      0.2381      0.0000      0.0000      0.0000      0.0000      0.0000      0.0000      0.0000
 36      0.2267      0.5004      0.1689      2.6224      1.3973      0.0000      0.0000      0.0000      0.0000
 37      0.0000      0.2508      0.0000      0.7268      0.2543      0.0000      0.0000      0.0000      0.0000
 38      0.0358      0.6113      0.0000      0.0000      2.7578      0.4271      0.0000      0.0000      1.8761
 39      0.0000      0.8476      0.5816      0.0000      0.0000      1.0603      0.0000      1.2421      0.0000
 40      0.0000      0.7125      1.9812      0.0000      0.2210      3.1316      0.0000      1.9684      0.0000
 41      0.0000      0.6995      0.0000      0.0000      0.0000      0.6383      2.4874      0.4070      0.0000
 42      0.0000      1.1769      3.6233      4.3966      0.0000      0.0000      1.4317      2.4801      0.0000
 43      0.0000      1.2241      0.0000      0.0000      0.0000      0.4470      0.0000      6.1748     14.2206
 44      3.2069      3.9602      4.5956      3.1881     12.5282      9.1000      0.0000      3.6529      7.6860
 45      0.0000      7.4299      9.1249      7.2138      0.9311      8.8408      1.8174      5.9207      8.3369
 46      0.0000      2.1679      1.3726      0.2719      1.4526      2.8445      1.0926      6.1936      0.0000
 47      0.0000      0.8753      1.7109      0.0000      0.0000      0.0000      0.8152      0.0000      0.0000
 48      3.9101      0.8843      2.1608      1.6140      1.4414      0.0000      1.0136      1.5277      1.6802
 49      0.0000      0.1890      0.0000      0.3811      0.0000      0.0000      0.0000      0.0000      0.0000
 50      0.0000      0.0819      0.9704      0.0000      0.0000      1.4602      0.0000      0.0000      0.0000
 51      0.0000      0.1584      0.0000      0.0000      0.0000      0.0000      0.0000      0.0000      0.0000
 52      0.0000      0.1587      0.0000      0.0000      0.0000      0.0000      0.5672      0.0000      0.0000
 53      0.0000      0.2476      0.0000      0.0000      0.0000      0.0000      0.0000      0.0000      0.0000
 54      0.0000      0.6237      1.2230      0.0000      0.0000      0.0000      0.0000      0.0000      2.0041
 55      0.0000      0.3179      0.0000      0.0000      0.1485      0.0000      0.0000      0.0000      0.0000
 56      0.0000      0.5365      0.0000      0.0000      0.0000      0.0000      0.0000      0.0000      0.0000
 57      0.0000      0.5342      0.0000      2.8993      0.1140      0.0000      0.0000      1.2251      0.3656
 58      0.0000      0.6233      0.0000      0.0000      0.0000      0.0000      0.0000      0.5139      0.0000
 59     11.1147      1.7273      2.7688      4.6519      1.9216      2.0523      1.8144      0.0000      0.0000
 60     22.0821     22.9465     25.5586     28.4694     25.2710     18.6464     29.6562     25.1928     19.3819
 61     13.0280     11.0121      9.7114     15.1029     12.5048     15.4427     11.7302      5.7034     17.7326
 62      0.0000      0.7970      0.6683      1.6984      2.1137      0.1251      0.0000      0.0000      0.4488
 63      0.0000      0.2887      2.2421      0.0649      0.1271      0.0000      0.0000      0.9111      0.0000
 64      3.7896      0.2001      0.0000      0.0000      1.6751      0.0000      0.0000      0.9318      0.0000
 65      0.0000      0.0110      0.0000      0.0000      0.0000      0.0000      0.0000      0.0000      0.2301
 66      0.0000      0.0212      0.0000      0.0000      0.0000      0.0000      0.0000      0.0000      0.0000

# j      m_j: min, <> & last-chain-values for 1 ...  7 chains
  1  0.0000E+00  1.1381E-02  1.7958E-04  0.0000E+00  0.0000E+00  0.0000E+00  5.9395E-02  0.0000E+00  0.0000E+00
  2  0.0000E+00  2.2316E-03  0.0000E+00  0.0000E+00  0.0000E+00  0.0000E+00  2.5299E-03  5.2621E-03  3.4625E-03
  3  0.0000E+00  5.3880E-03  0.0000E+00  0.0000E+00  0.0000E+00  1.2271E-03  0.0000E+00  0.0000E+00  0.0000E+00
  4  0.0000E+00  5.4177E-03  1.1421E-03  0.0000E+00  0.0000E+00  0.0000E+00  5.5917E-03  0.0000E+00  6.5532E-02
  5  0.0000E+00  1.5104E-02  0.0000E+00  0.0000E+00  0.0000E+00  0.0000E+00  0.0000E+00  0.0000E+00  0.0000E+00
  6  1.1526E-01  9.7730E-03  0.0000E+00  0.0000E+00  3.7412E-02  0.0000E+00  0.0000E+00  0.0000E+00  0.0000E+00
  7  0.0000E+00  4.8142E-02  9.3095E-02  1.7382E-01  0.0000E+00  1.4190E-01  0.0000E+00  2.6984E-02  0.0000E+00
  8  4.2171E-01  1.6758E-01  2.4671E-01  0.0000E+00  1.2961E-01  2.0461E-01  1.2648E-01  1.2373E-01  3.0850E-01
  9  1.7834E-01  1.1794E-01  0.0000E+00  0.0000E+00  1.4032E-01  1.2846E-01  3.9140E-01  0.0000E+00  3.6073E-01
 10  6.9514E-02  1.0379E-01  0.0000E+00  3.5299E-01  3.0986E-01  2.4390E-02  0.0000E+00  0.0000E+00  1.7081E-02
 11  6.5315E-02  3.5031E-01  0.0000E+00  0.0000E+00  1.4735E-01  6.7638E-01  0.0000E+00  0.0000E+00  0.0000E+00
 12  1.7941E-01  9.3979E-01  1.1513E+00  0.0000E+00  2.1178E+00  5.9457E-01  0.0000E+00  3.2978E-01  0.0000E+00
 13  1.6050E+01  6.9772E+00  7.1616E+00  7.2237E+00  6.9450E+00  5.8701E+00  1.5618E+01  7.3607E+00  7.6021E+00
 14  3.5714E+00  2.1351E+00  0.0000E+00  0.0000E+00  7.8790E+00  1.4578E+00  1.5503E+00  9.5436E+00  0.0000E+00
 15  3.0272E-01  1.0681E+01  0.0000E+00  9.9840E+00  6.7517E+00  1.6568E+01  0.0000E+00  8.8419E+00  2.6532E+01
 16  5.7989E+00  1.8364E+00  0.0000E+00  4.4725E+00  8.0682E+00  4.9858E+00  8.0401E+00  0.0000E+00  0.0000E+00
 17  0.0000E+00  2.2432E+00  0.0000E+00  0.0000E+00  0.0000E+00  0.0000E+00  1.7669E+00  1.9572E+01  0.0000E+00
 18  0.0000E+00  7.0242E-03  0.0000E+00  0.0000E+00  0.0000E+00  0.0000E+00  0.0000E+00  2.4165E-02  9.0912E-03
 19  0.0000E+00  4.1530E-03  0.0000E+00  1.7355E-02  0.0000E+00  0.0000E+00  0.0000E+00  3.3221E-03  0.0000E+00
 20  0.0000E+00  6.0723E-03  0.0000E+00  0.0000E+00  0.0000E+00  0.0000E+00  0.0000E+00  1.4628E-02  0.0000E+00
 21  0.0000E+00  1.4753E-02  7.1121E-02  0.0000E+00  0.0000E+00  1.3177E-02  1.0192E-02  2.2212E-02  2.6686E-03
 22  2.2197E-02  8.9678E-03  1.2919E-02  8.5782E-03  3.2900E-02  0.0000E+00  0.0000E+00  0.0000E+00  0.0000E+00
 23  0.0000E+00  1.5993E-02  0.0000E+00  3.5108E-02  0.0000E+00  0.0000E+00  0.0000E+00  0.0000E+00  0.0000E+00
 24  0.0000E+00  4.5204E-02  7.8508E-02  2.5706E-02  0.0000E+00  1.9894E-01  1.1002E-02  0.0000E+00  0.0000E+00
 25  3.7372E-02  6.1941E-02  0.0000E+00  0.0000E+00  2.7344E-01  0.0000E+00  0.0000E+00  0.0000E+00  0.0000E+00
 26  0.0000E+00  1.5867E-01  6.9931E-02  3.2194E-01  0.0000E+00  3.7716E-02  5.7990E-01  2.6591E-01  0.0000E+00
 27  0.0000E+00  6.3562E-01  1.0176E+00  4.2263E-01  0.0000E+00  8.7066E-01  1.4309E+00  7.3939E-01  0.0000E+00
 28  0.0000E+00  3.6409E+00  1.9689E+00  0.0000E+00  8.3213E-01  0.0000E+00  0.0000E+00  0.0000E+00  0.0000E+00
 29  0.0000E+00  9.4019E-01  0.0000E+00  1.7701E+00  0.0000E+00  0.0000E+00  2.8810E+00  2.8707E+00  0.0000E+00
 30  0.0000E+00  1.6261E+00  2.8321E+00  2.5717E+00  1.5720E+00  7.4197E-01  0.0000E+00  0.0000E+00  0.0000E+00
 31  0.0000E+00  1.9798E+00  0.0000E+00  4.4627E+00  6.5936E-01  0.0000E+00  3.8504E+00  7.5648E-01  1.9311E+00
 32  0.0000E+00  1.0578E+00  0.0000E+00  0.0000E+00  0.0000E+00  0.0000E+00  0.0000E+00  0.0000E+00  5.4817E-01
 33  0.0000E+00  6.5800E+00  0.0000E+00  7.7637E+00  0.0000E+00  0.0000E+00  1.9288E+01  0.0000E+00  0.0000E+00
 34  0.0000E+00  1.0620E+00  0.0000E+00  0.0000E+00  0.0000E+00  0.0000E+00  5.5295E+00  0.0000E+00  0.0000E+00
 35  0.0000E+00  5.0569E-03  0.0000E+00  0.0000E+00  0.0000E+00  0.0000E+00  0.0000E+00  0.0000E+00  0.0000E+00
 36  1.4378E-03  4.2997E-03  1.3819E-03  2.2180E-02  1.0859E-02  0.0000E+00  0.0000E+00  0.0000E+00  0.0000E+00
 37  0.0000E+00  2.3310E-03  0.0000E+00  6.6492E-03  2.1379E-03  0.0000E+00  0.0000E+00  0.0000E+00  0.0000E+00
 38  6.6573E-04  1.5390E-02  0.0000E+00  0.0000E+00  6.2802E-02  9.1633E-03  0.0000E+00  0.0000E+00  4.8016E-02
 39  0.0000E+00  3.0727E-02  2.0079E-02  0.0000E+00  0.0000E+00  3.2754E-02  0.0000E+00  3.5736E-02  0.0000E+00
 40  0.0000E+00  4.1749E-02  1.1056E-01  0.0000E+00  1.1716E-02  1.5637E-01  0.0000E+00  9.1546E-02  0.0000E+00
 41  0.0000E+00  6.3742E-02  0.0000E+00  0.0000E+00  0.0000E+00  4.9564E-02  2.0707E-01  2.9436E-02  0.0000E+00
 42  0.0000E+00  1.9690E-01  5.7732E-01  7.2405E-01  0.0000E+00  0.0000E+00  2.1883E-01  3.2931E-01  0.0000E+00
 43  0.0000E+00  2.9900E-01  0.0000E+00  0.0000E+00  0.0000E+00  9.3028E-02  0.0000E+00  1.1970E+00  3.5308E+00
 44  9.9540E-01  1.6656E+00  1.8407E+00  1.3198E+00  4.7657E+00  3.2612E+00  0.0000E+00  1.2193E+00  3.2858E+00
 45  0.0000E+00  6.2000E+00  7.2518E+00  5.9254E+00  7.0278E-01  6.2863E+00  1.3855E+00  3.9212E+00  7.0717E+00
 46  0.0000E+00  3.3252E+00  2.0051E+00  4.1050E-01  2.0152E+00  3.7177E+00  1.5311E+00  7.5396E+00  0.0000E+00
 47  0.0000E+00  2.7205E+00  5.0643E+00  0.0000E+00  0.0000E+00  0.0000E+00  2.3148E+00  0.0000E+00  0.0000E+00
 48  1.5818E+01  4.8471E+00  1.1280E+01  8.7081E+00  7.1460E+00  0.0000E+00  5.0759E+00  6.6459E+00  9.3614E+00
 49  0.0000E+00  2.3548E+00  0.0000E+00  4.6738E+00  0.0000E+00  0.0000E+00  0.0000E+00  0.0000E+00  0.0000E+00
 50  0.0000E+00  1.8897E+00  2.1324E+01  0.0000E+00  0.0000E+00  2.8708E+01  0.0000E+00  0.0000E+00  0.0000E+00
 51  0.0000E+00  2.0040E-03  0.0000E+00  0.0000E+00  0.0000E+00  0.0000E+00  0.0000E+00  0.0000E+00  0.0000E+00
 52  0.0000E+00  1.0289E-03  0.0000E+00  0.0000E+00  0.0000E+00  0.0000E+00  3.3589E-03  0.0000E+00  0.0000E+00
 53  0.0000E+00  2.4171E-03  0.0000E+00  0.0000E+00  0.0000E+00  0.0000E+00  0.0000E+00  0.0000E+00  0.0000E+00
 54  0.0000E+00  1.2478E-02  2.3301E-02  0.0000E+00  0.0000E+00  0.0000E+00  0.0000E+00  0.0000E+00  4.0753E-02
 55  0.0000E+00  9.7906E-03  0.0000E+00  0.0000E+00  4.1373E-03  0.0000E+00  0.0000E+00  0.0000E+00  0.0000E+00
 56  0.0000E+00  3.2705E-02  0.0000E+00  0.0000E+00  0.0000E+00  0.0000E+00  0.0000E+00  0.0000E+00  0.0000E+00
 57  0.0000E+00  4.3223E-02  0.0000E+00  2.3093E-01  8.3456E-03  0.0000E+00  0.0000E+00  7.8677E-02  3.0074E-02
 58  0.0000E+00  8.5313E-02  0.0000E+00  0.0000E+00  0.0000E+00  0.0000E+00  0.0000E+00  5.5824E-02  0.0000E+00
 59  2.4162E+00  5.0877E-01  7.7670E-01  1.3488E+00  5.1194E-01  5.1511E-01  4.8826E-01  0.0000E+00  0.0000E+00
 60  8.9163E+00  1.2554E+01  1.3317E+01  1.5332E+01  1.2505E+01  8.6926E+00  1.4823E+01  1.0939E+01  1.0779E+01
 61  1.1494E+01  1.3164E+01  1.1056E+01  1.7771E+01  1.3520E+01  1.5730E+01  1.2811E+01  5.4109E+00  2.1547E+01
 62  0.0000E+00  1.7370E+00  1.3872E+00  3.6439E+00  4.1669E+00  2.3227E-01  0.0000E+00  0.0000E+00  9.9435E-01
 63  0.0000E+00  1.2518E+00  9.2596E+00  2.7706E-01  4.9859E-01  0.0000E+00  0.0000E+00  3.1356E+00  0.0000E+00
 64  3.3546E+01  2.3996E+00  0.0000E+00  0.0000E+00  1.8172E+01  0.0000E+00  0.0000E+00  8.8698E+00  0.0000E+00
 65  0.0000E+00  2.7856E-01  0.0000E+00  0.0000E+00  0.0000E+00  0.0000E+00  0.0000E+00  0.0000E+00  5.9308E+00
 66  0.0000E+00  7.6026E-01  0.0000E+00  0.0000E+00  0.0000E+00  0.0000E+00  0.0000E+00  0.0000E+00  0.0000E+00

# AV, chi2 & Mass for <> & i_chain = 1 ...  7 solutions
AV       0.1720      0.3235      0.2930      0.3083      0.2856      0.3083      0.2700      0.2334      0.3300
chi2 1.8211E-01  1.8495E-01  1.8396E-01  1.8416E-01  1.8361E-01  1.8410E-01  1.8386E-01  1.8386E-01  1.8405E-01
Mass 5.6890E-13  5.1464E-13  5.1862E-13  5.1221E-13  5.4069E-13  5.9172E-13  5.2425E-13  5.7450E-13  5.1072E-13
 -29.14                                  [v0_min (km/s) before EX0s...]
 128.73                                  [vd_min (km/s) before EX0s...]


## Synthetic spectrum (Best Model) ##l_obs f_obs f_syn wei
 3478    [Nl_obs]
 3741.00   -0.04193   0.61906    0.000
 3742.00   -0.06459   0.61084    0.000
 3743.00   -0.06823   0.59047    0.000
 3744.00   -0.10607   0.56229    0.000
 3745.00   -0.16845   0.52855    0.000
 3746.00   -0.16004   0.49072    0.000
 3747.00   -0.06550   0.45134    0.000
 3748.00    0.00538   0.41873    2.210
 3749.00   -0.00634   0.40463    0.000
 3750.00   -0.04842   0.41737    0.000
 3751.00   -0.07093   0.45537    0.000
 3752.00   -0.07255   0.50808    0.000
 3753.00   -0.06855   0.56229    0.000
 3754.00   -0.07084   0.60589    0.000
 3755.00   -0.06810   0.63069    0.000
 3756.00   -0.02900   0.63517    0.000
 3757.00    0.05247   0.62686    2.383
 3758.00    0.14871   0.61842    2.388
 3759.00    0.23793   0.61794    2.414
 3760.00    0.31527   0.62498    2.410
 3761.00    0.37518   0.63357    2.374
 3762.00    0.40909   0.63746    2.363
 3763.00    0.42124   0.63347    2.400
 3764.00    0.42872   0.62093    2.458
 3765.00    0.44211   0.59912    2.514
 3766.00    0.46169   0.56975    2.559
 3767.00    0.48760   0.53688    2.581
 3768.00    0.51972   0.50552    2.560
 3769.00    0.54661   0.48234    2.520
 3770.00    0.54801   0.47539    2.511
 3771.00    0.51345   0.48894    2.560
 3772.00    0.44747   0.51932    2.659
 3773.00    0.36787   0.55754    2.755
 3774.00    0.30212   0.59573    2.770
 3775.00    0.27913   0.63144    2.716
 3776.00    0.31780   0.66561    2.684
 3777.00    0.40345   0.69860    2.701
 3778.00    0.49543   0.72961    2.731
 3779.00    0.56337   0.75660    2.745
 3780.00    0.59494   0.77732    2.736
 3781.00    0.59043   0.79090    2.716
 3782.00    0.56428   0.79736    2.706
 3783.00    0.55145   0.79610    2.719
 3784.00    0.58479   0.78483    2.758
 3785.00    0.64101   0.76336    2.805
 3786.00    0.66457   0.73661    2.834
 3787.00    0.64805   0.71125    2.846
 3788.00    0.62191   0.69171    2.868
 3789.00    0.59371   0.67767    2.917
 3790.00    0.55830   0.66486    2.985
 3791.00    0.54498   0.64721    3.018
 3792.00    0.58933   0.62009    2.971
 3793.00    0.65951   0.58285    2.917
 3794.00    0.68744   0.53894    2.952
 3795.00    0.65550   0.49407    3.014
 3796.00    0.58737   0.45528    2.967
 3797.00    0.50025   0.43217    2.871
 3798.00    0.41105   0.43392    2.867
 3799.00    0.36189   0.46297    2.938
 3800.00    0.38964   0.51221    2.983
 3801.00    0.46863   0.56924    2.977
 3802.00    0.54836   0.62255    2.968
 3803.00    0.62952   0.66451    2.974
 3804.00    0.72964   0.69277    2.991
 3805.00    0.81174   0.71039    3.025
 3806.00    0.82758   0.72473    3.081
 3807.00    0.79806   0.74328    3.125
 3808.00    0.77037   0.76724    3.119
 3809.00    0.73951   0.79076    3.084
 3810.00    0.68412   0.80482    3.060
 3811.00    0.63088   0.80371    3.047
 3812.00    0.61639   0.78914    3.032
 3813.00    0.62518   0.76982    3.024
 3814.00    0.62161   0.75538    3.050
 3815.00    0.60140   0.75097    3.123
 3816.00    0.57784   0.75409    3.227
 3817.00    0.55621   0.75627    3.295
 3818.00    0.53691   0.75100    3.279
 3819.00    0.52282   0.73985    3.250
 3820.00    0.51633   0.73019    3.287
 3821.00    0.51494   0.72558    3.355
 3822.00    0.51284   0.72090    3.380
 3823.00    0.50333   0.70841    3.365
 3824.00    0.48140   0.68710    3.368
 3825.00    0.44627   0.66236    3.452
 3826.00    0.40360   0.63977    3.624
 3827.00    0.36624   0.62034    3.752
 3828.00    0.34005   0.60104    3.703
 3829.00    0.31185   0.57770    3.563
 3830.00    0.27415   0.54672    3.476
 3831.00    0.24754   0.50724    3.484
 3832.00    0.24972   0.46373    3.561
 3833.00    0.26702   0.42442    3.623
 3834.00    0.27985   0.39830    3.627
 3835.00    0.28691   0.39100    3.662
 3836.00    0.29531   0.40216    3.775
 3837.00    0.31001   0.42734    3.825
 3838.00    0.33256   0.46160    3.726
 3839.00    0.36117   0.50177    3.662
 3840.00    0.39527   0.54661    3.748
 3841.00    0.43863   0.59419    3.827
 3842.00    0.49566   0.63981    3.759
 3843.00    0.56797   0.67903    3.683
 3844.00    0.65225   0.70979    3.717
 3845.00    0.73890   0.73327    3.792
 3846.00    0.81322   0.75169    3.810
 3847.00    0.85841   0.76551    0.000
 3848.00    0.87086   0.77514    0.000
 3849.00    0.86681   0.78321    0.000
 3850.00    0.85553   0.79357    0.000
 3851.00    0.82544   0.80630    0.000
 3852.00    0.77454   0.81733    0.000
 3853.00    0.72528   0.82227    0.000
 3854.00    0.68997   0.82029    0.000
 3855.00    0.65368   0.81437    0.000
 3856.00    0.60555   0.80821    0.000
 3857.00    0.55597   0.80295    0.000
 3858.00    0.52207   0.80002    0.000
 3859.00    0.51741   0.80271    0.000
 3860.00    0.54502   0.81338    0.000
 3861.00    0.59496   0.82978    0.000
 3862.00    0.65178   0.84554    0.000
 3863.00    0.69943   0.85495    0.000
 3864.00    0.72583   0.85701    0.000
 3865.00    0.72650   0.85509    0.000
 3866.00    0.71169   0.85282    0.000
 3867.00    0.70362   0.85097    0.000
 3868.00    0.70778   0.84674    0.000
 3869.00    0.70681   0.83603    0.000
 3870.00    0.69569   0.81854    0.000
 3871.00    0.69193   0.79921    0.000
 3872.00    0.70787   0.78635    0.000
 3873.00    0.74058   0.78368    0.000
 3874.00    0.78267   0.78640    0.000
 3875.00    0.82691   0.78454    0.000
 3876.00    0.86486   0.77158    0.000
 3877.00    0.88980   0.74997    0.000
 3878.00    0.91001   0.72850    0.000
 3879.00    0.94504   0.71208    0.000
 3880.00    0.99246   0.69825    0.000
 3881.00    1.02400   0.68174    3.718
 3882.00    1.01703   0.65891    3.813
 3883.00    0.96630   0.62856    3.896
 3884.00    0.88313   0.58985    3.949
 3885.00    0.79194   0.54417    4.088
 3886.00    0.72034   0.49768    4.308
 3887.00    0.68883   0.45999    4.428
 3888.00    0.68961   0.44128    4.400
 3889.00    0.69293   0.44768    4.368
 3890.00    0.68664   0.47727    4.375
 3891.00    0.68121   0.52089    4.340
 3892.00    0.68707   0.56634    4.266
 3893.00    0.70818   0.60550    4.244
 3894.00    0.74397   0.63709    4.322
 3895.00    0.79069   0.66382    4.478
 3896.00    0.84322   0.68758    4.621
 3897.00    0.89787   0.70807    4.642
 3898.00    0.95760   0.72575    4.588
 3899.00    1.02377   0.74251    4.610
 3900.00    1.07240   0.76012    4.696
 3901.00    1.06991   0.77648    4.705
 3902.00    1.02495   0.78808    4.630
 3903.00    0.97703   0.79387    4.578
 3904.00    0.94018   0.79642    4.581
 3905.00    0.90526   0.80206    4.591
 3906.00    0.87565   0.81599    4.568
 3907.00    0.86533   0.83834    4.509
 3908.00    0.87689   0.86448    4.447
 3909.00    0.89989   0.88727    4.422
 3910.00    0.91805   0.90197    4.427
 3911.00    0.91811   0.90734    4.426
 3912.00    0.90387   0.90492    4.410
 3913.00    0.88763   0.89838    4.405
 3914.00    0.86883   0.89125    4.451
 3915.00    0.84361   0.88467    4.570
 3916.00    0.82955   0.87838    4.684
 3917.00    0.84932   0.87088    4.680
 3918.00    0.89382   0.86237    4.590
 3919.00    0.93415   0.85477    4.532
 3920.00    0.95368   0.85053    4.555
 3921.00    0.94760   0.85095    4.637
 3922.00    0.91325   0.85405    4.696
 3923.00    0.85574   0.85559    4.672
 3924.00    0.79884   0.85027    4.649
 3925.00    0.76969   0.83547    4.735
 3926.00    0.77298   0.81146    4.860
 3927.00    0.79457   0.78003    4.879
 3928.00    0.81325   0.74292    4.821
 3929.00    0.80999   0.70008    4.803
 3930.00    0.77844   0.65155    4.861
 3931.00    0.72308   0.60041    4.965
 3932.00    0.65454   0.55593    5.068
 3933.00    0.58941   0.53233    5.131
 3934.00    0.55009   0.54000    5.165
 3935.00    0.55340   0.57776    5.203
 3936.00    0.59641   0.63334    5.253
 3937.00    0.66269   0.69125    5.284
 3938.00    0.73266   0.74088    5.206
 3939.00    0.79250   0.77758    5.006
 3940.00    0.84264   0.80033    4.844
 3941.00    0.88980   0.81120    4.832
 3942.00    0.93670   0.81477    4.880
 3943.00    0.98058   0.81786    4.866
 3944.00    1.01328   0.82560    4.827
 3945.00    1.02691   0.83720    4.831
 3946.00    1.01976   0.84759    4.830
 3947.00    0.99566   0.85296    4.794
 3948.00    0.96257   0.85391    4.832
 3949.00    0.93120   0.85358    4.990
 3950.00    0.91275   0.85351    5.037
 3951.00    0.90901   0.85303    4.837
 3952.00    0.90477   0.85174    4.704
 3953.00    0.88496   0.84869    4.863
 3954.00    0.85036   0.84157    5.139
 3955.00    0.81292   0.82935    5.227
 3956.00    0.78896   0.81407    5.107
 3957.00    0.78563   0.79853    4.937
 3958.00    0.79171   0.78187    4.829
 3959.00    0.79414   0.75890    4.831
 3960.00    0.79105   0.72607    0.000
 3961.00    0.78171   0.68567    0.000
 3962.00    0.75891   0.64230    0.000
 3963.00    0.71657   0.59770    0.000
 3964.00    0.65592   0.54955    0.000
 3965.00    0.58496   0.49503    0.000
 3966.00    0.51758   0.43622    0.000
 3967.00    0.47266   0.38125    0.000
 3968.00    0.47057   0.34173    0.000
 3969.00    0.51350   0.32765    0.000
 3970.00    0.57626   0.34253    0.000
 3971.00    0.63431   0.38190    0.000
 3972.00    0.68133   0.43629    0.000
 3973.00    0.72113   0.49619    0.000
 3974.00    0.76081   0.55496    0.000
 3975.00    0.80472   0.60935    0.000
 3976.00    0.85139   0.65869    0.000
 3977.00    0.89646   0.70306    0.000
 3978.00    0.93449   0.74177    0.000
 3979.00    0.95892   0.77305    0.000
 3980.00    0.96381   0.79514    0.000
 3981.00    0.95306   0.80957    4.726
 3982.00    0.94192   0.82081    4.847
 3983.00    0.93916   0.83319    5.099
 3984.00    0.94086   0.84848    5.199
 3985.00    0.94655   0.86515    5.037
 3986.00    0.96425   0.88125    4.867
 3987.00    0.99434   0.89542    4.864
 3988.00    1.02502   0.90685    5.009
 3989.00    1.04785   0.91651    5.158
 3990.00    1.06264   0.92573    5.106
 3991.00    1.06651   0.93494    4.913
 3992.00    1.05267   0.94261    4.881
 3993.00    1.02700   0.94522    5.068
 3994.00    1.00853   0.94139    5.211
 3995.00    1.00251   0.93328    5.160
 3996.00    0.99615   0.92635    5.061
 3997.00    0.98643   0.92646    5.011
 3998.00    0.98607   0.93582    4.975
 3999.00    1.00272   0.95101    4.976
 4000.00    1.03309   0.96556    5.105
 4001.00    1.07101   0.97336    5.268
 4002.00    1.11046   0.97118    5.185
 4003.00    1.14515   0.95986    4.925
 4004.00    1.16942   0.94484    4.833
 4005.00    1.18189   0.93479    4.949
 4006.00    1.18476   0.93598    5.030
 4007.00    1.17750   0.94794    4.984
 4008.00    1.15641   0.96420    4.934
 4009.00    1.11976   0.97789    4.854
 4010.00    1.07124   0.98643    4.564
 4011.00    1.02513   0.99092    4.055
 4012.00    1.00000   0.99378    3.531
 4013.00    0.99667   0.99630    3.256
 4014.00    1.00005   0.99930    3.420
 4015.00    1.00177   1.00235    3.993
 4016.00    1.00447   1.00530    4.556
 4017.00    1.01550   1.00943    4.763
 4018.00    1.04014   1.01461    4.888
 4019.00    1.06903   1.01861    5.040
 4020.00    1.08348   1.01829    5.014
 4021.00    1.07591   1.01180    4.878
 4022.00    1.05176   1.00086    4.903
 4023.00    1.02138   0.98995    5.104
 4024.00    0.99604   0.98416    5.266
 4025.00    0.98341   0.98581    5.251
 4026.00    0.98332   0.99215    5.097
 4027.00    0.98131   0.99613    4.933
 4028.00    0.96094   0.99039    4.854
 4029.00    0.93185   0.97353    4.827
 4030.00    0.91678   0.95221    4.773
 4031.00    0.91365   0.93547    4.738
 4032.00    0.90859   0.93012    4.814
 4033.00    0.91577   0.93819    4.947
 4034.00    0.95984   0.95686    5.002
 4035.00    1.02898   0.98172    5.016
 4036.00    1.08827   1.00661    5.118
 4037.00    1.11989   1.02520    5.240
 4038.00    1.12413   1.03367    5.230
 4039.00    1.10800   1.03228    5.188
 4040.00    1.07858   1.02447    5.239
 4041.00    1.03593   1.01254    5.105
 4042.00    0.98044   0.99522    4.679
 4043.00    0.92589   0.97184    4.713
 4044.00    0.88813   0.94751    6.240
 4045.00    0.86469   0.93318   10.631
 4046.00    0.84774   0.93697   12.053
 4047.00    0.84705   0.95620   12.053
 4048.00    0.87413   0.98060   10.814
 4049.00    0.91547   0.99910   10.843
 4050.00    0.94862   1.00653   10.750
 4051.00    0.96942   1.00406   10.339
 4052.00    0.98386   0.99487   10.090
 4053.00    0.99255   0.98288   10.066
 4054.00    0.99722   0.97240   10.070
 4055.00    1.01077   0.96550    9.900
 4056.00    1.04351   0.96237    9.530
 4057.00    1.08542   0.96345    9.204
 4058.00    1.11987   0.96779    9.044
 4059.00    1.14196   0.97183    8.773
 4060.00    1.14939   0.97006    8.415
 4061.00    1.13080   0.95863    8.810
 4062.00    1.08083   0.94121   10.312
 4063.00    1.01700   0.92754    9.911
 4064.00    0.96248   0.92456    6.900
 4065.00    0.92638   0.93162    5.235
 4066.00    0.91044   0.94369    5.021
 4067.00    0.91737   0.95483    5.376
 4068.00    0.94302   0.96117    5.475
 4069.00    0.96918   0.96052    5.293
 4070.00    0.97889   0.95339    5.169
 4071.00    0.97102   0.94458    5.106
 4072.00    0.95143   0.93882    5.046
 4073.00    0.92375   0.93496    5.102
 4074.00    0.89124   0.92688    5.323
 4075.00    0.85904   0.91059    5.460
 4076.00    0.83382   0.89170    5.329
 4077.00    0.82291   0.88187    5.191
 4078.00    0.83092   0.88794    5.265
 4079.00    0.85708   0.90705    5.429
 4080.00    0.89528   0.92844    5.486
 4081.00    0.93490   0.94087    5.425
 4082.00    0.96537   0.94064    5.339
 4083.00    0.98003   0.93174    5.302
 4084.00    0.97926   0.92192    5.358
 4085.00    0.97120   0.91762    5.508
 4086.00    0.96132   0.92001    5.683
 4087.00    0.94646   0.92502    5.721
 4088.00    0.92549   0.92682    5.569
 4089.00    0.90593   0.92137    5.395
 4090.00    0.89621   0.90833    5.335
 4091.00    0.89995   0.88994    5.386
 4092.00    0.91379   0.86840    0.000
 4093.00    0.92731   0.84314    0.000
 4094.00    0.92956   0.81265    0.000
 4095.00    0.91385   0.77704    0.000
 4096.00    0.88178   0.73714    0.000
 4097.00    0.84388   0.69418    0.000
 4098.00    0.81067   0.64862    0.000
 4099.00    0.78754   0.60198    0.000
 4100.00    0.77572   0.56150    0.000
 4101.00    0.77358   0.53908    0.000
 4102.00    0.78003   0.54310    0.000
 4103.00    0.79517   0.57322    0.000
 4104.00    0.81442   0.61994    0.000
 4105.00    0.82747   0.66968    0.000
 4106.00    0.82843   0.71272    0.000
 4107.00    0.81889   0.74553    0.000
 4108.00    0.79930   0.76904    0.000
 4109.00    0.76795   0.78744    0.000
 4110.00    0.73498   0.80524    0.000
 4111.00    0.72244   0.82531    0.000
 4112.00    0.73702   0.84817    0.000
 4113.00    0.76339   0.87163    5.987
 4114.00    0.78656   0.89232    6.091
 4115.00    0.80041   0.90694    6.096
 4116.00    0.80351   0.91325    5.946
 4117.00    0.79761   0.91232    5.855
 4118.00    0.78907   0.90843    5.915
 4119.00    0.78667   0.90614    6.020
 4120.00    0.79161   0.90796    6.027
 4121.00    0.79738   0.91386    5.867
 4122.00    0.80238   0.92214    5.664
 4123.00    0.81116   0.93110    5.629
 4124.00    0.82349   0.93842    5.777
 4125.00    0.83381   0.94112    5.927
 4126.00    0.84228   0.93762    5.976
 4127.00    0.85338   0.92940    5.970
 4128.00    0.86023   0.91995    5.879
 4129.00    0.84885   0.91130    5.637
 4130.00    0.82594   0.90406    5.415
 4131.00    0.81704   0.89954    5.469
 4132.00    0.83637   0.90077    5.747
 4133.00    0.87936   0.91022    5.895
 4134.00    0.92787   0.92791    5.796
 4135.00    0.96074   0.94918    5.672
 4136.00    0.97735   0.96882    5.643
 4137.00    0.99272   0.98410    5.683
 4138.00    1.00828   0.99241    5.780
 4139.00    1.01319   0.99172    5.932
 4140.00    1.00663   0.97980    6.042
 4141.00    0.99525   0.95737    5.979
 4142.00    0.97367   0.93240    5.819
 4143.00    0.93179   0.91660    5.759
 4144.00    0.88202   0.91664    5.859
 4145.00    0.85072   0.93006    6.056
 4146.00    0.84545   0.94763    6.235
 4147.00    0.85587   0.95960    6.276
 4148.00    0.87197   0.96310    6.176
 4149.00    0.88730   0.96140    6.032
 4150.00    0.89753   0.95796    5.952
 4151.00    0.89893   0.95427    5.998
 4152.00    0.88637   0.94999    6.128
 4153.00    0.86035   0.94470    6.232
 4154.00    0.84025   0.94033    6.268
 4155.00    0.84914   0.93938    6.248
 4156.00    0.88203   0.94374    6.172
 4157.00    0.91731   0.95278    6.055
 4158.00    0.94690   0.96367    6.002
 4159.00    0.97213   0.97375    6.113
 4160.00    0.98794   0.98164    6.323
 4161.00    0.98878   0.98767    6.462
 4162.00    0.98203   0.99183    6.459
 4163.00    0.97857   0.99394    6.364
 4164.00    0.97487   0.99320    6.270
 4165.00    0.96035   0.98917    6.252
 4166.00    0.93261   0.98381    6.331
 4167.00    0.89668   0.97888    6.472
 4168.00    0.86032   0.97329    6.576
 4169.00    0.83180   0.96392    6.543
 4170.00    0.81763   0.94824    6.385
 4171.00    0.81984   0.92817    6.202
 4172.00    0.83324   0.91080    6.112
 4173.00    0.85041   0.90257    6.175
 4174.00    0.86848   0.90420    6.337
 4175.00    0.88432   0.91075    6.471
 4176.00    0.88825   0.91675    6.478
 4177.00    0.87335   0.92118    6.361
 4178.00    0.84725   0.92634    6.255
 4179.00    0.82463   0.93335    6.272
 4180.00    0.81665   0.94063    6.363
 4181.00    0.82686   0.94651    6.438
 4182.00    0.84865   0.95052    6.507
 4183.00    0.87304   0.95354    6.585
 4184.00    0.89732   0.95565    6.554
 4185.00    0.92268   0.95467    6.372
 4186.00    0.95069   0.95109    6.238
 4187.00    0.98203   0.94887    6.300
 4188.00    1.01558   0.95105    6.430
 4189.00    1.04842   0.95832    6.476
 4190.00    1.07618   0.96856    6.527
 4191.00    1.09530   0.97865    6.656
 4192.00    1.10447   0.98566    6.656
 4193.00    1.09757   0.98641    6.409
 4194.00    1.05943   0.97861    6.197
 4195.00    0.98566   0.96290    6.254
 4196.00    0.89851   0.94346    6.538
 4197.00    0.83054   0.92640    6.836
 4198.00    0.80826   0.91628    6.855
 4199.00    0.83810   0.91289    6.544
 4200.00    0.89849   0.91399    6.241
 4201.00    0.95879   0.91827    6.181
 4202.00    0.99578   0.92448    6.341
 4203.00    1.00151   0.93269    6.592
 4204.00    0.98672   0.94399    6.759
 4205.00    0.96780   0.95694    6.745
 4206.00    0.95658   0.96887    6.634
 4207.00    0.95688   0.97803    6.523
 4208.00    0.96341   0.98329    6.415
 4209.00    0.96841   0.98579    6.317
 4210.00    0.96628   0.98737    6.292
 4211.00    0.95479   0.98759    6.376
 4212.00    0.93554   0.98419    6.535
 4213.00    0.91357   0.97527    6.662
 4214.00    0.89625   0.96345    6.607
 4215.00    0.88820   0.95639    6.399
 4216.00    0.88893   0.95941    6.278
 4217.00    0.89603   0.97166    6.373
 4218.00    0.90739   0.98722    6.614
 4219.00    0.92251   0.99821    6.829
 4220.00    0.94169   0.99923    6.827
 4221.00    0.95894   0.98843    6.613
 4222.00    0.96044   0.96592    6.411
 4223.00    0.93663   0.93348    6.362
 4224.00    0.88839   0.89717    6.455
 4225.00    0.82600   0.86752    6.635
 4226.00    0.76764   0.85633    6.835
 4227.00    0.73567   0.86908    6.964
 4228.00    0.74932   0.89986    6.930
 4229.00    0.80055   0.93526    6.743
 4230.00    0.85307   0.96020    6.525
 4231.00    0.88593   0.96719    6.386
 4232.00    0.90631   0.96075    6.381
 4233.00    0.92140   0.94952    6.515
 4234.00    0.92867   0.93975    6.738
 4235.00    0.92691   0.93554    6.944
 4236.00    0.92080   0.93657    6.997
 4237.00    0.92044   0.94050    6.881
 4238.00    0.93806   0.94748    6.717
 4239.00    0.97700   0.95737    6.594
 4240.00    1.02913   0.96865    6.532
 4241.00    1.08032   0.98000    6.531
 4242.00    1.11476   0.99003    6.583
 4243.00    1.12230   0.99581    6.654
 4244.00    1.10206   0.99465    6.689
 4245.00    1.06565   0.98620    6.661
 4246.00    1.03236   0.97221    6.589
 4247.00    1.01067   0.95653    6.543
 4248.00    0.99767   0.94305    6.600
 4249.00    0.99508   0.93462    6.752
 4250.00    1.00915   0.93245    6.902
 4251.00    1.03517   0.93457    6.973
 4252.00    1.05835   0.93866    6.951
 4253.00    1.06926   0.94366    6.850
 4254.00    1.06596   0.94920    6.707
 4255.00    1.04745   0.95508    6.583
 4256.00    1.01381   0.95895    6.550
 4257.00    0.97156   0.95702    6.652
 4258.00    0.93351   0.94837    6.884
 4259.00    0.91471   0.93799    7.104
 4260.00    0.92640   0.93512    7.088
 4261.00    0.96437   0.94488    6.873
 4262.00    1.01216   0.96462    6.694
 4263.00    1.05495   0.98712    6.678
 4264.00    1.08274   1.00407    6.835
 4265.00    1.08974   1.00986    7.066
 4266.00    1.07530   1.00370    7.216
 4267.00    1.04605   0.98747    7.239
 4268.00    1.01087   0.96336    7.205
 4269.00    0.96987   0.93472    7.138
 4270.00    0.91954   0.90719    7.027
 4271.00    0.86738   0.88740    6.910
 4272.00    0.82787   0.87915    6.854
 4273.00    0.80896   0.88357    6.906
 4274.00    0.81081   0.89940    7.063
 4275.00    0.82852   0.92147    7.194
 4276.00    0.85463   0.94410    7.138
 4277.00    0.88272   0.96220    6.936
 4278.00    0.90899   0.97102    6.739
 4279.00    0.93370   0.97029    6.594
 4280.00    0.95658   0.96405    6.499
 4281.00    0.96932   0.95675    6.512
 4282.00    0.96236   0.95145    6.673
 4283.00    0.93756   0.94759    6.851
 4284.00    0.90717   0.94289    6.863
 4285.00    0.88855   0.93573    6.778
 4286.00    0.89161   0.92419    6.775
 4287.00    0.90263   0.90809    6.872
 4288.00    0.90285   0.89109    6.987
 4289.00    0.89717   0.87984    7.074
 4290.00    0.89994   0.87956    7.124
 4291.00    0.91025   0.88955    7.142
 4292.00    0.91752   0.90325    7.133
 4293.00    0.91353   0.91281    7.078
 4294.00    0.89509   0.91374    6.973
 4295.00    0.86536   0.90551    6.869
 4296.00    0.83105   0.88999    6.824
 4297.00    0.79873   0.86830    6.858
 4298.00    0.77371   0.84319    6.964
 4299.00    0.75918   0.82105    7.108
 4300.00    0.75575   0.80660    7.231
 4301.00    0.76112   0.80196    7.248
 4302.00    0.77071   0.80624    7.142
 4303.00    0.77875   0.81363    7.029
 4304.00    0.78136   0.81855    7.017
 4305.00    0.77951   0.81831    7.077
 4306.00    0.77696   0.81260    7.127
 4307.00    0.77758   0.80619    7.111
 4308.00    0.78254   0.80576    7.022
 4309.00    0.78797   0.81417    6.889
 4310.00    0.78802   0.82956    6.744
 4311.00    0.77881   0.84707    6.600
 4312.00    0.76787   0.86315    6.505
 4313.00    0.77937   0.87922    6.572
 4314.00    0.82640   0.89946   -2.000
 4315.00    0.88883   0.92409   -2.000
 4316.00    0.93859   0.94823   -2.000
 4317.00    0.96190   0.96553   -2.000
 4318.00    0.95239   0.97090   -2.000
 4319.00    0.90504   0.96404   -2.000
 4320.00    0.82352   0.94864   -2.000
 4321.00    0.72557   0.92664   -2.000
 4322.00    0.63724   0.89827   -2.000
 4323.00    0.58600   0.86652   -2.000
 4324.00    0.58467   0.83824   -2.000
 4325.00    0.62194   0.82290   -2.000
 4326.00    0.67690   0.82532   -2.000
 4327.00    0.73069   0.84089   -2.000
 4328.00    0.77355   0.85891   -2.000
 4329.00    0.80721   0.86971   -2.000
 4330.00    0.83261   0.87024    0.000
 4331.00    0.84365   0.86287    0.000
 4332.00    0.83981   0.85089    0.000
 4333.00    0.83153   0.83437    0.000
 4334.00    0.82290   0.80892    0.000
 4335.00    0.80389   0.77014    0.000
 4336.00    0.76716   0.71875    0.000
 4337.00    0.71770   0.66081    0.000
 4338.00    0.67008   0.60637    0.000
 4339.00    0.64294   0.56893    0.000
 4340.00    0.64027   0.55851    0.000
 4341.00    0.64555   0.57489    0.000
 4342.00    0.64403   0.61133    0.000
 4343.00    0.63426   0.65854    0.000
 4344.00    0.62626   0.70641    0.000
 4345.00    0.63723   0.74904    0.000
 4346.00    0.67684   0.78550    0.000
 4347.00    0.74039   0.81422    0.000
 4348.00    0.81026   0.83177    0.000
 4349.00    0.86191   0.83653    0.000
 4350.00    0.88560   0.83239    0.000
 4351.00    0.89191   0.82822    7.062
 4352.00    0.89301   0.83216    7.309
 4353.00    0.89537   0.84752    7.534
 4354.00    0.90356   0.87158    7.609
 4355.00    0.92008   0.89629    7.507
 4356.00    0.93827   0.91451    7.310
 4357.00    0.94410   0.92526    7.152
 4358.00    0.93337   0.93225    7.104
 4359.00    0.91519   0.93997    7.160
 4360.00    0.90021   0.95100    7.250
 4361.00    0.89635   0.96518    7.263
 4362.00    0.90974   0.97999    7.158
 4363.00    0.94304   0.99157    6.995
 4364.00    0.98895   0.99656    6.875
 4365.00    1.03184   0.99363    6.882
 4366.00    1.06006   0.98444    6.986
 4367.00    1.07017   0.97310    7.056
 4368.00    1.06726   0.96399    7.037
 4369.00    1.06084   0.95972    6.979
 4370.00    1.05298   0.95892    6.937
 4371.00    1.03953   0.95657    6.942
 4372.00    1.02396   0.94925    7.027
 4373.00    1.01560   0.93923    7.182
 4374.00    1.01380   0.93304    7.188
 4375.00    1.00876   0.93622    6.805
 4376.00    0.99559   0.94895    6.314
 4377.00    0.97945   0.96519    6.146
 4378.00    0.97815   0.97588    6.336
 4379.00    1.00536   0.97390    6.672
 4380.00    1.02958   0.95615    6.974
 4381.00    0.99883   0.92477    7.164
 4382.00    0.92138   0.88885    7.212
 4383.00    0.85144   0.86120    7.145
 4384.00    0.81298   0.85110    7.076
 4385.00    0.79744   0.85983    7.109
 4386.00    0.79773   0.88071    7.162
 4387.00    0.81207   0.90354    7.080
 4388.00    0.83601   0.92068    6.976
 4389.00    0.86332   0.93143    7.073
 4390.00    0.89142   0.93916    7.315
 4391.00    0.91935   0.94503    7.457
 4392.00    0.94196   0.94829    7.484
 4393.00    0.95498   0.94995    7.534
 4394.00    0.96623   0.95307    7.509
 4395.00    0.98559   0.95934    7.258
 4396.00    1.00381   0.96703    7.009
 4397.00    1.00262   0.97232    7.052
 4398.00    0.97867   0.97138    7.299
 4399.00    0.93957   0.96478    7.446
 4400.00    0.89052   0.95728    7.408
 4401.00    0.83650   0.95055    7.331
 4402.00    0.78931   0.94280    7.358
 4403.00    0.76304   0.93426    7.534
 4404.00    0.76515   0.92733    7.692
 4405.00    0.79469   0.92407    7.606
 4406.00    0.84187   0.92682    7.339
 4407.00    0.89171   0.93686    7.113
 4408.00    0.92969   0.95194    7.073
 4409.00    0.94681   0.96854    7.262
 4410.00    0.94522   0.98397    7.573
 4411.00    0.93290   0.99361    7.799
 4412.00    0.91564   0.99156    7.803
 4413.00    0.89663   0.97787    7.630
 4414.00    0.87764   0.96008    7.519
 4415.00    0.86393   0.94665    7.620
 4416.00    0.86926   0.94407    7.739
 4417.00    0.90220   0.95432    7.643
 4418.00    0.95030   0.97141    7.504
 4419.00    0.99351   0.98600    7.560
 4420.00    1.02171   0.99265    7.735
 4421.00    1.03353   0.99173    7.844
 4422.00    1.03287   0.98731    7.865
 4423.00    1.02563   0.98348    7.846
 4424.00    1.01651   0.98229    7.763
 4425.00    1.00590   0.98311    7.612
 4426.00    0.98819   0.98425    7.493
 4427.00    0.96458   0.98432    7.486
 4428.00    0.95360   0.98261    7.556
 4429.00    0.96720   0.98017    7.633
 4430.00    0.98916   0.97737    7.702
 4431.00    0.99843   0.97233    7.788
 4432.00    0.99177   0.96466    7.917
 4433.00    0.97597   0.95640    8.063
 4434.00    0.95927   0.95178    8.101
 4435.00    0.95076   0.95562    7.957
 4436.00    0.95916   0.96898    7.731
 4437.00    0.98210   0.98713    7.542
 4438.00    0.99989   1.00109    7.424
 4439.00    0.99737   1.00304    7.406
 4440.00    0.98004   0.99207    7.567
 4441.00    0.96065   0.97444    7.891
 4442.00    0.94796   0.96029    8.139
 4443.00    0.94636   0.95770    8.135
 4444.00    0.95611   0.96701    8.036
 4445.00    0.97320   0.98232    7.977
 4446.00    0.99028   0.99721    7.841
 4447.00    1.00320   1.00635    7.593
 4448.00    1.01433   1.00764    7.420
 4449.00    1.02447   1.00411    7.428
 4450.00    1.02844   0.99840    7.532
 4451.00    1.02243   0.98961    7.642
 4452.00    1.00826   0.97669    7.776
 4453.00    0.98879   0.96081    7.943
 4454.00    0.96570   0.94553    8.075
 4455.00    0.94303   0.93423    8.080
 4456.00    0.92798   0.92822    7.917
 4457.00    0.92267   0.92682    7.662
 4458.00    0.92114   0.92740    7.476
 4459.00    0.91901   0.92729    7.425
 4460.00    0.91781   0.92791    7.456
 4461.00    0.91944   0.93293    0.000
 4462.00    0.92313   0.94193    0.000
 4463.00    0.92553   0.95200    0.000
 4464.00    0.92178   0.96051    0.000
 4465.00    0.91005   0.96424    0.000
 4466.00    0.89306   0.96185    0.000
 4467.00    0.87482   0.95589    0.000
 4468.00    0.85945   0.95097    0.000
 4469.00    0.85248   0.95077    0.000
 4470.00    0.85970   0.95752    0.000
 4471.00    0.87940   0.97141    0.000
 4472.00    0.90123   0.98921    0.000
 4473.00    0.91556   1.00620    0.000
 4474.00    0.91762   1.01964    0.000
 4475.00    0.90830   1.02840    0.000
 4476.00    0.89325   1.03045    0.000
 4477.00    0.87886   1.02348    0.000
 4478.00    0.86989   1.00688    0.000
 4479.00    0.86677   0.98394    0.000
 4480.00    0.86666   0.96316    0.000
 4481.00    0.87083   0.95420    0.000
 4482.00    0.88442   0.96085    6.768
 4483.00    0.90708   0.97954    6.922
 4484.00    0.93169   1.00141    7.087
 4485.00    0.95100   1.01626    7.234
 4486.00    0.96037   1.01834    7.388
 4487.00    0.95920   1.00957    7.545
 4488.00    0.95062   0.99680    7.653
 4489.00    0.93931   0.98704    7.658
 4490.00    0.93004   0.98388    7.537
 4491.00    0.92547   0.98569    7.337
 4492.00    0.92565   0.98778    7.151
 4493.00    0.92821   0.98775    7.056
 4494.00    0.93098   0.98679    7.094
 4495.00    0.93831   0.98792    7.225
 4496.00    0.95649   0.99376    7.354
 4497.00    0.97777   1.00314    7.443
 4498.00    0.98588   1.01182    7.513
 4499.00    0.97969   1.01733    7.550
 4500.00    0.97205   1.02210    7.515
 4501.00    0.97265   1.02985    7.432
 4502.00    0.98435   1.04101    7.363
 4503.00    1.00459   1.05334    7.295
 4504.00    1.02781   1.06267    7.192
 4505.00    1.04998   1.06505    7.132
 4506.00    1.06857   1.06105    7.228
 4507.00    1.08050   1.05529    7.438
 4508.00    1.08243   1.05157    7.604
 4509.00    1.07254   1.05003    7.689
 4510.00    1.05205   1.04837    7.773
 4511.00    1.02748   1.04429    7.871
 4512.00    1.00786   1.03659    7.929
 4513.00    0.99871   1.02686    7.896
 4514.00    1.00106   1.01863    7.770
 4515.00    1.01208   1.01353    7.643
 4516.00    1.02629   1.01144    7.616
 4517.00    1.03780   1.01219    7.679
 4518.00    1.04282   1.01429    7.754
 4519.00    1.04311   1.01561    7.785
 4520.00    1.04286   1.01400    7.784
 4521.00    1.04271   1.00887    7.848
 4522.00    1.04059   1.00112    8.058
 4523.00    1.03451   0.99063    8.288
 4524.00    1.02367   0.97811    8.319
 4525.00    1.00936   0.96492    8.150
 4526.00    0.99346   0.95168    7.934
 4527.00    0.97621   0.94033    7.787
 4528.00    0.95871   0.93385    7.745
 4529.00    0.94660   0.93311    7.764
 4530.00    0.94613   0.93638    7.784
 4531.00    0.95840   0.93960    7.819
 4532.00    0.97995   0.94043    7.929
 4533.00    1.00485   0.94135    8.163
 4534.00    1.02833   0.94712    8.488
 4535.00    1.05059   0.96066    8.666
 4536.00    1.07345   0.97945    8.504
 4537.00    1.09562   0.99730    8.225
 4538.00    1.11440   1.00846    8.069
 4539.00    1.12802   1.01118    7.942
 4540.00    1.13406   1.00893    7.708
 4541.00    1.12768   1.00600    7.473
 4542.00    1.10581   1.00355    7.404
 4543.00    1.07167   1.00126    7.579
 4544.00    1.03313   0.99840    7.956
 4545.00    1.00003   0.99334    8.291
 4546.00    0.97942   0.98509    8.374
 4547.00    0.97145   0.97466    8.397
 4548.00    0.97443   0.96552    8.536
 4549.00    0.98943   0.96045    8.512
 4550.00    1.01342   0.95877    0.000
 4551.00    1.03360   0.95905    0.000
 4552.00    1.03799   0.95938    0.000
 4553.00    1.02527   0.95866    0.000
 4554.00    1.00390   0.95966    0.000
 4555.00    0.98906   0.96619    0.000
 4556.00    0.98871   0.97839    0.000
 4557.00    0.99392   0.99372    0.000
 4558.00    0.99429   1.00847    0.000
 4559.00    0.99076   1.01878    0.000
 4560.00    0.99281   1.02227    0.000
 4561.00    1.01284   1.01843    0.000
 4562.00    1.04453   1.00950    0.000
 4563.00    1.05297   1.00013    0.000
 4564.00    1.02040   0.99530    0.000
 4565.00    0.97383   0.99803    0.000
 4566.00    0.94282   1.00696    0.000
 4567.00    0.93141   1.01708    0.000
 4568.00    0.93516   1.02266    0.000
 4569.00    0.95268   1.02053    0.000
 4570.00    0.97869   1.01407    0.000
 4571.00    1.00169   1.00957    0.000
 4572.00    1.01941   1.00931    0.000
 4573.00    1.04409   1.01264    0.000
 4574.00    1.07624   1.01766    0.000
 4575.00    1.09376   1.02049    0.000
 4576.00    1.08130   1.01798    0.000
 4577.00    1.04549   1.01000    0.000
 4578.00    1.00351   0.99852    0.000
 4579.00    0.97362   0.98624    0.000
 4580.00    0.96186   0.97537    0.000
 4581.00    0.95916   0.96744    0.000
 4582.00    0.96233   0.96380    0.000
 4583.00    0.97987   0.96469    0.000
 4584.00    1.00670   0.96905    0.000
 4585.00    1.01891   0.97629    0.000
 4586.00    1.00781   0.98552    0.000
 4587.00    0.98985   0.99443    0.000
 4588.00    0.97690   1.00030    0.000
 4589.00    0.96728   1.00143    0.000
 4590.00    0.96740   0.99818    0.000
 4591.00    0.99223   0.99294    0.000
 4592.00    1.02701   0.98813    0.000
 4593.00    1.02767   0.98521    0.000
 4594.00    0.98668   0.98501    0.000
 4595.00    0.94449   0.98695    0.000
 4596.00    0.92921   0.98961    0.000
 4597.00    0.93796   0.99188    0.000
 4598.00    0.95771   0.99273    0.000
 4599.00    0.97672   0.99243    0.000
 4600.00    0.99508   0.99206    0.000
 4601.00    1.02153   0.99204    0.000
 4602.00    1.05014   0.99290    0.000
 4603.00    1.06048   0.99516    0.000
 4604.00    1.04498   0.99930    0.000
 4605.00    1.01494   1.00597    0.000
 4606.00    0.98935   1.01542    0.000
 4607.00    0.98528   1.02614    0.000
 4608.00    1.00012   1.03495    0.000
 4609.00    1.01541   1.03920    0.000
 4610.00    1.02359   1.03838    0.000
 4611.00    1.02921   1.03392    0.000
 4612.00    1.02984   1.02886    0.000
 4613.00    1.01584   1.02537    0.000
 4614.00    0.98518   1.02327    0.000
 4615.00    0.94803   1.02193    0.000
 4616.00    0.92748   1.02016    0.000
 4617.00    0.94669   1.01741    0.000
 4618.00    0.99692   1.01580    0.000
 4619.00    1.04421   1.01711    0.000
 4620.00    1.06498   1.02063    0.000
 4621.00    1.05762   1.02534    0.000
 4622.00    1.04742   1.02961    0.000
 4623.00    1.06523   1.03110    0.000
 4624.00    1.09863   1.02962    0.000
 4625.00    1.10935   1.02662    0.000
 4626.00    1.09385   1.02267    0.000
 4627.00    1.07685   1.01858    0.000
 4628.00    1.07061   1.01641    0.000
 4629.00    1.06971   1.01659    0.000
 4630.00    1.05856   1.01699    0.000
 4631.00    1.02247   1.01600    0.000
 4632.00    0.96543   1.01333    0.000
 4633.00    0.90633   1.00884    0.000
 4634.00    0.86556   1.00310    0.000
 4635.00    0.85697   0.99759    0.000
 4636.00    0.87862   0.99347    0.000
 4637.00    0.91695   0.99096    0.000
 4638.00    0.95683   0.99027    0.000
 4639.00    0.98415   0.99218    0.000
 4640.00    0.98756   0.99602    0.000
 4641.00    0.96966   0.99927    0.000
 4642.00    0.96244   0.99933    0.000
 4643.00    0.99682   0.99424    0.000
 4644.00    1.05434   0.98380    0.000
 4645.00    1.09467   0.97141    0.000
 4646.00    1.10636   0.96200    0.000
 4647.00    1.09926   0.95904    0.000
 4648.00    1.08337   0.96345    0.000
 4649.00    1.06703   0.97322    0.000
 4650.00    1.05853   0.98432    0.000
 4651.00    1.06313   0.99242    0.000
 4652.00    1.07890   0.99471    0.000
 4653.00    1.09472   0.99202    0.000
 4654.00    1.08992   0.98800    0.000
 4655.00    1.05650   0.98701    0.000
 4656.00    1.02346   0.99225    0.000
 4657.00    1.01946   1.00337    0.000
 4658.00    1.02815   1.01613    0.000
 4659.00    1.02338   1.02502    0.000
 4660.00    1.01260   1.02623    0.000
 4661.00    1.01166   1.01918    0.000
 4662.00    1.01353   1.00619    0.000
 4663.00    1.00404   0.98966    0.000
 4664.00    0.98160   0.97076    0.000
 4665.00    0.95364   0.95163    0.000
 4666.00    0.93042   0.93639    0.000
 4667.00    0.91675   0.92887    0.000
 4668.00    0.90596   0.93105    0.000
 4669.00    0.89347   0.94222    0.000
 4670.00    0.88896   0.95802    0.000
 4671.00    0.90446   0.97299    0.000
 4672.00    0.94263   0.98431    0.000
 4673.00    0.99719   0.99225    0.000
 4674.00    1.05427   0.99782    0.000
 4675.00    1.09403   1.00086    0.000
 4676.00    1.09398   1.00039    0.000
 4677.00    1.04759   0.99613    0.000
 4678.00    0.97708   0.98910    0.000
 4679.00    0.91633   0.98166    0.000
 4680.00    0.89442   0.97711    0.000
 4681.00    0.91831   0.97741    0.000
 4682.00    0.96386   0.98157    0.000
 4683.00    1.00080   0.98716    0.000
 4684.00    1.01212   0.99207    0.000
 4685.00    0.99832   0.99477    0.000
 4686.00    0.97706   0.99497    0.000
 4687.00    0.96517   0.99354    0.000
 4688.00    0.96683   0.99137    0.000
 4689.00    0.97536   0.98921    0.000
 4690.00    0.97745   0.98825    0.000
 4691.00    0.96932   0.98926    0.000
 4692.00    0.96362   0.99229    0.000
 4693.00    0.96991   0.99679    0.000
 4694.00    0.98366   1.00084    0.000
 4695.00    0.99256   1.00145    0.000
 4696.00    0.98334   0.99701    0.000
 4697.00    0.95646   0.98867    0.000
 4698.00    0.93058   0.97867    0.000
 4699.00    0.92297   0.96876    0.000
 4700.00    0.93793   0.96040    0.000
 4701.00    0.96343   0.95508    0.000
 4702.00    0.97483   0.95342    0.000
 4703.00    0.96052   0.95448    0.000
 4704.00    0.93152   0.95651    0.000
 4705.00    0.90563   0.95808    0.000
 4706.00    0.89708   0.95850    0.000
 4707.00    0.90596   0.95829    0.000
 4708.00    0.91782   0.95945    0.000
 4709.00    0.92280   0.96348    0.000
 4710.00    0.92261   0.96922    0.000
 4711.00    0.92316   0.97397    0.000
 4712.00    0.93057   0.97635    0.000
 4713.00    0.94814   0.97758    0.000
 4714.00    0.97443   0.98012    0.000
 4715.00    1.00015   0.98583    0.000
 4716.00    1.01144   0.99481    0.000
 4717.00    1.00614   1.00540    0.000
 4718.00    0.99663   1.01472    0.000
 4719.00    0.99738   1.02051    0.000
 4720.00    1.01591   1.02282    0.000
 4721.00    1.03836   1.02326    0.000
 4722.00    1.03643   1.02289    0.000
 4723.00    1.00653   1.02120    0.000
 4724.00    0.97292   1.01645    0.000
 4725.00    0.95498   1.00730    0.000
 4726.00    0.95620   0.99427    0.000
 4727.00    0.96490   0.97979    0.000
 4728.00    0.96247   0.96722    0.000
 4729.00    0.94640   0.95980    0.000
 4730.00    0.93011   0.95908    0.000
 4731.00    0.92241   0.96371    0.000
 4732.00    0.92277   0.97066    0.000
 4733.00    0.92518   0.97712    0.000
 4734.00    0.92403   0.98142    0.000
 4735.00    0.92634   0.98389    0.000
 4736.00    0.94591   0.98603    0.000
 4737.00    0.98075   0.98846    0.000
 4738.00    1.01538   0.99098    0.000
 4739.00    1.04069   0.99376    0.000
 4740.00    1.05458   0.99664    0.000
 4741.00    1.05177   0.99885    0.000
 4742.00    1.02853   1.00054    0.000
 4743.00    0.99839   1.00260    0.000
 4744.00    0.98356   1.00526    0.000
 4745.00    0.98891   1.00778    0.000
 4746.00    1.00398   1.00962    0.000
 4747.00    1.01927   1.01096    0.000
 4748.00    1.02947   1.01157    0.000
 4749.00    1.03278   1.01032    0.000
 4750.00    1.03007   1.00667    0.000
 4751.00    1.02358   1.00109    0.000
 4752.00    1.01611   0.99432    0.000
 4753.00    1.01012   0.98752    0.000
 4754.00    1.00886   0.98231    0.000
 4755.00    1.01853   0.98003    0.000
 4756.00    1.04029   0.98073    0.000
 4757.00    1.05668   0.98319    0.000
 4758.00    1.04615   0.98503    0.000
 4759.00    1.01060   0.98362    0.000
 4760.00    0.96865   0.97775    0.000
 4761.00    0.93716   0.96823    7.653
 4762.00    0.92451   0.95719    7.712
 4763.00    0.92534   0.94736    7.776
 4764.00    0.92990   0.94170    7.771
 4765.00    0.93876   0.94193    7.715
 4766.00    0.95760   0.94752    7.664
 4767.00    0.98648   0.95639    7.630
 4768.00    1.01704   0.96573    7.610
 4769.00    1.03178   0.97306    7.633
 4770.00    1.02100   0.97783    7.701
 4771.00    1.00373   0.98139    7.690
 4772.00    1.00344   0.98524    7.527
 4773.00    1.01464   0.98994    7.394
 4774.00    1.02183   0.99540    7.446
 4775.00    1.02681   1.00044    7.521
 4776.00    1.03557   1.00313    7.410
 4777.00    1.03978   1.00264    7.236
 4778.00    1.03096   0.99982    7.181
 4779.00    1.01786   0.99567    7.204
 4780.00    1.01157   0.99030    7.205
 4781.00    1.00809   0.98439    7.211
 4782.00    1.00167   0.97914    7.277
 4783.00    0.99980   0.97456    7.353
 4784.00    1.01104   0.97036    7.364
 4785.00    1.03113   0.96715    7.309
 4786.00    1.04550   0.96540    7.242
 4787.00    1.03522   0.96494    7.226
 4788.00    0.99971   0.96611    7.268
 4789.00    0.97370   0.96991    7.269
 4790.00    0.98553   0.97656    7.184
 4791.00    1.02037   0.98554    7.137
 4792.00    1.04875   0.99591    7.198
 4793.00    1.05493   1.00533    7.216
 4794.00    1.03981   1.01104    7.096
 4795.00    1.01992   1.01141    7.013
 4796.00    1.01368   1.00648    7.087
 4797.00    1.02933   0.99837    7.167
 4798.00    1.05831   0.99078    7.119
 4799.00    1.07408   0.98682    7.060
 4800.00    1.05854   0.98702    7.107
 4801.00    1.02058   0.98935    7.197
 4802.00    0.98192   0.99090    7.238
 4803.00    0.96359   0.98979    7.229
 4804.00    0.97038   0.98589    7.217
 4805.00    0.98362   0.98056    7.244
 4806.00    0.98356   0.97611    7.306
 4807.00    0.96475   0.97419    7.327
 4808.00    0.93387   0.97486    7.264
 4809.00    0.90654   0.97693    7.171
 4810.00    0.89983   0.97950    7.125
 4811.00    0.92525   0.98237    7.167
 4812.00    0.97450   0.98543    7.261
 4813.00    1.01649   0.98884    7.291
 4814.00    1.02988   0.99290    7.253
 4815.00    1.01973   0.99744    7.320
 4816.00    1.00230   1.00181    7.509
 4817.00    0.99355   1.00496    7.544
 4818.00    0.99680   1.00563    7.339
 4819.00    1.00059   1.00247    7.176
 4820.00    1.00147   0.99452    7.201
 4821.00    1.01082   0.98293    7.284
 4822.00    1.02878   0.97106    7.310
 4823.00    1.03710   0.96246    7.310
 4824.00    1.02878   0.95875    7.322
 4825.00    1.01653   0.95923    7.325
 4826.00    1.00392   0.96193    7.321
 4827.00    0.97846   0.96424    7.347
 4828.00    0.94206   0.96393    7.384
 4829.00    0.91761   0.96101    7.352
 4830.00    0.91762   0.95747    7.277
 4831.00    0.93379   0.95520    7.294
 4832.00    0.95146   0.95466    7.407
 4833.00    0.95864   0.95515    7.458
 4834.00    0.95685   0.95585    7.408
 4835.00    0.96017   0.95559    7.390
 4836.00    0.97609   0.95284    7.406
 4837.00    0.99833   0.94735    7.308
 4838.00    1.00895   0.94058    7.129
 4839.00    0.98921   0.93413    7.074
 4840.00    0.95383   0.92879    7.176
 4841.00    0.94439   0.92529    7.273
 4842.00    0.96684   0.92404    7.271
 4843.00    0.98726   0.92404    7.220
 4844.00    0.98788   0.92308    7.194
 4845.00    0.97825   0.91941    7.226
 4846.00    0.97076   0.91295    7.270
 4847.00    0.97089   0.90477    7.235
 4848.00    0.97234   0.89596    0.000
 4849.00    0.96132   0.88732    0.000
 4850.00    0.93271   0.87853    0.000
 4851.00    0.89287   0.86754    0.000
 4852.00    0.85362   0.85197    0.000
 4853.00    0.82656   0.83156    0.000
 4854.00    0.81280   0.80827    0.000
 4855.00    0.80606   0.78345    0.000
 4856.00    0.80748   0.75617    0.000
 4857.00    0.82503   0.72465    0.000
 4858.00    0.86235   0.68925    0.000
 4859.00    0.91541   0.65484    0.000
 4860.00    0.97148   0.62947    0.000
 4861.00    1.01200   0.62046    0.000
 4862.00    1.01978   0.63107    0.000
 4863.00    0.98585   0.65855    0.000
 4864.00    0.92052   0.69540    0.000
 4865.00    0.84922   0.73268    0.000
 4866.00    0.79839   0.76389    0.000
 4867.00    0.78504   0.78618    0.000
 4868.00    0.80239   0.79911    0.000
 4869.00    0.82782   0.80496    0.000
 4870.00    0.84418   0.80813    0.000
 4871.00    0.84389   0.81279    0.000
 4872.00    0.82850   0.82122    0.000
 4873.00    0.80913   0.83390    0.000
 4874.00    0.80671   0.84964    0.000
 4875.00    0.83750   0.86610   12.053
 4876.00    0.88859   0.88163   11.413
 4877.00    0.93095   0.89543   10.517
 4878.00    0.94868   0.90655   10.499
 4879.00    0.94124   0.91414   10.686
 4880.00    0.91871   0.91767   10.889
 4881.00    0.89561   0.91714   11.201
 4882.00    0.88239   0.91327   11.361
 4883.00    0.88040   0.90775   11.173
 4884.00    0.87722   0.90278   11.315
 4885.00    0.86005   0.89929   12.053
 4886.00    0.83549   0.89675   12.053
 4887.00    0.82024   0.89415    9.961
 4888.00    0.82388   0.89131    8.068
 4889.00    0.84352   0.89032    7.554
 4890.00    0.86111   0.89406    7.780
 4891.00    0.86197   0.90473    7.964
 4892.00    0.85825   0.92260    7.941
 4893.00    0.87153   0.94480    7.919
 4894.00    0.90747   0.96644    7.899
 4895.00    0.95335   0.98231    7.813
 4896.00    0.98066   0.98933    7.751
 4897.00    0.96959   0.98828    7.800
 4898.00    0.93521   0.98237    7.850
 4899.00    0.90449   0.97469    7.786
 4900.00    0.88776   0.96755    7.725
 4901.00    0.88473   0.96288    7.793
 4902.00    0.89382   0.96204    7.903
 4903.00    0.90901   0.96485    7.922
 4904.00    0.91677   0.96925    7.896
 4905.00    0.90965   0.97254    7.917
 4906.00    0.89842   0.97227    7.986
 4907.00    0.89349   0.96710    8.046
 4908.00    0.88780   0.95824    8.036
 4909.00    0.87643   0.94930    7.955
 4910.00    0.87392   0.94421    7.894
 4911.00    0.89252   0.94514    7.906
 4912.00    0.92276   0.95143    7.914
 4913.00    0.94609   0.95958    7.869
 4914.00    0.94816   0.96430    7.881
 4915.00    0.92826   0.96081    8.015
 4916.00    0.90349   0.94732    8.142
 4917.00    0.88492   0.92607    8.133
 4918.00    0.86202   0.90266    8.057
 4919.00    0.83267   0.88380    8.010
 4920.00    0.82238   0.87394    7.998
 4921.00    0.84712   0.87420    7.972
 4922.00    0.88811   0.88320    7.879
 4923.00    0.91931   0.89816    7.740
 4924.00    0.92900   0.91607    7.669
 4925.00    0.92422   0.93488    7.695
 4926.00    0.92818   0.95331    7.687
 4927.00    0.94774   0.96956    7.584
 4928.00    0.95783   0.98128    7.513
 4929.00    0.94087   0.98615    7.528
 4930.00    0.90911   0.98332    7.491
 4931.00    0.88186   0.97457    7.359
 4932.00    0.87021   0.96320    7.292
 4933.00    0.87521   0.95204    7.351
 4934.00    0.88844   0.94244    7.377
 4935.00    0.89862   0.93445    7.269
 4936.00    0.89668   0.92824    7.122
 4937.00    0.88231   0.92500    7.022
 4938.00    0.86582   0.92612    6.962
 4939.00    0.85935   0.93271    6.931
 4940.00    0.87061   0.94463    0.000
 4941.00    0.89510   0.95920    0.000
 4942.00    0.91626   0.97221    0.000
 4943.00    0.92463   0.98078    0.000
 4944.00    0.92544   0.98489    0.000
 4945.00    0.92946   0.98653    0.000
 4946.00    0.94662   0.98778    0.000
 4947.00    0.97793   0.98972    0.000
 4948.00    1.01306   0.99228    0.000
 4949.00    1.03535   0.99430    0.000
 4950.00    1.02898   0.99431    0.000
 4951.00    0.99851   0.99138    0.000
 4952.00    0.96966   0.98485    0.000
 4953.00    0.96017   0.97374    0.000
 4954.00    0.96996   0.95795    0.000
 4955.00    0.98995   0.94057    0.000
 4956.00    1.00777   0.92691    0.000
 4957.00    1.01520   0.92134    0.000
 4958.00    1.01057   0.92553    0.000
 4959.00    0.99743   0.93760    0.000
 4960.00    0.98207   0.95278    0.000
 4961.00    0.96712   0.96507    0.000
 4962.00    0.95171   0.97020    0.000
 4963.00    0.93895   0.96808    0.000
 4964.00    0.93538   0.96154    0.000
 4965.00    0.94124   0.95381    0.000
 4966.00    0.94994   0.94745    0.000
 4967.00    0.95598   0.94412    0.000
 4968.00    0.95744   0.94463    0.000
 4969.00    0.95579   0.94872    0.000
 4970.00    0.95434   0.95521    0.000
 4971.00    0.95410   0.96276    0.000
 4972.00    0.95461   0.96983    0.000
 4973.00    0.95936   0.97480    0.000
 4974.00    0.97143   0.97630    0.000
 4975.00    0.97894   0.97351    0.000
 4976.00    0.96351   0.96654    0.000
 4977.00    0.93018   0.95599    0.000
 4978.00    0.90284   0.94220    0.000
 4979.00    0.89468   0.92576    0.000
 4980.00    0.90361   0.90824    0.000
 4981.00    0.91867   0.89247    0.000
 4982.00    0.92659   0.88183    0.000
 4983.00    0.92239   0.87922    0.000
 4984.00    0.90980   0.88546    0.000
 4985.00    0.89674   0.89842    0.000
 4986.00    0.89074   0.91369    0.000
 4987.00    0.89170   0.92659    0.000
 4988.00    0.89324   0.93447    0.000
 4989.00    0.88856   0.93750    0.000
 4990.00    0.87644   0.93740    0.000
 4991.00    0.86981   0.93658    0.000
 4992.00    0.88425   0.93698    0.000
 4993.00    0.91458   0.93895    0.000
 4994.00    0.94287   0.94152    0.000
 4995.00    0.96013   0.94289    0.000
 4996.00    0.96360   0.94113    0.000
 4997.00    0.94603   0.93549    0.000
 4998.00    0.90566   0.92653    0.000
 4999.00    0.86453   0.91608    0.000
 5000.00    0.85248   0.90644    0.000
 5001.00    0.87739   0.89878    0.000
 5002.00    0.92948   0.89277    0.000
 5003.00    0.99494   0.88787    0.000
 5004.00    1.05690   0.88448    0.000
 5005.00    1.09453   0.88381    0.000
 5006.00    1.09436   0.88684    0.000
 5007.00    1.06570   0.89288    0.000
 5008.00    1.02974   0.89917    0.000
 5009.00    1.00163   0.90197    0.000
 5010.00    0.98551   0.89883    0.000
 5011.00    0.97186   0.89021    0.000
 5012.00    0.94806   0.87936    0.000
 5013.00    0.91184   0.87000    0.000
 5014.00    0.87028   0.86408    0.000
 5015.00    0.83586   0.86178    0.000
 5016.00    0.81832   0.86239    0.000
 5017.00    0.81616   0.86500    0.000
 5018.00    0.82324   0.86901    0.000
 5019.00    0.83710   0.87427    0.000
 5020.00    0.85595   0.88081    0.000
 5021.00    0.87490   0.88835    0.000
 5022.00    0.88975   0.89606    0.000
 5023.00    0.90091   0.90275    0.000
 5024.00    0.90672   0.90755    0.000
 5025.00    0.89772   0.91060    0.000
 5026.00    0.87091   0.91270    0.000
 5027.00    0.84249   0.91506    0.000
 5028.00    0.83167   0.91912    0.000
 5029.00    0.84435   0.92548    8.451
 5030.00    0.87493   0.93301    8.482
 5031.00    0.90984   0.93914    8.462
 5032.00    0.93530   0.94112    8.381
 5033.00    0.94397   0.93766    8.353
 5034.00    0.93648   0.92936    8.434
 5035.00    0.92127   0.91761    8.493
 5036.00    0.90653   0.90381    8.422
 5037.00    0.89395   0.88901    8.318
 5038.00    0.88150   0.87480    8.280
 5039.00    0.86651   0.86403    8.275
 5040.00    0.85050   0.86000    8.256
 5041.00    0.84132   0.86522    8.244
 5042.00    0.84366   0.87971    8.244
 5043.00    0.85317   0.89965    8.205
 5044.00    0.86404   0.91858    8.129
 5045.00    0.87418   0.93067    8.112
 5046.00    0.88148   0.93311    8.170
 5047.00    0.88243   0.92718    8.153
 5048.00    0.87994   0.91712    8.012
 5049.00    0.88567   0.90787    7.918
 5050.00    0.90237   0.90316    7.986
 5051.00    0.91683   0.90438    8.145
 5052.00    0.92419   0.91068    8.252
 5053.00    0.93812   0.91973    8.195
 5054.00    0.96239   0.92918    8.044
 5055.00    0.97904   0.93754    8.029
 5056.00    0.97587   0.94437    8.182
 5057.00    0.95976   0.94990    8.227
 5058.00    0.94293   0.95430    8.069
 5059.00    0.93456   0.95710    7.979
 5060.00    0.93737   0.95694    8.090
 5061.00    0.94692   0.95250    8.236
 5062.00    0.95583   0.94376    8.282
 5063.00    0.95723   0.93229    8.282
 5064.00    0.95029   0.92065    8.290
 5065.00    0.94070   0.91155    8.283
 5066.00    0.93113   0.90662    8.248
 5067.00    0.91870   0.90553    8.219
 5068.00    0.90381   0.90664    8.220
 5069.00    0.89270   0.90824    8.254
 5070.00    0.89158   0.90906    8.305
 5071.00    0.90264   0.90885    8.356
 5072.00    0.91854   0.90822    8.405
 5073.00    0.92487   0.90763    8.466
 5074.00    0.91786   0.90657    8.523
 5075.00    0.90705   0.90374    8.526
 5076.00    0.89884   0.89803    8.459
 5077.00    0.89184   0.88928    8.365
 5078.00    0.88325   0.87895    8.322
 5079.00    0.87181   0.86999    8.404
 5080.00    0.85960   0.86537    8.562
 5081.00    0.85115   0.86650    8.635
 5082.00    0.84866   0.87278    8.604
 5083.00    0.85057   0.88230    8.601
 5084.00    0.85250   0.89266    8.644
 5085.00    0.85084   0.90192    8.622
 5086.00    0.85258   0.90928    8.536
 5087.00    0.87167   0.91501    8.498
 5088.00    0.90947   0.91978    8.518
 5089.00    0.95319   0.92424    8.508
 5090.00    0.98837   0.92863    8.468
 5091.00    1.00359   0.93245    8.472
 5092.00    0.99308   0.93435    8.500
 5093.00    0.95933   0.93260    8.464
 5094.00    0.91783   0.92610    8.396
 5095.00    0.88994   0.91517    8.419
 5096.00    0.88208   0.90200    8.529
 5097.00    0.88576   0.89004    8.613
 5098.00    0.89059   0.88261    8.622
 5099.00    0.89003   0.88146    8.589
 5100.00    0.88668   0.88587    8.544
 5101.00    0.88872   0.89299    8.496
 5102.00    0.89922   0.89933    8.465
 5103.00    0.91345   0.90233    8.474
 5104.00    0.91864   0.90124    8.515
 5105.00    0.90339   0.89699    8.554
 5106.00    0.87657   0.89145    8.538
 5107.00    0.86006   0.88684    8.431
 5108.00    0.86620   0.88489    8.283
 5109.00    0.89381   0.88632    8.182
 5110.00    0.92967   0.89106    8.158
 5111.00    0.95617   0.89827    8.188
 5112.00    0.96492   0.90654    8.218
 5113.00    0.95835   0.91463    8.209
 5114.00    0.94765   0.92183    8.202
 5115.00    0.94411   0.92751    8.263
 5116.00    0.94547   0.93101    8.354
 5117.00    0.94385   0.93161    8.384
 5118.00    0.94226   0.92844    8.343
 5119.00    0.94693   0.92106    8.299
 5120.00    0.95098   0.91006    8.340
 5121.00    0.94134   0.89703    8.510
 5122.00    0.91333   0.88415    8.707
 5123.00    0.87233   0.87348    8.779
 5124.00    0.83242   0.86629    8.747
 5125.00    0.80821   0.86269    8.729
 5126.00    0.80374   0.86198    8.770
 5127.00    0.81702   0.86337    8.829
 5128.00    0.84772   0.86635    8.804
 5129.00    0.89015   0.87063    8.633
 5130.00    0.92365   0.87614    8.406
 5131.00    0.93178   0.88246    8.263
 5132.00    0.92685   0.88854    8.272
 5133.00    0.93171   0.89306    8.403
 5134.00    0.95367   0.89478    8.481
 5135.00    0.98435   0.89292    8.376
 5136.00    1.00442   0.88796    8.239
 5137.00    0.99921   0.88144    8.259
 5138.00    0.97501   0.87510    8.405
 5139.00    0.94714   0.87044    8.551
 5140.00    0.92477   0.86807    8.632
 5141.00    0.90855   0.86742    8.631
 5142.00    0.89079   0.86758    8.541
 5143.00    0.86767   0.86792    8.393
 5144.00    0.85033   0.86801    8.276
 5145.00    0.85073   0.86770    8.255
 5146.00    0.86706   0.86736    8.310
 5147.00    0.88711   0.86719    8.383
 5148.00    0.89410   0.86694    8.438
 5149.00    0.87985   0.86621    8.472
 5150.00    0.85517   0.86484    8.521
 5151.00    0.83811   0.86338    8.574
 5152.00    0.84177   0.86318    8.518
 5153.00    0.86462   0.86580    8.311
 5154.00    0.88609   0.87208    8.099
 5155.00    0.89264   0.88148    8.007
 5156.00    0.89626   0.89204    8.028
 5157.00    0.90891   0.90121    8.106
 5158.00    0.92301   0.90688    8.199
 5159.00    0.92692   0.90790    8.279
 5160.00    0.91710   0.90388    8.339
 5161.00    0.89378   0.89455    8.399
 5162.00    0.85806   0.87944    8.506
 5163.00    0.81885   0.85820    8.663
 5164.00    0.79498   0.83164    8.779
 5165.00    0.79580   0.80282    8.803
 5166.00    0.80933   0.77650    8.816
 5167.00    0.81250   0.75697    8.895
 5168.00    0.78271   0.74591    9.034
 5169.00    0.72502   0.74230    9.170
 5170.00    0.68124   0.74399    9.214
 5171.00    0.68213   0.75010    9.124
 5172.00    0.72124   0.76187    8.950
 5173.00    0.77495   0.78052    8.788
 5174.00    0.81805   0.80466    8.727
 5175.00    0.84017   0.82997    8.763
 5176.00    0.85097   0.85105    8.779
 5177.00    0.86011   0.86333    8.700
 5178.00    0.86666   0.86415    8.568
 5179.00    0.86206   0.85340    8.474
 5180.00    0.83519   0.83380    8.504
 5181.00    0.78816   0.81056    8.674
 5182.00    0.73996   0.79076    8.905
 5183.00    0.70602   0.78126    9.093
 5184.00    0.69005   0.78550    9.161
 5185.00    0.69262   0.80156    9.104
 5186.00    0.71368   0.82306    8.991
 5187.00    0.74494   0.84261    8.894
 5188.00    0.77076   0.85518    8.847
 5189.00    0.78595   0.85925    8.820
 5190.00    0.79902   0.85657    0.000
 5191.00    0.81344   0.85086    0.000
 5192.00    0.82354   0.84612    0.000
 5193.00    0.82912   0.84486    0.000
 5194.00    0.83831   0.84768    0.000
 5195.00    0.85520   0.85398    0.000
 5196.00    0.87631   0.86252    0.000
 5197.00    0.89496   0.87167    0.000
 5198.00    0.90466   0.87963    0.000
 5199.00    0.90466   0.88463    0.000
 5200.00    0.89842   0.88493    0.000
 5201.00    0.88196   0.87951    0.000
 5202.00    0.84741   0.86865    0.000
 5203.00    0.80680   0.85398    0.000
 5204.00    0.78744   0.83831    0.000
 5205.00    0.79368   0.82500    0.000
 5206.00    0.80487   0.81688    0.000
 5207.00    0.80557   0.81566    0.000
 5208.00    0.79514   0.82174    0.000
 5209.00    0.78788   0.83411    0.000
 5210.00    0.80356   0.85017    0.000
 5211.00    0.84192   0.86617    8.280
 5212.00    0.88363   0.87858    8.132
 5213.00    0.91148   0.88550    8.121
 5214.00    0.91776   0.88753    8.263
 5215.00    0.90740   0.88753    8.493
 5216.00    0.89295   0.88891    8.685
 5217.00    0.88055   0.89355    8.762
 5218.00    0.86987   0.90073    8.739
 5219.00    0.86227   0.90766    8.717
 5220.00    0.86074   0.91081    8.804
 5221.00    0.86509   0.90723    8.982
 5222.00    0.87078   0.89590    9.133
 5223.00    0.86892   0.87838    9.183
 5224.00    0.85281   0.85872    9.148
 5225.00    0.83140   0.84241    9.109
 5226.00    0.82216   0.83445    9.129
 5227.00    0.83124   0.83681    9.128
 5228.00    0.85185   0.84718    8.988
 5229.00    0.86961   0.86024    8.808
 5230.00    0.87267   0.87056    8.758
 5231.00    0.86816   0.87559    8.786
 5232.00    0.87246   0.87647    8.751
 5233.00    0.88845   0.87670    8.737
 5234.00    0.90788   0.87971    8.896
 5235.00    0.92286   0.88674    9.102
 5236.00    0.92809   0.89654    9.118
 5237.00    0.92137   0.90661    9.078
 5238.00    0.90589   0.91484    9.240
 5239.00    0.89349   0.92034    9.482
 5240.00    0.89444   0.92335    9.484
 5241.00    0.90151   0.92449    9.269
 5242.00    0.89974   0.92406    9.078
 5243.00    0.88473   0.92185    9.036
 5244.00    0.86212   0.91726    9.130
 5245.00    0.84254   0.91005    9.218
 5246.00    0.83568   0.90108    9.165
 5247.00    0.84322   0.89215    9.046
 5248.00    0.86074   0.88502    9.003
 5249.00    0.88170   0.88073    9.024
 5250.00    0.89831   0.87941    9.033
 5251.00    0.90230   0.88063    9.024
 5252.00    0.89089   0.88366    9.022
 5253.00    0.87358   0.88807    9.019
 5254.00    0.86603   0.89397    8.977
 5255.00    0.88083   0.90138    8.847
 5256.00    0.91583   0.90909    8.657
 5257.00    0.94394   0.91442    8.570
 5258.00    0.94021   0.91416    8.683
 5259.00    0.91153   0.90603    8.828
 5260.00    0.87859   0.88987    8.805
 5261.00    0.85300   0.86788    8.680
 5262.00    0.83737   0.84402    8.610
 5263.00    0.82821   0.82242    8.625
 5264.00    0.82229   0.80590    8.673
 5265.00    0.82204   0.79530    8.666
 5266.00    0.82766   0.78958    8.573
 5267.00    0.83068   0.78712    8.494
 5268.00    0.82799   0.78738    8.506
 5269.00    0.83338   0.79127    8.553
 5270.00    0.85811   0.79981    8.551
 5271.00    0.89395   0.81244    8.500
 5272.00    0.92512   0.82695    8.436
 5273.00    0.94044   0.84111    8.387
 5274.00    0.93893   0.85431    8.373
 5275.00    0.93171   0.86697    8.413
 5276.00    0.92532   0.87906    8.485
 5277.00    0.91075   0.88924    8.499
 5278.00    0.88373   0.89533    8.440
 5279.00    0.85874   0.89595    8.435
 5280.00    0.85213   0.89204    8.532
 5281.00    0.86890   0.88672    8.576
 5282.00    0.90353   0.88390    8.479
 5283.00    0.94223   0.88654    8.404
 5284.00    0.97126   0.89528    8.463
 5285.00    0.98275   0.90811    8.555
 5286.00    0.97578   0.92165    8.573
 5287.00    0.95625   0.93288    8.541
 5288.00    0.93200   0.94031    8.527
 5289.00    0.90979   0.94387    8.575
 5290.00    0.89525   0.94399    8.675
 5291.00    0.89258   0.94098    8.755
 5292.00    0.90214   0.93485    8.774
 5293.00    0.91918   0.92553    8.776
 5294.00    0.93454   0.91334    8.776
 5295.00    0.93666   0.89956    8.731
 5296.00    0.91981   0.88666    8.653
 5297.00    0.88836   0.87751    8.638
 5298.00    0.85548   0.87410    8.675
 5299.00    0.83905   0.87662    8.592
 5300.00    0.84584   0.88371    8.324
 5301.00    0.86649   0.89347    8.001
 5302.00    0.89024   0.90417    7.779
 5303.00    0.91170   0.91431    7.737
 5304.00    0.92751   0.92265    7.721
 5305.00    0.93621   0.92857    7.434
 5306.00    0.94500   0.93235    7.148
 5307.00    0.96716   0.93485    7.582
 5308.00    0.99838   0.93676    8.976
 5309.00    1.01383   0.93805   10.268
 5310.00    0.99908   0.93804   10.336
 5311.00    0.96154   0.93601   10.242
 5312.00    0.92308   0.93174   10.684
 5313.00    0.90970   0.92572   11.090
 5314.00    0.92539   0.91907   10.923
 5315.00    0.94873   0.91327   10.427
 5316.00    0.95792   0.90955   10.244
 5317.00    0.94252   0.90826   10.901
 5318.00    0.91059   0.90855   11.608
 5319.00    0.88300   0.90866   10.284
 5320.00    0.86675   0.90668    8.269
 5321.00    0.85184   0.90135    7.468
 5322.00    0.83173   0.89240    7.687
 5323.00    0.80865   0.88034    8.054
 5324.00    0.78832   0.86611    8.074
 5325.00    0.77651   0.85108    7.986
 5326.00    0.77440   0.83757    7.954
 5327.00    0.77920   0.82890    7.907
 5328.00    0.78997   0.82821    7.856
 5329.00    0.80799   0.83646    7.897
 5330.00    0.83295   0.85143    7.960
 5331.00    0.86093   0.86883    7.865
 5332.00    0.88239   0.88452    7.699
 5333.00    0.88744   0.89601    7.705
 5334.00    0.88040   0.90242    7.854
 5335.00    0.87584   0.90389    7.902
 5336.00    0.87933   0.90108    7.826
 5337.00    0.88651   0.89522    7.804
 5338.00    0.89285   0.88826    7.854
 5339.00    0.89750   0.88266    7.866
 5340.00    0.90660   0.88049    7.852
 5341.00    0.92777   0.88236    7.917
 5342.00    0.95678   0.88698    8.027
 5343.00    0.98011   0.89190    8.068
 5344.00    0.98672   0.89503    8.079
 5345.00    0.97231   0.89572    8.189
 5346.00    0.94243   0.89484    8.376
 5347.00    0.91006   0.89409    8.499
 5348.00    0.88942   0.89519    8.507
 5349.00    0.89029   0.89916    8.469
 5350.00    0.90988   0.90601    8.499
 5351.00    0.93526   0.91486    8.663
 5352.00    0.95095   0.92445    8.830
 5353.00    0.94785   0.93363    8.814
 5354.00    0.93585   0.94159    8.717
 5355.00    0.93330   0.94769    8.753
 5356.00    0.94564   0.95135    8.844
 5357.00    0.96565   0.95206    8.799
 5358.00    0.98019   0.94949    8.709
 5359.00    0.97743   0.94372    8.770
 5360.00    0.95634   0.93532    8.930
 5361.00    0.92352   0.92544    9.010
 5362.00    0.88645   0.91544    8.989
 5363.00    0.85346   0.90645    8.955
 5364.00    0.83497   0.89883    8.956
 5365.00    0.83743   0.89209    8.985
 5366.00    0.85489   0.88516    8.985
 5367.00    0.87562   0.87730    8.922
 5368.00    0.89249   0.86892    8.861
 5369.00    0.90384   0.86211    8.859
 5370.00    0.91245   0.85985    8.835
 5371.00    0.92147   0.86434    8.697
 5372.00    0.92975   0.87537    8.526
 5373.00    0.93446   0.89013    8.444
 5374.00    0.93502   0.90464    8.471
 5375.00    0.93429   0.91562    8.546
 5376.00    0.93870   0.92166    8.555
 5377.00    0.94932   0.92309    8.447
 5378.00    0.95327   0.92116    8.356
 5379.00    0.94219   0.91733    8.402
 5380.00    0.93112   0.91303    8.510
 5381.00    0.93529   0.90959    8.558
 5382.00    0.94552   0.90794    8.564
 5383.00    0.94796   0.90834    8.586
 5384.00    0.94530   0.91005    8.599
 5385.00    0.94453   0.91162    8.567
 5386.00    0.94391   0.91152    8.515
 5387.00    0.93871   0.90889    8.492
 5388.00    0.92787   0.90386    8.526
 5389.00    0.91436   0.89739    8.597
 5390.00    0.90449   0.89058    8.620
 5391.00    0.90210   0.88419    8.546
 5392.00    0.90413   0.87829    8.442
 5393.00    0.90542   0.87259    8.404
 5394.00    0.90317   0.86703    8.491
 5395.00    0.89772   0.86230    8.659
 5396.00    0.89258   0.85968    8.730
 5397.00    0.89100   0.86017    8.622
 5398.00    0.89338   0.86345    8.509
 5399.00    0.89818   0.86755    8.532
 5400.00    0.90252   0.86968    8.629
 5401.00    0.90074   0.86759    8.718
 5402.00    0.88500   0.86089    8.823
 5403.00    0.85723   0.85135    8.946
 5404.00    0.83432   0.84214    8.986
 5405.00    0.82789   0.83622    8.911
 5406.00    0.83267   0.83500    8.847
 5407.00    0.84142   0.83799    8.883
 5408.00    0.85439   0.84381   -2.000
 5409.00    0.87404   0.85133   -2.000
 5410.00    0.90097   0.85999   -2.000
 5411.00    0.93009   0.86933   -2.000
 5412.00    0.94966   0.87863   -2.000
 5413.00    0.94781   0.88708   -2.000
 5414.00    0.91702   0.89425   -2.000
 5415.00    0.85772   0.89995   -2.000
 5416.00    0.78144   0.90399   -2.000
 5417.00    0.71750   0.90604   -2.000
 5418.00    0.70744   0.90589   -2.000
 5419.00    0.75962   0.90379   -2.000
 5420.00    0.83507   0.90042   -2.000
 5421.00    0.89361   0.89664   -2.000
 5422.00    0.91677   0.89335   -2.000
 5423.00    0.90520   0.89128    8.328
 5424.00    0.87409   0.89052    8.458
 5425.00    0.84046   0.89021    8.488
 5426.00    0.81732   0.88877    8.509
 5427.00    0.81425   0.88498    8.568
 5428.00    0.83547   0.87899    8.610
 5429.00    0.87089   0.87226    8.597
 5430.00    0.89864   0.86639    8.549
 5431.00    0.91040   0.86223    8.519
 5432.00    0.91708   0.85994    8.553
 5433.00    0.93077   0.85991    8.589
 5434.00    0.95526   0.86304    8.493
 5435.00    0.97877   0.87015    8.323
 5436.00    0.97990   0.88105    8.299
 5437.00    0.95776   0.89412    8.417
 5438.00    0.93432   0.90686    8.444
 5439.00    0.92503   0.91674    8.350
 5440.00    0.92965   0.92186    8.348
 5441.00    0.93754   0.92122    8.490
 5442.00    0.93476   0.91476    8.621
 5443.00    0.92033   0.90366    8.666
 5444.00    0.90555   0.89050    8.690
 5445.00    0.89609   0.87896    8.731
 5446.00    0.88927   0.87249    8.765
 5447.00    0.88277   0.87264    8.790
 5448.00    0.87687   0.87812    8.830
 5449.00    0.87302   0.88540    8.875
 5450.00    0.87322   0.89045    8.886
 5451.00    0.87961   0.89069    8.873
 5452.00    0.89342   0.88605    8.876
 5453.00    0.91264   0.87884    8.893
 5454.00    0.93215   0.87265    8.892
 5455.00    0.94591   0.87052    8.900
 5456.00    0.94913   0.87337    8.983
 5457.00    0.94208   0.87944    9.109
 5458.00    0.92916   0.88542    9.187
 5459.00    0.91448   0.88838    9.213
 5460.00    0.90012   0.88744    9.259
 5461.00    0.88456   0.88391    9.343
 5462.00    0.86651   0.88031    9.412
 5463.00    0.85351   0.87875    9.407
 5464.00    0.85668   0.87996    9.307
 5465.00    0.87620   0.88317    9.181
 5466.00    0.90283   0.88688    9.135
 5467.00    0.92717   0.88962    9.190
 5468.00    0.94192   0.89044    9.291
 5469.00    0.94248   0.88900    9.333
 5470.00    0.92794   0.88536    9.250
 5471.00    0.90248   0.87971    9.162
 5472.00    0.87443   0.87236    9.204
 5473.00    0.85381   0.86391    9.237
 5474.00    0.84787   0.85552    9.041
 5475.00    0.85440   0.84885    8.747
 5476.00    0.86536   0.84548    8.599
 5477.00    0.87457   0.84597    8.568
 5478.00    0.87716   0.84956    8.526
 5479.00    0.86677   0.85471    8.528
 5480.00    0.84179   0.86023    8.685
 5481.00    0.81495   0.86582    8.900
 5482.00    0.80306   0.87159    8.991
 5483.00    0.81007   0.87716    8.973
 5484.00    0.82942   0.88157    8.962
 5485.00    0.85115   0.88390    8.937
 5486.00    0.86724   0.88415    8.856
 5487.00    0.87711   0.88334    8.833
 5488.00    0.88487   0.88275    8.960
 5489.00    0.89455   0.88309    9.077
 5490.00    0.90952   0.88418    8.983
 5491.00    0.93219   0.88534    8.796
 5492.00    0.95967   0.88594    8.704
 5493.00    0.97908   0.88575    8.671
 5494.00    0.97819   0.88495    8.588
 5495.00    0.95825   0.88393    8.465
 5496.00    0.93095   0.88303    8.371
 5497.00    0.91249   0.88231    8.342
 5498.00    0.91315   0.88142    8.383
 5499.00    0.92729   0.87984    8.465
 5500.00    0.94159   0.87731    8.551
 5501.00    0.94509   0.87410    8.622
 5502.00    0.93247   0.87082    8.700
 5503.00    0.90611   0.86801    8.850
 5504.00    0.87379   0.86596    9.092
 5505.00    0.84562   0.86480    9.292
 5506.00    0.82729   0.86455    9.339
 5507.00    0.81502   0.86486    9.337
 5508.00    0.80533   0.86498    9.400
 5509.00    0.80324   0.86412    9.455
 5510.00    0.81225   0.86211    9.413
 5511.00    0.82566   0.85975    9.325
 5512.00    0.83409   0.85852    9.272
 5513.00    0.83272   0.85975    9.254
 5514.00    0.82421   0.86398    9.205
 5515.00    0.81922   0.87070    9.037
 5516.00    0.82483   0.87866    8.775
 5517.00    0.83611   0.88636    8.609
 5518.00    0.84181   0.89252    8.638
 5519.00    0.83117   0.89640   -2.000
 5520.00    0.80920   0.89778   -2.000
 5521.00    0.80324   0.89674   -2.000
 5522.00    0.83221   0.89342   -2.000
 5523.00    0.88888   0.88792   -2.000
 5524.00    0.96920   0.88060   -2.000
 5525.00    1.09024   0.87243   -2.000
 5526.00    1.27125   0.86514   -2.000
 5527.00    1.50501   0.86063   -2.000
 5528.00    1.66078   0.86002   -2.000
 5529.00    1.48451   0.86291   -2.000
 5530.00    0.96274   0.86752   -2.000
 5531.00    0.46231   0.87171   -2.000
 5532.00    0.25368   0.87418   -2.000
 5533.00    0.27346   0.87503   -2.000
 5534.00    0.38895   0.87538   -2.000
 5535.00    0.54398   0.87651   -2.000
 5536.00    0.70212   0.87905   -2.000
 5537.00    0.81866   0.88276   -2.000
 5538.00    0.87298   0.88673   -2.000
 5539.00    0.88216   0.88985   -2.000
 5540.00    0.88148   0.89127   -2.000
 5541.00    0.90603   0.89081   -2.000
 5542.00    0.95318   0.88907   -2.000
 5543.00    0.97978   0.88721    8.371
 5544.00    0.97066   0.88648    8.573
 5545.00    0.95713   0.88760    8.745
 5546.00    0.95667   0.89055    8.833
 5547.00    0.95444   0.89453    8.950
 5548.00    0.94102   0.89830    9.038
 5549.00    0.92426   0.90068    8.867
 5550.00    0.90872   0.90096    8.716
 5551.00    0.89030   0.89916    9.295
 5552.00    0.86917   0.89601   10.787
 5553.00    0.85298   0.89256   12.048
 5554.00    0.84896   0.88977   12.001
 5555.00    0.85912   0.88805   11.532
 5556.00    0.87449   0.88723   11.365
 5557.00    0.87845   0.88674   11.422
 5558.00    0.86534   0.88592   11.582
 5559.00    0.84494   0.88430   11.820
 5560.00    0.83497   0.88172   11.967
 5561.00    0.85139   0.87836   11.751
 5562.00    0.88655   0.87466   11.283
 5563.00    0.91199   0.87110   10.963
 5564.00    0.90888   0.86804   11.002
 5565.00    0.87769   0.86565   11.394
 5566.00    0.83723   0.86395   11.945
 5567.00    0.81541   0.86288   12.053
 5568.00    0.82456   0.86235   12.053
 5569.00    0.85799   0.86225   11.655
 5570.00    0.90112   0.86253   11.097
 5571.00    0.93756   0.86327   10.666
 5572.00    0.95666   0.86468   10.453
 5573.00    0.95596   0.86693   10.461
 5574.00    0.94172   0.86994   10.620
 5575.00    0.92619   0.87335   10.795
 5576.00    0.92046   0.87663   10.862
 5577.00    0.92950   0.87930   10.763
 5578.00    0.94503   0.88097   10.587
 5579.00    0.95222   0.88136   10.489
 5580.00    0.94832   0.88021   10.532
 5581.00    0.93995   0.87723   10.676
 5582.00    0.92807   0.87205   10.811
 5583.00    0.90942   0.86443   10.885
 5584.00    0.88643   0.85457   11.177
 5585.00    0.86561   0.84357   11.920
 5586.00    0.85007   0.83336   12.053
 5587.00    0.84086   0.82614   10.601
 5588.00    0.84252   0.82336    9.019
 5589.00    0.85924   0.82505    8.556
 5590.00    0.88600   0.82992    8.854
 5591.00    0.91145   0.83618    9.105
 5592.00    0.92622   0.84244    9.087
 5593.00    0.92678   0.84793    9.095
 5594.00    0.91921   0.85231    9.169
 5595.00    0.91221   0.85507    9.152
 5596.00    0.90492   0.85565    9.040
 5597.00    0.89299   0.85382    8.941
 5598.00    0.88139   0.85017    8.913
 5599.00    0.87855   0.84613    8.964
 5600.00    0.88438   0.84358    9.073
 5601.00    0.89442   0.84421    9.195
 5602.00    0.90845   0.84891    9.270
 5603.00    0.92651   0.85740    9.255
 5604.00    0.94163   0.86813    9.176
 5605.00    0.94410   0.87896    9.108
 5606.00    0.92898   0.88795    9.128
 5607.00    0.90140   0.89404    9.253
 5608.00    0.88103   0.89706    9.356
 5609.00    0.88544   0.89718    9.308
 5610.00    0.90880   0.89439    9.189
 5611.00    0.93164   0.88847    9.126
 5612.00    0.93680   0.87955    9.078
 5613.00    0.91733   0.86881    8.967
 5614.00    0.88296   0.85857    8.844
 5615.00    0.85084   0.85140    8.785
 5616.00    0.83378   0.84880    8.768
 5617.00    0.83526   0.85047    8.741
 5618.00    0.84619   0.85459    8.683
 5619.00    0.85565   0.85888    8.597
 5620.00    0.86231   0.86148    8.480
 5621.00    0.87054   0.86157    8.340
 5622.00    0.88494   0.85948    8.208
 5623.00    0.90588   0.85657    8.126
 5624.00    0.92628   0.85472    8.132
 5625.00    0.93838   0.85548    8.222
 5626.00    0.94044   0.85930    8.312
 5627.00    0.93664   0.86541    8.344
 5628.00    0.93562   0.87223    8.374
 5629.00    0.94153   0.87810    8.446
 5630.00    0.94740   0.88180    8.470
 5631.00    0.94506   0.88278    8.366
 5632.00    0.93380   0.88118    8.190
 5633.00    0.91780   0.87761    8.014
 5634.00    0.90268   0.87296    7.846
 5635.00    0.88932   0.86817    7.674
 5636.00    0.87102   0.86400    7.500
 5637.00    0.84901   0.86090    7.346
 5638.00    0.84094   0.85894    7.250
 5639.00    0.85396   0.85798    7.220
 5640.00    0.86862   0.85785    7.218
 5641.00    0.86962   0.85854    7.212
 5642.00    0.86597   0.86006    7.208
 5643.00    0.87296   0.86231    7.238
 5644.00    0.89760   0.86498    7.342
 5645.00    0.93074   0.86762    7.539
 5646.00    0.94671   0.86983    7.804
 5647.00    0.93160   0.87141    8.060
 5648.00    0.89786   0.87243    8.194
 5649.00    0.86270   0.87300    8.207
 5650.00    0.83495   0.87307    8.267
 5651.00    0.81926   0.87228    8.439
 5652.00    0.81874   0.87005    8.564
 5653.00    0.83348   0.86593    8.538
 5654.00    0.85901   0.85993    8.470
 5655.00    0.88226   0.85261    8.454
 5656.00    0.88370   0.84507    8.465
 5657.00    0.85922   0.83874    8.484
 5658.00    0.82696   0.83482    8.545
 5659.00    0.80383   0.83388    8.631
 5660.00    0.79430   0.83565    8.642
 5661.00    0.79546   0.83934    8.543
 5662.00    0.80104   0.84403    8.415
 5663.00    0.80730   0.84890    8.363
 5664.00    0.81483   0.85324    8.450
 5665.00    0.82415   0.85651    8.635
 5666.00    0.83475   0.85861    8.763
 5667.00    0.84942   0.86009    8.748
 5668.00    0.87391   0.86181    8.654
 5669.00    0.90749   0.86452    8.590
 5670.00    0.94077   0.86837    8.638
 5671.00    0.96310   0.87289    8.746
 5672.00    0.96698   0.87724    8.753
 5673.00    0.95290   0.88067    8.667
 5674.00    0.92940   0.88273    8.678
 5675.00    0.90646   0.88335    8.815
 5676.00    0.89156   0.88261    8.906
 5677.00    0.88508   0.88059    8.915
 5678.00    0.88072   0.87730    8.994
 5679.00    0.87250   0.87290    9.170
 5680.00    0.85759   0.86780    9.305
 5681.00    0.83727   0.86266    9.360
 5682.00    0.81664   0.85817    9.427
 5683.00    0.80245   0.85476    9.476
 5684.00    0.80069   0.85247    9.372
 5685.00    0.81151   0.85121    9.183
 5686.00    0.83002   0.85105    9.118
 5687.00    0.85306   0.85233    9.160
 5688.00    0.87869   0.85534    9.121
 5689.00    0.89934   0.85994    9.019
 5690.00    0.90484   0.86539    9.041
 5691.00    0.89545   0.87059    9.166
 5692.00    0.88087   0.87451    9.190
 5693.00    0.86853   0.87653    9.064
 5694.00    0.86098   0.87651    8.914
 5695.00    0.85720   0.87458    8.833
 5696.00    0.85404   0.87105    8.836
 5697.00    0.84897   0.86638    8.873
 5698.00    0.84109   0.86116    8.873
 5699.00    0.83199   0.85613    8.850
 5700.00    0.82482   0.85194    8.865
 5701.00    0.82181   0.84891    8.875
 5702.00    0.82368   0.84675    8.785
 5703.00    0.82944   0.84464    8.630
 5704.00    0.83764   0.84164    8.531
 5705.00    0.84878   0.83725    8.563
 5706.00    0.86464   0.83181    8.716
 5707.00    0.88581   0.82642    8.837
 5708.00    0.90895   0.82257    8.759
 5709.00    0.92287   0.82154    8.616
 5710.00    0.91476   0.82397    8.635
 5711.00    0.88289   0.82967    8.732
 5712.00    0.83746   0.83767    8.690
 5713.00    0.79749   0.84660    8.606
 5714.00    0.78129   0.85512    8.679
 5715.00    0.79145   0.86236    8.752
 5716.00    0.81758   0.86812    8.535
 5717.00    0.84486   0.87268    8.117
 5718.00    0.85768   0.87653    7.750
 5719.00    0.84355   0.87998    7.484
 5720.00    0.80158   0.88301    7.288
 5721.00    0.75369   0.88528    7.206
 5722.00    0.73085   0.88632    7.295
 5723.00    0.75049   0.88583    7.534
 5724.00    0.80838   0.88387    7.849
 5725.00    0.87343   0.88096    8.157
 5726.00    0.91174   0.87788    8.389
 5727.00    0.91900   0.87529    8.527
 5728.00    0.90793   0.87349    8.601
 5729.00    0.88680   0.87253    8.668
 5730.00    0.86166   0.87235    8.760
 5731.00    0.84227   0.87299    8.832
 5732.00    0.83692   0.87441    8.809
 5733.00    0.84558   0.87629    8.676
 5734.00    0.86180   0.87809    8.488
 5735.00    0.87645   0.87927    8.344
 5736.00    0.88360   0.87959    8.277
 5737.00    0.88610   0.87918    8.160
 5738.00    0.88846   0.87835    7.870
 5739.00    0.88908   0.87744    7.456
 5740.00    0.88557   0.87668    0.000
 5741.00    0.88090   0.87623    0.000
 5742.00    0.88167   0.87613    0.000
 5743.00    0.89495   0.87620    0.000
 5744.00    0.92035   0.87609    0.000
 5745.00    0.94381   0.87544    0.000
 5746.00    0.95016   0.87413    0.000
 5747.00    0.93553   0.87233    0.000
 5748.00    0.90882   0.87022    0.000
 5749.00    0.89006   0.86779    0.000
 5750.00    0.89169   0.86491    0.000
 5751.00    0.90428   0.86174    0.000
 5752.00    0.91321   0.85907    0.000
 5753.00    0.91347   0.85801    0.000
 5754.00    0.90888   0.85924    0.000
 5755.00    0.90929   0.86237    0.000
 5756.00    0.91961   0.86595    0.000
 5757.00    0.93280   0.86823    0.000
 5758.00    0.93962   0.86808    0.000
 5759.00    0.93621   0.86562    0.000
 5760.00    0.92224   0.86218    0.000
 5761.00    0.89964   0.85962    0.000
 5762.00    0.87459   0.85947    0.000
 5763.00    0.85815   0.86216    0.000
 5764.00    0.86025   0.86694    0.000
 5765.00    0.88459   0.87228    0.000
 5766.00    0.92138   0.87669    0.000
 5767.00    0.94645   0.87923    0.000
 5768.00    0.94293   0.87974    0.000
 5769.00    0.91388   0.87861    0.000
 5770.00    0.87612   0.87648    0.000
 5771.00    0.85294   0.87405    0.000
 5772.00    0.85652   0.87186    0.000
 5773.00    0.87982   0.87021    0.000
 5774.00    0.90790   0.86898    0.000
 5775.00    0.92621   0.86763    0.000
 5776.00    0.92986   0.86528    0.000
 5777.00    0.92566   0.86114    0.000
 5778.00    0.91833   0.85495    0.000
 5779.00    0.90529   0.84724    0.000
 5780.00    0.88664   0.83927    0.000
 5781.00    0.86926   0.83255    0.000
 5782.00    0.86202   0.82825    0.000
 5783.00    0.87082   0.82694    0.000
 5784.00    0.88692   0.82855    0.000
 5785.00    0.88805   0.83252    0.000
 5786.00    0.86573   0.83788    0.000
 5787.00    0.83342   0.84352    0.000
 5788.00    0.80965   0.84848    0.000
 5789.00    0.80795   0.85235    0.000
 5790.00    0.82672   0.85536    0.000
 5791.00    0.85013   0.85801    0.000
 5792.00    0.86725   0.86062    0.000
 5793.00    0.87761   0.86309    0.000
 5794.00    0.88368   0.86504    0.000
 5795.00    0.88812   0.86630    0.000
 5796.00    0.89448   0.86721    0.000
 5797.00    0.90633   0.86842    0.000
 5798.00    0.92341   0.87041    0.000
 5799.00    0.94127   0.87300    0.000
 5800.00    0.95449   0.87533    0.000
 5801.00    0.95902   0.87639    0.000
 5802.00    0.95606   0.87565    0.000
 5803.00    0.95078   0.87342    0.000
 5804.00    0.94499   0.87068    0.000
 5805.00    0.93597   0.86853    0.000
 5806.00    0.91984   0.86768    0.000
 5807.00    0.89542   0.86821    0.000
 5808.00    0.87155   0.86967    0.000
 5809.00    0.86171   0.87132    0.000
 5810.00    0.86437   0.87245    0.000
 5811.00    0.86533   0.87255    0.000
 5812.00    0.85822   0.87152    0.000
 5813.00    0.84761   0.86973    0.000
 5814.00    0.84304   0.86801    0.000
 5815.00    0.85194   0.86729    0.000
 5816.00    0.86686   0.86819    0.000
 5817.00    0.87147   0.87065    0.000
 5818.00    0.86136   0.87397    0.000
 5819.00    0.84453   0.87719    0.000
 5820.00    0.83118   0.87955    0.000
 5821.00    0.82832   0.88079    0.000
 5822.00    0.83342   0.88117    0.000
 5823.00    0.83866   0.88115    0.000
 5824.00    0.84211   0.88109    0.000
 5825.00    0.84567   0.88119    0.000
 5826.00    0.84636   0.88140    0.000
 5827.00    0.83983   0.88162    0.000
 5828.00    0.83007   0.88168    0.000
 5829.00    0.82447   0.88144    0.000
 5830.00    0.82148   0.88079    0.000
 5831.00    0.81537   0.87971    0.000
 5832.00    0.80864   0.87835    0.000
 5833.00    0.81040   0.87693    0.000
 5834.00    0.82974   0.87576    0.000
 5835.00    0.86948   0.87507   -2.000
 5836.00    0.91811   0.87500   -2.000
 5837.00    0.94980   0.87559   -2.000
 5838.00    0.92819   0.87677   -2.000
 5839.00    0.83576   0.87832   -2.000
 5840.00    0.71553   0.87980   -2.000
 5841.00    0.63636   0.88065   -2.000
 5842.00    0.63253   0.88041   -2.000
 5843.00    0.69490   0.87889   -2.000
 5844.00    0.77311   0.87630   -2.000
 5845.00    0.81188   0.87312   -2.000
 5846.00    0.79928   0.86986   -2.000
 5847.00    0.75894   0.86681   -2.000
 5848.00    0.72970   0.86390   -2.000
 5849.00    0.73988   0.86075   -2.000
 5850.00    0.77951   0.85701   -2.000
 5851.00    0.81877   0.85258   -2.000
 5852.00    0.83530   0.84769   -2.000
 5853.00    0.82391   0.84276   -2.000
 5854.00    0.80267   0.83816   -2.000
 5855.00    0.79303   0.83430    0.000
 5856.00    0.79743   0.83165    0.000
 5857.00    0.80943   0.83074    0.000
 5858.00    0.82696   0.83185    0.000
 5859.00    0.84723   0.83474    0.000
 5860.00    0.86073   0.83868    0.000
 5861.00    0.85997   0.84273    0.000
 5862.00    0.84839   0.84618    0.000
 5863.00    0.83412   0.84879    0.000
 5864.00    0.82286   0.85067    0.000
 5865.00    0.81573   0.85225    0.000
 5866.00    0.80887   0.85394    0.000
 5867.00    0.80308   0.85599    0.000
 5868.00    0.81083   0.85828    0.000
 5869.00    0.83929   0.86037    0.000
 5870.00    0.87665   0.86176    0.000
 5871.00    0.90660   0.86214    0.000
 5872.00    0.92170   0.86153    0.000
 5873.00    0.92396   0.86011    0.000
 5874.00    0.92321   0.85814    0.000
 5875.00    0.92543   0.85575    0.000
 5876.00    0.92511   0.85300    0.000
 5877.00    0.91552   0.85001    0.000
 5878.00    0.89690   0.84694    0.000
 5879.00    0.87614   0.84399    0.000
 5880.00    0.86455   0.84123    0.000
 5881.00    0.86676   0.83837    0.000
 5882.00    0.87465   0.83470    0.000
 5883.00    0.87870   0.82898    0.000
 5884.00    0.87550   0.81968    0.000
 5885.00    0.86455   0.80546    0.000
 5886.00    0.84642   0.78613    0.000
 5887.00    0.82614   0.76346    0.000
 5888.00    0.81364   0.74115    0.000
 5889.00    0.81380   0.72350    0.000
 5890.00    0.82185   0.71327    0.000
 5891.00    0.83192   0.71025    0.000
 5892.00    0.84129   0.71185    0.000
 5893.00    0.84523   0.71516    0.000
 5894.00    0.83586   0.71906    0.000
 5895.00    0.81176   0.72472    0.000
 5896.00    0.78188   0.73411    0.000
 5897.00    0.75826   0.74810    0.000
 5898.00    0.75066   0.76556    0.000
 5899.00    0.75941   0.78392    0.000
 5900.00    0.77455   0.80053    0.000
 5901.00    0.78768   0.81375    7.733
 5902.00    0.79721   0.82319    7.515
 5903.00    0.80527   0.82942    7.358
 5904.00    0.81452   0.83344    7.328
 5905.00    0.82080   0.83619    7.452
 5906.00    0.81351   0.83834    7.716
 5907.00    0.79020   0.84013    8.039
 5908.00    0.76137   0.84143    8.276
 5909.00    0.74418   0.84187    8.366
 5910.00    0.75418   0.84109    8.393
 5911.00    0.78476   0.83898    8.407
 5912.00    0.80865   0.83594    8.373
 5913.00    0.81380   0.83280    8.287
 5914.00    0.81092   0.83057    8.207
 5915.00    0.81079   0.82999    8.176
 5916.00    0.81682   0.83118    8.192
 5917.00    0.82895   0.83364    8.159
 5918.00    0.84398   0.83655    7.956
 5919.00    0.85230   0.83918    7.691
 5920.00    0.84172   0.84117    7.610
 5921.00    0.81288   0.84254    7.741
 5922.00    0.78001   0.84349    7.894
 5923.00    0.75743   0.84413    7.932
 5924.00    0.75411   0.84434    7.850
 5925.00    0.77065   0.84389    7.708
 5926.00    0.79972   0.84264    7.579
 5927.00    0.83003   0.84081    7.521
 5928.00    0.85116   0.83892    7.577
 5929.00    0.86336   0.83756    7.760
 5930.00    0.87434   0.83706    8.049
 5931.00    0.88406   0.83732    8.361
 5932.00    0.88585   0.83804    8.569
 5933.00    0.87953   0.83895    8.627
 5934.00    0.87099   0.84001    8.594
 5935.00    0.86273   0.84124    8.562
 5936.00    0.85291   0.84248    8.605
 5937.00    0.83882   0.84338    8.715
 5938.00    0.81979   0.84358    8.822
 5939.00    0.80165   0.84303    8.847
 5940.00    0.79273   0.84210    8.760
 5941.00    0.79336   0.84135    8.644
 5942.00    0.79731   0.84120    8.603
 5943.00    0.79995   0.84156    8.587
 5944.00    0.80120   0.84194    8.472
 5945.00    0.80778   0.84174    8.292
 5946.00    0.82651   0.84064    8.165
 5947.00    0.85098   0.83882    8.114
 5948.00    0.86730   0.83678    8.094
 5949.00    0.86954   0.83504    8.091
 5950.00    0.86070   0.83384    8.099
 5951.00    0.84878   0.83318    8.066
 5952.00    0.84063   0.83290    7.955
 5953.00    0.83273   0.83283    7.858
 5954.00    0.81873   0.83295    7.897
 5955.00    0.80384   0.83335    8.073
 5956.00    0.79812   0.83427    8.292
 5957.00    0.80213   0.83596    8.449
 5958.00    0.81032   0.83849    8.487
 5959.00    0.81979   0.84160    8.480
 5960.00    0.82972   0.84473    8.541
 5961.00    0.83855   0.84725    8.666
 5962.00    0.84456   0.84877    8.785
 5963.00    0.84731   0.84930    8.868
 5964.00    0.84740   0.84923    8.923
 5965.00    0.84578   0.84914    8.967
 5966.00    0.84378   0.84949    9.014
 5967.00    0.84309   0.85046    9.059
 5968.00    0.84462   0.85181    9.093
 5969.00    0.84705   0.85307    9.117
 5970.00    0.84742   0.85365    9.133
 5971.00    0.84223   0.85307    9.128
 5972.00    0.83016   0.85106    9.108
 5973.00    0.81493   0.84776    9.124
 5974.00    0.80203   0.84369    9.173
 5975.00    0.79466   0.83968    9.102
 5976.00    0.79227   0.83657    8.845
 5977.00    0.78996   0.83484    8.639
 5978.00    0.78533   0.83433    8.654
 5979.00    0.78494   0.83430    8.708
 5980.00    0.79487   0.83385    8.603
 5981.00    0.81110   0.83240    8.468
 5982.00    0.82668   0.83012    8.458
 5983.00    0.83958   0.82778    8.472
 5984.00    0.85104   0.82634    8.399
 5985.00    0.86288   0.82641    8.353
 5986.00    0.87388   0.82794    8.445
 5987.00    0.87750   0.83038    8.591
 5988.00    0.86928   0.83305    8.684
 5989.00    0.85332   0.83548    8.764
 5990.00    0.83876   0.83752    8.873
 5991.00    0.83540   0.83919    8.918
 5992.00    0.84467   0.84041    8.853
 5993.00    0.85455   0.84097    8.824
 5994.00    0.85589   0.84062    8.938
 5995.00    0.85396   0.83935    9.103
 5996.00    0.85354   0.83749    9.163
 5997.00    0.84881   0.83554    9.037
 5998.00    0.83681   0.83393    8.801
 5999.00    0.82626   0.83277    8.658
 6000.00    0.82597   0.83187    8.672
 6001.00    0.83663   0.83094    8.664
 6002.00    0.85381   0.82972    8.547
 6003.00    0.87061   0.82809    8.498
 6004.00    0.87917   0.82611    8.650
 6005.00    0.87281   0.82403    8.934
 6006.00    0.85302   0.82228    9.199
 6007.00    0.83200   0.82138    9.318
 6008.00    0.82124   0.82154    9.247
 6009.00    0.82402   0.82250    9.057
 6010.00    0.83388   0.82363    8.881
 6011.00    0.83636   0.82432    8.841
 6012.00    0.82300   0.82427    8.937
 6013.00    0.79814   0.82361    9.005
 6014.00    0.77308   0.82263    8.935
 6015.00    0.76085   0.82157    8.780
 6016.00    0.76703   0.82047    8.664
 6017.00    0.78596   0.81928    8.694
 6018.00    0.80576   0.81804    8.850
 6019.00    0.81345   0.81699    8.959
 6020.00    0.80654   0.81650    8.942
 6021.00    0.79519   0.81690    8.908
 6022.00    0.78647   0.81837    8.950
 6023.00    0.77913   0.82084    9.065
 6024.00    0.77378   0.82405    9.213
 6025.00    0.77588   0.82766    9.351
 6026.00    0.78888   0.83136    9.437
 6027.00    0.81128   0.83494    9.450
 6028.00    0.83690   0.83822    9.430
 6029.00    0.85662   0.84111    9.454
 6030.00    0.86390   0.84357    9.515
 6031.00    0.85707   0.84555    9.519
 6032.00    0.83933   0.84705    9.483
 6033.00    0.81748   0.84806    9.536
 6034.00    0.79785   0.84855    9.670
 6035.00    0.78372   0.84851    9.708
 6036.00    0.77228   0.84794    9.575
 6037.00    0.75720   0.84691    9.372
 6038.00    0.74063   0.84564    9.249
 6039.00    0.73366   0.84445    9.306
 6040.00    0.74432   0.84372    9.410
 6041.00    0.77325   0.84370    9.279
 6042.00    0.81300   0.84443    8.993
 6043.00    0.85190   0.84572    8.888
 6044.00    0.88591   0.84722    8.966
 6045.00    0.91679   0.84860    8.942
 6046.00    0.93696   0.84963    8.775
 6047.00    0.93240   0.85015    8.677
 6048.00    0.90295   0.85007    8.699
 6049.00    0.86201   0.84929    8.730
 6050.00    0.82031   0.84776    8.733
 6051.00    0.78333   0.84551    8.767
 6052.00    0.75643   0.84277    8.847
 6053.00    0.74546   0.83998    8.936
 6054.00    0.75492   0.83764    8.979
 6055.00    0.78339   0.83622    8.941
 6056.00    0.81440   0.83588    8.863
 6057.00    0.82536   0.83640    8.827
 6058.00    0.81234   0.83720    8.858
 6059.00    0.78854   0.83754    8.915
 6060.00    0.76819   0.83678    8.919
 6061.00    0.76125   0.83477    8.824
 6062.00    0.77010   0.83194    8.743
 6063.00    0.78923   0.82926    8.790
 6064.00    0.80611   0.82788    8.774
 6065.00    0.80715   0.82860    8.540
 6066.00    0.78894   0.83152    8.703
 6067.00    0.75910   0.83601   10.197
 6068.00    0.73333   0.84104   12.053
 6069.00    0.72723   0.84559   12.053
 6070.00    0.74265   0.84901   12.053
 6071.00    0.77046   0.85101   12.053
 6072.00    0.79973   0.85154   12.053
 6073.00    0.82041   0.85062   12.053
 6074.00    0.82512   0.84834   12.043
 6075.00    0.81292   0.84490   12.053
 6076.00    0.79433   0.84067   12.053
 6077.00    0.78388   0.83619   10.984
 6078.00    0.78722   0.83197    9.152
 6079.00    0.80067   0.82841    8.566
 6080.00    0.81408   0.82569    8.748
 6081.00    0.82057   0.82386    8.956
 6082.00    0.82903   0.82286    8.964
 6083.00    0.84925   0.82259    8.936
 6084.00    0.86963   0.82289    8.942
 6085.00    0.87133   0.82346    8.957
 6086.00    0.85109   0.82395    8.960
 6087.00    0.81923   0.82410    8.950
 6088.00    0.79262   0.82382    8.957
 6089.00    0.78402   0.82334    8.988
 6090.00    0.79070   0.82310    8.965
 6091.00    0.80211   0.82352    8.860
 6092.00    0.81089   0.82478    8.824
 6093.00    0.81453   0.82668    8.977
 6094.00    0.81546   0.82874    9.169
 6095.00    0.81702   0.83034    9.196
 6096.00    0.81913   0.83084    9.118
 6097.00    0.81973   0.82971    9.083
 6098.00    0.81678   0.82666    9.091
 6099.00    0.80732   0.82187    9.071
 6100.00    0.78695   0.81618    8.983
 6101.00    0.75700   0.81100    8.843
 6102.00    0.73082   0.80783    8.731
 6103.00    0.72391   0.80756    8.692
 6104.00    0.74320   0.81009    8.669
 6105.00    0.78026   0.81443    8.609
 6106.00    0.80859   0.81924    8.561
 6107.00    0.80964   0.82349    8.541
 6108.00    0.79424   0.82669    8.452
 6109.00    0.78373   0.82887    8.288
 6110.00    0.79145   0.83030    8.261
 6111.00    0.81680   0.83125    8.485
 6112.00    0.84318   0.83184    8.759
 6113.00    0.85219   0.83200    8.894
 6114.00    0.83570   0.83147    9.040
 6115.00    0.79981   0.82998    9.281
 6116.00    0.76492   0.82723    9.306
 6117.00    0.74799   0.82310    8.972
 6118.00    0.74991   0.81779    8.676
 6119.00    0.76039   0.81200    8.670
 6120.00    0.76398   0.80681    8.802
 6121.00    0.75290   0.80336    8.928
 6122.00    0.73440   0.80237    9.156
 6123.00    0.72148   0.80371    9.508
 6124.00    0.72542   0.80661    9.686
 6125.00    0.74942   0.81005    9.548
 6126.00    0.78585   0.81330    9.411
 6127.00    0.82283   0.81608    9.470
 6128.00    0.84956   0.81838    9.552
 6129.00    0.86250   0.82007    9.499
 6130.00    0.86749   0.82062    9.380
 6131.00    0.87125   0.81917    9.262
 6132.00    0.87602   0.81500    9.110
 6133.00    0.87755   0.80809    8.947
 6134.00    0.86669   0.79950    8.900
 6135.00    0.84289   0.79117    8.992
 6136.00    0.81887   0.78524    9.088
 6137.00    0.80792   0.78313    9.071
 6138.00    0.81606   0.78493    8.945
 6139.00    0.83658   0.78970    8.793
 6140.00    0.85147   0.79599    8.716
 6141.00    0.85029   0.80258    8.750
 6142.00    0.83693   0.80863    8.856
 6143.00    0.82000   0.81359    8.991
 6144.00    0.80762   0.81704    9.138
 6145.00    0.80520   0.81870    9.285
 6146.00    0.81358   0.81866    9.409
 6147.00    0.82591   0.81743    9.434
 6148.00    0.82982   0.81579    9.266
 6149.00    0.82121   0.81444    8.983
 6150.00    0.80758   0.81369    8.800
 6151.00    0.79898   0.81339    8.797
 6152.00    0.80212   0.81312    8.910
 6153.00    0.81233   0.81240    9.105
 6154.00    0.81498   0.81084    9.395
 6155.00    0.80057   0.80809    9.682
 6156.00    0.76999   0.80371    9.747
 6157.00    0.73298   0.79726    9.589
 6158.00    0.70401   0.78867    9.435
 6159.00    0.69112   0.77865    9.349
 6160.00    0.69333   0.76878    9.229
 6161.00    0.70440   0.76107    9.090
 6162.00    0.71639   0.75709    9.062
 6163.00    0.72622   0.75723    9.171
 6164.00    0.73576   0.76044    9.309
 6165.00    0.74603   0.76487    9.323
 6166.00    0.75658   0.76876    9.117
 6167.00    0.76835   0.77133    8.809
 6168.00    0.78239   0.77292    8.609
 6169.00    0.79432   0.77454    8.527
 6170.00    0.79753   0.77706    8.457
 6171.00    0.79508   0.78073    8.471
 6172.00    0.79579   0.78511    8.739
 6173.00    0.79698   0.78949    9.186
 6174.00    0.78834   0.79334    9.493
 6175.00    0.77112   0.79647    9.617
 6176.00    0.75629   0.79907    9.802
 6177.00    0.74922   0.80138   10.044
 6178.00    0.74957   0.80359   10.050
 6179.00    0.75893   0.80569    9.579
 6180.00    0.77887   0.80750    8.706
 6181.00    0.80325   0.80872    7.828
 6182.00    0.82102   0.80900    7.240
 6183.00    0.82537   0.80804    6.945
 6184.00    0.81605   0.80568    6.862
 6185.00    0.79979   0.80198    6.998
 6186.00    0.78596   0.79720    7.376
 6187.00    0.77815   0.79182    7.826
 6188.00    0.77598   0.78653    8.043
 6189.00    0.78116   0.78225    8.071
 6190.00    0.79549   0.77992    8.166
 6191.00    0.81542   0.78016    8.238
 6192.00    0.83294   0.78294    8.077
 6193.00    0.83894   0.78747    7.914
 6194.00    0.82864   0.79243    8.085
 6195.00    0.80893   0.79649    8.492
 6196.00    0.79143   0.79884    8.759
 6197.00    0.77982   0.79948    8.777
 6198.00    0.77322   0.79913    8.728
 6199.00    0.77404   0.79880    8.791
 6200.00    0.78597   0.79928    8.982
 6201.00    0.80923   0.80086    8.989
 6202.00    0.84029   0.80325    8.499
 6203.00    0.87242   0.80587    7.742
 6204.00    0.89541   0.80811    7.109
 6205.00    0.89580   0.80953    6.809
 6206.00    0.86729   0.80986    6.902
 6207.00    0.82344   0.80889    7.309
 6208.00    0.78334   0.80646    7.858
 6209.00    0.75223   0.80248    8.351
 6210.00    0.72845   0.79704    8.636
 6211.00    0.71461   0.79062    8.748
 6212.00    0.71329   0.78400    8.797
 6213.00    0.72097   0.77811    8.762
 6214.00    0.73344   0.77372    8.637
 6215.00    0.75198   0.77115    8.591
 6216.00    0.77462   0.77021    8.767
 6217.00    0.78734   0.77043    9.082
 6218.00    0.78018   0.77135    9.337
 6219.00    0.76362   0.77274    9.399
 6220.00    0.75389   0.77450    9.270
 6221.00    0.75669   0.77656    9.083
 6222.00    0.76927   0.77871    8.946
 6223.00    0.78426   0.78052    8.836
 6224.00    0.79419   0.78145    8.749
 6225.00    0.79539   0.78099    8.805
 6226.00    0.78955   0.77883    9.054
 6227.00    0.78378   0.77512    9.292
 6228.00    0.78241   0.77063    9.374
 6229.00    0.78077   0.76659    9.518
 6230.00    0.77409   0.76432    9.774
 6231.00    0.76469   0.76466    9.587
 6232.00    0.75649   0.76751    8.802
 6233.00    0.75053   0.77185    8.151
 6234.00    0.74885   0.77612    7.948
 6235.00    0.75675   0.77887    7.856
 6236.00    0.77565   0.77935    7.697
 6237.00    0.79800   0.77759    7.826
 6238.00    0.81016   0.77431    8.471
 6239.00    0.79699   0.77039    9.229
 6240.00    0.75812   0.76656    9.544
 6241.00    0.71538   0.76330    9.557
 6242.00    0.68749   0.76094   -2.000
 6243.00    0.67454   0.75975   -2.000
 6244.00    0.67068   0.75993   -2.000
 6245.00    0.67247   0.76148   -2.000
 6246.00    0.67599   0.76401   -2.000
 6247.00    0.67628   0.76670   -2.000
 6248.00    0.67589   0.76856   -2.000
 6249.00    0.68695   0.76871   -2.000
 6250.00    0.71315   0.76683   -2.000
 6251.00    0.74182   0.76323   -2.000
 6252.00    0.75858   0.75871   -2.000
 6253.00    0.75686   0.75415   -2.000
 6254.00    0.74305   0.75035    7.176
 6255.00    0.73503   0.74784    7.116
 6256.00    0.74138   0.74702    7.334
 6257.00    0.75383   0.74818    7.908
 6258.00    0.76300   0.75133    8.770
 6259.00    0.76624   0.75615    9.604
 6260.00    0.76603   0.76196   10.092
 6261.00    0.76773   0.76781   10.292
 6262.00    0.77397   0.77283   10.375
 6263.00    0.78244   0.77649   10.384
 6264.00    0.78798   0.77876   10.267
 6265.00    0.78577   0.77997    9.942
 6266.00    0.78049   0.78058    9.444
 6267.00    0.78489   0.78103    8.916
 6268.00    0.79892   0.78160    8.478
 6269.00    0.80660   0.78245    8.207
 6270.00    0.79731   0.78361    8.183
 6271.00    0.77374   0.78494    8.470
 6272.00    0.74951   0.78624    8.869
 6273.00    0.74222   0.78719    8.860
 6274.00    0.75323   0.78751    8.338
 6275.00    0.76686   0.78698    7.729
 6276.00    0.77321   0.78562    7.286
 6277.00    0.77292   0.78363    7.051
 6278.00    0.76619   0.78148    7.091
 6279.00    0.75161   0.77976    7.517
 6280.00    0.73463   0.77900    0.000
 6281.00    0.72528   0.77954    0.000
 6282.00    0.72336   0.78135    0.000
 6283.00    0.71928   0.78413    0.000
 6284.00    0.71030   0.78738    0.000
 6285.00    0.70302   0.79054    0.000
 6286.00    0.70621   0.79310    0.000
 6287.00    0.72568   0.79466    0.000
 6288.00    0.75635   0.79505    0.000
 6289.00    0.78643   0.79430    0.000
 6290.00    0.81375   0.79265    0.000
 6291.00    0.84280   0.79040    0.000
 6292.00    0.86636   0.78783    0.000
 6293.00    0.86845   0.78509    0.000
 6294.00    0.84270   0.78222    0.000
 6295.00    0.79694   0.77923    0.000
 6296.00    0.75268   0.77621    0.000
 6297.00    0.73402   0.77335    0.000
 6298.00    0.74381   0.77090    0.000
 6299.00    0.76776   0.76913    0.000
 6300.00    0.79485   0.76835    0.000
 6301.00    0.81957   0.76884    0.000
 6302.00    0.83702   0.77072    0.000
 6303.00    0.84440   0.77387    0.000
 6304.00    0.84562   0.77784    0.000
 6305.00    0.84617   0.78198    0.000
 6306.00    0.84166   0.78555    0.000
 6307.00    0.82507   0.78793    0.000
 6308.00    0.80399   0.78876    0.000
 6309.00    0.79364   0.78798    0.000
 6310.00    0.79895   0.78584    0.000
 6311.00    0.81413   0.78271    0.000
 6312.00    0.82776   0.77898    0.000
 6313.00    0.82797   0.77498    0.000
 6314.00    0.80949   0.77113    0.000
 6315.00    0.77605   0.76789    0.000
 6316.00    0.74182   0.76567    0.000
 6317.00    0.72197   0.76486    0.000
 6318.00    0.71842   0.76569    0.000
 6319.00    0.72497   0.76810    0.000
 6320.00    0.73819   0.77171    0.000
 6321.00    0.75676   0.77596   10.325
 6322.00    0.77841   0.78028   10.130
 6323.00    0.79975   0.78418    9.749
 6324.00    0.81692   0.78731    9.406
 6325.00    0.82780   0.78951    9.284
 6326.00    0.83443   0.79083    9.237
 6327.00    0.83652   0.79144    9.087
 6328.00    0.82373   0.79150    8.983
 6329.00    0.79016   0.79101    9.091
 6330.00    0.75188   0.78980    9.235
 6331.00    0.72968   0.78768    9.152
 6332.00    0.72677   0.78461    8.897
 6333.00    0.73575   0.78084    8.691
 6334.00    0.74949   0.77699    8.692
 6335.00    0.76289   0.77393    8.964
 6336.00    0.77335   0.77232    9.435
 6337.00    0.78056   0.77235    9.930
 6338.00    0.78594   0.77358   10.255
 6339.00    0.79154   0.77520   10.345
 6340.00    0.79859   0.77639   10.396
 6341.00    0.80511   0.77664   10.573
 6342.00    0.80436   0.77599   10.723
 6343.00    0.79284   0.77502   10.684
 6344.00    0.77729   0.77444   10.616
 6345.00    0.76709   0.77481   10.658
 6346.00    0.76676   0.77634   10.649
 6347.00    0.77638   0.77881   10.473
 6348.00    0.79250   0.78159   10.343
 6349.00    0.80872   0.78390   10.369
 6350.00    0.81667   0.78511   10.292
 6351.00    0.81189   0.78490    9.998
 6352.00    0.79803   0.78323    9.841
 6353.00    0.78340   0.78028   10.007
 6354.00    0.77697   0.77643   10.150
 6355.00    0.78067   0.77211    9.986
 6356.00    0.78510   0.76758    9.769
 6357.00    0.77983   0.76308    9.742
 6358.00    0.76147   0.75892    9.817
 6359.00    0.73552   0.75550    9.869
 6360.00    0.71589   0.75324    9.923
 6361.00    0.71503   0.75252   10.016
 6362.00    0.73662   0.75355   10.098
 6363.00    0.77193   0.75626   10.116
 6364.00    0.80075   0.76020   10.074
 6365.00    0.81075   0.76469   10.010
 6366.00    0.80740   0.76912    9.970
 6367.00    0.79993   0.77304    9.996
 6368.00    0.79273   0.77632   10.110
 6369.00    0.78716   0.77907   10.288
 6370.00    0.78301   0.78151   10.443
 6371.00    0.77892   0.78384   10.491
 6372.00    0.77251   0.78599   10.409
 6373.00    0.75986   0.78768   10.279
 6374.00    0.73710   0.78859   10.264
 6375.00    0.70966   0.78852   10.388
 6376.00    0.69375   0.78751   10.486
 6377.00    0.69954   0.78588   10.427
 6378.00    0.72369   0.78406   10.244
 6379.00    0.75489   0.78246   10.026
 6380.00    0.77897   0.78138    9.863
 6381.00    0.78912   0.78100    9.818
 6382.00    0.78857   0.78128    9.922
 6383.00    0.78136   0.78207   10.106
 6384.00    0.76884   0.78315   10.209
 6385.00    0.75274   0.78428   10.213
 6386.00    0.73712   0.78512   10.290
 6387.00    0.73067   0.78523   10.446
 6388.00    0.74403   0.78421   10.468
 6389.00    0.77595   0.78200   10.332
 6390.00    0.81103   0.77903   10.267
 6391.00    0.83196   0.77598   10.387
 6392.00    0.82649   0.77363   10.608
 6393.00    0.79455   0.77245   10.782
 6394.00    0.74866   0.77226   10.786
 6395.00    0.70625   0.77244   10.652
 6396.00    0.68340   0.77246   10.529
 6397.00    0.68399   0.77214   10.424
 6398.00    0.69851   0.77172   10.228
 6399.00    0.71249   0.77180   10.012
 6400.00    0.71358   0.77293    9.960
 6401.00    0.70424   0.77513   10.008
 6402.00    0.69897   0.77778    9.901
 6403.00    0.70455   0.77999    9.680
 6404.00    0.71744   0.78110    9.605
 6405.00    0.73389   0.78086    9.626
 6406.00    0.75183   0.77944    9.443
 6407.00    0.76775   0.77740    9.044
 6408.00    0.77746   0.77543    8.659
 6409.00    0.78035   0.77399    8.337
 6410.00    0.77921   0.77326    8.018
 6411.00    0.77670   0.77325    7.796
 6412.00    0.77603   0.77379    7.816
 6413.00    0.78475   0.77457    8.020
 6414.00    0.80808   0.77519    8.192
 6415.00    0.83178   0.77522    8.274
 6416.00    0.83215   0.77443    8.376
 6417.00    0.80759   0.77305    8.533
 6418.00    0.77651   0.77173    8.711
 6419.00    0.75647   0.77119    8.980
 6420.00    0.75580   0.77195    9.445
 6421.00    0.76653   0.77423    9.950
 6422.00    0.77367   0.77776   10.136
 6423.00    0.77658   0.78183   10.009
 6424.00    0.78330   0.78543    9.883
 6425.00    0.79117   0.78758    9.882
 6426.00    0.79090   0.78767    9.956
 6427.00    0.78117   0.78579   10.051
 6428.00    0.76772   0.78263   10.127
 6429.00    0.75656   0.77919   10.160
 6430.00    0.75187   0.77648   10.155
 6431.00    0.75470   0.77515   10.157
 6432.00    0.76250   0.77523   10.210
 6433.00    0.76912   0.77602   10.268
 6434.00    0.76910   0.77658   10.278
 6435.00    0.76425   0.77636   10.319
 6436.00    0.76052   0.77556   10.479
 6437.00    0.76145   0.77477   10.629
 6438.00    0.76757   0.77478   10.568
 6439.00    0.77738   0.77619   10.348
 6440.00    0.79066   0.77912   10.038
 6441.00    0.81250   0.78302    9.414
 6442.00    0.84342   0.78695    8.454
 6443.00    0.86577   0.78974    7.642
 6444.00    0.85892   0.79029    7.291
 6445.00    0.82160   0.78803    7.348
 6446.00    0.76984   0.78334    7.674
 6447.00    0.72938   0.77740    8.169
 6448.00    0.71965   0.77162    8.692
 6449.00    0.73599   0.76720    8.970
 6450.00    0.76113   0.76478    8.867
 6451.00    0.78171   0.76425    8.720
 6452.00    0.79216   0.76514    8.870
 6453.00    0.79630   0.76693    9.236
 6454.00    0.79925   0.76913    9.558
 6455.00    0.79861   0.77139    9.756
 6456.00    0.78963   0.77343    9.876
 6457.00    0.77184   0.77472    9.925
 6458.00    0.74970   0.77474    9.902
 6459.00    0.73209   0.77351    9.866
 6460.00    0.72691   0.77155    9.880
 6461.00    0.73591   0.76958    9.964
 6462.00    0.75581   0.76850   10.104
 6463.00    0.78020   0.76897   10.259
 6464.00    0.80170   0.77096   10.344
 6465.00    0.81411   0.77385   10.230
 6466.00    0.81454   0.77666    9.926
 6467.00    0.80499   0.77858    9.669
 6468.00    0.79061   0.77931    9.614
 6469.00    0.77770   0.77912    9.681
 6470.00    0.76973   0.77837    9.774
 6471.00    0.76461   0.77753    9.945
 6472.00    0.75848   0.77710   10.216
 6473.00    0.74932   0.77722   10.409
 6474.00    0.74063   0.77770   10.193
 6475.00    0.74253   0.77820    9.344
 6476.00    0.76055   0.77829    8.263
 6477.00    0.78803   0.77748    7.610
 6478.00    0.81215   0.77561    7.497
 6479.00    0.81990   0.77301    7.568
 6480.00    0.80681   0.77026    7.653
 6481.00    0.78170   0.76804    8.114
 6482.00    0.75902   0.76684    9.173
 6483.00    0.75202   0.76689   10.112
 6484.00    0.76186   0.76794   10.098
 6485.00    0.77427   0.76930    9.762
 6486.00    0.77905   0.76999    9.656
 6487.00    0.77978   0.76913    9.466
 6488.00    0.77873   0.76598    9.064
 6489.00    0.77013   0.75999    8.874
 6490.00    0.75418   0.75108    9.092
 6491.00    0.74221   0.74009    9.474
 6492.00    0.73970   0.72851    9.813
 6493.00    0.74006   0.71804   10.187
 6494.00    0.74137   0.71037   10.346
 6495.00    0.75170   0.70658    9.617
 6496.00    0.77040   0.70722    8.385
 6497.00    0.78221   0.71196    7.612
 6498.00    0.77571   0.71973    7.400
 6499.00    0.75192   0.72916    7.342
 6500.00    0.72139   0.73896    7.343
 6501.00    0.70006   0.74808    7.771
 6502.00    0.69816   0.75585    8.761
 6503.00    0.71626   0.76192    9.699
 6504.00    0.74955   0.76620    9.816
 6505.00    0.78981   0.76895    9.289
 6506.00    0.82495   0.77055    8.664
 6507.00    0.84218   0.77135    8.262
 6508.00    0.84065   0.77159    8.205
 6509.00    0.83259   0.77145    8.508
 6510.00    0.82780   0.77089    8.928
 6511.00    0.82774   0.76970    8.983
 6512.00    0.82643   0.76778    8.926
 6513.00    0.81494   0.76527    9.716
 6514.00    0.79564   0.76242   11.667
 6515.00    0.78226   0.75975   12.053
 6516.00    0.78307   0.75794   12.053
 6517.00    0.79538   0.75739   12.053
 6518.00    0.80722   0.75811   12.053
 6519.00    0.80359   0.75984   12.053
 6520.00    0.78324   0.76210   12.053
 6521.00    0.75952   0.76430   12.053
 6522.00    0.74623   0.76579   12.053
 6523.00    0.75046   0.76626   12.053
 6524.00    0.76521   0.76589   12.053
 6525.00    0.77408   0.76501   12.053
 6526.00    0.77009   0.76389   12.053
 6527.00    0.75764   0.76271   12.053
 6528.00    0.74314   0.76154    0.000
 6529.00    0.73196   0.76044    0.000
 6530.00    0.72756   0.75951    0.000
 6531.00    0.73026   0.75887    0.000
 6532.00    0.73517   0.75856    0.000
 6533.00    0.73536   0.75854    0.000
 6534.00    0.73033   0.75882    0.000
 6535.00    0.72534   0.75939    0.000
 6536.00    0.72507   0.76002    0.000
 6537.00    0.73208   0.76034    0.000
 6538.00    0.74706   0.75997    0.000
 6539.00    0.76828   0.75868    0.000
 6540.00    0.79061   0.75628    0.000
 6541.00    0.80732   0.75266    0.000
 6542.00    0.81425   0.74797    0.000
 6543.00    0.81241   0.74282    0.000
 6544.00    0.81106   0.73793    0.000
 6545.00    0.82157   0.73374    0.000
 6546.00    0.84479   0.73039    0.000
 6547.00    0.87236   0.72773    0.000
 6548.00    0.89342   0.72534    0.000
 6549.00    0.89743   0.72262    0.000
 6550.00    0.87691   0.71893    0.000
 6551.00    0.83310   0.71393    0.000
 6552.00    0.78386   0.70770    0.000
 6553.00    0.75178   0.70044    0.000
 6554.00    0.74311   0.69218    0.000
 6555.00    0.75312   0.68262    0.000
 6556.00    0.78027   0.67115    0.000
 6557.00    0.83055   0.65672    0.000
 6558.00    0.92021   0.63857    0.000
 6559.00    1.06342   0.61811    0.000
 6560.00    1.25369   0.59921    0.000
 6561.00    1.45833   0.58570    0.000
 6562.00    1.61618   0.58017    0.000
 6563.00    1.66596   0.58375    0.000
 6564.00    1.58515   0.59560    0.000
 6565.00    1.39640   0.61311    0.000
 6566.00    1.16657   0.63284    0.000
 6567.00    0.96887   0.65165    0.000
 6568.00    0.83604   0.66732    0.000
 6569.00    0.76614   0.67891    0.000
 6570.00    0.73740   0.68669    0.000
 6571.00    0.72350   0.69197    0.000
 6572.00    0.70933   0.69640    0.000
 6573.00    0.69156   0.70109    0.000
 6574.00    0.67657   0.70645    0.000
 6575.00    0.67273   0.71236    0.000
 6576.00    0.68231   0.71831    0.000
 6577.00    0.70392   0.72371    0.000
 6578.00    0.73634   0.72825    0.000
 6579.00    0.78270   0.73186    0.000
 6580.00    0.85289   0.73456    0.000
 6581.00    0.94760   0.73652    0.000
 6582.00    1.04404   0.73799    0.000
 6583.00    1.11124   0.73929    0.000
 6584.00    1.12638   0.74065    0.000
 6585.00    1.08431   0.74203    0.000
 6586.00    1.00353   0.74313    0.000
 6587.00    0.91348   0.74351    0.000
 6588.00    0.84171   0.74255    0.000
 6589.00    0.80119   0.74006    0.000
 6590.00    0.78283   0.73665    0.000
 6591.00    0.77394   0.73337    0.000
 6592.00    0.77236   0.73098    0.000
 6593.00    0.77614   0.72993    0.000
 6594.00    0.77623   0.73040    0.000
 6595.00    0.76761   0.73236    0.000
 6596.00    0.75659   0.73553    0.000
 6597.00    0.75020   0.73938    0.000
 6598.00    0.74881   0.74327    0.000
 6599.00    0.75037   0.74658    0.000
 6600.00    0.75365   0.74886    0.000
 6601.00    0.75735   0.74991    0.000
 6602.00    0.75941   0.74978    0.000
 6603.00    0.75642   0.74863    0.000
 6604.00    0.74434   0.74665    0.000
 6605.00    0.72465   0.74422    0.000
 6606.00    0.70678   0.74204    0.000
 6607.00    0.70020   0.74086    0.000
 6608.00    0.70907   0.74092    0.000
 6609.00    0.72999   0.74203   10.506
 6610.00    0.75246   0.74392   10.586
 6611.00    0.76826   0.74638   10.619
 6612.00    0.77591   0.74908   10.538
 6613.00    0.77635   0.75161   10.393
 6614.00    0.77085   0.75374   10.335
 6615.00    0.76274   0.75545   10.416
 6616.00    0.75701   0.75675   10.528
 6617.00    0.75401   0.75763   10.549
 6618.00    0.74825   0.75803   10.444
 6619.00    0.73732   0.75780   10.315
 6620.00    0.72504   0.75674   10.339
 6621.00    0.71609   0.75492   10.523
 6622.00    0.71332   0.75276   10.657
 6623.00    0.71721   0.75071   10.643
 6624.00    0.72571   0.74894   10.601
 6625.00    0.73462   0.74756   10.504
 6626.00    0.73907   0.74649   10.173
 6627.00    0.73887   0.74550    9.768
 6628.00    0.73923   0.74428    9.685
 6629.00    0.74532   0.74258    9.912
 6630.00    0.75937   0.74043   10.013
 6631.00    0.77822   0.73834    9.909
 6632.00    0.79416   0.73692   10.011
 6633.00    0.80105   0.73656   10.447
 6634.00    0.79693   0.73726   10.883
 6635.00    0.78483   0.73874   10.962
 6636.00    0.77129   0.74058   10.681
 6637.00    0.76061   0.74238   10.550
 6638.00    0.75385   0.74372   11.238
 6639.00    0.75210   0.74415   12.053
 6640.00    0.75657   0.74357   12.053
 6641.00    0.76586   0.74256   12.053
 6642.00    0.77616   0.74169   12.053
 6643.00    0.78441   0.74121   12.053
 6644.00    0.78955   0.74122   12.053
 6645.00    0.79325   0.74182   12.053
 6646.00    0.79915   0.74285   12.053
 6647.00    0.81035   0.74401   12.053
 6648.00    0.82752   0.74505   12.053
 6649.00    0.84621   0.74581   11.801
 6650.00    0.85743   0.74616   11.703
 6651.00    0.85129   0.74617   11.796
 6652.00    0.82330   0.74599   12.019
 6653.00    0.78689   0.74567   12.053
 6654.00    0.76524   0.74526   12.053
 6655.00    0.76540   0.74472   12.053
 6656.00    0.77791   0.74393   11.453
 6657.00    0.78980   0.74273    9.432
 6658.00    0.79176   0.74098    8.874
 6659.00    0.78662   0.73862    9.213
 6660.00    0.78502   0.73584    9.328
 6661.00    0.79276   0.73326    9.072
 6662.00    0.80669   0.73130    9.103
 6663.00    0.81259   0.73013    9.560
 6664.00    0.79710   0.72990   10.119
 6665.00    0.77071   0.73071   10.432
 6666.00    0.75490   0.73249   10.370
 6667.00    0.75083   0.73490   10.179
 6668.00    0.74626   0.73752   10.186
 6669.00    0.73803   0.73989   10.397
 6670.00    0.73212   0.74163   10.599
 6671.00    0.73644   0.74248   10.625
 6672.00    0.75383   0.74218   10.468
 6673.00    0.77311   0.74040   10.331
 6674.00    0.77958   0.73710   10.410
 6675.00    0.77338   0.73308   10.630
 6676.00    0.76324   0.72959   10.786
 6677.00    0.75236   0.72737   10.849
 6678.00    0.73988   0.72659   10.907
 6679.00    0.72611   0.72734   10.974
 6680.00    0.71404   0.72940   11.001
 6681.00    0.70998   0.73225   10.940
 6682.00    0.71984   0.73530   10.777
 6683.00    0.74375   0.73804   10.552
 6684.00    0.77598   0.74005   10.343
 6685.00    0.80614   0.74127   10.235
 6686.00    0.82431   0.74197   10.242
 6687.00    0.82727   0.74236   10.221
 6688.00    0.81712   0.74247   10.068
 6689.00    0.79878   0.74232    9.946
 6690.00    0.77923   0.74184   10.029
 6691.00    0.76672   0.74091   10.232
 6692.00    0.76475   0.73940   10.382
 6693.00    0.76608   0.73742   10.465
 6694.00    0.76209   0.73538   10.550
 6695.00    0.75328   0.73371   10.647
 6696.00    0.74554   0.73272    0.000
 6697.00    0.74468   0.73254    0.000
 6698.00    0.75164   0.73294    0.000
 6699.00    0.75902   0.73353    0.000
 6700.00    0.75889   0.73396    0.000
 6701.00    0.75061   0.73410    0.000
 6702.00    0.73825   0.73400    0.000
 6703.00    0.72717   0.73376    0.000
 6704.00    0.72141   0.73345    0.000
 6705.00    0.72157   0.73317    0.000
 6706.00    0.72493   0.73296    0.000
 6707.00    0.72650   0.73269    0.000
 6708.00    0.72535   0.73226    0.000
 6709.00    0.72916   0.73148    0.000
 6710.00    0.74632   0.73008    0.000
 6711.00    0.77941   0.72798    0.000
 6712.00    0.82584   0.72524    0.000
 6713.00    0.87911   0.72199    0.000
 6714.00    0.93128   0.71863    0.000
 6715.00    0.97485   0.71599    0.000
 6716.00    1.00319   0.71468    0.000
 6717.00    1.01087   0.71468    0.000
 6718.00    0.99507   0.71574    0.000
 6719.00    0.95701   0.71771    0.000
 6720.00    0.90528   0.72030    0.000
 6721.00    0.85615   0.72297    0.000
 6722.00    0.82150   0.72518    0.000
 6723.00    0.80217   0.72671    0.000
 6724.00    0.79587   0.72771    0.000
 6725.00    0.80212   0.72843    0.000
 6726.00    0.82049   0.72910    0.000
 6727.00    0.84894   0.72980    0.000
 6728.00    0.88173   0.73045    0.000
 6729.00    0.90950   0.73092    0.000
 6730.00    0.92609   0.73117    0.000
 6731.00    0.93112   0.73124    0.000
 6732.00    0.92309   0.73109    0.000
 6733.00    0.89755   0.73066    0.000
 6734.00    0.85767   0.72984    0.000
 6735.00    0.81688   0.72862    0.000
 6736.00    0.78452   0.72721    0.000
 6737.00    0.76068   0.72587    0.000
 6738.00    0.74645   0.72463    0.000
 6739.00    0.74681   0.72338    0.000
 6740.00    0.76105   0.72218    0.000
 6741.00    0.77997   0.72128    0.000
 6742.00    0.79332   0.72071    0.000
 6743.00    0.79420   0.72026    0.000
 6744.00    0.78276   0.71977    0.000
 6745.00    0.76566   0.71911    0.000
 6746.00    0.74790   0.71823    0.000
 6747.00    0.73037   0.71731    0.000
 6748.00    0.71392   0.71664    0.000
 6749.00    0.70060   0.71624    0.000
 6750.00    0.69205   0.71614    0.000
 6751.00    0.68933   0.71668    0.000
 6752.00    0.69456   0.71788    0.000
 6753.00    0.70929   0.71960   12.053
 6754.00    0.72714   0.72176   12.053
 6755.00    0.73592   0.72422   12.053
 6756.00    0.73306   0.72667   12.053
 6757.00    0.72668   0.72887   12.053
 6758.00    0.72175   0.73064   12.053
 6759.00    0.71769   0.73174   12.053
 6760.00    0.71485   0.73218   11.378
 6761.00    0.71504   0.73195   10.607
 6762.00    0.71674   0.73101   10.733
 6763.00    0.71600   0.72931   10.987
 6764.00    0.71294   0.72701   10.989
 6765.00    0.71222   0.72464   10.887
 6766.00    0.71892   0.72264   10.604
 6767.00    0.73651   0.72109    9.858
 6768.00    0.76462   0.72003    8.708
 6769.00    0.79961   0.71981    7.510
 6770.00    0.83741   0.72061    6.608
 6771.00    0.87247   0.72231    6.132
 6772.00    0.89344   0.72462    5.974
 6773.00    0.88796   0.72714    5.957
 6774.00    0.85593   0.72944    5.977
 6775.00    0.80763   0.73132    5.998
 6776.00    0.75231   0.73269    6.037
 6777.00    0.69909   0.73319    6.153
 6778.00    0.66439   0.73258    6.426
 6779.00    0.66517   0.73080    6.932
 6780.00    0.70158   0.72804    7.642
 6781.00    0.75644   0.72477    8.355
 6782.00    0.80222   0.72166    8.811
 6783.00    0.81424   0.71918    8.897
 6784.00    0.79270   0.71764    8.799
 6785.00    0.75657   0.71717    8.826
 6786.00    0.72390   0.71755    9.121
 6787.00    0.70564   0.71847    9.664
 6788.00    0.70172   0.71964   10.240
 6789.00    0.70400   0.72064   10.530
 6790.00    0.70307   0.72105   10.524
 6791.00    0.69357   0.72091   10.463
 6792.00    0.68085   0.72047   10.458
 6793.00    0.67463   0.71996   10.481
 6794.00    0.67721   0.71965   10.473
 6795.00    0.68453   0.71967   10.414
 6796.00    0.69094   0.72000   10.410
 6797.00    0.69260   0.72064   10.546
 6798.00    0.69133   0.72151   10.664
 6799.00    0.69465   0.72238   10.580
 6800.00    0.71448   0.72296   10.459
 6801.00    0.75759   0.72315   10.306
 6802.00    0.81332   0.72308    9.395
 6803.00    0.85941   0.72271    7.728
 6804.00    0.87286   0.72207    6.403
 6805.00    0.84175   0.72142    5.748
 6806.00    0.77799   0.72072    5.436
 6807.00    0.70779   0.71996    5.248
 6808.00    0.65736   0.71943    5.353
 6809.00    0.64177   0.71914    5.968
 6810.00    0.65465   0.71890    6.852
 6811.00    0.67754   0.71860    7.288
 6812.00    0.69273   0.71838    7.201
 6813.00    0.69244   0.71846    7.084
 6814.00    0.68627   0.71887    7.091
 6815.00    0.68752   0.71938    7.212
 6816.00    0.69833   0.71974    7.531
 6817.00    0.71454   0.72003    8.091
 6818.00    0.73224   0.72050    8.637
 6819.00    0.74790   0.72127    8.782
 6820.00    0.75803   0.72218    8.515
 6821.00    0.76071   0.72298    8.132
 6822.00    0.75699   0.72354    7.915
 6823.00    0.74970   0.72378    7.981
 6824.00    0.74211   0.72351    8.257
 6825.00    0.73616   0.72271    8.621
 6826.00    0.73171   0.72177    9.023
 6827.00    0.73256   0.72105    9.320
 6828.00    0.74963   0.72068    9.149
 6829.00    0.78285   0.72059    8.476
 6830.00    0.80908   0.72075    7.806
 6831.00    0.80759   0.72112    7.459
 6832.00    0.77995   0.72153    7.429
 6833.00    0.74158   0.72153    7.649
 6834.00    0.71225   0.72072    8.076
 6835.00    0.70154   0.71896    8.630
 6836.00    0.70104   0.71631    9.122
 6837.00    0.70264   0.71308    9.385
 6838.00    0.71034   0.70960    9.425
 6839.00    0.72934   0.70645    9.234
 6840.00    0.75800   0.70429    8.692
 6841.00    0.78715   0.70359    7.962
 6842.00    0.80211   0.70435    7.440
 6843.00    0.79617   0.70617    7.281
 6844.00    0.77695   0.70863    7.402
 6845.00    0.75361   0.71135    7.734
 6846.00    0.73004   0.71389    8.301
 6847.00    0.71286   0.71583    9.071
 6848.00    0.71312   0.71695    9.783
 6849.00    0.72874   0.71723   10.093
 6850.00    0.73914   0.71670    9.884
 6851.00    0.73052   0.71529    9.271
 6852.00    0.70715   0.71313    8.475
 6853.00    0.67657   0.71079    7.762
 6854.00    0.64270   0.70870    7.353
 6855.00    0.61256   0.70698    7.303
 6856.00    0.59767   0.70577    7.567
 6857.00    0.60454   0.70498    8.108
 6858.00    0.63083   0.70448    8.887
 6859.00    0.67005   0.70454    9.690
 6860.00    0.71482   0.70541    9.986
 6861.00    0.76109   0.70677    9.378
 6862.00    0.80815   0.70804    8.146
 6863.00    0.85089   0.70887    6.963
 6864.00    0.87729   0.70914    6.229
 6865.00    0.87232   0.70897    5.939
 6866.00    0.82544   0.70866    5.975
 6867.00    0.75281   0.70827    6.337
 6868.00    0.69455   0.70769    7.170
 6869.00    0.67129   0.70698    8.496
 6870.00    0.67382   0.70657    9.748
 6871.00    0.68761   0.70669   10.241
 6872.00    0.70205   0.70721   10.202
 6873.00    0.70974   0.70801   10.128
 6874.00    0.70841   0.70901   10.235
 6875.00    0.70791   0.71008   10.447
 6876.00    0.72529   0.71100   10.457
 6877.00    0.76166   0.71152   10.006
 6878.00    0.80009   0.71137    9.146
 6879.00    0.82348   0.71058    8.283
 6880.00    0.82179   0.70963    7.760
 6881.00    0.79614   0.70899    7.524
 6882.00    0.75685   0.70877    7.379
 6883.00    0.71444   0.70896    7.432
 6884.00    0.67821   0.70977    7.992
 6885.00    0.65980   0.71132    8.970
 6886.00    0.67010   0.71338    9.488
 6887.00    0.70862   0.71556    8.878
 6888.00    0.76075   0.71751    7.669
 6889.00    0.79891   0.71899    6.642
 6890.00    0.79498   0.71989    6.106
 6891.00    0.74959   0.72025    5.987
 6892.00    0.69018   0.72006    6.151
 6893.00    0.64874   0.71948    6.628
 6894.00    0.64690   0.71883    7.580
 6895.00    0.67539   0.71829    8.907
 6896.00    0.70443   0.71786    9.888
 6897.00    0.71675   0.71753   10.123
 6898.00    0.71196   0.71742   10.117
 6899.00    0.69964   0.71764   10.125
 6900.00    0.69404   0.71813   10.035
 6901.00    0.70629   0.71864    9.881
 6902.00    0.73801   0.71906    9.808
 6903.00    0.77258   0.71951    9.825
 6904.00    0.78717   0.72013    9.854
 6905.00    0.77839   0.72077    9.900
 6906.00    0.76024   0.72114    9.960
 6907.00    0.75095   0.72108    9.803
 6908.00    0.76095   0.72052    9.257
 6909.00    0.77678   0.71950    8.648
 6910.00    0.77493   0.71795    8.337
 6911.00    0.74958   0.71590    8.317
 6912.00    0.71155   0.71383    8.442
 6913.00    0.67869   0.71220    8.694
 6914.00    0.66798   0.71113    9.064
 6915.00    0.68572   0.71079    9.271
 6916.00    0.72570   0.71124    8.958
 6917.00    0.76953   0.71228    8.227
 6918.00    0.79723   0.71368    7.466
 6919.00    0.80252   0.71495    6.976
 6920.00    0.78941   0.71557    6.869
 6921.00    0.76466   0.71529    7.084
 6922.00    0.73723   0.71433    7.519
 6923.00    0.71866   0.71320    8.169
 6924.00    0.71694   0.71238    9.025
 6925.00    0.72874   0.71205    9.791
 6926.00    0.74302   0.71214   10.064
 6927.00    0.74734   0.71257   10.013
 6928.00    0.73581   0.71323   10.039
 6929.00    0.71697   0.71387   10.146
 6930.00    0.70367   0.71421   10.178
 6931.00    0.70033   0.71435   10.172
 6932.00    0.70330   0.71452   10.241
 6933.00    0.70335   0.71476   10.406
 6934.00    0.69152   0.71504   10.599
 6935.00    0.66526   0.71544   10.684
 6936.00    0.63052   0.71601   10.594
 6937.00    0.60238   0.71668   10.462
 6938.00    0.59524   0.71716   10.418
 6939.00    0.61288   0.71707   10.419
 6940.00    0.64833   0.71625   10.341
 6941.00    0.68567   0.71482   10.097
 6942.00    0.71078   0.71304    9.723
 6943.00    0.72091   0.71153    9.393
 6944.00    0.72087   0.71068    9.198
 6945.00    0.71809   0.71045    9.050
 6946.00    0.71539   0.71062    8.944
 6947.00    0.70636   0.71097    9.099
 6948.00    0.68660   0.71122    9.542
 6949.00    0.66207   0.71135    9.716
 6950.00    0.63861   0.71133    9.264
 6951.00    0.61394   0.71108    8.746
 6952.00    0.58566   0.71081    8.582
 6953.00    0.55780   0.71090    8.652
 6954.00    0.54046   0.71144    8.822
 6955.00    0.54687   0.71236    9.228
 6956.00    0.57667   0.71346    9.945
 6957.00    0.60771   0.71457   10.633
 6958.00    0.62268   0.71564   10.928
 6959.00    0.62582   0.71663   11.009
 6960.00    0.62912   0.71740   11.028
 6961.00    0.64132   0.71793   10.744
 6962.00    0.66143   0.71824   10.403
 6963.00    0.67798   0.71837   10.938
 6964.00    0.68739   0.71855   12.053
 6965.00    0.70144   0.71895   12.053
 6966.00    0.72354   0.71937   12.053
 6967.00    0.73857   0.71955   12.053
 6968.00    0.73794   0.71933   12.053
 6969.00    0.73026   0.71882   12.053
 6970.00    0.71971   0.71809   12.053
 6971.00    0.69773   0.71672   12.053
 6972.00    0.66406   0.71425   11.154
 6973.00    0.63421   0.71080    9.951
 6974.00    0.61889   0.70670   10.095
 6975.00    0.61592   0.70231   10.656
 6976.00    0.62355   0.69834   10.861
 6977.00    0.64491   0.69589   10.783
 6978.00    0.67736   0.69556   10.660
 6979.00    0.70945   0.69717   10.479
 6980.00    0.73027   0.70022   10.204
 6981.00    0.73512   0.70411    9.879
 6982.00    0.73075   0.70827    9.613
 6983.00    0.73325   0.71208    9.510
 6984.00    0.75079   0.71491    9.493
 6985.00    0.77736   0.71647    9.325
 6986.00    0.79790   0.71691    8.980
 6987.00    0.79511   0.71674    8.667
 6988.00    0.76676   0.71652    8.493
 6989.00    0.72849   0.71654    8.431
 6990.00    0.69889   0.71670    8.484
 6991.00    0.69074   0.71674    8.702
 6992.00    0.70043   0.71666    9.055
 6993.00    0.71035   0.71657    9.397
 6994.00    0.70933   0.71635    9.644
 6995.00    0.69810   0.71560    9.835
 6996.00    0.68346   0.71412   10.001
 6997.00    0.67347   0.71213   10.120
 6998.00    0.66925   0.71029   10.198
 6999.00    0.66505   0.70897   10.275
 7000.00    0.65636   0.70790   10.348
 7001.00    0.64315   0.70677   -2.000
 7002.00    0.63138   0.70573   -2.000
 7003.00    0.62981   0.70519   -2.000
 7004.00    0.63988   0.70530   -2.000
 7005.00    0.65586   0.70585   -2.000
 7006.00    0.67326   0.70658   -2.000
 7007.00    0.68880   0.70731   -2.000
 7008.00    0.69461   0.70789   -2.000
 7009.00    0.68320   0.70814   -2.000
 7010.00    0.66338   0.70803   -2.000
 7011.00    0.65316   0.70736   -2.000
 7012.00    0.65365   0.70582   -2.000
 7013.00    0.65205   0.70344   -2.000
 7014.00    0.64326   0.70113   -2.000
 7015.00    0.63236   0.70009   -2.000
 7016.00    0.62825   0.70050   -2.000
 7017.00    0.63728   0.70168   -2.000
 7018.00    0.65318   0.70305   -2.000
 7019.00    0.66284   0.70436   -2.000
 7020.00    0.66228   0.70533   -2.000
 7021.00    0.65619   0.70572   -2.000
 7022.00    0.65013   0.70558   -2.000
 7023.00    0.64891   0.70539   -2.000
 7024.00    0.65637   0.70550   -2.000
 7025.00    0.67384   0.70598   -2.000
 7026.00    0.69739   0.70690   -2.000
 7027.00    0.71963   0.70833   -2.000
 7028.00    0.73370   0.71005   -2.000
 7029.00    0.73457   0.71155   -2.000
 7030.00    0.71998   0.71243   -2.000
 7031.00    0.69320   0.71273   -2.000
 7032.00    0.66685   0.71270   -2.000
 7033.00    0.65384   0.71259   -2.000
 7034.00    0.65268   0.71236   -2.000
 7035.00    0.65450   0.71183   -2.000
 7036.00    0.65710   0.71154   -2.000
 7037.00    0.66229   0.71247   -2.000
 7038.00    0.66899   0.71476   -2.000
 7039.00    0.67439   0.71774   -2.000
 7040.00    0.67708   0.72075   -2.000
 7041.00    0.67759   0.72342   -2.000
 7042.00    0.67834   0.72576   -2.000
 7043.00    0.68030   0.72773   -2.000
 7044.00    0.67918   0.72918   -2.000
 7045.00    0.67102   0.72999   -2.000
 7046.00    0.65969   0.73012   -2.000
 7047.00    0.65156   0.72947   -2.000
 7048.00    0.64815   0.72800   -2.000
 7049.00    0.64691   0.72559   -2.000
 7050.00    0.64364   0.72209   -2.000
 7051.00    0.63696   0.71791   -2.000
 7052.00    0.63294   0.71371   -2.000
 7053.00    0.64114   0.71000   -2.000
 7054.00    0.66905   0.70702   -2.000
 7055.00    0.71200   0.70468   -2.000
 7056.00    0.74505   0.70278   -2.000
 7057.00    0.74443   0.70120   -2.000
 7058.00    0.70943   0.69995   -2.000
 7059.00    0.65717   0.69913   -2.000
 7060.00    0.61367   0.69859   -2.000
 7061.00    0.59616   0.69819   -2.000
 7062.00    0.59854   0.69788   -2.000
 7063.00    0.60579   0.69747   -2.000
 7064.00    0.60867   0.69679   -2.000
 7065.00    0.60884   0.69584   -2.000
 7066.00    0.62012   0.69499   -2.000
 7067.00    0.64856   0.69486   -2.000
 7068.00    0.67805   0.69561   -2.000
 7069.00    0.69072   0.69690   -2.000
 7070.00    0.68345   0.69859   -2.000
 7071.00    0.65950   0.70066   -2.000
 7072.00    0.62243   0.70286   -2.000
 7073.00    0.58619   0.70475   -2.000
 7074.00    0.57867   0.70599   -2.000
 7075.00    0.60917   0.70664   -2.000
 7076.00    0.65005   0.70680   -2.000
 7077.00    0.67574   0.70645   -2.000
 7078.00    0.68736   0.70549   -2.000
 7079.00    0.68881   0.70373   -2.000
 7080.00    0.67301   0.70089   -2.000
 7081.00    0.64396   0.69684   -2.000
 7082.00    0.62643   0.69201   -2.000
 7083.00    0.63260   0.68726   -2.000
 7084.00    0.64572   0.68306   -2.000
 7085.00    0.64921   0.67923   -2.000
 7086.00    0.64347   0.67584   -2.000
 7087.00    0.63739   0.67315   -2.000
 7088.00    0.64096   0.67137   -2.000
 7089.00    0.65427   0.67042   -2.000
 7090.00    0.66484   0.66989   -2.000
 7091.00    0.66541   0.66958   -2.000
 7092.00    0.66154   0.66969   -2.000
 7093.00    0.66124   0.67028   -2.000
 7094.00    0.66907   0.67133   -2.000
 7095.00    0.68488   0.67280   -2.000
 7096.00    0.70373   0.67464   -2.000
 7097.00    0.71796   0.67682   -2.000
 7098.00    0.72031   0.67886   -2.000
 7099.00    0.71316   0.68050   -2.000
 7100.00    0.70880   0.68176   -2.000
 7101.00    0.71236   0.68283   -2.000
 7102.00    0.71738   0.68381   -2.000
 7103.00    0.71935   0.68426   -2.000
 7104.00    0.72051   0.68400   -2.000
 7105.00    0.72467   0.68328   -2.000
 7106.00    0.73338   0.68251   -2.000
 7107.00    0.73963   0.68163   -2.000
 7108.00    0.73032   0.68037   -2.000
 7109.00    0.70391   0.67894   -2.000
 7110.00    0.67283   0.67800   -2.000
 7111.00    0.64731   0.67785   -2.000
 7112.00    0.63088   0.67822   -2.000
 7113.00    0.62522   0.67879   -2.000
 7114.00    0.63112   0.67953   -2.000
 7115.00    0.64544   0.68036   -2.000
 7116.00    0.66173   0.68103   -2.000
 7117.00    0.67524   0.68128   -2.000
 7118.00    0.68375   0.68105   -2.000
 7119.00    0.68500   0.68041   -2.000
 7120.00    0.67689   0.67959   -2.000
 7121.00    0.66052   0.67892   -2.000
 7122.00    0.64286   0.67822   -2.000
 7123.00    0.64138   0.67708   -2.000
 7124.00    0.67315   0.67557   -2.000
 7125.00    0.72253   0.67404   -2.000
 7126.00    0.74907   0.67263   -2.000
 7127.00    0.73149   0.67097   -2.000
 7128.00    0.67648   0.66903   -2.000
 7129.00    0.61007   0.66773   -2.000
 7130.00    0.56392   0.66776   -2.000
 7131.00    0.54847   0.66887   -2.000
 7132.00    0.55529   0.67054   -2.000
 7133.00    0.57829   0.67247   -2.000
 7134.00    0.61427   0.67473   -2.000
 7135.00    0.65284   0.67709   -2.000
 7136.00    0.67973   0.67880   -2.000
 7137.00    0.68875   0.67967   -2.000
 7138.00    0.68196   0.68018   -2.000
 7139.00    0.66446   0.68055   -2.000
 7140.00    0.64381   0.68054   -2.000
 7141.00    0.63095   0.67997   -2.000
 7142.00    0.63445   0.67904   -2.000
 7143.00    0.64948   0.67794   -2.000
 7144.00    0.66318   0.67655   -2.000
 7145.00    0.66866   0.67453   -2.000
 7146.00    0.66764   0.67252   -2.000
 7147.00    0.67012   0.67163   -2.000
 7148.00    0.68449   0.67202   -2.000
 7149.00    0.70135   0.67332   -2.000
 7150.00    0.70271   0.67539   -2.000
 7151.00    0.68199   0.67804   -2.000
 7152.00    0.64657   0.68092   -2.000
 7153.00    0.61605   0.68348   -2.000
 7154.00    0.60926   0.68560   -2.000
 7155.00    0.62524   0.68727   -2.000
 7156.00    0.64907   0.68794   -2.000
 7157.00    0.66522   0.68740   -2.000
 7158.00    0.66640   0.68612   -2.000
 7159.00    0.66239   0.68467   -2.000
 7160.00    0.66269   0.68290   -2.000
 7161.00    0.65314   0.68022   -2.000
 7162.00    0.62622   0.67705   -2.000
 7163.00    0.62144   0.67474   -2.000
 7164.00    0.66796   0.67421   -2.000
 7165.00    0.71052   0.67518   -2.000
 7166.00    0.69024   0.67678   -2.000
 7167.00    0.64931   0.67873   -2.000
 7168.00    0.65103   0.68126   -2.000
 7169.00    0.67502   0.68423   -2.000
 7170.00    0.67379   0.68691   -2.000
 7171.00    0.64901   0.68856   -2.000
 7172.00    0.62640   0.68900   -2.000
 7173.00    0.61971   0.68844   -2.000
 7174.00    0.63740   0.68736   -2.000
 7175.00    0.69191   0.68620   -2.000
 7176.00    0.78070   0.68488   -2.000
 7177.00    0.86790   0.68293   -2.000
 7178.00    0.90746   0.68049   -2.000
 7179.00    0.87035   0.67841   -2.000
 7180.00    0.77218   0.67744   -2.000
 7181.00    0.68915   0.67724   -2.000
 7182.00    0.67914   0.67679   -2.000
 7183.00    0.71425   0.67578   -2.000
 7184.00    0.73902   0.67444   -2.000
 7185.00    0.72653   0.67293   -2.000
 7186.00    0.67610   0.67152   -2.000
 7187.00    0.60685   0.67038   -2.000
 7188.00    0.55170   0.66975   -2.000
 7189.00    0.54809   0.66976   -2.000
 7190.00    0.59958   0.67014   -2.000
 7191.00    0.65442   0.67106   -2.000
 7192.00    0.67136   0.67270   -2.000
 7193.00    0.66488   0.67455   -2.000
 7194.00    0.65849   0.67588   -2.000
 7195.00    0.65097   0.67653   -2.000
 7196.00    0.63690   0.67719   -2.000
 7197.00    0.62159   0.67805   -2.000
 7198.00    0.61304   0.67858   -2.000
 7199.00    0.61492   0.67833   -2.000
 7200.00    0.62086   0.67770   -2.000
 7201.00    0.61530   0.67746   -2.000
 7202.00    0.60129   0.67730   -2.000
 7203.00    0.60989   0.67634   -2.000
 7204.00    0.65082   0.67433   -2.000
 7205.00    0.69002   0.67203   -2.000
 7206.00    0.69713   0.67075   -2.000
 7207.00    0.67241   0.67066   -2.000
 7208.00    0.63625   0.67125   -2.000
 7209.00    0.61994   0.67232   -2.000
 7210.00    0.65247   0.67368   -2.000
 7211.00    0.74871   0.67538   -2.000
 7212.00    0.88563   0.67714   -2.000
 7213.00    0.99898   0.67862   -2.000
 7214.00    1.02741   0.67982   -2.000
 7215.00    0.94078   0.68077   -2.000
 7216.00    0.76600   0.68155   -2.000
 7217.00    0.58769   0.68208   -2.000
 7218.00    0.49543   0.68242   -2.000
