###################################################################
## OUTPUT of StarlightChains_v04.for    [Cid@UFSC - 01/Apr/2007] ##
###################################################################

## Some input info
1991B.txt                                [arq_obs]
Base.CB07.vall.4m                        [arq_base]
Masks.EmLines.NEW.gm                     [arq_masks]
StCv04.C11.config                        [arq_config]
   66                                    [N_base]
    0                                    [N_YAV_components = # of components with extra extinction!]
    0                                    [i_FitPowerLaw (1/0 = Yes/No)]
-9.99                                    [alpha_PowerLaw]
CCM                                      [red_law_option]
 1.458241                                [q_norm = A(l_norm)/A(V)]

## (Re)Sampling Parameters
 3741.00                                 [l_ini (A)]
 7218.00                                 [l_fin (A)]
    1.00                                 [dl    (A)]     (OBS: dl_cushion =    50.00 A)

## Normalization info
 4020.00                                 [l_norm (A) - for base]
 4010.00                                 [llow_norm (A) - window for f_obs]
 4060.00                                 [lupp_norm (A) - window for f_obs]
3.516080E-16                             [fobs_norm (in input units)]

## S/N
 3691.00                                 [llow_SN (A) - window for S/N]
 7268.00                                 [lupp_SN (A) - window for S/N]
   9.380                                 [S/N in S/N window]
  11.694                                 [S/N in norm. window]
  11.742                                 [S/N_err in S/N window]
  14.639                                 [S/N_err in norm. window]
  1.0000                                 [fscale_chi2]

## etc...
    -2007216                             [idum_orig]
  2383                                   [NOl_eff]
  2360                                   [Nl_eff]
    23    NSIGMA                         [Ntot_cliped & clip_method]
  1652770                                [Nglobal_steps]
   7                                     [N_chains]
  25                                     [NEX0s_base = N_base in EX0s-fits]
 0   0   1        2   2.0   2.396E+01    [Clip-Bug, RC-Crash & Burn-In warning-flags, n_censored_weights, wei_nsig_threshold & wei_limit]
    17     17.520     16.975      0.545  [idt_all, wdt_TotTime, wdt_UsrTime & wdt_SysTime (sec)]

## Synthesis Results - Best model ##

 3.05690E-01                             [chi2/Nl_eff]
     3.43024                             [adev (%)]

    96.82019                             [sum-of-x (%)]
 6.61927E-16                             [Flux_tot (units of input spectrum!)]
 4.97648E-12                             [Mini_tot (???)]
 2.62883E-12                             [Mcor_tot (???)]

  -8.92                                  [v0_min  (km/s)]
 159.59                                  [vd_min  (km/s)]
 0.4951                                  [AV_min  (mag)]
 0.0000                                  [YAV_min (mag)]

# j     x_j(%)      Mini_j(%)     Mcor_j(%)     age_j(yr)     Z_j      (L/M)_j    YAV?  Mstars   component_j        a/Fe...       SSP_chi2r SSP_adev(%)   SSP_AV   SSP_x(%)
  1      3.2298     4.0559E-02    7.6780E-02    1.000000E+06  0.00400  1.094E-02    0   1.0000   age020_m42            0.0000     9.6682E-01     6.6893   2.7900    79.9572
  2      0.0000     0.0000E+00    0.0000E+00    3.160000E+06  0.00400  4.007E-02    0   0.9999   age045_m42            0.0000     7.8698E-01     5.7468   2.0391    86.6151
  3      0.0000     0.0000E+00    0.0000E+00    5.010000E+06  0.00400  2.539E-02    0   0.9488   age055_m42            0.0000     8.2938E-01     6.0577   2.3674    84.1205
  4      0.0001     6.3862E-07    1.1146E-06    6.610000E+06  0.00400  2.620E-02    0   0.9220   age061_m42            0.0000     7.5404E-01     5.5513   1.9600    87.0731
  5      0.0000     0.0000E+00    0.0000E+00    1.000000E+07  0.00400  1.322E-02    0   0.8862   age070_m42            0.0000     5.0039E-01     4.3832   1.6540    90.0521
  6      0.0000     0.0000E+00    0.0000E+00    1.445000E+07  0.00400  7.883E-03    0   0.8571   age078_m42            0.0000     5.6317E-01     4.7546   1.9911    87.3111
  7      0.0000     0.0000E+00    0.0000E+00    2.512000E+07  0.00400  5.251E-03    0   0.8174   age090_m42            0.0000     4.6981E-01     4.1821   1.5174    90.8780
  8      0.0018     6.7489E-05    1.0030E-04    4.000000E+07  0.00400  3.649E-03    0   0.7851   age104_m42            0.0000     4.6144E-01     4.1241   1.2876    91.7591
  9      0.0000     0.0000E+00    0.0000E+00    5.500000E+07  0.00400  3.098E-03    0   0.7629   age110_m42            0.0000     5.6915E-01     4.5342   1.4485    91.4313
 10      0.0000     0.0000E+00    0.0000E+00    1.015200E+08  0.00400  2.228E-03    0   0.7207   age116_m42            0.0000     6.7447E-01     4.8783   1.4744    91.3590
 11      0.0000     0.0000E+00    0.0000E+00    2.861200E+08  0.00400  1.093E-03    0   0.6648   age125_m42            0.0000     5.9664E-01     4.3765   0.8898    94.8806
 12      0.0000     0.0000E+00    0.0000E+00    5.088000E+08  0.00400  6.597E-04    0   0.6365   age130_m42            0.0000     7.4726E-01     4.8705   0.8892    95.2379
 13      0.0000     0.0000E+00    0.0000E+00    1.434000E+09  0.00400  2.132E-04    0   0.5798   age139_m42            0.0000     7.1473E-01     5.0004  -0.0859    97.3949
 14      0.0000     0.0000E+00    0.0000E+00    4.250000E+09  0.00400  5.895E-05    0   0.5377   age158_m42            0.0000     8.8411E-01     6.0871  -0.5004    92.4374
 15      3.4089     1.3342E+01    1.3164E+01    7.500000E+09  0.00400  3.510E-05    0   0.5212   age171_m42            0.0000     1.0437E+00     6.6241  -0.6761    91.3198
 16      3.5379     2.4241E+01    2.3101E+01    1.300000E+10  0.00400  2.005E-05    0   0.5034   age193_m42            0.0000     1.2087E+00     7.1262  -0.8290    90.3251
 17      0.0000     0.0000E+00    0.0000E+00    1.800000E+10  0.00400  1.525E-05    0   0.4967   age213_m42            0.0000     1.1706E+00     7.0316  -0.8553    90.0532
 18      2.4208     2.6863E-02    5.0853E-02    1.000000E+06  0.00800  1.238E-02    0   1.0000   age020_m52            0.0000     9.6803E-01     6.7042   2.7872    80.0820
 19      1.9904     8.8951E-03    1.6782E-02    3.160000E+06  0.00800  3.074E-02    0   0.9966   age045_m52            0.0000     9.5597E-01     6.6625   2.7082    80.9027
 20      0.0000     0.0000E+00    0.0000E+00    5.010000E+06  0.00800  2.668E-02    0   0.9443   age055_m52            0.0000     8.3245E-01     6.1204   2.4515    83.2978
 21      0.0000     0.0000E+00    0.0000E+00    6.610000E+06  0.00800  2.136E-02    0   0.9177   age061_m52            0.0000     4.4958E-01     4.3911   1.1588    90.8519
 22      0.0010     1.1756E-05    1.9645E-05    1.000000E+07  0.00800  1.215E-02    0   0.8827   age070_m52            0.0000     4.6900E-01     4.2393   1.8307    89.9790
 23      0.0000     0.0000E+00    0.0000E+00    1.445000E+07  0.00800  8.717E-03    0   0.8552   age078_m52            0.0000     5.2873E-01     4.5921   1.9527    88.7006
 24      0.0000     0.0000E+00    0.0000E+00    2.512000E+07  0.00800  5.592E-03    0   0.8162   age090_m52            0.0000     4.4411E-01     4.0161   1.5772    92.1688
 25      0.0000     0.0000E+00    0.0000E+00    4.000000E+07  0.00800  3.896E-03    0   0.7841   age104_m52            0.0000     4.6490E-01     4.0721   1.4894    92.9109
 26      0.0000     0.0000E+00    0.0000E+00    1.015200E+08  0.00800  2.148E-03    0   0.7226   age116_m52            0.0000     5.7246E-01     4.5222   1.4355    92.4084
 27      0.0000     0.0000E+00    0.0000E+00    2.861200E+08  0.00800  9.925E-04    0   0.6683   age125_m52            0.0000     7.3625E-01     4.8123   0.9519    96.2680
 28     19.6292     8.5853E+00    9.9757E+00    9.047900E+08  0.00800  3.141E-04    0   0.6138   age135_m52            0.0000     8.8350E-01     5.5614   0.1564   100.2331
 29      0.0000     0.0000E+00    0.0000E+00    1.434000E+09  0.00800  1.719E-04    0   0.5853   age139_m52            0.0000     8.3395E-01     5.7056  -0.4171    97.8785
 30      0.0000     0.0000E+00    0.0000E+00    2.500000E+09  0.00800  7.872E-05    0   0.5600   age150_m52            0.0000     1.1381E+00     6.8686  -0.6587    94.0371
 31      0.0000     0.0000E+00    0.0000E+00    4.250000E+09  0.00800  4.336E-05    0   0.5426   age158_m52            0.0000     1.1701E+00     6.9705  -0.6707    92.9957
 32      0.0000     0.0000E+00    0.0000E+00    6.250000E+09  0.00800  3.159E-05    0   0.5319   age166_m52            0.0000     1.4482E+00     7.7559  -0.8584    92.3949
 33      4.4504     4.4923E+01    4.3141E+01    1.300000E+10  0.00800  1.361E-05    0   0.5073   age193_m52            0.0000     2.2437E+00     9.2303  -1.0000    79.8150
 34      0.0000     0.0000E+00    0.0000E+00    1.800000E+10  0.00800  9.886E-06    0   0.4990   age213_m52            0.0000     2.8163E+00    10.2254  -1.0000    75.7016
 35      0.0000     0.0000E+00    0.0000E+00    1.000000E+06  0.02000  1.544E-02    0   1.0000   age020_m62            0.0000     9.7372E-01     6.7379   2.7841    80.2334
 36      0.0000     0.0000E+00    0.0000E+00    3.160000E+06  0.02000  3.762E-02    0   0.9858   age045_m62            0.0000     9.7287E-01     6.7437   2.7228    80.9712
 37      0.0000     0.0000E+00    0.0000E+00    5.010000E+06  0.02000  3.296E-02    0   0.9342   age055_m62            0.0000     8.3898E-01     6.0384   2.3259    85.2475
 38     36.6183     4.3593E-01    7.3123E-01    8.710000E+06  0.02000  1.154E-02    0   0.8861   age067_m62            0.0000     6.2399E-01     4.5245   1.2483    94.1387
 39      0.0000     0.0000E+00    0.0000E+00    1.445000E+07  0.02000  7.663E-03    0   0.8472   age078_m62            0.0000     4.0526E-01     3.8277   1.4626    92.7503
 40      0.0000     0.0000E+00    0.0000E+00    2.512000E+07  0.02000  4.532E-03    0   0.8099   age090_m62            0.0000     4.3091E-01     3.8701   1.4507    92.7177
 41      0.0000     0.0000E+00    0.0000E+00    5.500000E+07  0.02000  2.733E-03    0   0.7595   age110_m62            0.0000     4.7358E-01     4.1228   1.4744    92.1186
 42      0.0000     0.0000E+00    0.0000E+00    1.609000E+08  0.02000  1.369E-03    0   0.6985   age120_m62            0.0000     6.7125E-01     4.6412   1.3164    94.5478
 43      0.0012     1.8436E-04    2.3432E-04    2.861200E+08  0.02000  9.013E-04    0   0.6714   age125_m62            0.0000     8.2696E-01     4.9790   1.0637    97.3900
 44      5.6643     1.5476E+00    1.8894E+00    5.088000E+08  0.02000  5.028E-04    0   0.6449   age130_m62            0.0000     1.0314E+00     5.7925   0.6952    99.5786
 45      5.5752     3.1545E+00    3.6899E+00    9.047900E+08  0.02000  2.428E-04    0   0.6179   age135_m62            0.0000     1.0168E+00     6.2783   0.1154    98.7560
 46      3.3478     3.6415E+00    4.0727E+00    1.434000E+09  0.02000  1.263E-04    0   0.5908   age139_m62            0.0000     1.0865E+00     6.6889  -0.3193    96.8848
 47      0.0000     0.0000E+00    0.0000E+00    2.500000E+09  0.02000  5.985E-05    0   0.5673   age150_m62            0.0000     1.4248E+00     7.7564  -0.6625    94.5387
 48      0.0000     0.0000E+00    0.0000E+00    4.250000E+09  0.02000  3.271E-05    0   0.5468   age158_m62            0.0000     1.8936E+00     9.0326  -0.9435    92.7262
 49      0.0000     0.0000E+00    0.0000E+00    1.000000E+10  0.02000  1.360E-05    0   0.5167   age181_m62            0.0000     2.7855E+00    10.4200  -1.0000    81.5273
 50      0.0000     0.0000E+00    0.0000E+00    1.800000E+10  0.02000  7.124E-06    0   0.5013   age213_m62            0.0000     3.7400E+00    11.7613  -1.0000    73.6992
 51      4.7904     2.5390E-02    4.8055E-02    1.000000E+06  0.05000  2.592E-02    0   0.9998   age020_m72            0.0000     9.8772E-01     6.8013   2.7776    80.1718
 52      0.0000     0.0000E+00    0.0000E+00    3.160000E+06  0.05000  4.845E-02    0   0.9577   age045_m72            0.0000     9.4335E-01     6.5870   2.5995    82.3336
 53      0.0000     0.0000E+00    0.0000E+00    5.010000E+06  0.05000  3.072E-02    0   0.9147   age055_m72            0.0000     5.6430E-01     4.8182   2.0792    87.8911
 54      2.1323     2.0133E-02    3.3833E-02    6.610000E+06  0.05000  1.455E-02    0   0.8877   age061_m72            0.0000     1.2429E+00     6.5626   1.2912    95.4122
 55      0.0000     0.0000E+00    0.0000E+00    1.000000E+07  0.05000  9.074E-03    0   0.8524   age070_m72            0.0000     7.4520E-01     5.5661   2.2706    87.4566
 56      0.0000     0.0000E+00    0.0000E+00    2.512000E+07  0.05000  4.250E-03    0   0.7902   age090_m72            0.0000     5.7956E-01     4.7321   1.9490    89.9673
 57      0.0000     0.0000E+00    0.0000E+00    4.000000E+07  0.05000  3.087E-03    0   0.7618   age104_m72            0.0000     5.6022E-01     4.5342   1.7096    92.0040
 58      0.0000     0.0000E+00    0.0000E+00    1.015200E+08  0.05000  1.700E-03    0   0.7096   age116_m72            0.0000     6.0741E-01     4.3747   1.4524    94.4624
 59      0.0000     0.0000E+00    0.0000E+00    2.861200E+08  0.05000  7.384E-04    0   0.6633   age125_m72            0.0000     9.3317E-01     5.3999   0.9344    98.6274
 60      0.0203     7.3026E-03    8.8088E-03    5.088000E+08  0.05000  3.819E-04    0   0.6372   age130_m72            0.0000     1.0462E+00     6.2553   0.4494    99.9056
 61      0.0000     0.0000E+00    0.0000E+00    9.047900E+08  0.05000  1.676E-04    0   0.6110   age135_m72            0.0000     1.4006E+00     7.7551  -0.2164    96.7955
 62      0.0000     0.0000E+00    0.0000E+00    1.434000E+09  0.05000  8.837E-05    0   0.5874   age139_m72            0.0000     1.5263E+00     8.0164  -0.6656    96.0656
 63      0.0000     0.0000E+00    0.0000E+00    2.500000E+09  0.05000  4.233E-05    0   0.5598   age150_m72            0.0000     2.0660E+00     9.4378  -0.9400    93.3644
 64      0.0000     0.0000E+00    0.0000E+00    6.250000E+09  0.05000  1.435E-05    0   0.5249   age166_m72            0.0000     3.1454E+00    11.0181  -1.0000    77.8142
 65      0.0000     0.0000E+00    0.0000E+00    1.300000E+10  0.05000  6.513E-06    0   0.5036   age193_m72            0.0000     4.5483E+00    12.9478  -1.0000    69.2366
 66      0.0000     0.0000E+00    0.0000E+00    1.800000E+10  0.05000  4.527E-06    0   0.4945   age213_m72            0.0000     5.4852E+00    14.2599  -1.0000    64.1645


## Synthesis Results - Average & Chains ##

# j      x_j: min, <> & last-chain-values for 1 ...  7 chains
  1      3.2298      1.0371      1.3443      2.4966      0.8706      2.1085      1.0123      1.0910      0.9734
  2      0.0000      0.2645      0.0000      0.0000      0.0000      0.0000      2.4733      0.6205      0.0000
  3      0.0000      0.2898      0.0000      1.9221      0.0000      0.0000      0.0000      0.0000      0.0000
  4      0.0001      0.5382      0.0000      0.0000      0.0000      0.2980      0.9151      0.1058      1.0858
  5      0.0000      0.4590      0.7632      0.0000      0.0000      0.5186      0.0000      0.0000      0.0000
  6      0.0000      0.4380      0.0000      0.0000      0.2856      0.4948      0.0000      0.0000      0.2128
  7      0.0000      0.5767      3.1538      0.0000      2.3075      0.4123      0.0000      1.4810      0.0000
  8      0.0018      0.9952      0.0464      0.4488      1.4122      0.5106      0.5770      0.6156      2.0282
  9      0.0000      0.3904      0.0000      0.0000      0.0000      0.0000      0.0000      0.0000      0.0000
 10      0.0000      0.5272      0.0000      3.2353      0.0000      0.0000      0.0000      0.0000      0.0000
 11      0.0000      0.7207      0.3249      0.2111      0.0000      0.2486      0.6138      0.3920      0.0000
 12      0.0000      0.4882      0.0000      0.0000      0.0000      0.0000      0.3985      0.0000      0.0000
 13      0.0000      2.5967      2.3699      1.9987      5.2216      2.0797      1.4019      2.5141      4.0865
 14      0.0000      0.2645      0.0000      0.0000      0.8845      0.0000      0.0000      0.2808      0.2102
 15      3.4089      2.7617      2.0451      2.9784      2.4879      2.0453      2.9618      3.6093      2.8578
 16      3.5379      2.2704      1.9707      2.5801      2.2952      1.8650      2.7100      1.7028      2.6165
 17      0.0000      0.1881      1.1962      0.0000      0.0121      0.0000      0.0000      0.0000      0.0000
 18      2.4208      1.7186      2.1348      0.9516      2.1104      2.8305      2.4102      1.6793      2.2278
 19      1.9904      3.8116      4.6373      4.0380      4.1603      2.2486      3.9884      5.3416      2.0768
 20      0.0000      0.4863      0.0000      0.0000      1.0837      0.0000      1.2661      0.0000      0.0000
 21      0.0000      0.7678      0.0000      0.0000      0.0000      0.0000      0.0000      0.0000      0.7234
 22      0.0010      0.8494      0.0000      1.1207      0.0000      3.5624      1.1248      0.0000      1.4612
 23      0.0000      0.5543      0.0000      0.1464      0.0000      0.0000      2.1556      1.5517      0.0000
 24      0.0000      0.5232      1.0451      0.0000      0.0000      0.5285      0.0000      2.6467      1.1042
 25      0.0000      0.4340      0.0000      0.0987      1.3010      0.0000      0.0000      0.0000      0.0000
 26      0.0000      0.4661      0.0925      0.2294      0.1312      0.7940      0.0000      0.8472      0.0000
 27      0.0000      0.6256      0.0000      0.2162      0.2064      0.0000      0.0000      0.5604      0.0000
 28     19.6292      8.1802      8.8082      7.0939      9.8695     10.1590      9.8054     12.4461     10.4991
 29      0.0000      2.2189      3.3575      2.0894      0.0000      2.3571      2.7756      2.5726      0.0000
 30      0.0000      0.1334      0.0000      0.6977      0.0000      0.0000      0.0000      0.0000      0.1411
 31      0.0000      1.2296      1.0590      2.0141      1.7561      1.8605      1.5610      0.0000      1.6935
 32      0.0000      1.7568      1.1740      1.5321      1.8976      1.7059      1.9208      1.9924      1.3872
 33      4.4504      1.4320      1.8127      1.2628      1.5312      1.7993      0.8996      1.5934      2.1532
 34      0.0000      0.4062      0.0000      0.3298      0.1832      1.0014      0.8495      0.2132      0.0000
 35      0.0000      0.5962      1.3055      2.3309      0.7279      0.4937      0.6218      0.4675      0.0000
 36      0.0000      0.4663      0.7019      0.0000      0.0000      0.2291      0.0000      0.0000      0.0000
 37      0.0000      0.2961      0.7225      1.3707      0.0000      0.0000      0.0000      1.0666      0.0000
 38     36.6183     16.0044     17.5995     17.1597     18.9981     16.3092     18.3030     16.9319     20.5639
 39      0.0000      2.6017      2.8589      1.9998      3.4818      2.7141      3.5585      2.5023      2.6370
 40      0.0000      0.7078      0.0000      0.0657      0.0000      0.2576      0.0000      1.1819      0.0000
 41      0.0000      0.5446      0.0000      0.1250      0.0383      0.0000      0.0000      0.0000      0.0000
 42      0.0000      0.4306      0.0000      0.0000      0.0000      0.0606      0.0000      0.0000      0.0000
 43      0.0012      0.5648      0.0000      0.0000      0.0000      0.1026      0.9472      0.7724      1.1476
 44      5.6643      1.4339      0.0000      2.1129      1.2666      1.0171      1.8913      0.0000      2.1076
 45      5.5752      6.3109      6.7214      9.3637      7.5633      6.6788      7.0490      7.3047      6.4702
 46      3.3478      5.1140      4.9318      4.8633      6.1208      4.8083      6.4407      4.9560      5.3818
 47      0.0000      0.2936      0.6372      0.0000      0.0000      0.0000      0.0000      0.2747      0.0000
 48      0.0000      0.0812      0.0000      0.0000      0.0000      0.4218      0.0000      0.3811      0.3150
 49      0.0000      0.0574      0.0000      0.5891      0.0000      0.2305      0.0000      0.0000      0.0000
 50      0.0000      0.0626      0.0000      0.0000      0.0000      0.0000      0.0000      0.0000      0.0000
 51      4.7904      2.6762      3.1356      2.9495      2.3598      3.4788      2.7320      1.9543      3.9551
 52      0.0000      0.7230      0.0000      0.2391      0.8911      1.5659      1.0971      0.1395      0.3384
 53      0.0000      0.4403      1.4733      0.0430      0.0000      0.0000      0.0000      0.0000      0.0000
 54      2.1323     11.6716     10.6404     12.9360     11.6376     11.8381     10.6699     13.4944     12.2983
 55      0.0000      0.3549      0.2500      0.0000      0.0000      1.9286      0.7249      0.0000      0.1186
 56      0.0000      0.3770      0.0000      0.0000      1.2605      0.0000      0.0000      0.0000      0.0000
 57      0.0000      0.3133      0.2830      0.0000      0.5605      0.1229      0.0000      0.0000      0.0000
 58      0.0000      0.4201      0.2535      0.2089      0.0000      0.5246      0.0000      0.0234      1.3128
 59      0.0000      0.7277      0.1338      0.0000      0.0000      0.3486      0.0000      0.0000      0.0000
 60      0.0203      1.8088      6.9813      2.2453      1.4500      3.4705      0.0000      0.7288      1.7273
 61      0.0000      0.3306      0.0371      0.0000      0.0000      0.0000      0.0000      0.4638      0.5297
 62      0.0000      0.2417      0.0000      0.0000      0.0000      0.5737      0.2949      0.0000      0.0000
 63      0.0000      0.1232      0.0000      0.0000      0.0000      0.0000      0.0000      0.0000      0.0051
 64      0.0000      0.0377      0.0000      0.0026      0.0000      0.0000      0.0000      0.0000      0.0000
 65      0.0000      0.0757      0.3438      0.0000      0.0000      0.0000      0.0000      0.0000      0.0000
 66      0.0000      0.0334      0.0000      0.0000      0.0000      0.0000      0.0000      0.0000      0.0000

# j      m_j: min, <> & last-chain-values for 1 ...  7 chains
  1  7.6780E-02  2.8294E-02  3.5786E-02  6.8022E-02  2.5396E-02  5.4838E-02  2.8015E-02  3.3049E-02  2.7183E-02
  2  0.0000E+00  1.9699E-03  0.0000E+00  0.0000E+00  0.0000E+00  0.0000E+00  1.8685E-02  5.1315E-03  0.0000E+00
  3  0.0000E+00  3.2323E-03  0.0000E+00  2.1409E-02  0.0000E+00  0.0000E+00  0.0000E+00  0.0000E+00  0.0000E+00
  4  1.1146E-06  5.6534E-03  0.0000E+00  0.0000E+00  0.0000E+00  2.9839E-03  9.7495E-03  1.2334E-03  1.1674E-02
  5  0.0000E+00  9.1832E-03  1.4899E-02  0.0000E+00  0.0000E+00  9.8922E-03  0.0000E+00  0.0000E+00  0.0000E+00
  6  0.0000E+00  1.4215E-02  0.0000E+00  0.0000E+00  9.9102E-03  1.5306E-02  0.0000E+00  0.0000E+00  7.0676E-03
  7  0.0000E+00  2.6796E-02  1.4298E-01  0.0000E+00  1.1464E-01  1.8261E-02  0.0000E+00  7.6405E-02  0.0000E+00
  8  1.0030E-04  6.3907E-02  2.9087E-03  2.8783E-02  9.6971E-02  3.1258E-02  3.7582E-02  4.3897E-02  1.3332E-01
  9  0.0000E+00  2.8695E-02  0.0000E+00  0.0000E+00  0.0000E+00  0.0000E+00  0.0000E+00  0.0000E+00  0.0000E+00
 10  0.0000E+00  5.0896E-02  0.0000E+00  3.1194E-01  0.0000E+00  0.0000E+00  0.0000E+00  0.0000E+00  0.0000E+00
 11  0.0000E+00  1.3084E-01  5.7550E-02  3.8275E-02  0.0000E+00  4.3026E-02  1.1303E-01  7.9021E-02  0.0000E+00
 12  0.0000E+00  1.4060E-01  0.0000E+00  0.0000E+00  0.0000E+00  0.0000E+00  1.1640E-01  0.0000E+00  0.0000E+00
 13  0.0000E+00  2.1077E+00  1.8770E+00  1.6201E+00  4.5319E+00  1.6093E+00  1.1542E+00  2.2659E+00  3.3954E+00
 14  0.0000E+00  7.2013E-01  0.0000E+00  0.0000E+00  2.5749E+00  0.0000E+00  0.0000E+00  8.4885E-01  5.8592E-01
 15  1.3164E+01  1.2240E+01  8.8442E+00  1.3182E+01  1.1790E+01  8.6414E+00  1.3315E+01  1.7761E+01  1.2965E+01
 16  2.3101E+01  1.7014E+01  1.4410E+01  1.9308E+01  1.8391E+01  1.3323E+01  2.0599E+01  1.4168E+01  2.0071E+01
 17  0.0000E+00  1.8284E+00  1.1347E+01  0.0000E+00  1.2558E-01  0.0000E+00  0.0000E+00  0.0000E+00  0.0000E+00
 18  5.0853E-02  4.1434E-02  5.0220E-02  2.2910E-02  5.4403E-02  6.5056E-02  5.8940E-02  4.4952E-02  5.4981E-02
 19  1.6782E-02  3.6883E-02  4.3785E-02  3.9020E-02  4.3045E-02  2.0743E-02  3.9147E-02  5.7391E-02  2.0571E-02
 20  0.0000E+00  5.1374E-03  0.0000E+00  0.0000E+00  1.2241E-02  0.0000E+00  1.3567E-02  0.0000E+00  0.0000E+00
 21  0.0000E+00  9.8460E-03  0.0000E+00  0.0000E+00  0.0000E+00  0.0000E+00  0.0000E+00  0.0000E+00  9.4960E-03
 22  1.9645E-05  1.8418E-02  0.0000E+00  2.4268E-02  0.0000E+00  7.3640E-02  2.4741E-02  0.0000E+00  3.2434E-02
 23  0.0000E+00  1.6231E-02  0.0000E+00  4.2818E-03  0.0000E+00  0.0000E+00  6.4025E-02  5.0449E-02  0.0000E+00
 24  0.0000E+00  2.2792E-02  4.4427E-02  0.0000E+00  0.0000E+00  2.1947E-02  0.0000E+00  1.2802E-01  4.9243E-02
 25  0.0000E+00  2.6071E-02  0.0000E+00  5.9217E-03  8.3560E-02  0.0000E+00  0.0000E+00  0.0000E+00  0.0000E+00
 26  0.0000E+00  4.6798E-02  9.0656E-03  2.3005E-02  1.4090E-02  7.6006E-02  0.0000E+00  9.4455E-02  0.0000E+00
 27  0.0000E+00  1.2573E-01  0.0000E+00  4.3382E-02  4.4352E-02  0.0000E+00  0.0000E+00  1.2506E-01  0.0000E+00
 28  9.9757E+00  4.7711E+00  5.0129E+00  4.1320E+00  6.1551E+00  5.6487E+00  5.8011E+00  8.0603E+00  6.2684E+00
 29  0.0000E+00  2.2550E+00  3.3294E+00  2.1204E+00  0.0000E+00  2.2836E+00  2.8612E+00  2.9029E+00  0.0000E+00
 30  0.0000E+00  2.8323E-01  0.0000E+00  1.4795E+00  0.0000E+00  0.0000E+00  0.0000E+00  0.0000E+00  3.0668E-01
 31  0.0000E+00  4.5924E+00  3.8594E+00  7.5124E+00  7.0133E+00  6.6245E+00  5.9140E+00  0.0000E+00  6.4749E+00
 32  0.0000E+00  8.8291E+00  5.7569E+00  7.6890E+00  1.0197E+01  8.1728E+00  9.7914E+00  1.1118E+01  7.1364E+00
 33  4.3141E+01  1.5931E+01  1.9678E+01  1.4030E+01  1.8214E+01  1.9083E+01  1.0152E+01  1.9683E+01  2.4521E+01
 34  0.0000E+00  6.1196E+00  0.0000E+00  4.9616E+00  2.9505E+00  1.4382E+01  1.2982E+01  3.5663E+00  0.0000E+00
 35  0.0000E+00  1.1525E-02  2.4625E-02  4.4998E-02  1.5046E-02  9.0972E-03  1.2193E-02  1.0033E-02  0.0000E+00
 36  0.0000E+00  3.6473E-03  5.3563E-03  0.0000E+00  0.0000E+00  1.7084E-03  0.0000E+00  0.0000E+00  0.0000E+00
 37  0.0000E+00  2.5050E-03  5.9641E-03  1.1580E-02  0.0000E+00  0.0000E+00  0.0000E+00  1.0019E-02  0.0000E+00
 38  7.3123E-01  3.6679E-01  3.9357E-01  3.9273E-01  4.6555E-01  3.5632E-01  4.2548E-01  4.3086E-01  4.8243E-01
 39  0.0000E+00  8.5850E-02  9.2050E-02  6.5899E-02  1.2285E-01  8.5380E-02  1.1911E-01  9.1681E-02  8.9073E-02
 40  0.0000E+00  3.7752E-02  0.0000E+00  3.4985E-03  0.0000E+00  1.3101E-02  0.0000E+00  6.9994E-02  0.0000E+00
 41  0.0000E+00  4.5176E-02  0.0000E+00  1.0357E-02  3.3989E-03  0.0000E+00  0.0000E+00  0.0000E+00  0.0000E+00
 42  0.0000E+00  6.5568E-02  0.0000E+00  0.0000E+00  0.0000E+00  8.8013E-03  0.0000E+00  0.0000E+00  0.0000E+00
 43  2.3432E-04  1.2558E-01  0.0000E+00  0.0000E+00  0.0000E+00  2.1748E-02  2.1361E-01  1.9069E-01  2.6119E-01
 44  1.8894E+00  5.4894E-01  0.0000E+00  8.0777E-01  5.1847E-01  3.7120E-01  7.3441E-01  0.0000E+00  8.2592E-01
 45  3.6899E+00  4.7936E+00  4.9817E+00  7.1027E+00  6.1427E+00  4.8362E+00  5.4310E+00  6.1607E+00  5.0308E+00
 46  4.0727E+00  7.1401E+00  6.7187E+00  6.7807E+00  9.1376E+00  6.3998E+00  9.1213E+00  7.6830E+00  7.6915E+00
 47  0.0000E+00  8.3051E-01  1.7590E+00  0.0000E+00  0.0000E+00  0.0000E+00  0.0000E+00  8.6283E-01  0.0000E+00
 48  0.0000E+00  4.0502E-01  0.0000E+00  0.0000E+00  0.0000E+00  2.0061E+00  0.0000E+00  2.1111E+00  1.6089E+00
 49  0.0000E+00  6.5116E-01  0.0000E+00  6.6712E+00  0.0000E+00  2.4918E+00  0.0000E+00  0.0000E+00  0.0000E+00
 50  0.0000E+00  1.3146E+00  0.0000E+00  0.0000E+00  0.0000E+00  0.0000E+00  0.0000E+00  0.0000E+00  0.0000E+00
 51  4.8055E-02  3.0811E-02  3.5225E-02  3.3911E-02  2.9049E-02  3.8181E-02  3.1904E-02  2.4982E-02  4.6611E-02
 52  0.0000E+00  4.2654E-03  0.0000E+00  1.4087E-03  5.6212E-03  8.8072E-03  6.5653E-03  9.1370E-04  2.0438E-03
 53  0.0000E+00  3.9131E-03  1.2776E-02  3.8133E-04  0.0000E+00  0.0000E+00  0.0000E+00  0.0000E+00  0.0000E+00
 54  3.3833E-02  2.1254E-01  1.8906E-01  2.3524E-01  2.2659E-01  2.0550E-01  1.9708E-01  2.7284E-01  2.2924E-01
 55  0.0000E+00  9.9498E-03  6.8393E-03  0.0000E+00  0.0000E+00  5.1551E-02  2.0616E-02  0.0000E+00  3.4049E-03
 56  0.0000E+00  2.0924E-02  0.0000E+00  0.0000E+00  7.4793E-02  0.0000E+00  0.0000E+00  0.0000E+00  0.0000E+00
 57  0.0000E+00  2.3075E-02  2.0336E-02  0.0000E+00  4.4144E-02  8.6283E-03  0.0000E+00  0.0000E+00  0.0000E+00
 58  0.0000E+00  5.2337E-02  3.0817E-02  2.5994E-02  0.0000E+00  6.2307E-02  0.0000E+00  3.2384E-03  1.6742E-01
 59  0.0000E+00  1.9510E-01  3.5017E-02  0.0000E+00  0.0000E+00  8.9103E-02  0.0000E+00  0.0000E+00  0.0000E+00
 60  8.8088E-03  9.0079E-01  3.3924E+00  1.1166E+00  7.7210E-01  1.6476E+00  0.0000E+00  4.0300E-01  8.8051E-01
 61  0.0000E+00  3.5969E-01  3.9396E-02  0.0000E+00  0.0000E+00  0.0000E+00  0.0000E+00  5.6040E-01  5.8999E-01
 62  0.0000E+00  4.7959E-01  0.0000E+00  0.0000E+00  0.0000E+00  1.0850E+00  5.9345E-01  0.0000E+00  0.0000E+00
 63  0.0000E+00  4.8646E-01  0.0000E+00  0.0000E+00  0.0000E+00  0.0000E+00  0.0000E+00  0.0000E+00  2.0506E-02
 64  0.0000E+00  4.1168E-01  0.0000E+00  2.8213E-02  0.0000E+00  0.0000E+00  0.0000E+00  0.0000E+00  0.0000E+00
 65  0.0000E+00  1.7481E+00  7.7411E+00  0.0000E+00  0.0000E+00  0.0000E+00  0.0000E+00  0.0000E+00  0.0000E+00
 66  0.0000E+00  1.0877E+00  0.0000E+00  0.0000E+00  0.0000E+00  0.0000E+00  0.0000E+00  0.0000E+00  0.0000E+00

# AV, chi2 & Mass for <> & i_chain = 1 ...  7 solutions
AV       0.4951      0.5474      0.5418      0.5469      0.5349      0.5328      0.5514      0.5430      0.5192
chi2 3.0569E-01  3.1638E-01  3.1406E-01  3.1466E-01  3.1364E-01  3.1426E-01  3.1443E-01  3.1476E-01  3.1288E-01
Mass 2.6288E-12  2.4574E-12  2.4994E-12  2.4589E-12  2.2600E-12  2.5274E-12  2.4357E-12  2.2000E-12  2.3112E-12
  -8.92                                  [v0_min (km/s) before EX0s...]
 159.59                                  [vd_min (km/s) before EX0s...]


## Synthetic spectrum (Best Model) ##l_obs f_obs f_syn wei
 3478    [Nl_obs]
 3741.00    1.36125   0.76518    0.000
 3742.00    1.23863   0.76478    0.000
 3743.00    1.04725   0.75391    0.000
 3744.00    0.94127   0.73470    0.000
 3745.00    0.86449   0.70894   11.567
 3746.00    0.74583   0.67873   13.408
 3747.00    0.64385   0.64691   15.532
 3748.00    0.61787   0.61859   16.185
 3749.00    0.63590   0.60184   15.726
 3750.00    0.65014   0.60348   15.381
 3751.00    0.65461   0.62389   15.276
 3752.00    0.68111   0.65717   14.682
 3753.00    0.78204   0.69490   12.787
 3754.00    0.95018   0.72900   10.524
 3755.00    1.08559   0.75356   -1.000
 3756.00    1.11903   0.76669   -1.000
 3757.00    1.08136   0.77130   -1.000
 3758.00    1.03852   0.77269    9.629
 3759.00    1.04248   0.77479    9.593
 3760.00    1.09185   0.77840   -1.000
 3761.00    1.12328   0.78183   -1.000
 3762.00    1.08585   0.78242   -1.000
 3763.00    0.98290   0.77804   10.174
 3764.00    0.86709   0.76734   11.533
 3765.00    0.81316   0.74920   12.298
 3766.00    0.79990   0.72402   12.502
 3767.00    0.69725   0.69467   14.342
 3768.00    0.50453   0.66527   19.821
 3769.00    0.40972   0.64126   -1.000
 3770.00    0.49855   0.62960   20.058
 3771.00    0.65272   0.63510   15.321
 3772.00    0.73993   0.65620   13.515
 3773.00    0.71198   0.68675   14.045
 3774.00    0.63200   0.72063   15.823
 3775.00    0.64347   0.75345   15.541
 3776.00    0.79827   0.78273   12.527
 3777.00    1.00929   0.80786    9.908
 3778.00    1.16044   0.82955   -1.000
 3779.00    1.17255   0.84831    8.528
 3780.00    1.07411   0.86341    9.310
 3781.00    0.98575   0.87378   10.145
 3782.00    0.96185   0.87906   10.397
 3783.00    0.95837   0.87907   10.434
 3784.00    0.93644   0.87340   10.679
 3785.00    0.89343   0.86261   11.193
 3786.00    0.83554   0.84895   11.968
 3787.00    0.76783   0.83478   13.024
 3788.00    0.69489   0.82102   14.391
 3789.00    0.62195   0.80746   16.079
 3790.00    0.55713   0.79293   -1.000
 3791.00    0.50959   0.77516   -1.000
 3792.00    0.48170   0.75160   -1.000
 3793.00    0.46995   0.72102   -1.000
 3794.00    0.47453   0.68465   -1.000
 3795.00    0.49545   0.64619   20.184
 3796.00    0.51416   0.61170   19.449
 3797.00    0.51396   0.58940   19.457
 3798.00    0.54721   0.58685   18.274
 3799.00    0.69071   0.60590   14.478
 3800.00    0.88512   0.64124   11.298
 3801.00    0.97872   0.68407   -1.000
 3802.00    0.94090   0.72603   10.628
 3803.00    0.85547   0.76104   11.689
 3804.00    0.77295   0.78649   12.937
 3805.00    0.70594   0.80381   14.166
 3806.00    0.70220   0.81748   14.241
 3807.00    0.80681   0.83171   12.395
 3808.00    0.94316   0.84712   10.603
 3809.00    0.97538   0.86114   10.252
 3810.00    0.89612   0.87039   11.159
 3811.00    0.80237   0.87256   12.463
 3812.00    0.76149   0.86776   13.132
 3813.00    0.78657   0.85867   12.713
 3814.00    0.84554   0.84855   11.827
 3815.00    0.89054   0.83917   11.229
 3816.00    0.90894   0.83028   11.002
 3817.00    0.91677   0.81997   10.908
 3818.00    0.92837   0.80733   10.772
 3819.00    0.94543   0.79573   10.577
 3820.00    0.94889   0.79031   10.539
 3821.00    0.91805   0.79175   10.893
 3822.00    0.86420   0.79550   11.571
 3823.00    0.81634   0.79643   12.250
 3824.00    0.78861   0.79248   12.681
 3825.00    0.77843   0.78423   12.846
 3826.00    0.77231   0.77284   12.948
 3827.00    0.75327   0.75890   13.276
 3828.00    0.71105   0.74197   14.064
 3829.00    0.65244   0.72066   15.327
 3830.00    0.61200   0.69316   16.340
 3831.00    0.62067   0.65906   16.112
 3832.00    0.66180   0.62105   15.110
 3833.00    0.70118   0.58465   14.262
 3834.00    0.73390   0.55688   13.626
 3835.00    0.76445   0.54438   -1.000
 3836.00    0.77485   0.54980   -1.000
 3837.00    0.74817   0.57074   13.366
 3838.00    0.70133   0.60252   14.259
 3839.00    0.66503   0.64022   15.037
 3840.00    0.65497   0.67960   15.268
 3841.00    0.66964   0.71755   14.933
 3842.00    0.69322   0.75171   14.425
 3843.00    0.71732   0.78053   13.941
 3844.00    0.76173   0.80344   13.128
 3845.00    0.84080   0.82088   11.893
 3846.00    0.92745   0.83389   10.782
 3847.00    0.98145   0.84316    0.000
 3848.00    0.98274   0.84921    0.000
 3849.00    0.93901   0.85347    0.000
 3850.00    0.88745   0.85790    0.000
 3851.00    0.86761   0.86289    0.000
 3852.00    0.89498   0.86684    0.000
 3853.00    0.95609   0.86810    0.000
 3854.00    1.01047   0.86637    0.000
 3855.00    1.03008   0.86267    0.000
 3856.00    1.03041   0.85885    0.000
 3857.00    1.03566   0.85592    0.000
 3858.00    1.04827   0.85422    0.000
 3859.00    1.06085   0.85485    0.000
 3860.00    1.06824   0.85874    0.000
 3861.00    1.06974   0.86494    0.000
 3862.00    1.06997   0.87103    0.000
 3863.00    1.07579   0.87504    0.000
 3864.00    1.09205   0.87644    0.000
 3865.00    1.10739   0.87572    0.000
 3866.00    1.09002   0.87370    0.000
 3867.00    1.03066   0.87111    0.000
 3868.00    0.96548   0.86765    0.000
 3869.00    0.92292   0.86187    0.000
 3870.00    0.89344   0.85326    0.000
 3871.00    0.87525   0.84380    0.000
 3872.00    0.89567   0.83681    0.000
 3873.00    0.94970   0.83362    0.000
 3874.00    0.97563   0.83211    0.000
 3875.00    0.94578   0.82907    0.000
 3876.00    0.90825   0.82278    0.000
 3877.00    0.90442   0.81377    0.000
 3878.00    0.92440   0.80409    0.000
 3879.00    0.93586   0.79471    0.000
 3880.00    0.90685   0.78408    0.000
 3881.00    0.83380   0.77023   11.993
 3882.00    0.74915   0.75226   13.348
 3883.00    0.68549   0.72903   14.588
 3884.00    0.65779   0.69886   15.202
 3885.00    0.66969   0.66216   14.932
 3886.00    0.71484   0.62321   13.989
 3887.00    0.76675   0.58880   13.042
 3888.00    0.78544   0.56706   -1.000
 3889.00    0.76827   0.56487   13.016
 3890.00    0.75759   0.58316   13.200
 3891.00    0.77265   0.61604   12.942
 3892.00    0.79022   0.65491   12.655
 3893.00    0.79162   0.69255   12.632
 3894.00    0.77915   0.72505   12.835
 3895.00    0.75884   0.75156   13.178
 3896.00    0.73366   0.77280   13.630
 3897.00    0.70548   0.78953   14.175
 3898.00    0.67559   0.80297   14.802
 3899.00    0.64352   0.81500   15.539
 3900.00    0.61229   0.82652   -1.000
 3901.00    0.60795   0.83653   -1.000
 3902.00    0.66668   0.84385   15.000
 3903.00    0.76821   0.84879   13.017
 3904.00    0.84137   0.85243   11.885
 3905.00    0.85750   0.85662   11.662
 3906.00    0.84410   0.86358   11.847
 3907.00    0.82766   0.87368   12.082
 3908.00    0.81744   0.88507   12.233
 3909.00    0.81412   0.89515   12.283
 3910.00    0.81270   0.90219   12.305
 3911.00    0.80283   0.90572   12.456
 3912.00    0.77714   0.90611   12.868
 3913.00    0.75341   0.90436   13.273
 3914.00    0.76318   0.90120   13.103
 3915.00    0.80524   0.89643   12.419
 3916.00    0.84917   0.88951   11.776
 3917.00    0.87730   0.88042   11.399
 3918.00    0.88999   0.87007   11.236
 3919.00    0.89043   0.86064   11.231
 3920.00    0.88437   0.85443   11.307
 3921.00    0.88834   0.85201   11.257
 3922.00    0.92068   0.85151   10.862
 3923.00    0.97691   0.85006   10.236
 3924.00    1.03027   0.84509    9.706
 3925.00    1.04620   0.83528    9.558
 3926.00    0.99860   0.82105   10.014
 3927.00    0.89640   0.80329   11.156
 3928.00    0.77693   0.78264   12.871
 3929.00    0.68010   0.75936   14.704
 3930.00    0.62563   0.73392   15.984
 3931.00    0.58146   0.70817   17.198
 3932.00    0.50465   0.68614   19.816
 3933.00    0.42759   0.67359   -1.000
 3934.00    0.41665   0.67496   -1.000
 3935.00    0.46951   0.69047   -1.000
 3936.00    0.54099   0.71631   18.485
 3937.00    0.61967   0.74684   16.137
 3938.00    0.71151   0.77676   14.055
 3939.00    0.79096   0.80210   12.643
 3940.00    0.82380   0.82054   12.139
 3941.00    0.81586   0.83207   12.257
 3942.00    0.79571   0.83841   12.567
 3943.00    0.77595   0.84222   12.887
 3944.00    0.75735   0.84636   13.204
 3945.00    0.74415   0.85196   13.438
 3946.00    0.74381   0.85767   13.444
 3947.00    0.76319   0.86218   13.103
 3948.00    0.80156   0.86550   12.476
 3949.00    0.84263   0.86791   11.868
 3950.00    0.86885   0.86899   11.510
 3951.00    0.88101   0.86817   11.351
 3952.00    0.88610   0.86575   11.285
 3953.00    0.87934   0.86224   11.372
 3954.00    0.85612   0.85730   11.681
 3955.00    0.82834   0.85068   12.072
 3956.00    0.80921   0.84302   12.358
 3957.00    0.79377   0.83452   12.598
 3958.00    0.77095   0.82371   12.971
 3959.00    0.73990   0.80810   13.515
 3960.00    0.71074   0.78627    0.000
 3961.00    0.70163   0.75911    0.000
 3962.00    0.71579   0.72815    0.000
 3963.00    0.72088   0.69363    0.000
 3964.00    0.68760   0.65548    0.000
 3965.00    0.62891   0.61396    0.000
 3966.00    0.57494   0.57032    0.000
 3967.00    0.54424   0.52827    0.000
 3968.00    0.53955   0.49438    0.000
 3969.00    0.54790   0.47619    0.000
 3970.00    0.55805   0.47890    0.000
 3971.00    0.57423   0.50217    0.000
 3972.00    0.59704   0.54070    0.000
 3973.00    0.60887   0.58749    0.000
 3974.00    0.60281   0.63603    0.000
 3975.00    0.60387   0.68141    0.000
 3976.00    0.63278   0.72129    0.000
 3977.00    0.67754   0.75528    0.000
 3978.00    0.71333   0.78345    0.000
 3979.00    0.72243   0.80570    0.000
 3980.00    0.71509   0.82203    0.000
 3981.00    0.73564   0.83333   13.594
 3982.00    0.79789   0.84191   12.533
 3983.00    0.84973   0.85021   11.768
 3984.00    0.85818   0.85939   11.653
 3985.00    0.85885   0.86921   11.643
 3986.00    0.87504   0.87914   11.428
 3987.00    0.87390   0.88854   11.443
 3988.00    0.84960   0.89646   11.770
 3989.00    0.86205   0.90275   11.600
 3990.00    0.93079   0.90810   10.744
 3991.00    0.98639   0.91263   10.138
 3992.00    0.98522   0.91558   10.150
 3993.00    0.96563   0.91597   10.356
 3994.00    0.96374   0.91396   10.376
 3995.00    0.97022   0.91096   10.307
 3996.00    0.97115   0.90878   10.297
 3997.00    0.96942   0.90926   10.315
 3998.00    0.97159   0.91342   10.292
 3999.00    0.98001   0.91998   10.204
 4000.00    0.99154   0.92623   10.085
 4001.00    0.99842   0.92987   10.016
 4002.00    0.99479   0.92943   10.052
 4003.00    0.97942   0.92436   10.210
 4004.00    0.95350   0.91625   10.488
 4005.00    0.92183   0.90888   10.848
 4006.00    0.90283   0.90522   11.076
 4007.00    0.92010   0.90542   10.868
 4008.00    0.94810   0.90844   10.547
 4009.00    0.92014   0.91370   10.868
 4010.00    0.85825   0.92040   11.652
 4011.00    0.87793   0.92733   11.390
 4012.00    0.99035   0.93380   10.097
 4013.00    1.07373   0.93941    9.313
 4014.00    1.07247   0.94401    9.324
 4015.00    1.04357   0.94747    9.582
 4016.00    1.03699   0.94973    9.643
 4017.00    1.05447   0.95147    9.483
 4018.00    1.06816   0.95294    9.362
 4019.00    1.04332   0.95288    9.585
 4020.00    0.98888   0.94962   10.112
 4021.00    0.95436   0.94242   10.478
 4022.00    0.96379   0.93142   10.376
 4023.00    1.00000   0.91788   10.000
 4024.00    1.02624   0.90492    9.744
 4025.00    1.01133   0.89665    9.888
 4026.00    0.98140   0.89544   10.190
 4027.00    0.99573   0.89958   10.043
 4028.00    1.03400   0.90442    9.671
 4029.00    1.01647   0.90618    9.838
 4030.00    0.95015   0.90457   10.525
 4031.00    0.91559   0.90195   10.922
 4032.00    0.92249   0.90117   10.840
 4033.00    0.91562   0.90462   10.922
 4034.00    0.89069   0.91318   11.227
 4035.00    0.89263   0.92595   11.203
 4036.00    0.93633   0.94013   10.680
 4037.00    0.99973   0.95208   10.003
 4038.00    1.05549   0.95909    9.474
 4039.00    1.08157   0.96030    9.246
 4040.00    1.06731   0.95669    9.369
 4041.00    1.01956   0.94972    9.808
 4042.00    0.97198   0.93974   10.288
 4043.00    0.96277   0.92724   10.387
 4044.00    0.98496   0.91495   10.153
 4045.00    1.00403   0.90752    9.960
 4046.00    1.01404   0.90821    9.862
 4047.00    1.02869   0.91591    9.721
 4048.00    1.04201   0.92689    9.597
 4049.00    1.03746   0.93732    9.639
 4050.00    1.01892   0.94398    9.814
 4051.00    1.00303   0.94528    9.970
 4052.00    0.99498   0.94187   10.050
 4053.00    0.98837   0.93571   10.118
 4054.00    0.97327   0.92908   10.275
 4055.00    0.94930   0.92362   10.534
 4056.00    0.94345   0.91979   10.599
 4057.00    0.98235   0.91787   10.180
 4058.00    1.04473   0.91782    9.572
 4059.00    1.08578   0.91820    9.210
 4060.00    1.08600   0.91680    9.208
 4061.00    1.05131   0.91212    9.512
 4062.00    1.00157   0.90511    9.984
 4063.00    0.96005   0.89917   10.416
 4064.00    0.94084   0.89688   10.629
 4065.00    0.94462   0.89767   10.586
 4066.00    0.95609   0.89983   10.459
 4067.00    0.95490   0.90201   10.472
 4068.00    0.93103   0.90266   10.741
 4069.00    0.89081   0.90044   11.226
 4070.00    0.86039   0.89576   11.623
 4071.00    0.85997   0.89097   11.628
 4072.00    0.87406   0.88777   11.441
 4073.00    0.88094   0.88484   11.351
 4074.00    0.88952   0.87985   11.242
 4075.00    0.91481   0.87269   10.931
 4076.00    0.94675   0.86586   10.562
 4077.00    0.96712   0.86308   10.340
 4078.00    0.97117   0.86659   10.297
 4079.00    0.96308   0.87533   10.383
 4080.00    0.94888   0.88550   10.539
 4081.00    0.93750   0.89275   10.667
 4082.00    0.94119   0.89484   10.625
 4083.00    0.96110   0.89257   10.405
 4084.00    0.97566   0.88865   10.249
 4085.00    0.96590   0.88574   10.353
 4086.00    0.93889   0.88474   10.651
 4087.00    0.91537   0.88471   10.925
 4088.00    0.91471   0.88401   10.932
 4089.00    0.93608   0.88137   10.683
 4090.00    0.94749   0.87575   10.554
 4091.00    0.92513   0.86648   10.809
 4092.00    0.88376   0.85357    0.000
 4093.00    0.84862   0.83663    0.000
 4094.00    0.83003   0.81462    0.000
 4095.00    0.81697   0.78755    0.000
 4096.00    0.77995   0.75636    0.000
 4097.00    0.72174   0.72180    0.000
 4098.00    0.70275   0.68469    0.000
 4099.00    0.74989   0.64720    0.000
 4100.00    0.80288   0.61469    0.000
 4101.00    0.80991   0.59538    0.000
 4102.00    0.78847   0.59531    0.000
 4103.00    0.77104   0.61412    0.000
 4104.00    0.76745   0.64652    0.000
 4105.00    0.77327   0.68500    0.000
 4106.00    0.77826   0.72221    0.000
 4107.00    0.77748   0.75353    0.000
 4108.00    0.77636   0.77769    0.000
 4109.00    0.78194   0.79584    0.000
 4110.00    0.79694   0.81044    0.000
 4111.00    0.81779   0.82374    0.000
 4112.00    0.83448   0.83676    0.000
 4113.00    0.83582   0.84905   11.964
 4114.00    0.81525   0.85927   12.266
 4115.00    0.78590   0.86630   12.724
 4116.00    0.77942   0.86935   12.830
 4117.00    0.80144   0.86822   12.477
 4118.00    0.82011   0.86467   12.194
 4119.00    0.82107   0.86164   12.179
 4120.00    0.82520   0.86142   12.118
 4121.00    0.84385   0.86516   11.851
 4122.00    0.86368   0.87244   11.578
 4123.00    0.87545   0.88131   11.423
 4124.00    0.88406   0.88910   11.311
 4125.00    0.89418   0.89335   11.183
 4126.00    0.90357   0.89321   11.067
 4127.00    0.90242   0.88963   11.081
 4128.00    0.88069   0.88446   11.355
 4129.00    0.85676   0.87890   11.672
 4130.00    0.87097   0.87373   11.482
 4131.00    0.91916   0.87024   10.879
 4132.00    0.94985   0.87028   10.528
 4133.00    0.94690   0.87487   10.561
 4134.00    0.94209   0.88367   10.615
 4135.00    0.95067   0.89484   10.519
 4136.00    0.95754   0.90570   10.443
 4137.00    0.95011   0.91421   10.525
 4138.00    0.92992   0.91850   10.754
 4139.00    0.91244   0.91683   10.960
 4140.00    0.91667   0.90840   10.909
 4141.00    0.93459   0.89409   10.700
 4142.00    0.93626   0.87793   10.681
 4143.00    0.91330   0.86653   10.949
 4144.00    0.88319   0.86433   11.323
 4145.00    0.86331   0.87044   11.583
 4146.00    0.86235   0.88091   11.596
 4147.00    0.87812   0.89125   11.388
 4148.00    0.90086   0.89817   11.101
 4149.00    0.92300   0.90107   10.834
 4150.00    0.93960   0.90098   10.643
 4151.00    0.94269   0.89886   10.608
 4152.00    0.92756   0.89568   10.781
 4153.00    0.91066   0.89272   10.981
 4154.00    0.91722   0.89116   10.902
 4155.00    0.94250   0.89171   10.610
 4156.00    0.96022   0.89472   10.414
 4157.00    0.96222   0.89999   10.393
 4158.00    0.95753   0.90634   10.443
 4159.00    0.95084   0.91233   10.517
 4160.00    0.94028   0.91710   10.635
 4161.00    0.92335   0.92051   10.830
 4162.00    0.90197   0.92241   11.087
 4163.00    0.88959   0.92255   11.241
 4164.00    0.90137   0.92100   11.094
 4165.00    0.93303   0.91783   10.718
 4166.00    0.96527   0.91336   10.360
 4167.00    0.98001   0.90840   10.204
 4168.00    0.96996   0.90325   10.310
 4169.00    0.94940   0.89707   10.533
 4170.00    0.94000   0.88906   10.638
 4171.00    0.94377   0.87997   10.596
 4172.00    0.94827   0.87216   10.546
 4173.00    0.94326   0.86775   10.602
 4174.00    0.92958   0.86715   10.758
 4175.00    0.92761   0.86925   10.780
 4176.00    0.95560   0.87261   10.465
 4177.00    0.99600   0.87654   10.040
 4178.00    1.01511   0.88103    9.851
 4179.00    0.99948   0.88569   10.005
 4180.00    0.95812   0.88957   10.437
 4181.00    0.91703   0.89227   10.905
 4182.00    0.89971   0.89403   11.115
 4183.00    0.90243   0.89487   11.081
 4184.00    0.90464   0.89466   11.054
 4185.00    0.88795   0.89310   11.262
 4186.00    0.85299   0.89072   11.723
 4187.00    0.83457   0.88927   11.982
 4188.00    0.86031   0.89003   11.624
 4189.00    0.90143   0.89308   11.093
 4190.00    0.91703   0.89788   10.905
 4191.00    0.91040   0.90350   10.984
 4192.00    0.90499   0.90811   11.050
 4193.00    0.91041   0.90926   10.984
 4194.00    0.92282   0.90558   10.836
 4195.00    0.93021   0.89767   10.750
 4196.00    0.92394   0.88728   10.823
 4197.00    0.90909   0.87666   11.000
 4198.00    0.89297   0.86836   11.199
 4199.00    0.87388   0.86388   11.443
 4200.00    0.85395   0.86302   11.710
 4201.00    0.85056   0.86527   11.757
 4202.00    0.87491   0.87018   11.430
 4203.00    0.91311   0.87686   10.952
 4204.00    0.94488   0.88452   10.583
 4205.00    0.96172   0.89260   10.398
 4206.00    0.96627   0.90018   10.349
 4207.00    0.96890   0.90628   10.321
 4208.00    0.97296   0.91030   10.278
 4209.00    0.96560   0.91235   10.356
 4210.00    0.94097   0.91290   10.627
 4211.00    0.91603   0.91196   10.917
 4212.00    0.90317   0.90901   11.072
 4213.00    0.89212   0.90396   11.209
 4214.00    0.87933   0.89805   11.372
 4215.00    0.88564   0.89409   11.291
 4216.00    0.91876   0.89431   10.884
 4217.00    0.95149   0.89838   10.510
 4218.00    0.96261   0.90413   10.389
 4219.00    0.96195   0.90873   10.395
 4220.00    0.96292   0.90926   10.384
 4221.00    0.96482   0.90365   10.365
 4222.00    0.96289   0.89159   10.387
 4223.00    0.95539   0.87444   10.466
 4224.00    0.94422   0.85521   10.586
 4225.00    0.93409   0.83869   10.709
 4226.00    0.92709   0.83028   10.800
 4227.00    0.92067   0.83300   10.852
 4228.00    0.91460   0.84499   10.895
 4229.00    0.91338   0.86106   10.979
 4230.00    0.91761   0.87548   11.007
 4231.00    0.92139   0.88414   10.766
 4232.00    0.92350   0.88640   10.543
 4233.00    0.93004   0.88443   11.014
 4234.00    0.93749   0.88074   11.551
 4235.00    0.92949   0.87740    9.915
 4236.00    0.90254   0.87598    7.539
 4237.00    0.87340   0.87684    6.474
 4238.00    0.85531   0.87970    6.485
 4239.00    0.84959   0.88435    6.773
 4240.00    0.85881   0.89024    6.802
 4241.00    0.88742   0.89652    6.686
 4242.00    0.91928   0.90242    6.629
 4243.00    0.92013   0.90680    6.651
 4244.00    0.88678   0.90799    6.702
 4245.00    0.85542   0.90515    6.714
 4246.00    0.85388   0.89902    6.646
 4247.00    0.87983   0.89133    6.522
 4248.00    0.89319   0.88366    6.476
 4249.00    0.84479   0.87734    6.678
 4250.00    0.78540   0.87338    7.000
 4251.00    0.83909   0.87158    6.983
 4252.00    0.97635   0.87096    6.641
 4253.00    1.02083   0.87138    6.470
 4254.00    0.93705   0.87339    6.602
 4255.00    0.85763   0.87668    6.802
 4256.00    0.85490   0.87963    6.848
 4257.00    0.89362   0.88043    6.709
 4258.00    0.92053   0.87871    6.577
 4259.00    0.90588   0.87614    6.690
 4260.00    0.87790   0.87569    6.956
 4261.00    0.89630   0.87947    6.996
 4262.00    0.95047   0.88698    6.807
 4263.00    0.97070   0.89546    6.751
 4264.00    0.93843   0.90155    6.927
 4265.00    0.89031   0.90267    7.173
 4266.00    0.84810   0.89838    7.384
 4267.00    0.81145   0.89002    7.566
 4268.00    0.78803   0.87899    7.645
 4269.00    0.79219   0.86634    7.521
 4270.00    0.82285   0.85368    7.325
 4271.00    0.86070   0.84333    7.292
 4272.00    0.87518   0.83704    7.459
 4273.00    0.84781   0.83563    7.667
 4274.00    0.81829   0.83945    7.666
 4275.00    0.84485   0.84791    7.347
 4276.00    0.89974   0.85899    7.037
 4277.00    0.90927   0.86978    7.094
 4278.00    0.88135   0.87758    7.351
 4279.00    0.87669   0.88106    7.340
 4280.00    0.89947   0.88060    7.102
 4281.00    0.91072   0.87763    7.013
 4282.00    0.89599   0.87374    7.131
 4283.00    0.86775   0.86985    7.285
 4284.00    0.84506   0.86594    7.359
 4285.00    0.84062   0.86151    7.348
 4286.00    0.84562   0.85575    7.341
 4287.00    0.84409   0.84828    7.432
 4288.00    0.84114   0.84030    7.583
 4289.00    0.85155   0.83450    7.675
 4290.00    0.87367   0.83319    7.659
 4291.00    0.89259   0.83634    7.578
 4292.00    0.89248   0.84162    7.521
 4293.00    0.86800   0.84613    7.557
 4294.00    0.83757   0.84773    7.664
 4295.00    0.82704   0.84513    7.759
 4296.00    0.84294   0.83796    7.767
 4297.00    0.86986   0.82686    7.690
 4298.00    0.87435   0.81367    7.672
 4299.00    0.84185   0.80107    7.811
 4300.00    0.82119   0.79132    7.919
 4301.00    0.85691   0.78540    7.790
 4302.00    0.89956   0.78327    7.614
 4303.00    0.88546   0.78367    7.640
 4304.00    0.84557   0.78447    7.785
 4305.00    0.83822   0.78397    7.840
 4306.00    0.85522   0.78185    7.770
 4307.00    0.85615   0.77958    7.668
 4308.00    0.82137   0.77949    7.631
 4309.00    0.76151   0.78313    7.689
 4310.00    0.71788   0.79046    7.768
 4311.00    0.71910   0.80033    7.785
 4312.00    0.73892   0.81162    7.772
 4313.00    0.74826   0.82415   -2.000
 4314.00    0.76843   0.83821   -2.000
 4315.00    0.81771   0.85311   -2.000
 4316.00    0.85846   0.86680   -2.000
 4317.00    0.85458   0.87689   -2.000
 4318.00    0.82693   0.88164   -2.000
 4319.00    0.80970   0.88052   -2.000
 4320.00    0.80666   0.87394   -2.000
 4321.00    0.80178   0.86256   -2.000
 4322.00    0.77547   0.84718   -2.000
 4323.00    0.73794   0.82978   -2.000
 4324.00    0.74605   0.81403   -2.000
 4325.00    0.81135   0.80414   -2.000
 4326.00    0.84089   0.80236   -2.000
 4327.00    0.78485   0.80735   -2.000
 4328.00    0.73652   0.81522   -2.000
 4329.00    0.76683   0.82179    7.634
 4330.00    0.81068   0.82431    0.000
 4331.00    0.80798   0.82180    0.000
 4332.00    0.79775   0.81417    0.000
 4333.00    0.80597   0.80110    0.000
 4334.00    0.77923   0.78119    0.000
 4335.00    0.70624   0.75281    0.000
 4336.00    0.68078   0.71628    0.000
 4337.00    0.75098   0.67490    0.000
 4338.00    0.83845   0.63495    0.000
 4339.00    0.87158   0.60468    0.000
 4340.00    0.86223   0.59120    0.000
 4341.00    0.83977   0.59676    0.000
 4342.00    0.81188   0.61847    0.000
 4343.00    0.78487   0.65040    0.000
 4344.00    0.77263   0.68582    0.000
 4345.00    0.77327   0.71933    0.000
 4346.00    0.76332   0.74786    0.000
 4347.00    0.73824   0.77003    0.000
 4348.00    0.72543   0.78503    0.000
 4349.00    0.73716   0.79291    0.000
 4350.00    0.75242   0.79581    0.000
 4351.00    0.75115   0.79762    8.417
 4352.00    0.73141   0.80185    8.468
 4353.00    0.70662   0.81024    8.594
 4354.00    0.69868   0.82233    8.674
 4355.00    0.71470   0.83588    8.632
 4356.00    0.74090   0.84807    8.528
 4357.00    0.76306   0.85735    8.456
 4358.00    0.77568   0.86417    8.485
 4359.00    0.78095   0.87002    8.588
 4360.00    0.78661   0.87614    8.645
 4361.00    0.79945   0.88287    8.603
 4362.00    0.82118   0.88963    8.523
 4363.00    0.84295   0.89512    8.468
 4364.00    0.84917   0.89774    8.464
 4365.00    0.83938   0.89669    8.497
 4366.00    0.83113   0.89271    8.523
 4367.00    0.84063   0.88753    8.501
 4368.00    0.87155   0.88275    8.420
 4369.00    0.90209   0.87920    8.333
 4370.00    0.89732   0.87653    8.327
 4371.00    0.86308   0.87358    8.381
 4372.00    0.84378   0.86953    8.395
 4373.00    0.85824   0.86522    8.378
 4374.00    0.89068   0.86277    8.437
 4375.00    0.92748   0.86401    8.512
 4376.00    0.96289   0.86884    8.433
 4377.00    0.98162   0.87511    8.305
 4378.00    0.96525   0.87950    8.420
 4379.00    0.92436   0.87875    8.734
 4380.00    0.88965   0.87078    8.901
 4381.00    0.86410   0.85597    8.884
 4382.00    0.82839   0.83790    8.951
 4383.00    0.78884   0.82186    9.022
 4384.00    0.77339   0.81201    8.829
 4385.00    0.79009   0.80968    8.762
 4386.00    0.82290   0.81386    9.545
 4387.00    0.84786   0.82230   11.187
 4388.00    0.84698   0.83243   12.373
 4389.00    0.82972   0.84265   12.276
 4390.00    0.82265   0.85231   11.871
 4391.00    0.83553   0.86067   11.811
 4392.00    0.85948   0.86708   11.983
 4393.00    0.87980   0.87180   11.646
 4394.00    0.88630   0.87595   10.354
 4395.00    0.88783   0.88035    9.118
 4396.00    0.90148   0.88462    8.723
 4397.00    0.92569   0.88757    8.915
 4398.00    0.94449   0.88811    9.077
 4399.00    0.94570   0.88617    9.046
 4400.00    0.92630   0.88250    9.053
 4401.00    0.89522   0.87746    9.173
 4402.00    0.86558   0.87126    9.320
 4403.00    0.84052   0.86485    9.419
 4404.00    0.81999   0.85962    9.450
 4405.00    0.81544   0.85679    9.452
 4406.00    0.83618   0.85734    9.472
 4407.00    0.86423   0.86182    9.462
 4408.00    0.87422   0.86960    9.374
 4409.00    0.86981   0.87894    9.317
 4410.00    0.87224   0.88751    9.405
 4411.00    0.89415   0.89267    9.517
 4412.00    0.92877   0.89233    9.478
 4413.00    0.94214   0.88668    9.387
 4414.00    0.91041   0.87855    9.425
 4415.00    0.86998   0.87191    9.545
 4416.00    0.87130   0.87014    9.590
 4417.00    0.90959   0.87424    9.531
 4418.00    0.94651   0.88231    9.452
 4419.00    0.95091   0.89083    9.477
 4420.00    0.91799   0.89679    9.650
 4421.00    0.88374   0.89918    9.804
 4422.00    0.88391   0.89879    9.772
 4423.00    0.90550   0.89707    9.700
 4424.00    0.91919   0.89529    9.769
 4425.00    0.92163   0.89407    9.862
 4426.00    0.92081   0.89338    9.811
 4427.00    0.91517   0.89280    9.702
 4428.00    0.89939   0.89193    9.690
 4429.00    0.87329   0.89067    9.790
 4430.00    0.84657   0.88879    9.923
 4431.00    0.84019   0.88581    9.992
 4432.00    0.85830   0.88169    9.973
 4433.00    0.86548   0.87735    9.981
 4434.00    0.84095   0.87460   10.077
 4435.00    0.82500   0.87533   10.108
 4436.00    0.84998   0.88017    9.962
 4437.00    0.88072   0.88771    9.811
 4438.00    0.88429   0.89482    9.808
 4439.00    0.88874   0.89833    9.872
 4440.00    0.91796   0.89695    9.885
 4441.00    0.93994   0.89215    9.858
 4442.00    0.93209   0.88727    9.836
 4443.00    0.92927   0.88542    9.807
 4444.00    0.95249   0.88767    9.778
 4445.00    0.95990   0.89298    9.823
 4446.00    0.92552   0.89917    9.955
 4447.00    0.89143   0.90404   10.046
 4448.00    0.89162   0.90639   10.012
 4449.00    0.90183   0.90610    9.937
 4450.00    0.89741   0.90334    9.903
 4451.00    0.89112   0.89811    9.883
 4452.00    0.89686   0.89056    9.859
 4453.00    0.90664   0.88151    9.891
 4454.00    0.91052   0.87245    9.981
 4455.00    0.90888   0.86494   10.016
 4456.00    0.90175   0.85994    9.961
 4457.00    0.88369   0.85746    9.948
 4458.00    0.85531   0.85677   10.033
 4459.00    0.82868   0.85718   10.089
 4460.00    0.81723   0.85869   10.035
 4461.00    0.82799   0.86160    0.000
 4462.00    0.85271   0.86579    0.000
 4463.00    0.86783   0.87044    0.000
 4464.00    0.85946   0.87415    0.000
 4465.00    0.83571   0.87548    0.000
 4466.00    0.81994   0.87365    0.000
 4467.00    0.83764   0.86907    0.000
 4468.00    0.87203   0.86327    0.000
 4469.00    0.86356   0.85869    0.000
 4470.00    0.80899   0.85789    0.000
 4471.00    0.78285   0.86239    0.000
 4472.00    0.82007   0.87193    0.000
 4473.00    0.87882   0.88465    0.000
 4474.00    0.91758   0.89773    0.000
 4475.00    0.92673   0.90820    0.000
 4476.00    0.91404   0.91367    0.000
 4477.00    0.89577   0.91284    0.000
 4478.00    0.88787   0.90606    0.000
 4479.00    0.90023   0.89574    0.000
 4480.00    0.92810   0.88589    0.000
 4481.00    0.95393   0.88058    0.000
 4482.00    0.96560   0.88210    9.334
 4483.00    0.96213   0.88974    9.331
 4484.00    0.94890   0.90009    9.323
 4485.00    0.93314   0.90878    9.440
 4486.00    0.91500   0.91278    9.670
 4487.00    0.89031   0.91165    9.849
 4488.00    0.86943   0.90727    9.895
 4489.00    0.87257   0.90244    9.870
 4490.00    0.89588   0.89919    9.853
 4491.00    0.91373   0.89791    9.880
 4492.00    0.91802   0.89777    9.928
 4493.00    0.91931   0.89782    9.941
 4494.00    0.91493   0.89796    9.945
 4495.00    0.89320   0.89894   10.016
 4496.00    0.87105   0.90155   10.110
 4497.00    0.88278   0.90575   10.089
 4498.00    0.92251   0.91077    9.947
 4499.00    0.94977   0.91592    9.815
 4500.00    0.94445   0.92111    9.822
 4501.00    0.91630   0.92672   10.013
 4502.00    0.89171   0.93293   10.198
 4503.00    0.89620   0.93914   10.103
 4504.00    0.92252   0.94403    9.920
 4505.00    0.94022   0.94653   10.080
 4506.00    0.93497   0.94652   10.585
 4507.00    0.91421   0.94481   11.040
 4508.00    0.89861   0.94243   11.162
 4509.00    0.90878   0.93985   10.967
 4510.00    0.94210   0.93684   10.604
 4511.00    0.97795   0.93291   10.239
 4512.00    0.99854   0.92802   10.020
 4513.00    0.99599   0.92280   10.030
 4514.00    0.97710   0.91820   10.228
 4515.00    0.95599   0.91506   10.481
 4516.00    0.93872   0.91368   10.668
 4517.00    0.92569   0.91381   10.745
 4518.00    0.92100   0.91473   10.817
 4519.00    0.92595   0.91546   11.014
 4520.00    0.92567   0.91505   11.255
 4521.00    0.90480   0.91275   11.366
 4522.00    0.87655   0.90819   11.419
 4523.00    0.86466   0.90147   11.587
 4524.00    0.86748   0.89304   11.782
 4525.00    0.87002   0.88355   11.785
 4526.00    0.87075   0.87399   11.584
 4527.00    0.87188   0.86559   11.358
 4528.00    0.85975   0.85961   11.329
 4529.00    0.82458   0.85668   11.586
 4530.00    0.79097   0.85642   11.866
 4531.00    0.78933   0.85775   11.836
 4532.00    0.81206   0.85973   11.649
 4533.00    0.83355   0.86236   11.636
 4534.00    0.84451   0.86655   11.815
 4535.00    0.85165   0.87313   12.002
 4536.00    0.87050   0.88176   11.991
 4537.00    0.90899   0.89068   11.744
 4538.00    0.94974   0.89769   11.522
 4539.00    0.96687   0.90152   11.559
 4540.00    0.94894   0.90242   11.763
 4541.00    0.90462   0.90173   11.928
 4542.00    0.86408   0.90067   12.003
 4543.00    0.85264   0.89969   12.048
 4544.00    0.86330   0.89841   12.115
 4545.00    0.87568   0.89629   12.203
 4546.00    0.87900   0.89308   12.233
 4547.00    0.87128   0.88903   12.176
 4548.00    0.85613   0.88476   12.156
 4549.00    0.84055   0.88103   12.238
 4550.00    0.83239   0.87828    0.000
 4551.00    0.83396   0.87651    0.000
 4552.00    0.83761   0.87560    0.000
 4553.00    0.83926   0.87583    0.000
 4554.00    0.84883   0.87798    0.000
 4555.00    0.86919   0.88281    0.000
 4556.00    0.88062   0.89031    0.000
 4557.00    0.87362   0.89941    0.000
 4558.00    0.87269   0.90826    0.000
 4559.00    0.89486   0.91501    0.000
 4560.00    0.91899   0.91844    0.000
 4561.00    0.92175   0.91830    0.000
 4562.00    0.90580   0.91542    0.000
 4563.00    0.88620   0.91150    0.000
 4564.00    0.87755   0.90853    0.000
 4565.00    0.88502   0.90789    0.000
 4566.00    0.90036   0.90961    0.000
 4567.00    0.91530   0.91246    0.000
 4568.00    0.93002   0.91470    0.000
 4569.00    0.94528   0.91519    0.000
 4570.00    0.95740   0.91412    0.000
 4571.00    0.96175   0.91270    0.000
 4572.00    0.95599   0.91220    0.000
 4573.00    0.94525   0.91305    0.000
 4574.00    0.94206   0.91459    0.000
 4575.00    0.94786   0.91551    0.000
 4576.00    0.94647   0.91463    0.000
 4577.00    0.93069   0.91140    0.000
 4578.00    0.91370   0.90615    0.000
 4579.00    0.90596   0.89987    0.000
 4580.00    0.90407   0.89386    0.000
 4581.00    0.90135   0.88926    0.000
 4582.00    0.89412   0.88666    0.000
 4583.00    0.88275   0.88615    0.000
 4584.00    0.87227   0.88749    0.000
 4585.00    0.87285   0.89031    0.000
 4586.00    0.89540   0.89404    0.000
 4587.00    0.93061   0.89785    0.000
 4588.00    0.94857   0.90073    0.000
 4589.00    0.94104   0.90186    0.000
 4590.00    0.93117   0.90105    0.000
 4591.00    0.93240   0.89883    0.000
 4592.00    0.93473   0.89618    0.000
 4593.00    0.92437   0.89405    0.000
 4594.00    0.89523   0.89299    0.000
 4595.00    0.85949   0.89307    0.000
 4596.00    0.84320   0.89398    0.000
 4597.00    0.85374   0.89518    0.000
 4598.00    0.87552   0.89611    0.000
 4599.00    0.90029   0.89647    0.000
 4600.00    0.93180   0.89639    0.000
 4601.00    0.96193   0.89635    0.000
 4602.00    0.97085   0.89692    0.000
 4603.00    0.95620   0.89847    0.000
 4604.00    0.93552   0.90120    0.000
 4605.00    0.92096   0.90514    0.000
 4606.00    0.91397   0.91011    0.000
 4607.00    0.91507   0.91555    0.000
 4608.00    0.92427   0.92054    0.000
 4609.00    0.93294   0.92408    0.000
 4610.00    0.92833   0.92562    0.000
 4611.00    0.91338   0.92535    0.000
 4612.00    0.90470   0.92404    0.000
 4613.00    0.91076   0.92249    0.000
 4614.00    0.92728   0.92116    0.000
 4615.00    0.94165   0.91999    0.000
 4616.00    0.94118   0.91875    0.000
 4617.00    0.93015   0.91746    0.000
 4618.00    0.92426   0.91654    0.000
 4619.00    0.92646   0.91657    0.000
 4620.00    0.92792   0.91781    0.000
 4621.00    0.92466   0.91994    0.000
 4622.00    0.91932   0.92214    0.000
 4623.00    0.91589   0.92354    0.000
 4624.00    0.91630   0.92364    0.000
 4625.00    0.91604   0.92247    0.000
 4626.00    0.90817   0.92045    0.000
 4627.00    0.89352   0.91815    0.000
 4628.00    0.88111   0.91608    0.000
 4629.00    0.88399   0.91452    0.000
 4630.00    0.90889   0.91338    0.000
 4631.00    0.93862   0.91225    0.000
 4632.00    0.94749   0.91063    0.000
 4633.00    0.93580   0.90824    0.000
 4634.00    0.92168   0.90512    0.000
 4635.00    0.91506   0.90152    0.000
 4636.00    0.91616   0.89778    0.000
 4637.00    0.92130   0.89436    0.000
 4638.00    0.92598   0.89177    0.000
 4639.00    0.92828   0.89049    0.000
 4640.00    0.92781   0.89050    0.000
 4641.00    0.92335   0.89112    0.000
 4642.00    0.91486   0.89107    0.000
 4643.00    0.90691   0.88907    0.000
 4644.00    0.90417   0.88457    0.000
 4645.00    0.90425   0.87819    0.000
 4646.00    0.90286   0.87166    0.000
 4647.00    0.90219   0.86704    0.000
 4648.00    0.90470   0.86581    0.000
 4649.00    0.90371   0.86818    0.000
 4650.00    0.89228   0.87308    0.000
 4651.00    0.87602   0.87877    0.000
 4652.00    0.86600   0.88368    0.000
 4653.00    0.86782   0.88719    0.000
 4654.00    0.88106   0.88985    0.000
 4655.00    0.90058   0.89297    0.000
 4656.00    0.91964   0.89765    0.000
 4657.00    0.93357   0.90399    0.000
 4658.00    0.94107   0.91071    0.000
 4659.00    0.94483   0.91580    0.000
 4660.00    0.94581   0.91745    0.000
 4661.00    0.93808   0.91491    0.000
 4662.00    0.92187   0.90854    0.000
 4663.00    0.91545   0.89938    0.000
 4664.00    0.92871   0.88870    0.000
 4665.00    0.93854   0.87793    0.000
 4666.00    0.92214   0.86874    0.000
 4667.00    0.88968   0.86292    0.000
 4668.00    0.86397   0.86173    0.000
 4669.00    0.85837   0.86514    0.000
 4670.00    0.87368   0.87175    0.000
 4671.00    0.89797   0.87942    0.000
 4672.00    0.91590   0.88632    0.000
 4673.00    0.91735   0.89155    0.000
 4674.00    0.90221   0.89504    0.000
 4675.00    0.88255   0.89697    0.000
 4676.00    0.87169   0.89739    0.000
 4677.00    0.87498   0.89627    0.000
 4678.00    0.88816   0.89382    0.000
 4679.00    0.89815   0.89068    0.000
 4680.00    0.89527   0.88778    0.000
 4681.00    0.88176   0.88588    0.000
 4682.00    0.86686   0.88525    0.000
 4683.00    0.86202   0.88561    0.000
 4684.00    0.87523   0.88645    0.000
 4685.00    0.90661   0.88737    0.000
 4686.00    0.94375   0.88823    0.000
 4687.00    0.96271   0.88907    0.000
 4688.00    0.95287   0.88996    0.000
 4689.00    0.92926   0.89099    0.000
 4690.00    0.91017   0.89228    0.000
 4691.00    0.90298   0.89405    0.000
 4692.00    0.90514   0.89632    0.000
 4693.00    0.90727   0.89875    0.000
 4694.00    0.90474   0.90050    0.000
 4695.00    0.90176   0.90056    0.000
 4696.00    0.89733   0.89821    0.000
 4697.00    0.88154   0.89352    0.000
 4698.00    0.85660   0.88734    0.000
 4699.00    0.84228   0.88097    0.000
 4700.00    0.84658   0.87552    0.000
 4701.00    0.85552   0.87165    0.000
 4702.00    0.85642   0.86950    0.000
 4703.00    0.84867   0.86883    0.000
 4704.00    0.83855   0.86914    0.000
 4705.00    0.83478   0.86981    0.000
 4706.00    0.84023   0.87043    0.000
 4707.00    0.84982   0.87095    0.000
 4708.00    0.85681   0.87170    0.000
 4709.00    0.85696   0.87293    0.000
 4710.00    0.85333   0.87456    0.000
 4711.00    0.85480   0.87622    0.000
 4712.00    0.86277   0.87773    0.000
 4713.00    0.86911   0.87946    0.000
 4714.00    0.86877   0.88220    0.000
 4715.00    0.86426   0.88661    0.000
 4716.00    0.86404   0.89265    0.000
 4717.00    0.87780   0.89951    0.000
 4718.00    0.90296   0.90602    0.000
 4719.00    0.92553   0.91116    0.000
 4720.00    0.93885   0.91447    0.000
 4721.00    0.94615   0.91599    0.000
 4722.00    0.94789   0.91596    0.000
 4723.00    0.93948   0.91444    0.000
 4724.00    0.91725   0.91118    0.000
 4725.00    0.88162   0.90588    0.000
 4726.00    0.84055   0.89870    0.000
 4727.00    0.80774   0.89063    0.000
 4728.00    0.79445   0.88327    0.000
 4729.00    0.80533   0.87819    0.000
 4730.00    0.83384   0.87623    0.000
 4731.00    0.86517   0.87722    0.000
 4732.00    0.88711   0.88018    0.000
 4733.00    0.89350   0.88382    0.000
 4734.00    0.88524   0.88711    0.000
 4735.00    0.86981   0.88957    0.000
 4736.00    0.85916   0.89129    0.000
 4737.00    0.86418   0.89263    0.000
 4738.00    0.88333   0.89387    0.000
 4739.00    0.90520   0.89508    0.000
 4740.00    0.92027   0.89626    0.000
 4741.00    0.92396   0.89744    0.000
 4742.00    0.91721   0.89877    0.000
 4743.00    0.90470   0.90035    0.000
 4744.00    0.89090   0.90216    0.000
 4745.00    0.87912   0.90400    0.000
 4746.00    0.87099   0.90564    0.000
 4747.00    0.86576   0.90680    0.000
 4748.00    0.85927   0.90719    0.000
 4749.00    0.84810   0.90658    0.000
 4750.00    0.83744   0.90484    0.000
 4751.00    0.83638   0.90204    0.000
 4752.00    0.84714   0.89850    0.000
 4753.00    0.86416   0.89481    0.000
 4754.00    0.87636   0.89159    0.000
 4755.00    0.87501   0.88932    0.000
 4756.00    0.86573   0.88806    0.000
 4757.00    0.86162   0.88743    0.000
 4758.00    0.86930   0.88665    0.000
 4759.00    0.88650   0.88485    0.000
 4760.00    0.90236   0.88142    0.000
 4761.00    0.90651   0.87640   15.256
 4762.00    0.90164   0.87054   15.208
 4763.00    0.89409   0.86503   15.216
 4764.00    0.87875   0.86112   15.277
 4765.00    0.85165   0.85964   15.369
 4766.00    0.82851   0.86077   15.513
 4767.00    0.82683   0.86400   15.702
 4768.00    0.84022   0.86832   15.795
 4769.00    0.85244   0.87268   15.703
 4770.00    0.85888   0.87644   15.611
 4771.00    0.86296   0.87955   15.696
 4772.00    0.86839   0.88239   15.782
 4773.00    0.87575   0.88531   15.632
 4774.00    0.88006   0.88823   15.340
 4775.00    0.87822   0.89069   15.143
 4776.00    0.87692   0.89209   15.169
 4777.00    0.88491   0.89204   15.361
 4778.00    0.90362   0.89054   15.400
 4779.00    0.92601   0.88787   15.114
 4780.00    0.93751   0.88450   14.871
 4781.00    0.92820   0.88087   14.990
 4782.00    0.90416   0.87738   15.274
 4783.00    0.87996   0.87427   15.407
 4784.00    0.86922   0.87172   15.409
 4785.00    0.87379   0.86980   15.431
 4786.00    0.87689   0.86861   15.506
 4787.00    0.86725   0.86834   15.576
 4788.00    0.85864   0.86925   15.553
 4789.00    0.86504   0.87162   15.416
 4790.00    0.87980   0.87553   15.265
 4791.00    0.89211   0.88079   15.201
 4792.00    0.90095   0.88675   15.233
 4793.00    0.90776   0.89239   15.318
 4794.00    0.91024   0.89654   15.396
 4795.00    0.90697   0.89829   15.445
 4796.00    0.90102   0.89742   15.507
 4797.00    0.89856   0.89457   15.569
 4798.00    0.90616   0.89100   15.505
 4799.00    0.92099   0.88805   15.347
 4800.00    0.92692   0.88646   15.387
 4801.00    0.91570   0.88612   15.636
 4802.00    0.89891   0.88619   15.590
 4803.00    0.88868   0.88574   15.253
 4804.00    0.88562   0.88432   15.494
 4805.00    0.88556   0.88215   16.123
 4806.00    0.88468   0.87991   15.041
 4807.00    0.88176   0.87831   12.586
 4808.00    0.87902   0.87770   11.166
 4809.00    0.87936   0.87804   11.086
 4810.00    0.88472   0.87901   11.383
 4811.00    0.89583   0.88034   11.281
 4812.00    0.91151   0.88188   10.929
 4813.00    0.92531   0.88368   10.722
 4814.00    0.92634   0.88581   10.850
 4815.00    0.91263   0.88819   11.126
 4816.00    0.89560   0.89050   11.021
 4817.00    0.88786   0.89219   10.811
 4818.00    0.89543   0.89263   11.698
 4819.00    0.91192   0.89129   14.268
 4820.00    0.91991   0.88800   16.574
 4821.00    0.90934   0.88316   16.335
 4822.00    0.88455   0.87772   15.917
 4823.00    0.85690   0.87290   16.232
 4824.00    0.83895   0.86966   15.177
 4825.00    0.83523   0.86823   12.775
 4826.00    0.83974   0.86800   10.994
 4827.00    0.84232   0.86803   10.227
 4828.00    0.83388   0.86754   10.120
 4829.00    0.81601   0.86640   10.232
 4830.00    0.80144   0.86497   10.118
 4831.00    0.80151   0.86378    9.976
 4832.00    0.82011   0.86323   10.542
 4833.00    0.84976   0.86330   12.105
 4834.00    0.87433   0.86358   13.982
 4835.00    0.88311   0.86342   15.222
 4836.00    0.87643   0.86224   15.870
 4837.00    0.86716   0.85986   16.205
 4838.00    0.87231   0.85652   16.159
 4839.00    0.88558   0.85279   15.883
 4840.00    0.88098   0.84932   15.757
 4841.00    0.85082   0.84658   15.888
 4842.00    0.81144   0.84471   16.104
 4843.00    0.78450   0.84343   16.285
 4844.00    0.78536   0.84219   16.416
 4845.00    0.80759   0.84035   16.436
 4846.00    0.82843   0.83743   16.285
 4847.00    0.83552   0.83329   16.144
 4848.00    0.83086   0.82815    0.000
 4849.00    0.82147   0.82220    0.000
 4850.00    0.81476   0.81531    0.000
 4851.00    0.81365   0.80687    0.000
 4852.00    0.81510   0.79612    0.000
 4853.00    0.80987   0.78246    0.000
 4854.00    0.79011   0.76568    0.000
 4855.00    0.76651   0.74579    0.000
 4856.00    0.76523   0.72289    0.000
 4857.00    0.81198   0.69731    0.000
 4858.00    0.92005   0.67031    0.000
 4859.00    1.07353   0.64475    0.000
 4860.00    1.23367   0.62501    0.000
 4861.00    1.35960   0.61554    0.000
 4862.00    1.41597   0.61888    0.000
 4863.00    1.37951   0.63440    0.000
 4864.00    1.25129   0.65840    0.000
 4865.00    1.07606   0.68573    0.000
 4866.00    0.91840   0.71159    0.000
 4867.00    0.81276   0.73278    0.000
 4868.00    0.76134   0.74810    0.000
 4869.00    0.74731   0.75822    0.000
 4870.00    0.74859   0.76490    0.000
 4871.00    0.75639   0.77030    0.000
 4872.00    0.76821   0.77628    0.000
 4873.00    0.77196   0.78381    0.000
 4874.00    0.75882   0.79283    0.000
 4875.00    0.74616   0.80262   16.935
 4876.00    0.75693   0.81231   16.946
 4877.00    0.78405   0.82107   16.721
 4878.00    0.80527   0.82825   16.477
 4879.00    0.81204   0.83344   16.441
 4880.00    0.80833   0.83641   16.674
 4881.00    0.80263   0.83717   16.864
 4882.00    0.80121   0.83612   16.695
 4883.00    0.80108   0.83388   16.449
 4884.00    0.79798   0.83109   16.507
 4885.00    0.79713   0.82827   16.735
 4886.00    0.80363   0.82574   16.814
 4887.00    0.80958   0.82369   16.754
 4888.00    0.80473   0.82238   16.728
 4889.00    0.79087   0.82252   16.779
 4890.00    0.77814   0.82511   16.822
 4891.00    0.77821   0.83110   16.712
 4892.00    0.79661   0.84067   16.435
 4893.00    0.82574   0.85287   16.266
 4894.00    0.85326   0.86566   16.393
 4895.00    0.87167   0.87664   16.587
 4896.00    0.87787   0.88395   16.570
 4897.00    0.87187   0.88685   16.458
 4898.00    0.85972   0.88595   16.432
 4899.00    0.85528   0.88268   16.405
 4900.00    0.86690   0.87869   16.265
 4901.00    0.88582   0.87537   16.106
 4902.00    0.89878   0.87353   16.062
 4903.00    0.90061   0.87334   16.149
 4904.00    0.89414   0.87431   16.302
 4905.00    0.88814   0.87542   16.415
 4906.00    0.88848   0.87557   16.409
 4907.00    0.89127   0.87414   16.290
 4908.00    0.88900   0.87130   16.150
 4909.00    0.87669   0.86796   16.129
 4910.00    0.85880   0.86549   16.271
 4911.00    0.85155   0.86494   16.430
 4912.00    0.86190   0.86631   16.461
 4913.00    0.87432   0.86838   16.381
 4914.00    0.87355   0.86919   16.274
 4915.00    0.86061   0.86663   16.214
 4916.00    0.84282   0.85944   16.263
 4917.00    0.82586   0.84786   16.465
 4918.00    0.81235   0.83379   16.736
 4919.00    0.80163   0.82017   16.812
 4920.00    0.79256   0.81013   16.626
 4921.00    0.78547   0.80590   16.480
 4922.00    0.78286   0.80822   16.538
 4923.00    0.78907   0.81627   16.602
 4924.00    0.80630   0.82830   16.507
 4925.00    0.83202   0.84228   16.338
 4926.00    0.85841   0.85622   16.158
 4927.00    0.87397   0.86847   15.905
 4928.00    0.87429   0.87776   15.653
 4929.00    0.86611   0.88312   15.649
 4930.00    0.85701   0.88413   15.894
 4931.00    0.85000   0.88128   16.015
 4932.00    0.84504   0.87580   15.804
 4933.00    0.84053   0.86910   15.478
 4934.00    0.83569   0.86253   15.225
 4935.00    0.83141   0.85687   15.040
 4936.00    0.82862   0.85252   14.894
 4937.00    0.82768   0.84984   14.789
 4938.00    0.82938   0.84925   14.695
 4939.00    0.83467   0.85111   14.557
 4940.00    0.84193   0.85558    0.000
 4941.00    0.84737   0.86217    0.000
 4942.00    0.85194   0.86965    0.000
 4943.00    0.86153   0.87663    0.000
 4944.00    0.87613   0.88217    0.000
 4945.00    0.88854   0.88620    0.000
 4946.00    0.89655   0.88925    0.000
 4947.00    0.90475   0.89172    0.000
 4948.00    0.91351   0.89368    0.000
 4949.00    0.91764   0.89486    0.000
 4950.00    0.91681   0.89460    0.000
 4951.00    0.91614   0.89208    0.000
 4952.00    0.91494   0.88681    0.000
 4953.00    0.90677   0.87874    0.000
 4954.00    0.89204   0.86849    0.000
 4955.00    0.87912   0.85748    0.000
 4956.00    0.87405   0.84781    0.000
 4957.00    0.87761   0.84166    0.000
 4958.00    0.88689   0.84030    0.000
 4959.00    0.89715   0.84355    0.000
 4960.00    0.90583   0.84980    0.000
 4961.00    0.91235   0.85650    0.000
 4962.00    0.91440   0.86111    0.000
 4963.00    0.90849   0.86236    0.000
 4964.00    0.89448   0.86072    0.000
 4965.00    0.87629   0.85759    0.000
 4966.00    0.86057   0.85445    0.000
 4967.00    0.85344   0.85248    0.000
 4968.00    0.85371   0.85243    0.000
 4969.00    0.85560   0.85443    0.000
 4970.00    0.85935   0.85803    0.000
 4971.00    0.86840   0.86245    0.000
 4972.00    0.87745   0.86680    0.000
 4973.00    0.87666   0.87018    0.000
 4974.00    0.86705   0.87176    0.000
 4975.00    0.85784   0.87091    0.000
 4976.00    0.85349   0.86740    0.000
 4977.00    0.85188   0.86128    0.000
 4978.00    0.84663   0.85295    0.000
 4979.00    0.83274   0.84313    0.000
 4980.00    0.81638   0.83285    0.000
 4981.00    0.80814   0.82349    0.000
 4982.00    0.80711   0.81658    0.000
 4983.00    0.80516   0.81338    0.000
 4984.00    0.80025   0.81446    0.000
 4985.00    0.79621   0.81941    0.000
 4986.00    0.79805   0.82672    0.000
 4987.00    0.80786   0.83425    0.000
 4988.00    0.81987   0.84031    0.000
 4989.00    0.82599   0.84422    0.000
 4990.00    0.82595   0.84619    0.000
 4991.00    0.82615   0.84703    0.000
 4992.00    0.83495   0.84764    0.000
 4993.00    0.85592   0.84840    0.000
 4994.00    0.87942   0.84911    0.000
 4995.00    0.89123   0.84906    0.000
 4996.00    0.88652   0.84750    0.000
 4997.00    0.86917   0.84411    0.000
 4998.00    0.84770   0.83888    0.000
 4999.00    0.83083   0.83235    0.000
 5000.00    0.82248   0.82552    0.000
 5001.00    0.82341   0.81934    0.000
 5002.00    0.83409   0.81443    0.000
 5003.00    0.85550   0.81103    0.000
 5004.00    0.88934   0.80905    0.000
 5005.00    0.93380   0.80847    0.000
 5006.00    0.97891   0.80921    0.000
 5007.00    1.01114   0.81102    0.000
 5008.00    1.01966   0.81320    0.000
 5009.00    0.99959   0.81452    0.000
 5010.00    0.95483   0.81359    0.000
 5011.00    0.89683   0.80977    0.000
 5012.00    0.84223   0.80381    0.000
 5013.00    0.80434   0.79742    0.000
 5014.00    0.78512   0.79228    0.000
 5015.00    0.77973   0.78960    0.000
 5016.00    0.78200   0.78969    0.000
 5017.00    0.78641   0.79218    0.000
 5018.00    0.78953   0.79628    0.000
 5019.00    0.79012   0.80107    0.000
 5020.00    0.78912   0.80599    0.000
 5021.00    0.79022   0.81084    0.000
 5022.00    0.79934   0.81533    0.000
 5023.00    0.81576   0.81918    0.000
 5024.00    0.82633   0.82237    0.000
 5025.00    0.82070   0.82516    0.000
 5026.00    0.80323   0.82767    0.000
 5027.00    0.78566   0.83011    0.000
 5028.00    0.77952   0.83299    0.000
 5029.00    0.78756   0.83654   17.962
 5030.00    0.79920   0.84054   17.976
 5031.00    0.80290   0.84408   17.828
 5032.00    0.79543   0.84577   17.842
 5033.00    0.78250   0.84472   18.141
 5034.00    0.77675   0.84071   18.323
 5035.00    0.78398   0.83392   18.144
 5036.00    0.79594   0.82507   17.957
 5037.00    0.80336   0.81531   18.000
 5038.00    0.80401   0.80622   18.051
 5039.00    0.79793   0.79931   17.963
 5040.00    0.78488   0.79568   17.937
 5041.00    0.76826   0.79639   18.029
 5042.00    0.75631   0.80185   17.954
 5043.00    0.75524   0.81102   17.666
 5044.00    0.76586   0.82153   17.550
 5045.00    0.78723   0.83018   17.759
 5046.00    0.81771   0.83466   17.964
 5047.00    0.84909   0.83486   17.864
 5048.00    0.86641   0.83208   17.513
 5049.00    0.86248   0.82822   17.221
 5050.00    0.84368   0.82540   17.358
 5051.00    0.82121   0.82510   17.912
 5052.00    0.80551   0.82754   18.344
 5053.00    0.80186   0.83196   18.322
 5054.00    0.80879   0.83745   18.118
 5055.00    0.82047   0.84314   18.004
 5056.00    0.82929   0.84831   18.016
 5057.00    0.83199   0.85258   18.139
 5058.00    0.83120   0.85585   18.361
 5059.00    0.83094   0.85784   18.554
 5060.00    0.83401   0.85802   18.505
 5061.00    0.83968   0.85582   18.295
 5062.00    0.84389   0.85131   18.278
 5063.00    0.84383   0.84509   18.477
 5064.00    0.83955   0.83816   18.542
 5065.00    0.83359   0.83179   18.422
 5066.00    0.82967   0.82713   18.442
 5067.00    0.82904   0.82478   18.603
 5068.00    0.82948   0.82439   18.547
 5069.00    0.82659   0.82480   18.315
 5070.00    0.81663   0.82528   18.328
 5071.00    0.80432   0.82568   18.583
 5072.00    0.80031   0.82575   18.622
 5073.00    0.80575   0.82520   18.337
 5074.00    0.81166   0.82400   18.066
 5075.00    0.81177   0.82206   18.015
 5076.00    0.80570   0.81884   18.162
 5077.00    0.79617   0.81415   18.376
 5078.00    0.78731   0.80872   18.502
 5079.00    0.78219   0.80366   18.545
 5080.00    0.78143   0.80007   18.645
 5081.00    0.78149   0.79899   18.853
 5082.00    0.77829   0.80108   19.100
 5083.00    0.77742   0.80577   19.294
 5084.00    0.78974   0.81164   19.337
 5085.00    0.81425   0.81766   19.094
 5086.00    0.83923   0.82335   18.556
 5087.00    0.85485   0.82834   18.132
 5088.00    0.85741   0.83242   18.266
 5089.00    0.85125   0.83576   18.690
 5090.00    0.84483   0.83856   18.705
 5091.00    0.84115   0.84063   18.382
 5092.00    0.83865   0.84147   18.306
 5093.00    0.83738   0.84061   18.450
 5094.00    0.83796   0.83770   18.403
 5095.00    0.83675   0.83272   18.227
 5096.00    0.82871   0.82630   18.279
 5097.00    0.81482   0.81978   18.545
 5098.00    0.80104   0.81468   18.746
 5099.00    0.79374   0.81196   18.775
 5100.00    0.79585   0.81176   18.689
 5101.00    0.80197   0.81346   18.509
 5102.00    0.80352   0.81582   18.254
 5103.00    0.79912   0.81734   18.056
 5104.00    0.79322   0.81716   18.043
 5105.00    0.79072   0.81544   18.138
 5106.00    0.79334   0.81295   18.145
 5107.00    0.79571   0.81063   17.945
 5108.00    0.79235   0.80924   17.587
 5109.00    0.78909   0.80944   17.326
 5110.00    0.79590   0.81154   17.348
 5111.00    0.81387   0.81527   17.451
 5112.00    0.83547   0.82012   17.389
 5113.00    0.84815   0.82556   17.415
 5114.00    0.84366   0.83081   17.847
 5115.00    0.82948   0.83516   18.371
 5116.00    0.81934   0.83815   18.450
 5117.00    0.81885   0.83919   18.213
 5118.00    0.82726   0.83781   18.115
 5119.00    0.84187   0.83384   18.308
 5120.00    0.85669   0.82746   18.686
 5121.00    0.86064   0.81950   18.984
 5122.00    0.84685   0.81112   19.034
 5123.00    0.82291   0.80348   19.081
 5124.00    0.80094   0.79743   19.369
 5125.00    0.78532   0.79348   19.669
 5126.00    0.77596   0.79177   19.686
 5127.00    0.77339   0.79198   19.619
 5128.00    0.77855   0.79355   19.681
 5129.00    0.79172   0.79620   19.596
 5130.00    0.80932   0.79973   19.158
 5131.00    0.82164   0.80379   18.764
 5132.00    0.82265   0.80783   18.769
 5133.00    0.81884   0.81111   18.991
 5134.00    0.82001   0.81292   19.118
 5135.00    0.82986   0.81298   19.098
 5136.00    0.84559   0.81140   19.023
 5137.00    0.85895   0.80837   18.968
 5138.00    0.86180   0.80444   19.013
 5139.00    0.85116   0.80067   19.261
 5140.00    0.83169   0.79778   19.641
 5141.00    0.81590   0.79604   19.769
 5142.00    0.81133   0.79520   19.441
 5143.00    0.81163   0.79459   19.026
 5144.00    0.80915   0.79411   18.856
 5145.00    0.80429   0.79407   18.880
 5146.00    0.79867   0.79412   18.966
 5147.00    0.79029   0.79385   19.105
 5148.00    0.77892   0.79338   19.261
 5149.00    0.76949   0.79288   19.273
 5150.00    0.76588   0.79239   19.048
 5151.00    0.76718   0.79203   18.683
 5152.00    0.77237   0.79233   18.327
 5153.00    0.78262   0.79414   18.082
 5154.00    0.79502   0.79799   17.979
 5155.00    0.80068   0.80366   17.984
 5156.00    0.79847   0.81040   18.103
 5157.00    0.80069   0.81702   18.395
 5158.00    0.81554   0.82209   18.675
 5159.00    0.83785   0.82433   18.494
 5160.00    0.85723   0.82293   18.226
 5161.00    0.86411   0.81753   19.097
 5162.00    0.85577   0.80795   20.331
 5163.00    0.83778   0.79424   18.005
 5164.00    0.81556   0.77719   14.008
 5165.00    0.79059   0.75828   12.259
 5166.00    0.76498   0.73933   12.641
 5167.00    0.74303   0.72251   13.619
 5168.00    0.72720   0.70992   13.926
 5169.00    0.71666   0.70289   13.890
 5170.00    0.70980   0.70133   14.024
 5171.00    0.70563   0.70410   14.198
 5172.00    0.70436   0.71003   14.223
 5173.00    0.70711   0.71895   14.130
 5174.00    0.71355   0.73129   13.999
 5175.00    0.72160   0.74595   13.870
 5176.00    0.73064   0.75957   13.710
 5177.00    0.74178   0.76866   13.456
 5178.00    0.75316   0.77163   13.224
 5179.00    0.75979   0.76856   13.229
 5180.00    0.75958   0.76061   13.308
 5181.00    0.75428   0.75007   13.062
 5182.00    0.74423   0.74003   13.028
 5183.00    0.72939   0.73356   14.530
 5184.00    0.71948   0.73287   17.989
 5185.00    0.73038   0.73891   20.419
 5186.00    0.76050   0.75016   19.483
 5187.00    0.79011   0.76265   18.540
 5188.00    0.80550   0.77252   18.884
 5189.00    0.80536   0.77818   19.299
 5190.00    0.79491   0.78011    0.000
 5191.00    0.78207   0.77967    0.000
 5192.00    0.77176   0.77814    0.000
 5193.00    0.76560   0.77723    0.000
 5194.00    0.76602   0.77868    0.000
 5195.00    0.77557   0.78261    0.000
 5196.00    0.79160   0.78782    0.000
 5197.00    0.80749   0.79325    0.000
 5198.00    0.81995   0.79801    0.000
 5199.00    0.82966   0.80087    0.000
 5200.00    0.83815   0.80082    0.000
 5201.00    0.84521   0.79734    0.000
 5202.00    0.84492   0.79051    0.000
 5203.00    0.83045   0.78120    0.000
 5204.00    0.80696   0.77089    0.000
 5205.00    0.78744   0.76118    0.000
 5206.00    0.77653   0.75387    0.000
 5207.00    0.77134   0.75072    0.000
 5208.00    0.77148   0.75240    0.000
 5209.00    0.77840   0.75822    0.000
 5210.00    0.78956   0.76724    0.000
 5211.00    0.79983   0.77813   19.272
 5212.00    0.80694   0.78894   19.175
 5213.00    0.81094   0.79806   19.253
 5214.00    0.81135   0.80473   19.417
 5215.00    0.80852   0.80912   19.471
 5216.00    0.80716   0.81221   19.510
 5217.00    0.81204   0.81524   19.741
 5218.00    0.81966   0.81874   19.991
 5219.00    0.82260   0.82194   19.933
 5220.00    0.81970   0.82325   19.670
 5221.00    0.81447   0.82131   19.538
 5222.00    0.80952   0.81571   19.632
 5223.00    0.80522   0.80705   19.850
 5224.00    0.79914   0.79686   20.037
 5225.00    0.78891   0.78743   20.069
 5226.00    0.77664   0.78107   19.975
 5227.00    0.76645   0.77920   19.864
 5228.00    0.75984   0.78209   19.780
 5229.00    0.75659   0.78857   19.739
 5230.00    0.75679   0.79597   19.783
 5231.00    0.76140   0.80182   19.890
 5232.00    0.77242   0.80564   19.834
 5233.00    0.78970   0.80817   19.498
 5234.00    0.80720   0.81069   19.234
 5235.00    0.81848   0.81453   19.370
 5236.00    0.82411   0.81987   19.663
 5237.00    0.82812   0.82579   19.694
 5238.00    0.83287   0.83111   19.487
 5239.00    0.83968   0.83501   19.266
 5240.00    0.85002   0.83733   19.067
 5241.00    0.86225   0.83824   18.879
 5242.00    0.86843   0.83785   18.806
 5243.00    0.86306   0.83604   18.913
 5244.00    0.85214   0.83281   19.070
 5245.00    0.84333   0.82842   19.133
 5246.00    0.83534   0.82305   19.170
 5247.00    0.82473   0.81702   19.282
 5248.00    0.81344   0.81154   19.409
 5249.00    0.80497   0.80799   19.456
 5250.00    0.80017   0.80649   19.440
 5251.00    0.79771   0.80654   19.417
 5252.00    0.79515   0.80828   19.408
 5253.00    0.79120   0.81167   19.381
 5254.00    0.78749   0.81598   19.260
 5255.00    0.78614   0.82039   19.069
 5256.00    0.78759   0.82434   19.003
 5257.00    0.79088   0.82719   19.148
 5258.00    0.79411   0.82743   19.291
 5259.00    0.79562   0.82347   19.254
 5260.00    0.79466   0.81483   19.169
 5261.00    0.78968   0.80234   19.198
 5262.00    0.77763   0.78770   19.320
 5263.00    0.75912   0.77293   19.469
 5264.00    0.74131   0.75989   19.637
 5265.00    0.73110   0.74980   19.771
 5266.00    0.73027   0.74309   19.729
 5267.00    0.73674   0.73974   19.507
 5268.00    0.74600   0.73954   19.341
 5269.00    0.75368   0.74157   19.360
 5270.00    0.75702   0.74540   19.421
 5271.00    0.75449   0.75222   19.402
 5272.00    0.74620   0.76249   19.365
 5273.00    0.73778   0.77415   19.388
 5274.00    0.74071   0.78513   19.466
 5275.00    0.75983   0.79501   19.519
 5276.00    0.78738   0.80374   19.444
 5277.00    0.81143   0.81124   19.288
 5278.00    0.82214   0.81711   19.277
 5279.00    0.81813   0.82028   19.477
 5280.00    0.80781   0.82052   19.670
 5281.00    0.79858   0.81918   19.680
 5282.00    0.79218   0.81821   19.549
 5283.00    0.78975   0.81918   19.423
 5284.00    0.79382   0.82275   19.432
 5285.00    0.80472   0.82886   19.502
 5286.00    0.81893   0.83667   19.366
 5287.00    0.83019   0.84428   19.057
 5288.00    0.83155   0.84993   18.957
 5289.00    0.82207   0.85306   19.136
 5290.00    0.80855   0.85394   19.227
 5291.00    0.80007   0.85271   19.084
 5292.00    0.80388   0.84918   18.957
 5293.00    0.81853   0.84333   18.933
 5294.00    0.83395   0.83571   18.826
 5295.00    0.84227   0.82728   18.609
 5296.00    0.84142   0.81897   18.450
 5297.00    0.83194   0.81184   18.294
 5298.00    0.81631   0.80735   17.863
 5299.00    0.80118   0.80685   17.162
 5300.00    0.79532   0.81046   16.479
 5301.00    0.80010   0.81660   15.939
 5302.00    0.80900   0.82359   15.506
 5303.00    0.81752   0.83080   15.187
 5304.00    0.82528   0.83782   15.039
 5305.00    0.83219   0.84384   14.998
 5306.00    0.83730   0.84815   14.900
 5307.00    0.83962   0.85073   14.684
 5308.00    0.83878   0.85214   14.422
 5309.00    0.83637   0.85297   14.232
 5310.00    0.83481   0.85320   14.204
 5311.00    0.83334   0.85235   14.306
 5312.00    0.82877   0.85028   14.423
 5313.00    0.82078   0.84734   14.556
 5314.00    0.81221   0.84398   14.803
 5315.00    0.80623   0.84073   15.132
 5316.00    0.80487   0.83788   15.400
 5317.00    0.80754   0.83548   15.619
 5318.00    0.81250   0.83376   15.913
 5319.00    0.82115   0.83239   16.162
 5320.00    0.83580   0.83023   16.114
 5321.00    0.85242   0.82637   15.925
 5322.00    0.86231   0.82058   15.982
 5323.00    0.85981   0.81285   16.299
 5324.00    0.84417   0.80351   16.582
 5325.00    0.81969   0.79363   16.677
 5326.00    0.79362   0.78496   16.637
 5327.00    0.77185   0.77860   16.586
 5328.00    0.75781   0.77514   16.627
 5329.00    0.75217   0.77602   16.757
 5330.00    0.75398   0.78259   16.881
 5331.00    0.76299   0.79324   16.877
 5332.00    0.77899   0.80432   16.691
 5333.00    0.79972   0.81336   16.468
 5334.00    0.82141   0.81972   16.399
 5335.00    0.84022   0.82339   16.481
 5336.00    0.85158   0.82417   16.580
 5337.00    0.84888   0.82233   16.610
 5338.00    0.82910   0.81905   16.594
 5339.00    0.80177   0.81569   16.704
 5340.00    0.78142   0.81298   17.079
 5341.00    0.77348   0.81157   17.530
 5342.00    0.77567   0.81217   17.729
 5343.00    0.78363   0.81438   17.712
 5344.00    0.79320   0.81660   17.706
 5345.00    0.80237   0.81796   17.708
 5346.00    0.81147   0.81862   17.652
 5347.00    0.82275   0.81943   17.712
 5348.00    0.83675   0.82126   18.024
 5349.00    0.84780   0.82418   18.276
 5350.00    0.84996   0.82848   18.130
 5351.00    0.84523   0.83455   17.913
 5352.00    0.84004   0.84173   18.033
 5353.00    0.83933   0.84872   18.257
 5354.00    0.84367   0.85472   18.211
 5355.00    0.84720   0.85959   18.096
 5356.00    0.84496   0.86295   18.219
 5357.00    0.84112   0.86419   18.387
 5358.00    0.84127   0.86323   18.329
 5359.00    0.84325   0.86029   18.233
 5360.00    0.84356   0.85565   18.330
 5361.00    0.84462   0.84974   18.446
 5362.00    0.84775   0.84312   18.378
 5363.00    0.84599   0.83649   18.327
 5364.00    0.83395   0.83037   18.472
 5365.00    0.81761   0.82456   18.565
 5366.00    0.80588   0.81881   18.353
 5367.00    0.80175   0.81331   18.022
 5368.00    0.80178   0.80826   17.827
 5369.00    0.79751   0.80420   17.783
 5370.00    0.78679   0.80192   17.792
 5371.00    0.78178   0.80233   17.776
 5372.00    0.79079   0.80638   17.724
 5373.00    0.80420   0.81401   17.715
 5374.00    0.81173   0.82338   17.814
 5375.00    0.81649   0.83188   17.989
 5376.00    0.82463   0.83805   18.163
 5377.00    0.83635   0.84156   18.267
 5378.00    0.84709   0.84279   18.285
 5379.00    0.84972   0.84250   18.279
 5380.00    0.84228   0.84110   18.353
 5381.00    0.83232   0.83910   18.601
 5382.00    0.82785   0.83728   18.922
 5383.00    0.83105   0.83607   18.939
 5384.00    0.83997   0.83532   18.554
 5385.00    0.85021   0.83489   18.237
 5386.00    0.85619   0.83426   18.306
 5387.00    0.85273   0.83260   18.628
 5388.00    0.83940   0.82975   18.939
 5389.00    0.82236   0.82591   19.061
 5390.00    0.80863   0.82130   18.976
 5391.00    0.80225   0.81640   18.822
 5392.00    0.80297   0.81176   18.733
 5393.00    0.80641   0.80748   18.736
 5394.00    0.80886   0.80362   18.791
 5395.00    0.80942   0.80050   18.820
 5396.00    0.80675   0.79843   18.813
 5397.00    0.79822   0.79729   18.859
 5398.00    0.78488   0.79737   18.978
 5399.00    0.77281   0.79888   19.064
 5400.00    0.76666   0.80016   19.054
 5401.00    0.76664   0.79941   18.994
 5402.00    0.76920   0.79660   18.909
 5403.00    0.76900   0.79232   18.769
 5404.00    0.76524   0.78693   18.642
 5405.00    0.76274   0.78164   18.702
 5406.00    0.76350   0.77829   18.964
 5407.00    0.76382   0.77808   -2.000
 5408.00    0.75827   0.78074   -2.000
 5409.00    0.74288   0.78499   -2.000
 5410.00    0.72053   0.79000   -2.000
 5411.00    0.70252   0.79616   -2.000
 5412.00    0.70564   0.80383   -2.000
 5413.00    0.74446   0.81188   -2.000
 5414.00    0.80777   0.81888   -2.000
 5415.00    0.86147   0.82437   -2.000
 5416.00    0.89005   0.82861   -2.000
 5417.00    0.90446   0.83175   -2.000
 5418.00    0.91620   0.83332   -2.000
 5419.00    0.92872   0.83315   -2.000
 5420.00    0.94005   0.83187   -2.000
 5421.00    0.94538   0.83019   -2.000
 5422.00    0.94210   0.82864   10.583
 5423.00    0.92973   0.82715   10.824
 5424.00    0.90481   0.82514   11.172
 5425.00    0.86481   0.82277   11.323
 5426.00    0.82383   0.82060   11.732
 5427.00    0.80500   0.81806   13.568
 5428.00    0.80671   0.81418   17.078
 5429.00    0.80634   0.80873   18.866
 5430.00    0.79609   0.80287   16.808
 5431.00    0.78451   0.79897   14.416
 5432.00    0.77419   0.79766   13.184
 5433.00    0.76130   0.79768   12.962
 5434.00    0.74922   0.79916   13.274
 5435.00    0.74698   0.80296   13.467
 5436.00    0.75733   0.80925   13.248
 5437.00    0.77582   0.81739   12.817
 5438.00    0.79568   0.82600   12.510
 5439.00    0.81087   0.83350   12.478
 5440.00    0.82019   0.83839   12.326
 5441.00    0.82600   0.83981   11.736
 5442.00    0.82980   0.83776   11.696
 5443.00    0.83179   0.83283   13.673
 5444.00    0.83218   0.82599   18.011
 5445.00    0.83120   0.81834   20.812
 5446.00    0.82870   0.81134   19.754
 5447.00    0.82491   0.80649   18.979
 5448.00    0.82205   0.80490   19.420
 5449.00    0.82256   0.80606   19.751
 5450.00    0.82532   0.80758   19.602
 5451.00    0.82714   0.80778   19.527
 5452.00    0.82655   0.80646   19.654
 5453.00    0.82346   0.80418   19.772
 5454.00    0.81759   0.80171   19.845
 5455.00    0.80909   0.79983   19.950
 5456.00    0.80004   0.79938   19.994
 5457.00    0.79346   0.80132   19.850
 5458.00    0.79142   0.80492   19.624
 5459.00    0.79448   0.80803   19.517
 5460.00    0.80137   0.80944   19.579
 5461.00    0.80930   0.80942   19.734
 5462.00    0.81472   0.80885   19.854
 5463.00    0.81544   0.80835   19.836
 5464.00    0.81342   0.80856   19.703
 5465.00    0.81255   0.81004   19.529
 5466.00    0.81521   0.81197   19.329
 5467.00    0.82153   0.81319   19.133
 5468.00    0.82921   0.81368   19.092
 5469.00    0.83494   0.81321   19.307
 5470.00    0.83621   0.81109   19.619
 5471.00    0.83208   0.80743   19.761
 5472.00    0.82369   0.80311   19.632
 5473.00    0.81219   0.79850   19.355
 5474.00    0.79645   0.79382   19.224
 5475.00    0.77599   0.79001   19.410
 5476.00    0.75431   0.78742   19.685
 5477.00    0.73692   0.78596   19.784
 5478.00    0.72870   0.78672   19.846
 5479.00    0.73295   0.79005   20.024
 5480.00    0.75033   0.79408   20.054
 5481.00    0.77592   0.79740   19.751
 5482.00    0.79747   0.80038   19.480
 5483.00    0.80558   0.80386   19.574
 5484.00    0.80289   0.80744   19.862
 5485.00    0.79693   0.81033   20.029
 5486.00    0.79276   0.81212   19.988
 5487.00    0.79164   0.81259   19.838
 5488.00    0.79103   0.81237   19.756
 5489.00    0.78975   0.81258   19.826
 5490.00    0.79166   0.81334   19.932
 5491.00    0.79882   0.81392   19.949
 5492.00    0.80651   0.81430   19.897
 5493.00    0.80891   0.81442   19.836
 5494.00    0.80401   0.81396   19.786
 5495.00    0.79411   0.81327   19.752
 5496.00    0.78519   0.81252   19.757
 5497.00    0.78181   0.81128   19.822
 5498.00    0.78379   0.80973   19.950
 5499.00    0.78917   0.80863   20.032
 5500.00    0.79621   0.80761   19.852
 5501.00    0.80146   0.80564   19.505
 5502.00    0.79960   0.80308   19.508
 5503.00    0.79134   0.80109   19.988
 5504.00    0.78643   0.79996   20.295
 5505.00    0.79025   0.79919   20.054
 5506.00    0.79714   0.79827   19.813
 5507.00    0.80157   0.79727   19.929
 5508.00    0.80417   0.79685   20.082
 5509.00    0.80660   0.79679   19.991
 5510.00    0.80867   0.79611   19.796
 5511.00    0.81032   0.79497   19.632
 5512.00    0.81237   0.79408   19.444
 5513.00    0.81408   0.79414   19.238
 5514.00    0.81306   0.79601   19.162
 5515.00    0.81127   0.79972   19.237
 5516.00    0.81497   0.80465   19.278
 5517.00    0.81921   0.81007   19.162
 5518.00    0.80877   0.81525   -2.000
 5519.00    0.79800   0.81957   -2.000
 5520.00    0.82700   0.82220   -2.000
 5521.00    0.85926   0.82272   -2.000
 5522.00    0.78186   0.82138   -2.000
 5523.00    0.60820   0.81858   -2.000
 5524.00    0.51323   0.81477   -2.000
 5525.00    0.60505   0.81046   -2.000
 5526.00    0.83652   0.80618   -2.000
 5527.00    1.05001   0.80268   -2.000
 5528.00    1.05528   0.80056   -2.000
 5529.00    0.84560   0.80028   -2.000
 5530.00    0.62329   0.80206   -2.000
 5531.00    0.58118   0.80482   -2.000
 5532.00    0.79817   0.80709   -2.000
 5533.00    1.17303   0.80857   -2.000
 5534.00    1.46321   0.80975   -2.000
 5535.00    1.49268   0.81101   -2.000
 5536.00    1.24177   0.81269   -2.000
 5537.00    0.89471   0.81501   -2.000
 5538.00    0.73755   0.81734   -2.000
 5539.00    0.79948   0.81917   -2.000
 5540.00    0.86281   0.82060   -2.000
 5541.00    0.83997   0.82143   -2.000
 5542.00    0.81653   0.82143   12.247
 5543.00    0.83343   0.82082   11.999
 5544.00    0.85415   0.82032   11.708
 5545.00    0.85738   0.82067   11.663
 5546.00    0.85218   0.82186   11.735
 5547.00    0.84574   0.82348   11.824
 5548.00    0.83769   0.82535   11.938
 5549.00    0.82901   0.82694   12.063
 5550.00    0.82254   0.82760   12.157
 5551.00    0.81831   0.82720   12.220
 5552.00    0.81430   0.82594   12.281
 5553.00    0.81070   0.82406   12.335
 5554.00    0.80963   0.82197   12.351
 5555.00    0.81181   0.82018   12.318
 5556.00    0.81592   0.81895   12.256
 5557.00    0.81888   0.81794   12.212
 5558.00    0.81764   0.81678   12.230
 5559.00    0.81267   0.81549   12.305
 5560.00    0.80729   0.81399   12.388
 5561.00    0.80455   0.81202   12.430
 5562.00    0.80575   0.80963   12.410
 5563.00    0.80863   0.80701   12.366
 5564.00    0.80909   0.80454   12.362
 5565.00    0.80491   0.80260   12.426
 5566.00    0.79737   0.80104   12.533
 5567.00    0.79253   0.79986   12.612
 5568.00    0.79646   0.79930   12.578
 5569.00    0.80678   0.79925   12.408
 5570.00    0.81596   0.79947   12.196
 5571.00    0.81919   0.80027   12.174
 5572.00    0.81611   0.80149   12.425
 5573.00    0.81099   0.80253   12.420
 5574.00    0.80972   0.80403   11.875
 5575.00    0.81492   0.80638   12.031
 5576.00    0.82602   0.80843   14.394
 5577.00    0.84035   0.80979   18.624
 5578.00    0.85277   0.81091   20.034
 5579.00    0.85526   0.81130   19.063
 5580.00    0.84419   0.81064   19.868
 5581.00    0.82957   0.80873   19.670
 5582.00    0.82402   0.80511   15.518
 5583.00    0.82677   0.80007   12.270
 5584.00    0.82992   0.79426   11.480
 5585.00    0.82884   0.78785   12.011
 5586.00    0.82190   0.78128   12.515
 5587.00    0.80851   0.77543   12.409
 5588.00    0.79068   0.77137   12.149
 5589.00    0.77482   0.76989   12.834
 5590.00    0.76655   0.77104   15.527
 5591.00    0.76510   0.77421   19.590
 5592.00    0.76753   0.77808   21.081
 5593.00    0.77380   0.78153   19.947
 5594.00    0.78343   0.78424   19.378
 5595.00    0.79179   0.78619   19.661
 5596.00    0.79440   0.78736   19.970
 5597.00    0.79157   0.78728   19.977
 5598.00    0.78572   0.78545   19.798
 5599.00    0.77865   0.78314   19.724
 5600.00    0.77306   0.78219   19.865
 5601.00    0.77358   0.78297   19.921
 5602.00    0.78079   0.78529   19.688
 5603.00    0.78677   0.78944   19.497
 5604.00    0.78584   0.79546   19.605
 5605.00    0.78332   0.80268   19.762
 5606.00    0.78762   0.80960   19.690
 5607.00    0.80260   0.81509   19.515
 5608.00    0.82512   0.81868   19.395
 5609.00    0.84472   0.82000   19.236
 5610.00    0.85299   0.81892   18.993
 5611.00    0.85019   0.81594   18.856
 5612.00    0.83958   0.81168   18.931
 5613.00    0.82297   0.80645   19.050
 5614.00    0.80258   0.80057   19.054
 5615.00    0.78228   0.79470   18.996
 5616.00    0.76570   0.79042   18.941
 5617.00    0.75487   0.78932   18.842
 5618.00    0.75020   0.79042   18.678
 5619.00    0.75064   0.79160   18.518
 5620.00    0.75482   0.79229   18.291
 5621.00    0.76162   0.79291   17.787
 5622.00    0.76935   0.79339   17.360
 5623.00    0.77568   0.79338   17.901
 5624.00    0.78065   0.79289   18.841
 5625.00    0.78739   0.79280   17.235
 5626.00    0.79675   0.79443   13.948
 5627.00    0.80493   0.79770   12.166
 5628.00    0.80820   0.80132   12.068
 5629.00    0.80583   0.80458   12.502
 5630.00    0.80131   0.80725   12.590
 5631.00    0.80104   0.80880   12.450
 5632.00    0.80478   0.80892   12.392
 5633.00    0.80324   0.80772   12.458
 5634.00    0.79046   0.80554   12.651
 5635.00    0.76916   0.80277   13.011
 5636.00    0.74697   0.79971   13.427
 5637.00    0.73251   0.79682   13.597
 5638.00    0.72656   0.79459   13.487
 5639.00    0.72156   0.79331   13.450
 5640.00    0.71591   0.79284   13.632
 5641.00    0.71724   0.79281   13.836
 5642.00    0.72922   0.79338   13.942
 5643.00    0.74683   0.79481   14.074
 5644.00    0.76027   0.79660   14.402
 5645.00    0.76024   0.79833   15.021
 5646.00    0.75136   0.80008   15.761
 5647.00    0.75053   0.80181   16.191
 5648.00    0.76225   0.80334   16.432
 5649.00    0.77493   0.80437   17.116
 5650.00    0.78072   0.80482   17.541
 5651.00    0.78092   0.80484   15.932
 5652.00    0.77956   0.80410   13.571
 5653.00    0.78031   0.80189   12.480
 5654.00    0.78402   0.79819   12.563
 5655.00    0.78844   0.79369   12.811
 5656.00    0.78998   0.78914   12.739
 5657.00    0.78601   0.78485   12.651
 5658.00    0.77997   0.78074   12.754
 5659.00    0.77897   0.77783   12.939
 5660.00    0.78261   0.77770   12.908
 5661.00    0.78340   0.77958   12.521
 5662.00    0.77686   0.78151   12.526
 5663.00    0.76488   0.78333   14.113
 5664.00    0.75658   0.78585   17.477
 5665.00    0.76304   0.78880   19.800
 5666.00    0.78338   0.79120   19.184
 5667.00    0.80596   0.79289   18.410
 5668.00    0.81984   0.79447   18.584
 5669.00    0.81966   0.79658   18.964
 5670.00    0.80975   0.79920   19.048
 5671.00    0.80063   0.80202   18.941
 5672.00    0.79898   0.80493   18.968
 5673.00    0.80563   0.80772   19.327
 5674.00    0.81636   0.80983   19.589
 5675.00    0.82413   0.81080   19.242
 5676.00    0.82321   0.81076   19.187
 5677.00    0.81189   0.81002   20.376
 5678.00    0.79589   0.80846   20.387
 5679.00    0.78352   0.80603   16.694
 5680.00    0.77537   0.80325   13.388
 5681.00    0.76732   0.80055   12.505
 5682.00    0.75990   0.79776   13.034
 5683.00    0.75667   0.79502   13.373
 5684.00    0.75828   0.79312   13.203
 5685.00    0.76241   0.79242   13.177
 5686.00    0.76563   0.79241   13.126
 5687.00    0.76517   0.79286   12.725
 5688.00    0.76133   0.79407   12.914
 5689.00    0.75783   0.79636   14.977
 5690.00    0.76145   0.79946   18.637
 5691.00    0.77636   0.80269   20.331
 5692.00    0.79610   0.80528   19.324
 5693.00    0.81071   0.80680   18.731
 5694.00    0.81893   0.80702   18.963
 5695.00    0.82450   0.80595   19.062
 5696.00    0.82832   0.80384   18.871
 5697.00    0.82912   0.80100   18.765
 5698.00    0.82588   0.79771   18.823
 5699.00    0.81924   0.79442   18.921
 5700.00    0.81261   0.79159   18.969
 5701.00    0.80908   0.78897   18.952
 5702.00    0.80742   0.78643   18.934
 5703.00    0.80481   0.78419   18.962
 5704.00    0.80063   0.78210   18.957
 5705.00    0.79409   0.77969   18.880
 5706.00    0.78152   0.77661   18.910
 5707.00    0.76256   0.77333   19.139
 5708.00    0.74685   0.77098   19.240
 5709.00    0.74362   0.77003   18.963
 5710.00    0.75029   0.77086   18.699
 5711.00    0.75893   0.77369   18.796
 5712.00    0.76446   0.77791   18.924
 5713.00    0.76625   0.78322   18.653
 5714.00    0.76853   0.78937   18.093
 5715.00    0.77663   0.79518   17.490
 5716.00    0.79305   0.80013   16.838
 5717.00    0.81472   0.80436   16.123
 5718.00    0.83173   0.80786   15.486
 5719.00    0.83599   0.81078   15.064
 5720.00    0.82882   0.81323   14.906
 5721.00    0.81647   0.81487   15.025
 5722.00    0.80544   0.81553   15.432
 5723.00    0.79906   0.81536   16.076
 5724.00    0.79563   0.81452   16.763
 5725.00    0.79357   0.81312   17.276
 5726.00    0.79495   0.81123   17.552
 5727.00    0.80010   0.80907   17.691
 5728.00    0.80402   0.80752   17.879
 5729.00    0.80311   0.80716   18.141
 5730.00    0.79979   0.80750   18.205
 5731.00    0.79793   0.80777   17.956
 5732.00    0.79915   0.80810   17.715
 5733.00    0.80164   0.80906   17.684
 5734.00    0.80018   0.81035   17.668
 5735.00    0.79167   0.81121   17.469
 5736.00    0.77861   0.81145   17.112
 5737.00    0.76849   0.81119   16.564
 5738.00    0.77122   0.81074   15.680
 5739.00    0.78716   0.81032   14.717
 5740.00    0.80279   0.81012    0.000
 5741.00    0.80852   0.81026    0.000
 5742.00    0.80779   0.81052    0.000
 5743.00    0.80726   0.81058    0.000
 5744.00    0.81046   0.81059    0.000
 5745.00    0.81541   0.81088    0.000
 5746.00    0.81519   0.81100    0.000
 5747.00    0.80677   0.81021    0.000
 5748.00    0.79453   0.80842    0.000
 5749.00    0.78419   0.80648    0.000
 5750.00    0.77936   0.80521    0.000
 5751.00    0.78000   0.80430    0.000
 5752.00    0.78291   0.80322    0.000
 5753.00    0.78666   0.80221    0.000
 5754.00    0.79276   0.80197    0.000
 5755.00    0.80036   0.80287    0.000
 5756.00    0.80544   0.80444    0.000
 5757.00    0.80756   0.80549    0.000
 5758.00    0.81105   0.80538    0.000
 5759.00    0.81772   0.80442    0.000
 5760.00    0.82446   0.80309    0.000
 5761.00    0.82648   0.80183    0.000
 5762.00    0.81983   0.80115    0.000
 5763.00    0.80601   0.80159    0.000
 5764.00    0.79220   0.80355    0.000
 5765.00    0.78567   0.80658    0.000
 5766.00    0.79021   0.80942    0.000
 5767.00    0.80116   0.81144    0.000
 5768.00    0.80767   0.81266    0.000
 5769.00    0.80563   0.81306    0.000
 5770.00    0.80001   0.81263    0.000
 5771.00    0.79778   0.81162    0.000
 5772.00    0.80336   0.81027    0.000
 5773.00    0.81228   0.80881    0.000
 5774.00    0.81443   0.80728    0.000
 5775.00    0.80909   0.80532    0.000
 5776.00    0.80460   0.80270    0.000
 5777.00    0.80440   0.79945    0.000
 5778.00    0.80544   0.79557    0.000
 5779.00    0.80529   0.79109    0.000
 5780.00    0.80337   0.78602    0.000
 5781.00    0.79892   0.78094    0.000
 5782.00    0.79077   0.77722    0.000
 5783.00    0.77835   0.77575    0.000
 5784.00    0.76300   0.77607    0.000
 5785.00    0.75041   0.77737    0.000
 5786.00    0.74740   0.77962    0.000
 5787.00    0.75292   0.78309    0.000
 5788.00    0.76037   0.78721    0.000
 5789.00    0.76732   0.79104    0.000
 5790.00    0.77518   0.79434    0.000
 5791.00    0.78373   0.79707    0.000
 5792.00    0.79114   0.79957    0.000
 5793.00    0.79658   0.80207    0.000
 5794.00    0.80057   0.80433    0.000
 5795.00    0.80445   0.80639    0.000
 5796.00    0.80911   0.80815    0.000
 5797.00    0.81284   0.80942    0.000
 5798.00    0.81410   0.81053    0.000
 5799.00    0.81718   0.81207    0.000
 5800.00    0.82691   0.81390    0.000
 5801.00    0.83765   0.81518    0.000
 5802.00    0.83963   0.81562    0.000
 5803.00    0.83275   0.81538    0.000
 5804.00    0.82352   0.81455    0.000
 5805.00    0.81600   0.81347    0.000
 5806.00    0.81155   0.81278    0.000
 5807.00    0.81070   0.81259    0.000
 5808.00    0.81348   0.81266    0.000
 5809.00    0.81948   0.81270    0.000
 5810.00    0.82634   0.81253    0.000
 5811.00    0.82797   0.81206    0.000
 5812.00    0.82051   0.81123    0.000
 5813.00    0.81051   0.81031    0.000
 5814.00    0.80696   0.80956    0.000
 5815.00    0.80926   0.80904    0.000
 5816.00    0.81242   0.80897    0.000
 5817.00    0.81586   0.80976    0.000
 5818.00    0.82173   0.81148    0.000
 5819.00    0.83139   0.81349    0.000
 5820.00    0.84368   0.81516    0.000
 5821.00    0.85358   0.81642    0.000
 5822.00    0.85512   0.81728    0.000
 5823.00    0.84518   0.81772    0.000
 5824.00    0.82700   0.81793    0.000
 5825.00    0.81279   0.81819    0.000
 5826.00    0.81322   0.81848    0.000
 5827.00    0.82621   0.81859    0.000
 5828.00    0.84312   0.81863    0.000
 5829.00    0.85645   0.81860    0.000
 5830.00    0.86143   0.81833    0.000
 5831.00    0.85671   0.81776    0.000
 5832.00    0.84286   0.81708    0.000
 5833.00    0.82107   0.81638   -2.000
 5834.00    0.79510   0.81552   -2.000
 5835.00    0.77268   0.81474   -2.000
 5836.00    0.75991   0.81455   -2.000
 5837.00    0.75649   0.81494   -2.000
 5838.00    0.75880   0.81536   -2.000
 5839.00    0.76291   0.81576   -2.000
 5840.00    0.76430   0.81639   -2.000
 5841.00    0.75819   0.81701   -2.000
 5842.00    0.74630   0.81698   -2.000
 5843.00    0.74049   0.81605   -2.000
 5844.00    0.74866   0.81439   -2.000
 5845.00    0.76496   0.81223   -2.000
 5846.00    0.77964   0.80961   -2.000
 5847.00    0.78706   0.80656   -2.000
 5848.00    0.78805   0.80320   -2.000
 5849.00    0.78971   0.79983   -2.000
 5850.00    0.79502   0.79663   -2.000
 5851.00    0.79750   0.79340   -2.000
 5852.00    0.79344   0.78969   -2.000
 5853.00    0.78839   0.78555    0.000
 5854.00    0.78549   0.78194    0.000
 5855.00    0.77969   0.77965    0.000
 5856.00    0.76886   0.77823    0.000
 5857.00    0.75933   0.77697    0.000
 5858.00    0.75651   0.77629    0.000
 5859.00    0.75971   0.77720    0.000
 5860.00    0.76462   0.77958    0.000
 5861.00    0.76594   0.78216    0.000
 5862.00    0.76239   0.78408    0.000
 5863.00    0.75820   0.78556    0.000
 5864.00    0.75705   0.78735    0.000
 5865.00    0.75935   0.78930    0.000
 5866.00    0.76488   0.79073    0.000
 5867.00    0.77404   0.79165    0.000
 5868.00    0.78699   0.79265    0.000
 5869.00    0.80297   0.79378    0.000
 5870.00    0.81957   0.79424    0.000
 5871.00    0.83313   0.79354    0.000
 5872.00    0.84250   0.79188    0.000
 5873.00    0.84959   0.78974    0.000
 5874.00    0.85527   0.78746    0.000
 5875.00    0.85786   0.78482    0.000
 5876.00    0.85484   0.78228    0.000
 5877.00    0.84431   0.78055    0.000
 5878.00    0.82766   0.77972    0.000
 5879.00    0.80989   0.77888    0.000
 5880.00    0.79682   0.77730    0.000
 5881.00    0.79264   0.77531    0.000
 5882.00    0.79496   0.77277    0.000
 5883.00    0.79580   0.76849    0.000
 5884.00    0.79060   0.76096    0.000
 5885.00    0.77990   0.74974    0.000
 5886.00    0.76394   0.73617    0.000
 5887.00    0.74236   0.72217    0.000
 5888.00    0.71885   0.70825    0.000
 5889.00    0.70027   0.69440    0.000
 5890.00    0.68908   0.68233    0.000
 5891.00    0.68276   0.67479    0.000
 5892.00    0.67912   0.67293    0.000
 5893.00    0.67741   0.67493    0.000
 5894.00    0.67664   0.67844    0.000
 5895.00    0.67583   0.68257    0.000
 5896.00    0.67580   0.68807    0.000
 5897.00    0.67858   0.69708    0.000
 5898.00    0.68484   0.70952    0.000
 5899.00    0.69429   0.72241    0.000
 5900.00    0.70867   0.73405    0.000
 5901.00    0.72989   0.74475   15.769
 5902.00    0.75396   0.75437   15.484
 5903.00    0.77260   0.76215   15.344
 5904.00    0.78058   0.76788   15.504
 5905.00    0.77750   0.77181   15.997
 5906.00    0.76782   0.77446   16.502
 5907.00    0.75835   0.77649   16.541
 5908.00    0.75321   0.77799   16.267
 5909.00    0.75335   0.77848   16.209
 5910.00    0.75803   0.77788   16.386
 5911.00    0.76538   0.77687   16.450
 5912.00    0.77278   0.77571   16.257
 5913.00    0.77755   0.77419   15.945
 5914.00    0.77798   0.77246   15.793
 5915.00    0.77308   0.77134   15.985
 5916.00    0.76188   0.77149   16.281
 5917.00    0.74593   0.77243   16.259
 5918.00    0.73366   0.77366   15.988
 5919.00    0.73395   0.77506   15.812
 5920.00    0.74425   0.77662   15.804
 5921.00    0.75554   0.77811   15.852
 5922.00    0.76374   0.77914   15.903
 5923.00    0.76938   0.77978   15.958
 5924.00    0.77403   0.78024   16.024
 5925.00    0.77860   0.78033   16.090
 5926.00    0.78159   0.77996   16.124
 5927.00    0.78056   0.77950   16.130
 5928.00    0.77458   0.77903   16.228
 5929.00    0.76530   0.77832   16.498
 5930.00    0.75769   0.77744   16.743
 5931.00    0.75632   0.77710   16.738
 5932.00    0.76050   0.77771   16.657
 5933.00    0.76666   0.77850   16.758
 5934.00    0.77241   0.77887   16.932
 5935.00    0.77704   0.77918   16.967
 5936.00    0.78139   0.77979   16.950
 5937.00    0.78484   0.78038   17.049
 5938.00    0.78229   0.78058   17.190
 5939.00    0.76989   0.78054   17.217
 5940.00    0.75171   0.78031   17.142
 5941.00    0.73550   0.77987   17.055
 5942.00    0.72694   0.77965   17.008
 5943.00    0.72747   0.77988   16.979
 5944.00    0.73299   0.78004   16.869
 5945.00    0.73904   0.77987   16.662
 5946.00    0.74577   0.77968   16.547
 5947.00    0.75418   0.77928   16.654
 5948.00    0.76217   0.77801   16.833
 5949.00    0.76718   0.77625   16.872
 5950.00    0.76903   0.77519   16.743
 5951.00    0.76866   0.77485   16.583
 5952.00    0.76695   0.77414   16.589
 5953.00    0.76676   0.77307   16.797
 5954.00    0.77385   0.77279   16.908
 5955.00    0.78900   0.77358   16.760
 5956.00    0.80241   0.77459   16.690
 5957.00    0.80490   0.77552   16.949
 5958.00    0.79702   0.77705   17.271
 5959.00    0.78521   0.77933   17.358
 5960.00    0.77752   0.78175   17.312
 5961.00    0.77735   0.78368   17.312
 5962.00    0.78027   0.78504   17.337
 5963.00    0.78292   0.78612   17.354
 5964.00    0.78880   0.78689   17.440
 5965.00    0.80070   0.78736   17.638
 5966.00    0.81544   0.78770   17.848
 5967.00    0.82603   0.78832   17.956
 5968.00    0.82451   0.78922   17.936
 5969.00    0.80887   0.78998   17.842
 5970.00    0.78657   0.79030   17.778
 5971.00    0.76812   0.78999   17.791
 5972.00    0.76195   0.78893   17.829
 5973.00    0.76859   0.78713   17.846
 5974.00    0.77904   0.78483   17.851
 5975.00    0.78452   0.78228   17.839
 5976.00    0.78236   0.77981   17.760
 5977.00    0.77581   0.77777   17.612
 5978.00    0.77215   0.77629   17.466
 5979.00    0.77369   0.77513   17.355
 5980.00    0.77478   0.77413   17.247
 5981.00    0.77158   0.77347   17.177
 5982.00    0.76634   0.77299   17.270
 5983.00    0.76339   0.77228   17.478
 5984.00    0.76624   0.77149   17.529
 5985.00    0.77457   0.77155   17.388
 5986.00    0.78374   0.77280   17.358
 5987.00    0.78943   0.77444   17.527
 5988.00    0.78981   0.77601   17.631
 5989.00    0.78544   0.77799   17.578
 5990.00    0.77907   0.78036   17.592
 5991.00    0.77453   0.78226   17.775
 5992.00    0.77542   0.78343   17.982
 5993.00    0.78123   0.78432   18.097
 5994.00    0.78724   0.78501   18.143
 5995.00    0.78961   0.78496   18.205
 5996.00    0.78761   0.78412   18.359
 5997.00    0.78406   0.78285   18.543
 5998.00    0.78361   0.78134   18.581
 5999.00    0.78623   0.77981   18.468
 6000.00    0.78761   0.77865   18.389
 6001.00    0.78821   0.77768   18.373
 6002.00    0.79358   0.77641   18.295
 6003.00    0.80447   0.77473   18.193
 6004.00    0.81515   0.77320   18.255
 6005.00    0.81848   0.77235   18.453
 6006.00    0.80948   0.77186   18.543
 6007.00    0.79066   0.77121   18.430
 6008.00    0.77093   0.77050   18.240
 6009.00    0.75762   0.77038   18.128
 6010.00    0.75354   0.77128   18.187
 6011.00    0.75576   0.77232   18.344
 6012.00    0.75851   0.77235   18.405
 6013.00    0.76162   0.77165   18.264
 6014.00    0.76867   0.77129   17.987
 6015.00    0.77625   0.77119   17.811
 6016.00    0.77625   0.77045   17.963
 6017.00    0.76858   0.76926   18.272
 6018.00    0.75999   0.76863   18.325
 6019.00    0.75382   0.76855   18.187
 6020.00    0.74974   0.76841   18.253
 6021.00    0.74935   0.76863   18.480
 6022.00    0.75522   0.76979   18.511
 6023.00    0.76616   0.77151   18.387
 6024.00    0.77751   0.77349   18.428
 6025.00    0.78414   0.77594   18.635
 6026.00    0.78341   0.77879   18.768
 6027.00    0.77968   0.78137   18.792
 6028.00    0.78016   0.78372   18.847
 6029.00    0.78516   0.78617   18.993
 6030.00    0.78883   0.78834   19.176
 6031.00    0.78450   0.78983   19.269
 6032.00    0.76971   0.79093   19.187
 6033.00    0.75307   0.79201   19.075
 6034.00    0.74723   0.79278   19.080
 6035.00    0.75460   0.79296   18.963
 6036.00    0.76948   0.79274   18.589
 6037.00    0.78580   0.79244   18.728
 6038.00    0.79834   0.79210   19.785
 6039.00    0.80253   0.79180   19.302
 6040.00    0.79658   0.79168   15.819
 6041.00    0.78440   0.79189   13.033
 6042.00    0.77300   0.79249   12.414
 6043.00    0.76766   0.79345   12.948
 6044.00    0.76921   0.79463   13.190
 6045.00    0.77160   0.79565   12.983
 6046.00    0.76846   0.79644   12.961
 6047.00    0.76237   0.79700   13.115
 6048.00    0.76021   0.79709   13.129
 6049.00    0.76534   0.79652   13.055
 6050.00    0.77760   0.79552   12.988
 6051.00    0.79459   0.79431   12.615
 6052.00    0.81139   0.79267   11.981
 6053.00    0.82035   0.79069   12.119
 6054.00    0.81639   0.78891   13.960
 6055.00    0.80302   0.78769   16.867
 6056.00    0.78844   0.78679   17.997
 6057.00    0.77995   0.78610   17.230
 6058.00    0.78026   0.78572   16.701
 6059.00    0.78455   0.78555   16.629
 6060.00    0.78573   0.78516   16.517
 6061.00    0.78048   0.78409   16.400
 6062.00    0.76981   0.78284   16.476
 6063.00    0.75866   0.78211   16.679
 6064.00    0.75225   0.78195   16.899
 6065.00    0.75255   0.78216   17.233
 6066.00    0.75866   0.78336   17.711
 6067.00    0.76759   0.78619   18.006
 6068.00    0.77643   0.78983   17.896
 6069.00    0.78411   0.79305   17.750
 6070.00    0.79073   0.79561   17.886
 6071.00    0.79671   0.79770   18.081
 6072.00    0.80126   0.79900   18.077
 6073.00    0.80162   0.79903   18.026
 6074.00    0.79779   0.79777   18.111
 6075.00    0.79545   0.79564   18.222
 6076.00    0.79798   0.79313   18.199
 6077.00    0.80084   0.79015   18.039
 6078.00    0.79732   0.78667   17.859
 6079.00    0.78358   0.78342   17.818
 6080.00    0.76139   0.78116   17.982
 6081.00    0.73892   0.77945   18.249
 6082.00    0.72378   0.77779   18.457
 6083.00    0.71843   0.77683   18.494
 6084.00    0.72265   0.77693   18.392
 6085.00    0.73533   0.77710   18.337
 6086.00    0.75384   0.77671   18.376
 6087.00    0.77378   0.77653   18.305
 6088.00    0.79009   0.77682   18.101
 6089.00    0.79824   0.77682   18.085
 6090.00    0.79678   0.77648   18.357
 6091.00    0.78881   0.77678   18.569
 6092.00    0.78120   0.77788   18.537
 6093.00    0.78264   0.77899   18.546
 6094.00    0.79570   0.77999   18.698
 6095.00    0.81377   0.78122   18.654
 6096.00    0.82854   0.78216   18.341
 6097.00    0.83420   0.78179   18.165
 6098.00    0.82844   0.77977   18.202
 6099.00    0.81270   0.77695   18.009
 6100.00    0.79125   0.77437   17.505
 6101.00    0.77025   0.77198   17.170
 6102.00    0.75505   0.76924   17.211
 6103.00    0.74872   0.76699   17.379
 6104.00    0.75083   0.76715   17.406
 6105.00    0.75785   0.76964   17.209
 6106.00    0.76731   0.77248   16.832
 6107.00    0.77867   0.77467   16.389
 6108.00    0.78957   0.77689   16.024
 6109.00    0.79540   0.77967   15.879
 6110.00    0.79399   0.78222   16.037
 6111.00    0.78719   0.78358   16.507
 6112.00    0.77944   0.78394   17.157
 6113.00    0.77596   0.78421   17.706
 6114.00    0.77865   0.78441   17.996
 6115.00    0.78511   0.78357   18.125
 6116.00    0.79067   0.78125   18.209
 6117.00    0.79031   0.77804   18.303
 6118.00    0.78239   0.77443   18.463
 6119.00    0.76981   0.77066   18.731
 6120.00    0.75943   0.76717   18.996
 6121.00    0.75860   0.76418   19.052
 6122.00    0.76547   0.76194   19.016
 6123.00    0.77052   0.76134   19.241
 6124.00    0.77041   0.76276   19.663
 6125.00    0.76916   0.76498   19.820
 6126.00    0.76902   0.76714   19.649
 6127.00    0.76914   0.76949   19.518
 6128.00    0.76940   0.77184   19.509
 6129.00    0.77082   0.77346   19.417
 6130.00    0.77391   0.77408   19.246
 6131.00    0.77865   0.77341   19.169
 6132.00    0.78566   0.77078   19.130
 6133.00    0.79502   0.76631   18.939
 6134.00    0.80269   0.76137   18.730
 6135.00    0.80291   0.75709   18.783
 6136.00    0.79577   0.75335   18.935
 6137.00    0.78577   0.75013   18.779
 6138.00    0.77437   0.74916   18.492
 6139.00    0.76160   0.75181   18.529
 6140.00    0.75297   0.75629   18.689
 6141.00    0.75531   0.76010   18.439
 6142.00    0.76504   0.76345   18.042
 6143.00    0.77255   0.76756   18.121
 6144.00    0.77625   0.77148   18.554
 6145.00    0.78074   0.77343   18.752
 6146.00    0.78780   0.77361   18.693
 6147.00    0.79590   0.77324   18.750
 6148.00    0.80269   0.77263   18.844
 6149.00    0.80553   0.77151   18.690
 6150.00    0.80179   0.77007   18.518
 6151.00    0.79099   0.76879   18.730
 6152.00    0.77830   0.76789   19.157
 6153.00    0.77095   0.76682   19.332
 6154.00    0.77124   0.76471   19.283
 6155.00    0.77689   0.76145   19.326
 6156.00    0.78354   0.75736   19.459
 6157.00    0.78647   0.75182   19.506
 6158.00    0.78271   0.74445   19.491
 6159.00    0.77099   0.73662   19.546
 6160.00    0.75137   0.72957   19.686
 6161.00    0.72729   0.72301   19.854
 6162.00    0.70822   0.71729   20.036
 6163.00    0.70285   0.71427   20.180
 6164.00    0.70972   0.71436   20.082
 6165.00    0.72109   0.71554   19.646
 6166.00    0.72995   0.71671   19.206
 6167.00    0.73272   0.71897   19.087
 6168.00    0.73124   0.72224   19.183
 6169.00    0.72974   0.72461   19.254
 6170.00    0.73086   0.72626   19.313
 6171.00    0.73567   0.72925   19.454
 6172.00    0.74429   0.73329   19.593
 6173.00    0.75523   0.73654   19.635
 6174.00    0.76488   0.73929   19.705
 6175.00    0.77101   0.74257   19.923
 6176.00    0.77614   0.74568   20.151
 6177.00    0.78200   0.74797   20.140
 6178.00    0.78391   0.75011   19.769
 6179.00    0.77737   0.75216   19.139
 6180.00    0.76486   0.75339   18.536
 6181.00    0.75138   0.75396   18.147
 6182.00    0.73956   0.75405   17.908
 6183.00    0.72985   0.75305   17.759
 6184.00    0.72151   0.75086   17.830
 6185.00    0.71522   0.74808   18.214
 6186.00    0.71478   0.74466   18.748
 6187.00    0.72207   0.74028   19.139
 6188.00    0.73288   0.73590   19.161
 6189.00    0.74055   0.73297   18.904
 6190.00    0.73988   0.73133   18.834
 6191.00    0.73114   0.73011   19.223
 6192.00    0.72220   0.73011   19.788
 6193.00    0.72040   0.73243   20.110
 6194.00    0.72633   0.73582   20.075
 6195.00    0.73594   0.73835   19.831
 6196.00    0.74311   0.74016   19.625
 6197.00    0.74497   0.74215   19.543
 6198.00    0.74482   0.74396   19.393
 6199.00    0.74627   0.74485   18.925
 6200.00    0.74937   0.74533   18.036
 6201.00    0.75296   0.74651   16.949
 6202.00    0.75631   0.74844   16.076
 6203.00    0.75845   0.75030   15.531
 6204.00    0.75815   0.75170   15.124
 6205.00    0.75716   0.75278   14.957
 6206.00    0.76081   0.75332   15.581
 6207.00    0.77040   0.75288   17.187
 6208.00    0.77985   0.75130   18.822
 6209.00    0.78298   0.74855   19.370
 6210.00    0.77812   0.74466   19.256
 6211.00    0.76909   0.74007   19.217
 6212.00    0.76383   0.73538   19.339
 6213.00    0.76469   0.73084   19.585
 6214.00    0.76535   0.72679   20.037
 6215.00    0.76120   0.72361   20.522
 6216.00    0.75385   0.72144   20.529
 6217.00    0.74668   0.72048   20.089
 6218.00    0.74214   0.72056   19.917
 6219.00    0.73988   0.72089   20.169
 6220.00    0.73670   0.72122   20.210
 6221.00    0.73019   0.72203   19.825
 6222.00    0.72049   0.72321   19.561
 6223.00    0.71079   0.72396   19.673
 6224.00    0.70609   0.72399   19.892
 6225.00    0.70785   0.72355   19.973
 6226.00    0.71259   0.72244   19.925
 6227.00    0.71545   0.72050   19.925
 6228.00    0.71255   0.71846   20.169
 6229.00    0.70447   0.71679   20.496
 6230.00    0.69627   0.71537   20.384
 6231.00    0.69304   0.71491   19.668
 6232.00    0.69750   0.71608   18.727
 6233.00    0.70770   0.71809   18.028
 6234.00    0.71760   0.72011   17.896
 6235.00    0.72153   0.72185   18.317
 6236.00    0.71667   0.72267   18.981
 6237.00    0.70601   0.72233   19.635
 6238.00    0.69705   0.72112   20.203
 6239.00    0.69498   0.71892   20.659
 6240.00    0.69985   0.71616   20.803
 6241.00    0.70518   0.71414   -2.000
 6242.00    0.70315   0.71289   -2.000
 6243.00    0.70046   0.71175   -2.000
 6244.00    0.71375   0.71155   -2.000
 6245.00    0.74466   0.71279   -2.000
 6246.00    0.77705   0.71433   -2.000
 6247.00    0.78866   0.71562   -2.000
 6248.00    0.76382   0.71677   -2.000
 6249.00    0.71656   0.71716   -2.000
 6250.00    0.68047   0.71646   -2.000
 6251.00    0.66974   0.71486   -2.000
 6252.00    0.67651   0.71231   -2.000
 6253.00    0.68796   0.70917   17.382
 6254.00    0.69415   0.70630   17.447
 6255.00    0.69585   0.70421   18.047
 6256.00    0.70009   0.70319   18.731
 6257.00    0.70700   0.70321   19.293
 6258.00    0.71103   0.70420   19.898
 6259.00    0.70966   0.70682   20.511
 6260.00    0.70506   0.71097   20.858
 6261.00    0.70340   0.71502   20.802
 6262.00    0.71021   0.71852   20.492
 6263.00    0.72197   0.72243   20.332
 6264.00    0.72993   0.72600   20.611
 6265.00    0.73005   0.72785   20.912
 6266.00    0.72410   0.72893   20.601
 6267.00    0.71790   0.73041   20.059
 6268.00    0.71762   0.73166   20.018
 6269.00    0.72404   0.73221   20.355
 6270.00    0.73381   0.73280   20.491
 6271.00    0.74314   0.73372   20.325
 6272.00    0.74988   0.73456   20.083
 6273.00    0.75567   0.73501   19.762
 6274.00    0.76302   0.73506   19.284
 6275.00    0.77052   0.73482   18.816
 6276.00    0.77425   0.73418   18.617
 6277.00    0.77111   0.73310   18.835
 6278.00    0.76072   0.73209   19.453
 6279.00    0.74729   0.73149   20.158
 6280.00    0.73622   0.73115    0.000
 6281.00    0.72934   0.73133    0.000
 6282.00    0.72589   0.73246    0.000
 6283.00    0.72488   0.73445    0.000
 6284.00    0.72602   0.73683    0.000
 6285.00    0.73043   0.73920    0.000
 6286.00    0.73809   0.74137    0.000
 6287.00    0.74507   0.74319    0.000
 6288.00    0.74775   0.74435    0.000
 6289.00    0.74808   0.74455    0.000
 6290.00    0.75015   0.74386    0.000
 6291.00    0.75576   0.74256    0.000
 6292.00    0.76411   0.74071    0.000
 6293.00    0.77224   0.73827    0.000
 6294.00    0.77786   0.73579    0.000
 6295.00    0.78216   0.73376    0.000
 6296.00    0.78714   0.73181    0.000
 6297.00    0.79299   0.72977    0.000
 6298.00    0.79965   0.72827    0.000
 6299.00    0.80835   0.72782    0.000
 6300.00    0.81916   0.72815    0.000
 6301.00    0.82868   0.72866    0.000
 6302.00    0.83167   0.72952    0.000
 6303.00    0.82300   0.73152    0.000
 6304.00    0.80023   0.73444    0.000
 6305.00    0.76588   0.73707    0.000
 6306.00    0.72891   0.73916    0.000
 6307.00    0.70432   0.74119    0.000
 6308.00    0.70085   0.74278    0.000
 6309.00    0.71241   0.74333    0.000
 6310.00    0.72802   0.74285    0.000
 6311.00    0.74022   0.74139    0.000
 6312.00    0.74631   0.73946    0.000
 6313.00    0.74846   0.73778    0.000
 6314.00    0.75062   0.73577    0.000
 6315.00    0.75577   0.73322    0.000
 6316.00    0.76287   0.73184    0.000
 6317.00    0.76571   0.73197    0.000
 6318.00    0.76003   0.73209    0.000
 6319.00    0.74766   0.73262    0.000
 6320.00    0.73354   0.73491    0.000
 6321.00    0.72341   0.73803   21.142
 6322.00    0.72262   0.74063   20.898
 6323.00    0.73442   0.74316   20.594
 6324.00    0.75361   0.74596   20.335
 6325.00    0.76578   0.74847   20.357
 6326.00    0.76396   0.75019   20.683
 6327.00    0.75556   0.75116   20.981
 6328.00    0.74844   0.75184   20.940
 6329.00    0.74393   0.75234   20.547
 6330.00    0.74173   0.75216   20.057
 6331.00    0.74229   0.75095   19.831
 6332.00    0.74533   0.74920   19.956
 6333.00    0.74901   0.74753   20.186
 6334.00    0.75020   0.74592   20.367
 6335.00    0.74585   0.74391   20.599
 6336.00    0.73855   0.74208   20.875
 6337.00    0.73640   0.74164   20.981
 6338.00    0.74069   0.74217   20.876
 6339.00    0.74358   0.74234   20.800
 6340.00    0.74138   0.74231   20.882
 6341.00    0.73835   0.74270   21.031
 6342.00    0.73808   0.74304   21.171
 6343.00    0.74022   0.74266   21.300
 6344.00    0.74226   0.74216   21.351
 6345.00    0.74144   0.74252   21.203
 6346.00    0.73887   0.74357   20.968
 6347.00    0.73942   0.74456   20.938
 6348.00    0.74557   0.74574   21.115
 6349.00    0.75576   0.74727   21.196
 6350.00    0.76665   0.74816   21.118
 6351.00    0.77465   0.74776   21.131
 6352.00    0.77785   0.74661   21.339
 6353.00    0.77600   0.74502   21.597
 6354.00    0.76816   0.74227   21.696
 6355.00    0.75327   0.73840   21.501
 6356.00    0.73413   0.73476   21.172
 6357.00    0.71717   0.73171   21.032
 6358.00    0.70811   0.72828   21.095
 6359.00    0.70976   0.72498   21.117
 6360.00    0.71975   0.72328   21.052
 6361.00    0.73180   0.72296   21.054
 6362.00    0.74110   0.72319   21.108
 6363.00    0.74572   0.72445   21.046
 6364.00    0.74673   0.72728   20.854
 6365.00    0.74696   0.73096   20.693
 6366.00    0.74832   0.73462   20.715
 6367.00    0.75153   0.73820   20.956
 6368.00    0.75721   0.74192   21.137
 6369.00    0.76507   0.74546   20.906
 6370.00    0.77132   0.74824   20.568
 6371.00    0.77138   0.75029   20.720
 6372.00    0.76698   0.75213   21.282
 6373.00    0.76382   0.75372   21.629
 6374.00    0.76307   0.75438   21.498
 6375.00    0.76199   0.75405   21.157
 6376.00    0.75887   0.75343   21.077
 6377.00    0.75397   0.75259   21.551
 6378.00    0.74924   0.75118   22.119
 6379.00    0.74679   0.74975   21.983
 6380.00    0.74639   0.74883   21.425
 6381.00    0.74666   0.74814   21.251
 6382.00    0.74824   0.74778   21.437
 6383.00    0.75231   0.74807   21.474
 6384.00    0.75709   0.74847   21.265
 6385.00    0.75948   0.74855   21.042
 6386.00    0.75884   0.74862   20.928
 6387.00    0.75610   0.74862   20.920
 6388.00    0.75129   0.74803   20.986
 6389.00    0.74474   0.74660   21.082
 6390.00    0.73948   0.74476   21.157
 6391.00    0.73824   0.74331   21.179
 6392.00    0.73862   0.74211   21.172
 6393.00    0.73628   0.74059   21.203
 6394.00    0.73066   0.73978   21.344
 6395.00    0.72560   0.74018   21.552
 6396.00    0.72846   0.74028   21.502
 6397.00    0.74282   0.73992   21.009
 6398.00    0.75939   0.74079   20.546
 6399.00    0.76580   0.74206   20.579
 6400.00    0.76051   0.74242   20.886
 6401.00    0.74919   0.74351   21.026
 6402.00    0.73786   0.74598   21.050
 6403.00    0.73051   0.74787   21.168
 6404.00    0.72741   0.74848   21.224
 6405.00    0.72777   0.74909   20.980
 6406.00    0.73271   0.74980   20.519
 6407.00    0.74291   0.74927   20.092
 6408.00    0.75565   0.74753   19.897
 6409.00    0.76625   0.74644   19.894
 6410.00    0.77012   0.74617   19.690
 6411.00    0.76531   0.74526   19.284
 6412.00    0.75468   0.74429   19.595
 6413.00    0.74372   0.74439   20.607
 6414.00    0.73792   0.74459   19.430
 6415.00    0.74002   0.74422   15.776
 6416.00    0.74784   0.74388   13.319
 6417.00    0.75652   0.74340   12.831
 6418.00    0.76113   0.74276   13.158
 6419.00    0.75949   0.74279   13.242
 6420.00    0.75418   0.74342   13.263
 6421.00    0.74933   0.74415   13.501
 6422.00    0.74773   0.74569   13.327
 6423.00    0.75042   0.74820   12.776
 6424.00    0.75661   0.75036   13.410
 6425.00    0.76398   0.75163   16.583
 6426.00    0.76917   0.75234   21.161
 6427.00    0.76914   0.75208   22.337
 6428.00    0.76257   0.75082   21.185
 6429.00    0.75188   0.74949   21.093
 6430.00    0.74370   0.74806   21.570
 6431.00    0.74238   0.74653   21.541
 6432.00    0.74580   0.74587   21.446
 6433.00    0.74984   0.74634   21.744
 6434.00    0.75152   0.74679   21.927
 6435.00    0.74942   0.74667   21.698
 6436.00    0.74376   0.74693   21.649
 6437.00    0.73611   0.74813   22.020
 6438.00    0.72903   0.74917   22.089
 6439.00    0.72470   0.74981   21.357
 6440.00    0.72421   0.75158   20.270
 6441.00    0.72845   0.75434   19.306
 6442.00    0.73806   0.75632   18.602
 6443.00    0.75046   0.75733   18.227
 6444.00    0.75960   0.75796   18.282
 6445.00    0.76311   0.75725   18.720
 6446.00    0.76476   0.75435   19.257
 6447.00    0.76680   0.75063   19.603
 6448.00    0.76657   0.74740   19.664
 6449.00    0.76030   0.74403   19.610
 6450.00    0.74591   0.74103   19.785
 6451.00    0.72659   0.73998   20.304
 6452.00    0.71076   0.74035   20.918
 6453.00    0.70424   0.74113   21.318
 6454.00    0.70697   0.74285   21.373
 6455.00    0.71492   0.74503   21.241
 6456.00    0.72205   0.74656   21.268
 6457.00    0.72497   0.74795   21.515
 6458.00    0.72427   0.74889   21.699
 6459.00    0.72218   0.74823   21.738
 6460.00    0.72122   0.74728   21.859
 6461.00    0.72293   0.74715   22.005
 6462.00    0.72713   0.74638   21.800
 6463.00    0.73095   0.74552   21.342
 6464.00    0.73015   0.74639   21.163
 6465.00    0.72484   0.74807   21.251
 6466.00    0.71970   0.74915   21.064
 6467.00    0.71717   0.75039   20.631
 6468.00    0.71574   0.75165   20.561
 6469.00    0.71219   0.75211   20.999
 6470.00    0.70393   0.75215   21.532
 6471.00    0.69368   0.75164   21.810
 6472.00    0.68823   0.75067   21.746
 6473.00    0.69034   0.75027   21.281
 6474.00    0.69775   0.75018   20.422
 6475.00    0.70790   0.74935   19.510
 6476.00    0.71900   0.74861   18.971
 6477.00    0.72916   0.74839   18.839
 6478.00    0.73642   0.74723   18.908
 6479.00    0.73974   0.74517   19.220
 6480.00    0.73986   0.74366   19.975
 6481.00    0.74071   0.74251   20.890
 6482.00    0.74604   0.74100   21.247
 6483.00    0.75039   0.73996   21.083
 6484.00    0.74416   0.73994   21.079
 6485.00    0.73114   0.74005   21.246
 6486.00    0.72463   0.73945   21.077
 6487.00    0.72885   0.73802   20.624
 6488.00    0.73836   0.73566   20.350
 6489.00    0.74661   0.73190   20.353
 6490.00    0.74903   0.72607   20.454
 6491.00    0.74497   0.71860   20.637
 6492.00    0.73692   0.71113   20.932
 6493.00    0.72769   0.70415   20.986
 6494.00    0.71857   0.69774   20.369
 6495.00    0.70680   0.69347   19.395
 6496.00    0.68963   0.69206   18.676
 6497.00    0.67260   0.69335   18.406
 6498.00    0.66518   0.69697   18.523
 6499.00    0.67008   0.70241   18.965
 6500.00    0.68422   0.70897   19.631
 6501.00    0.70381   0.71595   20.252
 6502.00    0.72472   0.72268   20.489
 6503.00    0.74152   0.72843   20.277
 6504.00    0.74995   0.73308   19.803
 6505.00    0.75111   0.73657   19.283
 6506.00    0.74908   0.73912   18.933
 6507.00    0.74640   0.74090   19.017
 6508.00    0.74477   0.74171   19.649
 6509.00    0.74708   0.74188   20.388
 6510.00    0.75453   0.74191   20.603
 6511.00    0.76229   0.74148   20.469
 6512.00    0.76430   0.74024   20.533
 6513.00    0.76073   0.73886   20.804
 6514.00    0.75489   0.73767   21.006
 6515.00    0.74782   0.73616   21.062
 6516.00    0.73890   0.73485   21.035
 6517.00    0.72756   0.73458   20.926
 6518.00    0.71547   0.73490   20.665
 6519.00    0.70846   0.73540   20.147
 6520.00    0.71194   0.73652   19.441
 6521.00    0.72508   0.73818   18.922
 6522.00    0.74203   0.73953   18.883
 6523.00    0.75448   0.74019   19.246
 6524.00    0.75755   0.74062   19.756
 6525.00    0.75539   0.74100   20.192
 6526.00    0.75430   0.74085   20.433
 6527.00    0.75492   0.74020   20.528
 6528.00    0.75491   0.73969    0.000
 6529.00    0.75263   0.73939    0.000
 6530.00    0.74836   0.73896    0.000
 6531.00    0.74482   0.73867    0.000
 6532.00    0.74388   0.73880    0.000
 6533.00    0.74375   0.73908    0.000
 6534.00    0.74298   0.73935    0.000
 6535.00    0.74383   0.73983    0.000
 6536.00    0.74774   0.74040    0.000
 6537.00    0.75153   0.74057    0.000
 6538.00    0.75158   0.74016    0.000
 6539.00    0.74770   0.73918    0.000
 6540.00    0.74258   0.73747    0.000
 6541.00    0.74086   0.73499    0.000
 6542.00    0.74609   0.73166    0.000
 6543.00    0.75913   0.72766    0.000
 6544.00    0.78429   0.72389    0.000
 6545.00    0.83222   0.72044    0.000
 6546.00    0.90618   0.71677    0.000
 6547.00    0.99272   0.71329    0.000
 6548.00    1.06831   0.71043    0.000
 6549.00    1.10656   0.70752    0.000
 6550.00    1.09293   0.70400    0.000
 6551.00    1.03353   0.69985    0.000
 6552.00    0.94802   0.69496    0.000
 6553.00    0.86273   0.68919    0.000
 6554.00    0.79845   0.68229    0.000
 6555.00    0.76392   0.67350    0.000
 6556.00    0.76221   0.66282    0.000
 6557.00    0.80021   0.65127    0.000
 6558.00    0.91952   0.63826    0.000
 6559.00    1.20129   0.62254    0.000
 6560.00    1.69475   0.60804    0.000
 6561.00    2.37184   0.59920    0.000
 6562.00    3.10319   0.59333    0.000
 6563.00    3.67115   0.59038    0.000
 6564.00    3.89545   0.59553    0.000
 6565.00    3.70454   0.60679    0.000
 6566.00    3.16106   0.61841    0.000
 6567.00    2.44923   0.63134    0.000
 6568.00    1.76365   0.64616    0.000
 6569.00    1.24503   0.65834    0.000
 6570.00    0.93611   0.66711    0.000
 6571.00    0.78181   0.67456    0.000
 6572.00    0.71348   0.68053    0.000
 6573.00    0.68676   0.68508    0.000
 6574.00    0.68017   0.68933    0.000
 6575.00    0.68950   0.69352    0.000
 6576.00    0.71031   0.69755    0.000
 6577.00    0.73532   0.70141    0.000
 6578.00    0.77208   0.70483    0.000
 6579.00    0.84518   0.70805    0.000
 6580.00    0.97824   0.71111    0.000
 6581.00    1.18042   0.71350    0.000
 6582.00    1.42418   0.71556    0.000
 6583.00    1.64789   0.71744    0.000
 6584.00    1.79187   0.71924    0.000
 6585.00    1.81579   0.72070    0.000
 6586.00    1.71301   0.72150    0.000
 6587.00    1.51287   0.72185    0.000
 6588.00    1.27242   0.72172    0.000
 6589.00    1.05930   0.72036    0.000
 6590.00    0.90947   0.71799    0.000
 6591.00    0.82079   0.71621    0.000
 6592.00    0.77316   0.71477    0.000
 6593.00    0.74220   0.71311    0.000
 6594.00    0.71937   0.71251    0.000
 6595.00    0.71047   0.71337    0.000
 6596.00    0.71637   0.71478    0.000
 6597.00    0.72990   0.71670    0.000
 6598.00    0.74179   0.71917    0.000
 6599.00    0.74558   0.72150    0.000
 6600.00    0.74522   0.72336    0.000
 6601.00    0.75022   0.72457    0.000
 6602.00    0.75955   0.72481    0.000
 6603.00    0.76377   0.72444    0.000
 6604.00    0.75866   0.72376    0.000
 6605.00    0.74723   0.72249    0.000
 6606.00    0.73669   0.72097    0.000
 6607.00    0.73421   0.72027    0.000
 6608.00    0.73933   0.72032    0.000
 6609.00    0.74576   0.72056   20.962
 6610.00    0.74813   0.72138   21.066
 6611.00    0.74419   0.72317   21.216
 6612.00    0.73626   0.72537   21.395
 6613.00    0.72907   0.72716   21.588
 6614.00    0.72533   0.72883   21.795
 6615.00    0.72539   0.73065   21.996
 6616.00    0.72832   0.73206   22.085
 6617.00    0.73305   0.73268   21.951
 6618.00    0.73979   0.73283   21.653
 6619.00    0.74872   0.73275   21.341
 6620.00    0.75741   0.73206   21.102
 6621.00    0.76256   0.73061   20.953
 6622.00    0.76337   0.72894   20.871
 6623.00    0.76163   0.72750   20.830
 6624.00    0.76065   0.72585   20.837
 6625.00    0.76301   0.72416   20.867
 6626.00    0.76729   0.72298   20.778
 6627.00    0.76979   0.72197   20.512
 6628.00    0.76755   0.72084   20.363
 6629.00    0.75968   0.71984   20.594
 6630.00    0.74852   0.71883   20.931
 6631.00    0.73808   0.71780   20.972
 6632.00    0.73183   0.71723   20.887
 6633.00    0.73150   0.71692   21.031
 6634.00    0.73622   0.71685   21.320
 6635.00    0.74393   0.71750   21.481
 6636.00    0.75318   0.71842   21.470
 6637.00    0.76206   0.71910   21.383
 6638.00    0.76673   0.72004   21.264
 6639.00    0.76429   0.72084   21.134
 6640.00    0.75593   0.72065   21.055
 6641.00    0.74544   0.72039   21.041
 6642.00    0.73687   0.72060   20.975
 6643.00    0.73274   0.72028   20.794
 6644.00    0.73238   0.71965   20.647
 6645.00    0.73178   0.71987   20.579
 6646.00    0.72447   0.72040   20.270
 6647.00    0.70923   0.72037   19.556
 6648.00    0.69641   0.72034   18.832
 6649.00    0.69524   0.72068   18.462
 6650.00    0.70208   0.72071   18.420
 6651.00    0.70878   0.72030   18.535
 6652.00    0.71118   0.71998   18.666
 6653.00    0.70954   0.71964   18.800
 6654.00    0.70775   0.71907   19.107
 6655.00    0.70914   0.71853   19.662
 6656.00    0.71311   0.71784   20.189
 6657.00    0.71635   0.71673   20.467
 6658.00    0.71467   0.71561   20.728
 6659.00    0.70777   0.71435   21.151
 6660.00    0.70203   0.71246   21.440
 6661.00    0.70317   0.71083   21.379
 6662.00    0.71095   0.70989   21.286
 6663.00    0.72179   0.70887   21.411
 6664.00    0.73135   0.70829   21.561
 6665.00    0.73707   0.70892   21.499
 6666.00    0.73958   0.71011   21.245
 6667.00    0.74071   0.71139   20.901
 6668.00    0.74195   0.71312   20.529
 6669.00    0.74360   0.71499   20.211
 6670.00    0.74448   0.71628   20.056
 6671.00    0.74367   0.71668   20.042
 6672.00    0.74145   0.71632   19.974
 6673.00    0.73868   0.71525   19.826
 6674.00    0.73623   0.71282   19.869
 6675.00    0.73395   0.70954   20.187
 6676.00    0.73058   0.70688   20.486
 6677.00    0.72611   0.70460   20.567
 6678.00    0.72260   0.70224   20.586
 6679.00    0.72126   0.70130   20.686
 6680.00    0.72123   0.70211   20.833
 6681.00    0.72091   0.70320   21.012
 6682.00    0.71926   0.70457   21.287
 6683.00    0.71811   0.70677   21.548
 6684.00    0.72149   0.70890   21.484
 6685.00    0.72793   0.71032   21.184
 6686.00    0.72937   0.71153   21.191
 6687.00    0.72332   0.71251   21.581
 6688.00    0.71601   0.71299   21.776
 6689.00    0.71228   0.71311   21.513
 6690.00    0.71171   0.71304   21.174
 6691.00    0.71164   0.71277   21.009
 6692.00    0.70960   0.71216   20.917
 6693.00    0.70766   0.71128   20.742
 6694.00    0.71153   0.71057   20.418
 6695.00    0.72081   0.70998   20.064
 6696.00    0.72768   0.70934    0.000
 6697.00    0.72638   0.70912    0.000
 6698.00    0.71652   0.70935    0.000
 6699.00    0.70181   0.70962    0.000
 6700.00    0.68847   0.70992    0.000
 6701.00    0.68143   0.71031    0.000
 6702.00    0.68264   0.71065    0.000
 6703.00    0.68989   0.71086    0.000
 6704.00    0.69825   0.71085    0.000
 6705.00    0.70534   0.71081    0.000
 6706.00    0.71179   0.71080    0.000
 6707.00    0.71771   0.71037    0.000
 6708.00    0.72229   0.70969    0.000
 6709.00    0.72621   0.70891    0.000
 6710.00    0.73271   0.70745    0.000
 6711.00    0.74887   0.70533    0.000
 6712.00    0.78532   0.70312    0.000
 6713.00    0.85468   0.70064    0.000
 6714.00    0.96444   0.69774    0.000
 6715.00    1.10058   0.69528    0.000
 6716.00    1.22941   0.69376    0.000
 6717.00    1.31299   0.69270    0.000
 6718.00    1.32179   0.69223    0.000
 6719.00    1.25447   0.69290    0.000
 6720.00    1.13575   0.69430    0.000
 6721.00    1.00037   0.69577    0.000
 6722.00    0.88236   0.69733    0.000
 6723.00    0.80037   0.69900    0.000
 6724.00    0.75735   0.70052    0.000
 6725.00    0.74679   0.70173    0.000
 6726.00    0.75944   0.70267    0.000
 6727.00    0.79351   0.70360    0.000
 6728.00    0.85130   0.70446    0.000
 6729.00    0.92843   0.70505    0.000
 6730.00    1.01195   0.70548    0.000
 6731.00    1.08098   0.70582    0.000
 6732.00    1.11371   0.70588    0.000
 6733.00    1.09938   0.70566    0.000
 6734.00    1.04102   0.70525    0.000
 6735.00    0.95574   0.70459    0.000
 6736.00    0.86697   0.70368    0.000
 6737.00    0.79139   0.70270    0.000
 6738.00    0.73710   0.70182    0.000
 6739.00    0.70423   0.70077    0.000
 6740.00    0.68807   0.69966    0.000
 6741.00    0.68366   0.69897    0.000
 6742.00    0.68631   0.69836    0.000
 6743.00    0.69136   0.69740    0.000
 6744.00    0.69610   0.69666    0.000
 6745.00    0.70219   0.69621    0.000
 6746.00    0.71171   0.69536    0.000
 6747.00    0.72156   0.69436    0.000
 6748.00    0.72700   0.69401    0.000
 6749.00    0.72731   0.69372    0.000
 6750.00    0.72518   0.69329    0.000
 6751.00    0.72487   0.69382    0.000
 6752.00    0.72837   0.69498    0.000
 6753.00    0.73142   0.69607   21.371
 6754.00    0.72910   0.69781   21.467
 6755.00    0.72261   0.70013   21.627
 6756.00    0.71651   0.70213   21.736
 6757.00    0.71453   0.70403   21.735
 6758.00    0.71794   0.70593   21.592
 6759.00    0.72427   0.70716   21.267
 6760.00    0.72916   0.70782   20.863
 6761.00    0.72863   0.70808   20.696
 6762.00    0.72383   0.70771   20.842
 6763.00    0.72421   0.70686   20.754
 6764.00    0.73414   0.70568   20.064
 6765.00    0.74121   0.70435   19.278
 6766.00    0.73245   0.70323   18.760
 6767.00    0.70996   0.70224   18.123
 6768.00    0.68479   0.70152   17.140
 6769.00    0.66942   0.70164   16.247
 6770.00    0.67014   0.70234   15.791
 6771.00    0.68187   0.70325   15.709
 6772.00    0.69698   0.70472   15.822
 6773.00    0.71234   0.70663   16.000
 6774.00    0.72451   0.70825   16.199
 6775.00    0.72650   0.70954   16.493
 6776.00    0.71768   0.71061   16.947
 6777.00    0.70944   0.71088   17.515
 6778.00    0.70901   0.71023   18.155
 6779.00    0.70931   0.70898   18.923
 6780.00    0.70529   0.70703   19.718
 6781.00    0.70421   0.70453   20.073
 6782.00    0.71121   0.70208   19.799
 6783.00    0.72050   0.69974   19.404
 6784.00    0.72596   0.69774   19.282
 6785.00    0.72792   0.69663   19.328
 6786.00    0.72835   0.69610   19.399
 6787.00    0.72761   0.69589   19.546
 6788.00    0.72514   0.69634   19.718
 6789.00    0.72037   0.69706   19.639
 6790.00    0.71542   0.69743   19.298
 6791.00    0.71538   0.69788   19.114
 6792.00    0.72133   0.69849   19.250
 6793.00    0.72779   0.69875   19.397
 6794.00    0.73052   0.69906   19.386
 6795.00    0.73010   0.69967   19.470
 6796.00    0.72712   0.70029   19.815
 6797.00    0.72011   0.70098   20.280
 6798.00    0.70830   0.70179   20.694
 6799.00    0.69312   0.70263   20.976
 6800.00    0.67855   0.70333   20.854
 6801.00    0.67040   0.70375   19.915
 6802.00    0.67273   0.70418   18.333
 6803.00    0.68611   0.70438   16.750
 6804.00    0.70765   0.70412   15.511
 6805.00    0.73111   0.70404   14.671
 6806.00    0.74718   0.70395   14.279
 6807.00    0.74646   0.70344   14.415
 6808.00    0.73074   0.70315   14.947
 6809.00    0.71475   0.70302   15.395
 6810.00    0.71434   0.70266   15.186
 6811.00    0.73867   0.70240   14.182
 6812.00    0.77918   0.70224   13.161
 6813.00    0.81220   0.70211   13.011
 6814.00    0.82301   0.70214   13.550
 6815.00    0.81330   0.70223   13.614
 6816.00    0.79509   0.70247   12.973
 6817.00    0.78352   0.70294   12.581
 6818.00    0.78116   0.70346   12.704
 6819.00    0.77818   0.70405   12.893
 6820.00    0.77033   0.70474   12.978
 6821.00    0.76201   0.70535   13.175
 6822.00    0.75717   0.70583   13.319
 6823.00    0.75599   0.70622   13.012
 6824.00    0.75387   0.70634   12.917
 6825.00    0.74526   0.70613   14.337
 6826.00    0.73481   0.70584   17.339
 6827.00    0.73368   0.70551   18.819
 6828.00    0.74071   0.70514   17.357
 6829.00    0.74380   0.70485   16.017
 6830.00    0.73724   0.70475   15.742
 6831.00    0.72413   0.70487   15.897
 6832.00    0.71022   0.70491   16.067
 6833.00    0.70062   0.70469   16.227
 6834.00    0.69570   0.70434   16.447
 6835.00    0.69292   0.70364   16.763
 6836.00    0.69299   0.70231   17.072
 6837.00    0.69859   0.70071   17.163
 6838.00    0.70804   0.69902   16.925
 6839.00    0.71507   0.69729   16.463
 6840.00    0.71173   0.69590   16.135
 6841.00    0.69557   0.69514   16.253
 6842.00    0.68243   0.69502   16.616
 6843.00    0.69253   0.69550   16.768
 6844.00    0.71815   0.69651   16.850
 6845.00    0.73612   0.69784   17.346
 6846.00    0.74387   0.69910   18.158
 6847.00    0.75178   0.70011   18.691
 6848.00    0.75637   0.70077   18.688
 6849.00    0.74702   0.70089   18.341
 6850.00    0.72666   0.70060   17.847
 6851.00    0.70738   0.69988   17.321
 6852.00    0.69671   0.69862   16.842
 6853.00    0.69668   0.69744   16.480
 6854.00    0.70617   0.69631   16.339
 6855.00    0.71976   0.69485   16.507
 6856.00    0.72561   0.69387   16.987
 6857.00    0.71427   0.69354   17.663
 6858.00    0.69204   0.69307   18.222
 6859.00    0.67253   0.69295   18.304
 6860.00    0.66163   0.69360   17.872
 6861.00    0.66083   0.69421   17.122
 6862.00    0.67467   0.69465   16.211
 6863.00    0.70348   0.69543   15.347
 6864.00    0.73303   0.69614   14.894
 6865.00    0.74741   0.69624   15.093
 6866.00    0.74722   0.69618   15.823
 6867.00    0.74103   0.69627   16.783
 6868.00    0.73222   0.69600   17.801
 6869.00    0.72257   0.69556   18.766
 6870.00    0.71812   0.69569   19.422
 6871.00    0.72229   0.69608   19.582
 6872.00    0.72792   0.69638   19.447
 6873.00    0.72707   0.69717   19.310
 6874.00    0.72237   0.69838   19.183
 6875.00    0.71883   0.69938   18.935
 6876.00    0.71419   0.70023   18.478
 6877.00    0.70530   0.70107   17.826
 6878.00    0.69551   0.70157   17.106
 6879.00    0.69156   0.70154   16.476
 6880.00    0.69921   0.70125   16.074
 6881.00    0.71751   0.70103   15.963
 6882.00    0.73486   0.70087   16.107
 6883.00    0.74133   0.70072   16.455
 6884.00    0.73953   0.70117   16.989
 6885.00    0.73667   0.70227   17.452
 6886.00    0.73663   0.70334   17.144
 6887.00    0.74075   0.70466   15.994
 6888.00    0.74900   0.70642   14.994
 6889.00    0.75831   0.70778   14.721
 6890.00    0.76189   0.70872   14.969
 6891.00    0.75448   0.70971   15.463
 6892.00    0.73675   0.71029   16.248
 6893.00    0.71602   0.71036   17.350
 6894.00    0.70489   0.71039   18.376
 6895.00    0.70817   0.71042   18.858
 6896.00    0.71554   0.71028   18.831
 6897.00    0.71856   0.71015   18.589
 6898.00    0.72141   0.71028   18.342
 6899.00    0.72801   0.71061   18.141
 6900.00    0.73400   0.71094   17.908
 6901.00    0.73509   0.71147   17.638
 6902.00    0.73243   0.71225   17.476
 6903.00    0.72945   0.71304   17.504
 6904.00    0.72927   0.71380   17.635
 6905.00    0.73218   0.71447   17.720
 6906.00    0.73475   0.71501   17.631
 6907.00    0.73285   0.71528   17.362
 6908.00    0.72354   0.71502   17.060
 6909.00    0.70531   0.71448   16.909
 6910.00    0.67898   0.71372   17.064
 6911.00    0.65209   0.71242   17.559
 6912.00    0.63817   0.71115   18.241
 6913.00    0.64104   0.71021   18.817
 6914.00    0.65004   0.70912   18.941
 6915.00    0.65756   0.70849   18.533
 6916.00    0.66629   0.70851   17.868
 6917.00    0.68060   0.70849   17.170
 6918.00    0.70174   0.70867   16.506
 6919.00    0.72628   0.70910   16.022
 6920.00    0.74636   0.70922   15.947
 6921.00    0.75412   0.70910   16.320
 6922.00    0.74508   0.70891   16.929
 6923.00    0.72373   0.70859   17.502
 6924.00    0.70280   0.70825   17.833
 6925.00    0.69076   0.70809   17.872
 6926.00    0.68738   0.70816   17.748
 6927.00    0.68733   0.70843   17.644
 6928.00    0.68426   0.70890   17.698
 6929.00    0.68015   0.70945   17.870
 6930.00    0.68426   0.70989   17.971
 6931.00    0.69662   0.71032   17.999
 6932.00    0.70654   0.71085   18.155
 6933.00    0.70822   0.71115   18.456
 6934.00    0.70479   0.71148   18.676
 6935.00    0.70259   0.71207   18.707
 6936.00    0.70738   0.71250   18.635
 6937.00    0.71887   0.71285   18.522
 6938.00    0.73079   0.71324   18.378
 6939.00    0.73645   0.71331   18.317
 6940.00    0.73194   0.71314   18.466
 6941.00    0.72006   0.71288   18.589
 6942.00    0.70860   0.71226   18.252
 6943.00    0.70228   0.71171   17.694
 6944.00    0.70097   0.71145   17.540
 6945.00    0.70126   0.71103   17.777
 6946.00    0.69888   0.71091   17.855
 6947.00    0.69365   0.71124   17.548
 6948.00    0.68959   0.71126   17.064
 6949.00    0.69174   0.71130   16.594
 6950.00    0.70279   0.71161   16.235
 6951.00    0.71738   0.71158   16.100
 6952.00    0.72541   0.71156   16.280
 6953.00    0.72305   0.71199   16.682
 6954.00    0.71315   0.71248   17.102
 6955.00    0.70025   0.71312   17.529
 6956.00    0.68931   0.71419   18.087
 6957.00    0.68545   0.71535   18.609
 6958.00    0.69135   0.71645   18.742
 6959.00    0.70247   0.71760   18.546
 6960.00    0.71110   0.71859   18.376
 6961.00    0.71635   0.71946   18.342
 6962.00    0.72196   0.72021   18.333
 6963.00    0.72838   0.72072   18.229
 6964.00    0.73172   0.72124   18.017
 6965.00    0.72511   0.72170   17.914
 6966.00    0.70561   0.72189   18.111
 6967.00    0.68527   0.72205   18.330
 6968.00    0.68006   0.72202   18.113
 6969.00    0.68808   0.72153   17.571
 6970.00    0.69633   0.72077   17.135
 6971.00    0.69785   0.71953   17.033
 6972.00    0.69426   0.71759   17.249
 6973.00    0.69481   0.71532   17.485
 6974.00    0.70680   0.71283   17.401
 6975.00    0.72190   0.71000   17.096
 6976.00    0.72635   0.70743   16.892
 6977.00    0.71862   0.70586   16.941
 6978.00    0.70681   0.70504   17.194
 6979.00    0.70111   0.70506   17.379
 6980.00    0.70557   0.70656   17.279
 6981.00    0.70939   0.70888   17.129
 6982.00    0.69961   0.71129   17.233
 6983.00    0.67856   0.71397   17.470
 6984.00    0.65829   0.71640   17.534
 6985.00    0.65029   0.71806   17.350
 6986.00    0.65870   0.71912   17.007
 6987.00    0.67417   0.71970   16.579
 6988.00    0.68124   0.71983   16.214
 6989.00    0.66888   0.71970   16.193
 6990.00    0.64465   0.71956   16.542
 6991.00    0.64473   0.71941   16.605
 6992.00    0.67787   0.71925   16.168
 6993.00    0.67396   0.71912   16.534
 6994.00    0.59730   0.71879   18.410
 6995.00    0.55408   0.71834   -1.000
 6996.00    0.62916   0.71777   16.084
 6997.00    0.72870   0.71692   13.721
 6998.00    0.74190   0.71603   13.461
 6999.00    0.69963   0.71521   14.294
 7000.00    0.67212   0.71434   14.886
 7001.00    0.66577   0.71360   -2.000
 7002.00    0.66250   0.71313   -2.000
 7003.00    0.66100   0.71290   -2.000
 7004.00    0.66520   0.71279   -2.000
 7005.00    0.67216   0.71292   -2.000
 7006.00    0.67765   0.71336   -2.000
 7007.00    0.68115   0.71383   -2.000
 7008.00    0.68326   0.71417   -2.000
 7009.00    0.68363   0.71451   -2.000
 7010.00    0.68241   0.71456   -2.000
 7011.00    0.68137   0.71415   -2.000
 7012.00    0.68234   0.71357   -2.000
 7013.00    0.68576   0.71272   -2.000
 7014.00    0.68877   0.71181   -2.000
 7015.00    0.68525   0.71137   -2.000
 7016.00    0.67532   0.71111   -2.000
 7017.00    0.66940   0.71113   -2.000
 7018.00    0.67232   0.71185   -2.000
 7019.00    0.67545   0.71258   -2.000
 7020.00    0.67408   0.71306   -2.000
 7021.00    0.67595   0.71359   -2.000
 7022.00    0.68493   0.71391   -2.000
 7023.00    0.69341   0.71396   -2.000
 7024.00    0.69794   0.71401   -2.000
 7025.00    0.70538   0.71430   -2.000
 7026.00    0.71548   0.71485   -2.000
 7027.00    0.71477   0.71559   -2.000
 7028.00    0.69770   0.71656   -2.000
 7029.00    0.67515   0.71763   -2.000
 7030.00    0.65793   0.71859   -2.000
 7031.00    0.64891   0.71942   -2.000
 7032.00    0.64813   0.71993   -2.000
 7033.00    0.65470   0.72027   -2.000
 7034.00    0.66327   0.72067   -2.000
 7035.00    0.66485   0.72088   -2.000
 7036.00    0.65861   0.72133   -2.000
 7037.00    0.65400   0.72254   -2.000
 7038.00    0.65660   0.72395   -2.000
 7039.00    0.66367   0.72568   -2.000
 7040.00    0.67251   0.72822   -2.000
 7041.00    0.68342   0.73073   -2.000
 7042.00    0.69626   0.73285   -2.000
 7043.00    0.70873   0.73498   -2.000
 7044.00    0.71497   0.73658   -2.000
 7045.00    0.71018   0.73721   -2.000
 7046.00    0.70902   0.73721   -2.000
 7047.00    0.73362   0.73633   -2.000
 7048.00    0.74820   0.73436   -2.000
 7049.00    0.68039   0.73143   -2.000
 7050.00    0.57316   0.72757   -2.000
 7051.00    0.56633   0.72306   -2.000
 7052.00    0.66299   0.71811   -2.000
 7053.00    0.72447   0.71305   -2.000
 7054.00    0.70327   0.70840   -2.000
 7055.00    0.67044   0.70424   -2.000
 7056.00    0.66595   0.70073   -2.000
 7057.00    0.67203   0.69796   -2.000
 7058.00    0.67431   0.69579   -2.000
 7059.00    0.67471   0.69420   -2.000
 7060.00    0.67484   0.69287   -2.000
 7061.00    0.67295   0.69189   -2.000
 7062.00    0.66915   0.69128   -2.000
 7063.00    0.66625   0.69052   -2.000
 7064.00    0.66816   0.69007   -2.000
 7065.00    0.67696   0.69001   -2.000
 7066.00    0.68692   0.68986   -2.000
 7067.00    0.68819   0.69031   -2.000
 7068.00    0.67906   0.69136   -2.000
 7069.00    0.66618   0.69253   -2.000
 7070.00    0.65796   0.69431   -2.000
 7071.00    0.66118   0.69643   -2.000
 7072.00    0.67696   0.69837   -2.000
 7073.00    0.69899   0.70028   -2.000
 7074.00    0.71207   0.70195   -2.000
 7075.00    0.70272   0.70308   -2.000
 7076.00    0.68061   0.70367   -2.000
 7077.00    0.66725   0.70368   -2.000
 7078.00    0.66548   0.70301   -2.000
 7079.00    0.66462   0.70147   -2.000
 7080.00    0.66160   0.69921   -2.000
 7081.00    0.66005   0.69621   -2.000
 7082.00    0.66109   0.69232   -2.000
 7083.00    0.66343   0.68815   -2.000
 7084.00    0.66645   0.68373   -2.000
 7085.00    0.67122   0.67898   -2.000
 7086.00    0.68098   0.67493   -2.000
 7087.00    0.69680   0.67129   -2.000
 7088.00    0.71065   0.66792   -2.000
 7089.00    0.71219   0.66574   -2.000
 7090.00    0.70052   0.66410   -2.000
 7091.00    0.68121   0.66289   -2.000
 7092.00    0.65887   0.66266   -2.000
 7093.00    0.63848   0.66275   -2.000
 7094.00    0.62849   0.66324   -2.000
 7095.00    0.63668   0.66419   -2.000
 7096.00    0.66327   0.66536   -2.000
 7097.00    0.69176   0.66676   -2.000
 7098.00    0.68131   0.66814   -2.000
 7099.00    0.61679   0.66965   -2.000
 7100.00    0.56828   0.67107   -2.000
 7101.00    0.60218   0.67218   -2.000
 7102.00    0.66854   0.67332   -2.000
 7103.00    0.68936   0.67419   -2.000
 7104.00    0.67560   0.67470   -2.000
 7105.00    0.67218   0.67515   -2.000
 7106.00    0.68167   0.67531   -2.000
 7107.00    0.68918   0.67520   -2.000
 7108.00    0.69787   0.67503   -2.000
 7109.00    0.71339   0.67482   -2.000
 7110.00    0.72503   0.67468   -2.000
 7111.00    0.72285   0.67476   -2.000
 7112.00    0.71580   0.67510   -2.000
 7113.00    0.71629   0.67579   -2.000
 7114.00    0.72375   0.67669   -2.000
 7115.00    0.72946   0.67763   -2.000
 7116.00    0.72348   0.67861   -2.000
 7117.00    0.70380   0.67934   -2.000
 7118.00    0.68273   0.67975   -2.000
 7119.00    0.67366   0.67972   -2.000
 7120.00    0.67927   0.67912   -2.000
 7121.00    0.69455   0.67818   -2.000
 7122.00    0.71086   0.67662   -2.000
 7123.00    0.72109   0.67454   -2.000
 7124.00    0.72348   0.67241   -2.000
 7125.00    0.71928   0.66989   -2.000
 7126.00    0.71088   0.66731   -2.000
 7127.00    0.70354   0.66515   -2.000
 7128.00    0.70544   0.66318   -2.000
 7129.00    0.71833   0.66182   -2.000
 7130.00    0.73224   0.66118   -2.000
 7131.00    0.73671   0.66109   -2.000
 7132.00    0.72924   0.66184   -2.000
 7133.00    0.71646   0.66294   -2.000
 7134.00    0.71245   0.66428   -2.000
 7135.00    0.72366   0.66602   -2.000
 7136.00    0.74150   0.66745   -2.000
 7137.00    0.75649   0.66874   -2.000
 7138.00    0.76609   0.67006   -2.000
 7139.00    0.76668   0.67083   -2.000
 7140.00    0.75041   0.67136   -2.000
 7141.00    0.71592   0.67191   -2.000
 7142.00    0.67368   0.67186   -2.000
 7143.00    0.63980   0.67151   -2.000
 7144.00    0.62970   0.67138   -2.000
 7145.00    0.64409   0.67072   -2.000
 7146.00    0.66585   0.67013   -2.000
 7147.00    0.68164   0.67029   -2.000
 7148.00    0.69114   0.67039   -2.000
 7149.00    0.69629   0.67114   -2.000
 7150.00    0.69640   0.67282   -2.000
 7151.00    0.69093   0.67454   -2.000
 7152.00    0.68075   0.67660   -2.000
 7153.00    0.66690   0.67886   -2.000
 7154.00    0.65122   0.68074   -2.000
 7155.00    0.64080   0.68212   -2.000
 7156.00    0.64347   0.68298   -2.000
 7157.00    0.64173   0.68328   -2.000
 7158.00    0.59937   0.68269   -2.000
 7159.00    0.53106   0.68157   -2.000
 7160.00    0.50441   0.68013   -2.000
 7161.00    0.53992   0.67821   -2.000
 7162.00    0.59192   0.67637   -2.000
 7163.00    0.62438   0.67479   -2.000
 7164.00    0.63495   0.67360   -2.000
 7165.00    0.63614   0.67311   -2.000
 7166.00    0.64292   0.67333   -2.000
 7167.00    0.65558   0.67419   -2.000
 7168.00    0.66077   0.67550   -2.000
 7169.00    0.65404   0.67713   -2.000
 7170.00    0.64497   0.67876   -2.000
 7171.00    0.64886   0.68007   -2.000
 7172.00    0.67645   0.68110   -2.000
 7173.00    0.71193   0.68162   -2.000
 7174.00    0.72296   0.68155   -2.000
 7175.00    0.70826   0.68121   -2.000
 7176.00    0.69383   0.68041   -2.000
 7177.00    0.68355   0.67936   -2.000
 7178.00    0.65977   0.67846   -2.000
 7179.00    0.62237   0.67738   -2.000
 7180.00    0.58933   0.67648   -2.000
 7181.00    0.57042   0.67588   -2.000
 7182.00    0.56448   0.67508   -2.000
 7183.00    0.57013   0.67454   -2.000
 7184.00    0.58653   0.67389   -2.000
 7185.00    0.60862   0.67294   -2.000
 7186.00    0.62748   0.67240   -2.000
 7187.00    0.63380   0.67166   -2.000
 7188.00    0.62418   0.67113   -2.000
 7189.00    0.61240   0.67133   -2.000
 7190.00    0.61813   0.67158   -2.000
 7191.00    0.63855   0.67232   -2.000
 7192.00    0.65434   0.67340   -2.000
 7193.00    0.65424   0.67442   -2.000
 7194.00    0.64193   0.67545   -2.000
 7195.00    0.63837   0.67634   -2.000
 7196.00    0.65310   0.67702   -2.000
 7197.00    0.63297   0.67738   -2.000
 7198.00    0.53068   0.67767   -2.000
 7199.00    0.43973   0.67776   -2.000
 7200.00    0.48602   0.67757   -2.000
 7201.00    0.60399   0.67732   -2.000
 7202.00    0.64289   0.67678   -2.000
 7203.00    0.60468   0.67620   -2.000
 7204.00    0.58236   0.67541   -2.000
 7205.00    0.59834   0.67453   -2.000
 7206.00    0.62462   0.67412   -2.000
 7207.00    0.65339   0.67367   -2.000
 7208.00    0.68874   0.67376   -2.000
 7209.00    0.71872   0.67457   -2.000
 7210.00    0.72637   0.67538   -2.000
 7211.00    0.71073   0.67677   -2.000
 7212.00    0.67798   0.67845   -2.000
 7213.00    0.62653   0.67987   -2.000
 7214.00    0.56516   0.68145   -2.000
 7215.00    0.53683   0.68298   -2.000
 7216.00    0.57409   0.68422   -2.000
 7217.00    0.64148   0.68542   -2.000
 7218.00    0.68094   0.68652   -2.000
