###################################################################
## OUTPUT of StarlightChains_v04.for    [Cid@UFSC - 01/Apr/2007] ##
###################################################################

## Some input info
1992bf.txt                               [arq_obs]
Base.CB07.vall.4m                        [arq_base]
Masks.EmLines.NEW.gm                     [arq_masks]
StCv04.C11.config                        [arq_config]
   66                                    [N_base]
    0                                    [N_YAV_components = # of components with extra extinction!]
    0                                    [i_FitPowerLaw (1/0 = Yes/No)]
-9.99                                    [alpha_PowerLaw]
CCM                                      [red_law_option]
 1.458241                                [q_norm = A(l_norm)/A(V)]

## (Re)Sampling Parameters
 3741.00                                 [l_ini (A)]
 7218.00                                 [l_fin (A)]
    1.00                                 [dl    (A)]     (OBS: dl_cushion =    50.00 A)

## Normalization info
 4020.00                                 [l_norm (A) - for base]
 4010.00                                 [llow_norm (A) - window for f_obs]
 4060.00                                 [lupp_norm (A) - window for f_obs]
1.225693E-16                             [fobs_norm (in input units)]

## S/N
 3691.00                                 [llow_SN (A) - window for S/N]
 7268.00                                 [lupp_SN (A) - window for S/N]
   4.321                                 [S/N in S/N window]
   3.220                                 [S/N in norm. window]
  10.000                                 [S/N_err in S/N window]
   7.452                                 [S/N_err in norm. window]
  1.0000                                 [fscale_chi2]

## etc...
    -2007218                             [idum_orig]
  2384                                   [NOl_eff]
  2380                                   [Nl_eff]
     4    NSIGMA                         [Ntot_cliped & clip_method]
   822360                                [Nglobal_steps]
   7                                     [N_chains]
  15                                     [NEX0s_base = N_base in EX0s-fits]
 0   0   1       86   2.0   1.757E+01    [Clip-Bug, RC-Crash & Burn-In warning-flags, n_censored_weights, wei_nsig_threshold & wei_limit]
    11     10.781     10.247      0.533  [idt_all, wdt_TotTime, wdt_UsrTime & wdt_SysTime (sec)]

## Synthesis Results - Best model ##

 2.72651E-01                             [chi2/Nl_eff]
     3.72599                             [adev (%)]

   102.53281                             [sum-of-x (%)]
 1.24631E-16                             [Flux_tot (units of input spectrum!)]
 1.06674E-11                             [Mini_tot (???)]
 5.37093E-12                             [Mcor_tot (???)]

   7.82                                  [v0_min  (km/s)]
 179.12                                  [vd_min  (km/s)]
-0.0062                                  [AV_min  (mag)]
 0.0000                                  [YAV_min (mag)]

# j     x_j(%)      Mini_j(%)     Mcor_j(%)     age_j(yr)     Z_j      (L/M)_j    YAV?  Mstars   component_j        a/Fe...       SSP_chi2r SSP_adev(%)   SSP_AV   SSP_x(%)
  1      0.0000     0.0000E+00    0.0000E+00    1.000000E+06  0.00400  1.094E-02    0   1.0000   age020_m42            0.0000     2.3148E+00    10.4894   4.0000    83.8981
  2      0.0000     0.0000E+00    0.0000E+00    3.160000E+06  0.00400  4.007E-02    0   0.9999   age045_m42            0.0000     1.7398E+00     9.5606   3.4199    85.6222
  3      0.0000     0.0000E+00    0.0000E+00    5.010000E+06  0.00400  2.539E-02    0   0.9488   age055_m42            0.0000     1.9402E+00    10.1101   3.7620    82.6200
  4      0.0000     0.0000E+00    0.0000E+00    6.610000E+06  0.00400  2.620E-02    0   0.9220   age061_m42            0.0000     1.7857E+00     9.6866   3.3459    85.7720
  5      0.0000     0.0000E+00    0.0000E+00    1.000000E+07  0.00400  1.322E-02    0   0.8862   age070_m42            0.0000     2.0532E+00    10.9497   3.0747    86.7626
  6      0.0000     0.0000E+00    0.0000E+00    1.445000E+07  0.00400  7.883E-03    0   0.8571   age078_m42            0.0000     2.1358E+00    11.1324   3.4139    84.1021
  7      0.0000     0.0000E+00    0.0000E+00    2.512000E+07  0.00400  5.251E-03    0   0.8174   age090_m42            0.0000     2.0922E+00    11.1590   2.9430    87.2461
  8      0.0000     0.0000E+00    0.0000E+00    4.000000E+07  0.00400  3.649E-03    0   0.7851   age104_m42            0.0000     1.9539E+00    10.7393   2.7050    88.5042
  9      0.0000     0.0000E+00    0.0000E+00    5.500000E+07  0.00400  3.098E-03    0   0.7629   age110_m42            0.0000     1.8185E+00    10.0321   2.8462    89.1917
 10      0.0000     0.0000E+00    0.0000E+00    1.015200E+08  0.00400  2.228E-03    0   0.7207   age116_m42            0.0000     1.7548E+00     9.6142   2.8603    89.7547
 11      0.0000     0.0000E+00    0.0000E+00    2.861200E+08  0.00400  1.093E-03    0   0.6648   age125_m42            0.0000     1.7231E+00     9.8568   2.2734    93.0745
 12      0.0000     0.0000E+00    0.0000E+00    5.088000E+08  0.00400  6.597E-04    0   0.6365   age130_m42            0.0000     1.5275E+00     9.0165   2.2477    94.8222
 13      0.0000     0.0000E+00    0.0000E+00    1.434000E+09  0.00400  2.132E-04    0   0.5798   age139_m42            0.0000     9.5785E-01     7.2908   1.2419    98.7151
 14      0.0000     0.0000E+00    0.0000E+00    4.250000E+09  0.00400  5.895E-05    0   0.5377   age158_m42            0.0000     5.9034E-01     5.7156   0.7938    95.6585
 15      0.0000     0.0000E+00    0.0000E+00    7.500000E+09  0.00400  3.510E-05    0   0.5212   age171_m42            0.0000     4.8596E-01     5.1261   0.5953    95.6601
 16      4.5788     2.6022E+00    2.6018E+00    1.300000E+10  0.00400  2.005E-05    0   0.5034   age193_m42            0.0000     4.2348E-01     4.7173   0.4206    95.7070
 17      5.5083     4.1158E+00    4.0603E+00    1.800000E+10  0.00400  1.525E-05    0   0.4967   age213_m42            0.0000     4.4267E-01     4.8206   0.4017    95.0815
 18      0.0000     0.0000E+00    0.0000E+00    1.000000E+06  0.00800  1.238E-02    0   1.0000   age020_m52            0.0000     2.3057E+00    10.4641   4.0000    83.9613
 19      0.0000     0.0000E+00    0.0000E+00    3.160000E+06  0.00800  3.074E-02    0   0.9966   age045_m52            0.0000     2.1527E+00    10.1973   4.0000    82.5378
 20      0.0000     0.0000E+00    0.0000E+00    5.010000E+06  0.00800  2.668E-02    0   0.9443   age055_m52            0.0000     1.9852E+00    10.2440   3.8507    81.6414
 21      0.0000     0.0000E+00    0.0000E+00    6.610000E+06  0.00800  2.136E-02    0   0.9177   age061_m52            0.0000     1.7684E+00    10.2416   2.5661    88.3088
 22      0.0000     0.0000E+00    0.0000E+00    1.000000E+07  0.00800  1.215E-02    0   0.8827   age070_m52            0.0000     2.1999E+00    11.5185   3.2623    86.0854
 23      0.0000     0.0000E+00    0.0000E+00    1.445000E+07  0.00800  8.717E-03    0   0.8552   age078_m52            0.0000     2.0944E+00    11.0275   3.3747    85.4532
 24      0.0000     0.0000E+00    0.0000E+00    2.512000E+07  0.00800  5.592E-03    0   0.8162   age090_m52            0.0000     2.0765E+00    11.1452   3.0042    88.3795
 25      0.0000     0.0000E+00    0.0000E+00    4.000000E+07  0.00800  3.896E-03    0   0.7841   age104_m52            0.0000     1.9309E+00    10.6444   2.9032    89.7166
 26      0.0000     0.0000E+00    0.0000E+00    1.015200E+08  0.00800  2.148E-03    0   0.7226   age116_m52            0.0000     1.7344E+00     9.7982   2.8279    90.3799
 27      0.0000     0.0000E+00    0.0000E+00    2.861200E+08  0.00800  9.925E-04    0   0.6683   age125_m52            0.0000     1.5021E+00     8.8967   2.3104    95.8021
 28      4.3830     1.5900E-01    1.9384E-01    9.047900E+08  0.00800  3.141E-04    0   0.6138   age135_m52            0.0000     7.9928E-01     6.6838   1.4538   103.0858
 29      0.0000     0.0000E+00    0.0000E+00    1.434000E+09  0.00800  1.719E-04    0   0.5853   age139_m52            0.0000     6.3218E-01     5.9887   0.8807   100.8544
 30      0.0000     0.0000E+00    0.0000E+00    2.500000E+09  0.00800  7.872E-05    0   0.5600   age150_m52            0.0000     4.2071E-01     4.7440   0.5987    99.1728
 31      4.3913     1.1540E+00    1.2437E+00    4.250000E+09  0.00800  4.336E-05    0   0.5426   age158_m52            0.0000     4.1100E-01     4.6890   0.5841    98.2348
 32      0.0000     0.0000E+00    0.0000E+00    6.250000E+09  0.00800  3.159E-05    0   0.5319   age166_m52            0.0000     3.3060E-01     4.1410   0.3630    99.3271
 33     15.7560     1.3191E+01    1.3291E+01    1.300000E+10  0.00800  1.361E-05    0   0.5073   age193_m52            0.0000     2.8544E-01     3.7535  -0.1290   100.0754
 34     15.4058     1.7757E+01    1.7599E+01    1.800000E+10  0.00800  9.886E-06    0   0.4990   age213_m52            0.0000     3.0958E-01     3.8947  -0.2541   100.5787
 35      0.0000     0.0000E+00    0.0000E+00    1.000000E+06  0.02000  1.544E-02    0   1.0000   age020_m62            0.0000     2.3134E+00    10.4784   4.0000    84.0322
 36      0.0000     0.0000E+00    0.0000E+00    3.160000E+06  0.02000  3.762E-02    0   0.9858   age045_m62            0.0000     2.2105E+00    10.3050   4.0000    83.0263
 37      0.0000     0.0000E+00    0.0000E+00    5.010000E+06  0.02000  3.296E-02    0   0.9342   age055_m62            0.0000     1.8542E+00     9.7844   3.7132    84.0526
 38      0.0000     0.0000E+00    0.0000E+00    8.710000E+06  0.02000  1.154E-02    0   0.8861   age067_m62            0.0000     3.2077E+00    14.9412   2.7392    86.5168
 39      0.0000     0.0000E+00    0.0000E+00    1.445000E+07  0.02000  7.663E-03    0   0.8472   age078_m62            0.0000     2.3575E+00    12.3270   2.9092    87.8046
 40      0.0000     0.0000E+00    0.0000E+00    2.512000E+07  0.02000  4.532E-03    0   0.8099   age090_m62            0.0000     2.4447E+00    12.5738   2.9010    87.5067
 41      0.0000     0.0000E+00    0.0000E+00    5.500000E+07  0.02000  2.733E-03    0   0.7595   age110_m62            0.0000     1.9650E+00    10.7213   2.8914    88.8644
 42      0.0000     0.0000E+00    0.0000E+00    1.609000E+08  0.02000  1.369E-03    0   0.6985   age120_m62            0.0000     1.7426E+00     9.5968   2.7000    92.8853
 43      0.0000     0.0000E+00    0.0000E+00    2.861200E+08  0.02000  9.013E-04    0   0.6714   age125_m62            0.0000     1.5840E+00     8.9464   2.4227    96.9455
 44      0.0000     0.0000E+00    0.0000E+00    5.088000E+08  0.02000  5.028E-04    0   0.6449   age130_m62            0.0000     1.1247E+00     7.4595   2.0029   101.9425
 45      0.0000     0.0000E+00    0.0000E+00    9.047900E+08  0.02000  2.428E-04    0   0.6179   age135_m62            0.0000     6.2849E-01     5.7807   1.3945   102.7709
 46     21.2880     1.9206E+00    2.2536E+00    1.434000E+09  0.02000  1.263E-04    0   0.5908   age139_m62            0.0000     4.6801E-01     4.9653   0.9474   101.6212
 47      1.3201     2.5133E-01    2.8318E-01    2.500000E+09  0.02000  5.985E-05    0   0.5673   age150_m62            0.0000     3.4509E-01     4.2157   0.5663   101.2571
 48      0.0000     0.0000E+00    0.0000E+00    4.250000E+09  0.02000  3.271E-05    0   0.5468   age158_m62            0.0000     2.9055E-01     3.8355   0.2365   101.9098
 49      0.0000     0.0000E+00    0.0000E+00    1.000000E+10  0.02000  1.360E-05    0   0.5167   age181_m62            0.0000     3.5458E-01     4.1728  -0.1453   103.4178
 50      0.0000     0.0000E+00    0.0000E+00    1.800000E+10  0.02000  7.124E-06    0   0.5013   age213_m62            0.0000     4.8557E-01     4.9038  -0.3767   103.8611
 51      0.0000     0.0000E+00    0.0000E+00    1.000000E+06  0.05000  2.592E-02    0   0.9998   age020_m72            0.0000     2.3514E+00    10.5781   4.0000    83.7557
 52      0.0000     0.0000E+00    0.0000E+00    3.160000E+06  0.05000  4.845E-02    0   0.9577   age045_m72            0.0000     2.0175E+00    10.2362   3.9923    81.0355
 53      0.0000     0.0000E+00    0.0000E+00    5.010000E+06  0.05000  3.072E-02    0   0.9147   age055_m72            0.0000     2.2839E+00    11.7810   3.5062    84.3027
 54      0.0000     0.0000E+00    0.0000E+00    6.610000E+06  0.05000  1.455E-02    0   0.8877   age061_m72            0.0000     4.0495E+00    17.3273   2.7909    86.5530
 55      0.0000     0.0000E+00    0.0000E+00    1.000000E+07  0.05000  9.074E-03    0   0.8524   age070_m72            0.0000     2.4303E+00    12.1345   3.6890    84.0549
 56      0.0000     0.0000E+00    0.0000E+00    2.512000E+07  0.05000  4.250E-03    0   0.7902   age090_m72            0.0000     2.2565E+00    11.7046   3.3710    86.3183
 57      0.0000     0.0000E+00    0.0000E+00    4.000000E+07  0.05000  3.087E-03    0   0.7618   age104_m72            0.0000     2.2697E+00    11.7909   3.1361    87.9963
 58      0.0000     0.0000E+00    0.0000E+00    1.015200E+08  0.05000  1.700E-03    0   0.7096   age116_m72            0.0000     1.8852E+00    10.1950   2.8499    91.9886
 59      0.0000     0.0000E+00    0.0000E+00    2.861200E+08  0.05000  7.384E-04    0   0.6633   age125_m72            0.0000     1.3632E+00     8.1419   2.2683    99.5207
 60      0.0000     0.0000E+00    0.0000E+00    5.088000E+08  0.05000  3.819E-04    0   0.6372   age130_m72            0.0000     8.4109E-01     6.4094   1.7435   103.1664
 61      0.0000     0.0000E+00    0.0000E+00    9.047900E+08  0.05000  1.676E-04    0   0.6110   age135_m72            0.0000     4.3737E-01     4.6903   1.0245   103.0450
 62      0.0000     0.0000E+00    0.0000E+00    1.434000E+09  0.05000  8.837E-05    0   0.5874   age139_m72            0.0000     3.3520E-01     4.0873   0.5567   103.2508
 63      0.0000     0.0000E+00    0.0000E+00    2.500000E+09  0.05000  4.233E-05    0   0.5598   age150_m72            0.0000     2.9384E-01     3.8577   0.2254   103.3855
 64      0.0000     0.0000E+00    0.0000E+00    6.250000E+09  0.05000  1.435E-05    0   0.5249   age166_m72            0.0000     3.8707E-01     4.4683  -0.2475   103.3666
 65     21.3873     3.7418E+01    3.7426E+01    1.300000E+10  0.05000  6.513E-06    0   0.5036   age193_m72            0.0000     5.8388E-01     5.4846  -0.5521   105.8240
 66      8.5141     2.1431E+01    2.1048E+01    1.800000E+10  0.05000  4.527E-06    0   0.4945   age213_m72            0.0000     7.4724E-01     6.2497  -0.7257   106.3857


## Synthesis Results - Average & Chains ##

# j      x_j: min, <> & last-chain-values for 1 ...  7 chains
  1      0.0000      0.0704      0.0000      0.0000      0.0000      0.1129      0.7948      0.0000      0.0000
  2      0.0000      0.0857      0.0000      0.0000      0.0000      0.0000      0.0000      0.0000      0.0000
  3      0.0000      0.0604      0.0000      0.0000      0.0000      0.0000      0.0000      0.0000      0.0000
  4      0.0000      0.0218      0.0000      0.0000      0.0000      0.0000      0.0000      0.0000      0.0000
  5      0.0000      0.0562      0.0000      0.0000      0.0000      0.0000      0.0000      0.0000      0.0000
  6      0.0000      0.0571      0.0000      0.0000      0.0000      0.0000      0.0000      1.3658      0.0000
  7      0.0000      0.0743      0.0000      0.0000      0.5797      0.0000      0.0000      0.0000      0.0000
  8      0.0000      0.1382      0.0000      0.0000      0.0000      0.0000      0.0000      0.0000      0.0000
  9      0.0000      0.0477      0.0000      0.0000      0.0000      0.1008      0.0000      0.0000      0.0000
 10      0.0000      0.0918      0.0000      0.0000      0.0000      0.0000      0.0000      0.0000      0.0000
 11      0.0000      0.1960      0.0000      0.0000      0.0000      0.3819      0.0000      0.0000      0.0000
 12      0.0000      0.0768      0.0000      0.0000      0.0000      0.0000      0.0000      0.0000      0.0000
 13      0.0000      0.4415      0.0000      0.0000      0.0000      0.0000      0.0000      0.0000      0.0000
 14      0.0000      0.6928      0.0000      0.0000      1.0530      0.0000      0.0000      0.0000      0.0000
 15      0.0000      1.0483      0.0000      0.0000      5.5720      2.7427      0.0000      0.4904      0.0000
 16      4.5788      3.7541      7.8734      6.0110      6.2460      2.9969      1.5167      5.5231      3.2542
 17      5.5083      3.1932      2.0333      6.9021      6.3261      7.2398      2.2228      2.8613      9.0213
 18      0.0000      0.0322      0.0000      0.0000      0.0000      0.0000      0.0000      0.0000      0.0000
 19      0.0000      0.0363      0.1163      0.0000      0.0000      0.0000      0.0000      0.0000      0.0000
 20      0.0000      0.0717      0.0000      0.0000      0.0000      0.0000      0.0000      0.3384      0.0000
 21      0.0000      0.1021      0.0000      0.0000      0.0000      0.1015      0.0000      0.0000      0.0000
 22      0.0000      0.0968      0.0000      0.0000      0.0000      0.0000      0.0000      0.0000      0.0000
 23      0.0000      0.1264      0.0000      0.0000      0.0000      0.0000      0.0000      0.0000      0.0000
 24      0.0000      0.0232      0.0000      0.0000      0.0000      0.0000      0.0000      0.0000      0.0000
 25      0.0000      0.0761      0.0000      0.0000      0.0000      0.4455      0.0000      0.0000      0.0000
 26      0.0000      0.1758      0.0000      0.0000      0.0000      0.0000      0.0000      0.0000      0.0000
 27      0.0000      0.2120      0.0000      0.0000      0.0000      0.0000      0.0000      0.0000      0.0000
 28      4.3830      0.8609      1.5007      0.9571      1.1007      3.9993      0.7198      1.2688      3.0124
 29      0.0000      0.9032      0.4480      0.0000      0.2570      0.0000      1.5953      1.6912      0.0000
 30      0.0000      3.7979      8.7783      6.8818      0.0000      4.7441     10.6225      3.6331      4.2201
 31      4.3913      3.4877      7.6538      6.8199      0.0000      6.0380      0.0000      4.9379      4.1381
 32      0.0000      6.0147      4.0917      0.0000     13.6392      4.1204     10.1569     10.3541      9.7763
 33     15.7560      5.0108      5.9375      5.4072      0.0000      1.8214      4.2351      3.7628      6.5283
 34     15.4058      3.1300      0.0000      9.1153      0.5634      2.8877      4.7460      3.8172      0.7996
 35      0.0000      0.0380      0.0000      0.0000      0.0000      0.0000      0.0000      0.2232      0.0000
 36      0.0000      0.0233      0.0000      0.0000      0.0000      0.0000      0.0000      0.0000      0.0000
 37      0.0000      0.0453      0.0000      0.0000      0.0000      0.0000      0.0000      0.0000      0.0000
 38      0.0000      0.0480      0.0000      0.0000      0.0000      0.0000      0.0000      0.0000      0.7775
 39      0.0000      0.0633      0.0000      0.3954      0.2856      0.0000      0.0000      0.0000      0.0000
 40      0.0000      0.0646      0.0000      0.0000      0.0000      0.0000      0.0000      0.0000      0.0000
 41      0.0000      0.1905      0.0000      0.0000      0.0000      0.0000      0.0000      0.0000      0.0327
 42      0.0000      0.1012      0.0000      0.7540      0.7902      0.0000      0.0000      0.0000      0.0000
 43      0.0000      0.1028      0.3125      0.0000      0.0000      0.0000      0.0000      1.1957      0.0000
 44      0.0000      0.2500      0.0000      0.0000      0.0000      0.0817      1.0960      0.0000      1.2402
 45      0.0000      0.7807      2.5991      0.1217      0.0000      1.6445      1.9531      0.0000      1.0886
 46     21.2880      1.2716      0.0000      3.4018      2.2174      0.4846      4.2723      0.7316      2.6543
 47      1.3201      4.9995     13.4007      1.7158      5.6393      4.3270      5.2986      6.4295      3.9858
 48      0.0000      5.0102      0.0000      0.0000      0.0000      6.6286      1.7225      0.0000      2.0374
 49      0.0000     15.0240      5.7957      0.0000     26.0228     12.8031     15.3529     17.6227     14.2328
 50      0.0000      8.4925     14.6110      3.2372      6.2031     19.5136      7.8624      7.6676      4.5185
 51      0.0000      0.0243      0.0000      0.0000      0.0000      0.0000      0.0000      0.0000      0.0000
 52      0.0000      0.0477      0.0000      0.0000      0.0000      0.0000      0.0000      0.0000      0.0000
 53      0.0000      0.0564      0.0000      0.0000      0.6127      0.2814      0.0000      0.0000      0.0000
 54      0.0000      0.0942      0.0000      0.0748      0.0000      0.0000      0.0000      0.0000      0.0000
 55      0.0000      0.0241      0.0000      0.0000      0.0000      0.0000      0.0000      0.0000      0.0000
 56      0.0000      0.0594      0.0000      0.0000      0.0000      0.0000      0.0000      0.0000      0.0000
 57      0.0000      0.0317      0.0000      0.0000      0.0000      0.0000      0.0000      0.0000      0.0000
 58      0.0000      0.0533      0.0000      0.0000      0.0000      0.0000      0.0000      0.0000      0.0000
 59      0.0000      0.1723      0.0000      0.0000      0.0000      0.0000      0.0000      0.0000      0.0000
 60      0.0000      0.4129      0.0000      0.0000      3.1466      0.0000      0.0000      0.0000      0.0000
 61      0.0000      0.7332      0.0000      0.0000      0.3030      0.0000      0.0000      2.2320      0.0000
 62      0.0000      2.1582      2.2290      7.5929      3.4950      0.4707      3.3326      4.5752      1.6203
 63      0.0000     10.0341      3.2368     18.1624      0.0000      7.5494      5.3926      2.9725      8.7380
 64      0.0000      8.6155     14.3675      7.9871      0.5188      3.9844     10.7132      5.9346      7.4029
 65     21.3873      4.5873      4.0290      7.6449     10.1176      3.9091      5.9619      5.6083      4.2722
 66      8.5141      4.2523      3.1831      8.4937      7.4601      2.4194      2.7265      6.6949      8.6066

# j      m_j: min, <> & last-chain-values for 1 ...  7 chains
  1  0.0000E+00  1.9290E-04  0.0000E+00  0.0000E+00  0.0000E+00  2.8794E-04  2.2372E-03  0.0000E+00  0.0000E+00
  2  0.0000E+00  6.4136E-05  0.0000E+00  0.0000E+00  0.0000E+00  0.0000E+00  0.0000E+00  0.0000E+00  0.0000E+00
  3  0.0000E+00  6.7670E-05  0.0000E+00  0.0000E+00  0.0000E+00  0.0000E+00  0.0000E+00  0.0000E+00  0.0000E+00
  4  0.0000E+00  2.2981E-05  0.0000E+00  0.0000E+00  0.0000E+00  0.0000E+00  0.0000E+00  0.0000E+00  0.0000E+00
  5  0.0000E+00  1.1289E-04  0.0000E+00  0.0000E+00  0.0000E+00  0.0000E+00  0.0000E+00  0.0000E+00  0.0000E+00
  6  0.0000E+00  1.8624E-04  0.0000E+00  0.0000E+00  0.0000E+00  0.0000E+00  0.0000E+00  4.1519E-03  0.0000E+00
  7  0.0000E+00  3.4670E-04  0.0000E+00  0.0000E+00  2.3427E-03  0.0000E+00  0.0000E+00  0.0000E+00  0.0000E+00
  8  0.0000E+00  8.9131E-04  0.0000E+00  0.0000E+00  0.0000E+00  0.0000E+00  0.0000E+00  0.0000E+00  0.0000E+00
  9  0.0000E+00  3.5221E-04  0.0000E+00  0.0000E+00  0.0000E+00  6.9263E-04  0.0000E+00  0.0000E+00  0.0000E+00
 10  0.0000E+00  8.8970E-04  0.0000E+00  0.0000E+00  0.0000E+00  0.0000E+00  0.0000E+00  0.0000E+00  0.0000E+00
 11  0.0000E+00  3.5733E-03  0.0000E+00  0.0000E+00  0.0000E+00  6.4786E-03  0.0000E+00  0.0000E+00  0.0000E+00
 12  0.0000E+00  2.2196E-03  0.0000E+00  0.0000E+00  0.0000E+00  0.0000E+00  0.0000E+00  0.0000E+00  0.0000E+00
 13  0.0000E+00  3.5987E-02  0.0000E+00  0.0000E+00  0.0000E+00  0.0000E+00  0.0000E+00  0.0000E+00  0.0000E+00
 14  0.0000E+00  1.8942E-01  0.0000E+00  0.0000E+00  2.4938E-01  0.0000E+00  0.0000E+00  0.0000E+00  0.0000E+00
 15  0.0000E+00  4.6656E-01  0.0000E+00  0.0000E+00  2.1482E+00  1.1359E+00  0.0000E+00  2.0361E-01  0.0000E+00
 16  2.6018E+00  2.8252E+00  5.9160E+00  4.2681E+00  4.0715E+00  2.0986E+00  1.1726E+00  3.8770E+00  2.3169E+00
 17  4.0603E+00  3.1173E+00  1.9820E+00  6.3576E+00  5.3495E+00  6.5766E+00  2.2293E+00  2.6056E+00  8.3320E+00
 18  0.0000E+00  7.8012E-05  0.0000E+00  0.0000E+00  0.0000E+00  0.0000E+00  0.0000E+00  0.0000E+00  0.0000E+00
 19  0.0000E+00  3.5298E-05  1.1289E-04  0.0000E+00  0.0000E+00  0.0000E+00  0.0000E+00  0.0000E+00  0.0000E+00
 20  0.0000E+00  7.6047E-05  0.0000E+00  0.0000E+00  0.0000E+00  0.0000E+00  0.0000E+00  3.3484E-04  0.0000E+00
 21  0.0000E+00  1.3151E-04  0.0000E+00  0.0000E+00  0.0000E+00  1.2164E-04  0.0000E+00  0.0000E+00  0.0000E+00
 22  0.0000E+00  2.1079E-04  0.0000E+00  0.0000E+00  0.0000E+00  0.0000E+00  0.0000E+00  0.0000E+00  0.0000E+00
 23  0.0000E+00  3.7155E-04  0.0000E+00  0.0000E+00  0.0000E+00  0.0000E+00  0.0000E+00  0.0000E+00  0.0000E+00
 24  0.0000E+00  1.0138E-04  0.0000E+00  0.0000E+00  0.0000E+00  0.0000E+00  0.0000E+00  0.0000E+00  0.0000E+00
 25  0.0000E+00  4.5908E-04  0.0000E+00  0.0000E+00  0.0000E+00  2.5009E-03  0.0000E+00  0.0000E+00  0.0000E+00
 26  0.0000E+00  1.7725E-03  0.0000E+00  0.0000E+00  0.0000E+00  0.0000E+00  0.0000E+00  0.0000E+00  0.0000E+00
 27  0.0000E+00  4.2792E-03  0.0000E+00  0.0000E+00  0.0000E+00  0.0000E+00  0.0000E+00  0.0000E+00  0.0000E+00
 28  1.9384E-01  5.0428E-02  8.7766E-02  5.2895E-02  5.5843E-02  2.1797E-01  4.3313E-02  6.9320E-02  1.6693E-01
 29  0.0000E+00  9.2180E-02  4.5656E-02  0.0000E+00  2.2721E-02  0.0000E+00  1.6727E-01  1.6100E-01  0.0000E+00
 30  0.0000E+00  8.0980E-01  1.8689E+00  1.3845E+00  0.0000E+00  9.4126E-01  2.3269E+00  7.2260E-01  8.5131E-01
 31  1.2437E+00  1.3082E+00  2.8664E+00  2.4136E+00  0.0000E+00  2.1073E+00  0.0000E+00  1.7276E+00  1.4684E+00
 32  0.0000E+00  3.0355E+00  2.0619E+00  0.0000E+00  5.9625E+00  1.9350E+00  5.2662E+00  4.8743E+00  4.6678E+00
 33  1.3291E+01  5.5982E+00  6.6234E+00  5.6999E+00  0.0000E+00  1.8935E+00  4.8610E+00  3.9213E+00  6.9002E+00
 34  1.7599E+01  4.7355E+00  0.0000E+00  1.3012E+01  7.3839E-01  4.0653E+00  7.3766E+00  5.3869E+00  1.1445E+00
 35  0.0000E+00  7.3771E-05  0.0000E+00  0.0000E+00  0.0000E+00  0.0000E+00  0.0000E+00  4.0415E-04  0.0000E+00
 36  0.0000E+00  1.8298E-05  0.0000E+00  0.0000E+00  0.0000E+00  0.0000E+00  0.0000E+00  0.0000E+00  0.0000E+00
 37  0.0000E+00  3.8448E-05  0.0000E+00  0.0000E+00  0.0000E+00  0.0000E+00  0.0000E+00  0.0000E+00  0.0000E+00
 38  0.0000E+00  1.1055E-04  0.0000E+00  0.0000E+00  0.0000E+00  0.0000E+00  0.0000E+00  0.0000E+00  1.6929E-03
 39  0.0000E+00  2.0978E-04  0.0000E+00  1.2363E-03  8.1985E-04  0.0000E+00  0.0000E+00  0.0000E+00  0.0000E+00
 40  0.0000E+00  3.4587E-04  0.0000E+00  0.0000E+00  0.0000E+00  0.0000E+00  0.0000E+00  0.0000E+00  0.0000E+00
 41  0.0000E+00  1.5868E-03  0.0000E+00  0.0000E+00  0.0000E+00  0.0000E+00  0.0000E+00  0.0000E+00  2.5798E-04
 42  0.0000E+00  1.5476E-03  0.0000E+00  1.0880E-02  1.0468E-02  0.0000E+00  0.0000E+00  0.0000E+00  0.0000E+00
 43  0.0000E+00  2.2956E-03  6.9659E-03  0.0000E+00  0.0000E+00  0.0000E+00  0.0000E+00  2.4903E-02  0.0000E+00
 44  0.0000E+00  9.6115E-03  0.0000E+00  0.0000E+00  0.0000E+00  2.9232E-03  4.3285E-02  0.0000E+00  4.5107E-02
 45  0.0000E+00  5.9553E-02  1.9796E-01  8.7575E-03  0.0000E+00  1.1673E-01  1.5305E-01  0.0000E+00  7.8560E-02
 46  2.2536E+00  1.7829E-01  0.0000E+00  4.5002E-01  2.6930E-01  6.3225E-02  6.1540E-01  9.5677E-02  3.5208E-01
 47  2.8318E-01  1.4204E+00  3.8014E+00  4.5995E-01  1.3878E+00  1.1439E+00  1.5466E+00  1.7039E+00  1.0713E+00
 48  0.0000E+00  2.5104E+00  0.0000E+00  0.0000E+00  0.0000E+00  3.0904E+00  8.8666E-01  0.0000E+00  9.6577E-01
 49  0.0000E+00  1.7109E+01  6.5898E+00  0.0000E+00  2.5669E+01  1.3567E+01  1.7962E+01  1.8719E+01  1.5334E+01
 50  0.0000E+00  1.7912E+01  3.0770E+01  6.4422E+00  1.1333E+01  3.8297E+01  1.7037E+01  1.5085E+01  9.0162E+00
 51  0.0000E+00  2.8071E-05  0.0000E+00  0.0000E+00  0.0000E+00  0.0000E+00  0.0000E+00  0.0000E+00  0.0000E+00
 52  0.0000E+00  2.8277E-05  0.0000E+00  0.0000E+00  0.0000E+00  0.0000E+00  0.0000E+00  0.0000E+00  0.0000E+00
 53  0.0000E+00  5.0303E-05  0.0000E+00  0.0000E+00  4.7369E-04  2.3368E-04  0.0000E+00  0.0000E+00  0.0000E+00
 54  0.0000E+00  1.7228E-04  0.0000E+00  1.2912E-04  0.0000E+00  0.0000E+00  0.0000E+00  0.0000E+00  0.0000E+00
 55  0.0000E+00  6.7864E-05  0.0000E+00  0.0000E+00  0.0000E+00  0.0000E+00  0.0000E+00  0.0000E+00  0.0000E+00
 56  0.0000E+00  3.3076E-04  0.0000E+00  0.0000E+00  0.0000E+00  0.0000E+00  0.0000E+00  0.0000E+00  0.0000E+00
 57  0.0000E+00  2.3425E-04  0.0000E+00  0.0000E+00  0.0000E+00  0.0000E+00  0.0000E+00  0.0000E+00  0.0000E+00
 58  0.0000E+00  6.6663E-04  0.0000E+00  0.0000E+00  0.0000E+00  0.0000E+00  0.0000E+00  0.0000E+00  0.0000E+00
 59  0.0000E+00  4.6386E-03  0.0000E+00  0.0000E+00  0.0000E+00  0.0000E+00  0.0000E+00  0.0000E+00  0.0000E+00
 60  0.0000E+00  2.0647E-02  0.0000E+00  0.0000E+00  1.3631E-01  0.0000E+00  0.0000E+00  0.0000E+00  0.0000E+00
 61  0.0000E+00  8.0118E-02  0.0000E+00  0.0000E+00  2.8683E-02  0.0000E+00  0.0000E+00  2.2750E-01  0.0000E+00
 62  0.0000E+00  4.2998E-01  4.4342E-01  1.4273E+00  6.0317E-01  8.7263E-02  6.8213E-01  8.5027E-01  3.0541E-01
 63  0.0000E+00  3.9774E+00  1.2811E+00  6.7928E+00  0.0000E+00  2.7845E+00  2.1960E+00  1.0991E+00  3.2768E+00
 64  0.0000E+00  9.4459E+00  1.5728E+01  8.2623E+00  4.9266E-01  4.0648E+00  1.2067E+01  6.0692E+00  7.6786E+00
 65  3.7426E+01  1.0632E+01  9.3234E+00  1.6717E+01  2.0311E+01  8.4302E+00  1.4195E+01  1.2124E+01  9.3673E+00
 66  2.1048E+01  1.3922E+01  1.0406E+01  2.6239E+01  2.1157E+01  7.3707E+00  9.1710E+00  2.0446E+01  2.6659E+01

# AV, chi2 & Mass for <> & i_chain = 1 ...  7 solutions
AV      -0.0062      0.0984      0.0950      0.0747      0.0783      0.0950      0.0933      0.0909      0.0890
chi2 2.7265E-01  2.7995E-01  2.7807E-01  2.7761E-01  2.7888E-01  2.7874E-01  2.7790E-01  2.7917E-01  2.7783E-01
Mass 5.3709E-12  4.6668E-12  4.6529E-12  4.7916E-12  5.2445E-12  4.9926E-12  4.5120E-12  4.9529E-12  4.8712E-12
   7.82                                  [v0_min (km/s) before EX0s...]
 179.12                                  [vd_min (km/s) before EX0s...]


## Synthetic spectrum (Best Model) ##l_obs f_obs f_syn wei
 3478    [Nl_obs]
 3741.00    0.58214   0.50109    0.000
 3742.00    0.56776   0.49582    0.000
 3743.00    0.57240   0.47498    0.000
 3744.00    0.59354   0.44565    0.000
 3745.00    0.60766   0.41492   16.457
 3746.00    0.60459   0.38757   -1.000
 3747.00    0.58793   0.36760   -1.000
 3748.00    0.57001   0.35915   -1.000
 3749.00    0.56157   0.36556   -1.000
 3750.00    0.56214   0.38959   17.569
 3751.00    0.56984   0.42988   17.549
 3752.00    0.59077   0.47813   16.927
 3753.00    0.62456   0.52247   16.011
 3754.00    0.65168   0.55309   15.345
 3755.00    0.65083   0.56460   15.365
 3756.00    0.61549   0.55626   16.247
 3757.00    0.55395   0.53361   17.569
 3758.00    0.48686   0.50769   17.569
 3759.00    0.43662   0.48996   17.569
 3760.00    0.41719   0.48547   17.569
 3761.00    0.42091   0.49042   17.569
 3762.00    0.41582   0.49778   17.569
 3763.00    0.39384   0.50286   17.569
 3764.00    0.39392   0.50435   17.569
 3765.00    0.43013   0.50393   17.569
 3766.00    0.45614   0.50375   17.569
 3767.00    0.44662   0.50516   17.569
 3768.00    0.43775   0.51096   17.569
 3769.00    0.45883   0.52331   17.569
 3770.00    0.49748   0.54055   17.569
 3771.00    0.53623   0.55986   17.569
 3772.00    0.57159   0.57970   17.495
 3773.00    0.60305   0.59783   16.582
 3774.00    0.62895   0.61175   15.899
 3775.00    0.65614   0.62176   15.241
 3776.00    0.70026   0.63074   14.280
 3777.00    0.76559   0.64138   13.062
 3778.00    0.83953   0.65422   11.911
 3779.00    0.90843   0.66817   11.008
 3780.00    0.96246   0.68150   10.390
 3781.00    0.98701   0.69117   10.132
 3782.00    0.96517   0.69362   10.361
 3783.00    0.89950   0.68676   11.117
 3784.00    0.81264   0.66988   12.306
 3785.00    0.72054   0.64354   13.879
 3786.00    0.62887   0.61066   15.901
 3787.00    0.55266   0.57782   17.569
 3788.00    0.51361   0.55237   17.569
 3789.00    0.51222   0.53680   17.569
 3790.00    0.52779   0.52897   17.569
 3791.00    0.54387   0.52457   17.569
 3792.00    0.55262   0.51852   17.569
 3793.00    0.54594   0.50683   17.569
 3794.00    0.51792   0.48954   17.569
 3795.00    0.47728   0.47050   17.569
 3796.00    0.44170   0.45458   17.569
 3797.00    0.41708   0.44615   17.569
 3798.00    0.39877   0.44857   17.569
 3799.00    0.38599   0.46430   17.569
 3800.00    0.38374   0.49301   17.569
 3801.00    0.39968   0.52945   17.569
 3802.00    0.43649   0.56528   17.569
 3803.00    0.47875   0.59357   17.569
 3804.00    0.50649   0.61101   17.569
 3805.00    0.52432   0.61793   17.569
 3806.00    0.54747   0.61837   17.569
 3807.00    0.56851   0.61781   17.569
 3808.00    0.57266   0.61991   17.462
 3809.00    0.57167   0.62400   17.493
 3810.00    0.58496   0.62475   17.095
 3811.00    0.60284   0.61645   16.588
 3812.00    0.60305   0.59750   16.582
 3813.00    0.58270   0.57116   17.162
 3814.00    0.55160   0.54379   17.569
 3815.00    0.51673   0.52157   17.569
 3816.00    0.48274   0.50666   17.569
 3817.00    0.45506   0.49726   17.569
 3818.00    0.43753   0.48982   17.569
 3819.00    0.42908   0.48107   17.569
 3820.00    0.42662   0.47060   17.569
 3821.00    0.42856   0.46060   17.569
 3822.00    0.43232   0.45225   17.569
 3823.00    0.43169   0.44348   17.569
 3824.00    0.42154   0.43171   17.569
 3825.00    0.40254   0.41795   17.569
 3826.00    0.37776   0.40620   17.569
 3827.00    0.34896   0.39908   17.569
 3828.00    0.31700   0.39567   17.569
 3829.00    0.28292   0.39283   17.569
 3830.00    0.25155   0.38751   17.569
 3831.00    0.23362   0.37845   17.569
 3832.00    0.23828   0.36672   17.569
 3833.00    0.26658   0.35569   17.569
 3834.00    0.30928   0.34923   17.569
 3835.00    0.34805   0.34870   17.569
 3836.00    0.37381   0.35279   17.569
 3837.00    0.39694   0.35965   17.569
 3838.00    0.42751   0.36878   17.569
 3839.00    0.46323   0.38224   17.569
 3840.00    0.50000   0.40283   17.569
 3841.00    0.53769   0.43084   17.569
 3842.00    0.57125   0.46344   17.505
 3843.00    0.58853   0.49579   16.991
 3844.00    0.58781   0.52276   17.012
 3845.00    0.58366   0.54163   17.133
 3846.00    0.58572   0.55249   17.073
 3847.00    0.59000   0.55697    0.000
 3848.00    0.59225   0.55735    0.000
 3849.00    0.59310   0.55567    0.000
 3850.00    0.59080   0.55381    0.000
 3851.00    0.57996   0.55319    0.000
 3852.00    0.56150   0.55326    0.000
 3853.00    0.54417   0.55098    0.000
 3854.00    0.53358   0.54372    0.000
 3855.00    0.52896   0.53164    0.000
 3856.00    0.52869   0.51683    0.000
 3857.00    0.53217   0.50229    0.000
 3858.00    0.53866   0.49168    0.000
 3859.00    0.54658   0.48831    0.000
 3860.00    0.55277   0.49448    0.000
 3861.00    0.55339   0.51022    0.000
 3862.00    0.54744   0.53160    0.000
 3863.00    0.53737   0.55204    0.000
 3864.00    0.52742   0.56600    0.000
 3865.00    0.52198   0.57162    0.000
 3866.00    0.52232   0.57022    0.000
 3867.00    0.52755   0.56387    0.000
 3868.00    0.53906   0.55388    0.000
 3869.00    0.55791   0.54125    0.000
 3870.00    0.57546   0.52822    0.000
 3871.00    0.57976   0.51844    0.000
 3872.00    0.57447   0.51554    0.000
 3873.00    0.57339   0.52051    0.000
 3874.00    0.57918   0.53042    0.000
 3875.00    0.58552   0.53935    0.000
 3876.00    0.59060   0.54186    0.000
 3877.00    0.59667   0.53667    0.000
 3878.00    0.60394   0.52716    0.000
 3879.00    0.60975   0.51836    0.000
 3880.00    0.60942   0.51356    0.000
 3881.00    0.60065   0.51215   16.649
 3882.00    0.59014   0.51099   16.945
 3883.00    0.58612   0.50756   17.061
 3884.00    0.58554   0.50073   17.078
 3885.00    0.58270   0.49038   17.162
 3886.00    0.58451   0.47868   17.108
 3887.00    0.59969   0.47137   16.675
 3888.00    0.62132   0.47496   16.095
 3889.00    0.63713   0.49178   15.696
 3890.00    0.64577   0.51901   15.485
 3891.00    0.65217   0.55075   15.334
 3892.00    0.65905   0.58012   15.173
 3893.00    0.66702   0.60191   14.992
 3894.00    0.67572   0.61480   14.799
 3895.00    0.68297   0.62100   14.642
 3896.00    0.68410   0.62396   14.618
 3897.00    0.67672   0.62633   14.777
 3898.00    0.66517   0.62901   15.034
 3899.00    0.65508   0.63151   15.265
 3900.00    0.64783   0.63339   15.436
 3901.00    0.64182   0.63432   15.581
 3902.00    0.63450   0.63348   15.760
 3903.00    0.62530   0.63033   15.992
 3904.00    0.61765   0.62676   16.190
 3905.00    0.61534   0.62706   16.251
 3906.00    0.61960   0.63482   16.139
 3907.00    0.63075   0.65114   15.854
 3908.00    0.64925   0.67428   15.402
 3909.00    0.67345   0.69952   14.849
 3910.00    0.69859   0.72139   14.315
 3911.00    0.72194   0.73641   13.852
 3912.00    0.74513   0.74363   13.420
 3913.00    0.76633   0.74341   13.049
 3914.00    0.77711   0.73651   12.868
 3915.00    0.77509   0.72401   12.902
 3916.00    0.76840   0.70713   13.014
 3917.00    0.75730   0.68672   13.205
 3918.00    0.72899   0.66396   13.718
 3919.00    0.68571   0.64092   14.583
 3920.00    0.65310   0.62005   15.312
 3921.00    0.64608   0.60344   15.478
 3922.00    0.65536   0.59157   15.259
 3923.00    0.66620   0.58201   15.010
 3924.00    0.66783   0.56983   14.974
 3925.00    0.65397   0.54989   15.291
 3926.00    0.62235   0.51918   16.068
 3927.00    0.57234   0.47790   17.472
 3928.00    0.50437   0.42925   17.569
 3929.00    0.42150   0.37784   17.569
 3930.00    0.33055   0.32858   17.569
 3931.00    0.24367   0.28610   17.569
 3932.00    0.17609   0.25453   17.569
 3933.00    0.13670   0.23743   17.569
 3934.00    0.12669   0.23737   17.569
 3935.00    0.14583   0.25497   17.569
 3936.00    0.19265   0.28821   17.569
 3937.00    0.25902   0.33245   17.569
 3938.00    0.33159   0.38124   17.569
 3939.00    0.40022   0.42795   17.569
 3940.00    0.45941   0.46767   17.569
 3941.00    0.50557   0.49856   17.569
 3942.00    0.53648   0.52214   17.569
 3943.00    0.55189   0.54241   17.569
 3944.00    0.55471   0.56349   17.569
 3945.00    0.55330   0.58728   17.569
 3946.00    0.55728   0.61314   17.569
 3947.00    0.56735   0.63880   17.569
 3948.00    0.57952   0.66171   17.256
 3949.00    0.59790   0.68069   16.725
 3950.00    0.62539   0.69622   15.990
 3951.00    0.64195   0.70863   15.577
 3952.00    0.62554   0.71738   15.986
 3953.00    0.59639   0.72179   16.768
 3954.00    0.59324   0.72182   16.857
 3955.00    0.61992   0.71775   16.131
 3956.00    0.65346   0.70918   15.303
 3957.00    0.67222   0.69493   14.876
 3958.00    0.66620   0.67415   15.010
 3959.00    0.64479   0.64599   15.509
 3960.00    0.62165   0.60950    0.000
 3961.00    0.59258   0.56535    0.000
 3962.00    0.54782   0.51642    0.000
 3963.00    0.49214   0.46637    0.000
 3964.00    0.43654   0.41767    0.000
 3965.00    0.38497   0.37122    0.000
 3966.00    0.33876   0.32846    0.000
 3967.00    0.30352   0.29346    0.000
 3968.00    0.28600   0.27199    0.000
 3969.00    0.28969   0.26883    0.000
 3970.00    0.31440   0.28552    0.000
 3971.00    0.35645   0.31997    0.000
 3972.00    0.41014   0.36753    0.000
 3973.00    0.46949   0.42276    0.000
 3974.00    0.53074   0.48098    0.000
 3975.00    0.59425   0.53883    0.000
 3976.00    0.65996   0.59413    0.000
 3977.00    0.72342   0.64506    0.000
 3978.00    0.77721   0.68963    0.000
 3979.00    0.81335   0.72606    0.000
 3980.00    0.83174   0.75322    0.000
 3981.00    0.84439   0.77150   11.843
 3982.00    0.85861   0.78333   11.647
 3983.00    0.86697   0.79243   11.534
 3984.00    0.86559   0.80234   11.553
 3985.00    0.86511   0.81473   11.559
 3986.00    0.87676   0.82896   11.406
 3987.00    0.90308   0.84320   11.073
 3988.00    0.94017   0.85580   10.636
 3989.00    0.98003   0.86623   10.204
 3990.00    1.01471   0.87470    9.855
 3991.00    1.03853   0.88108    9.629
 3992.00    1.04727   0.88491    9.549
 3993.00    1.03834   0.88536    9.631
 3994.00    1.01417   0.88178    9.860
 3995.00    0.98267   0.87550   10.176
 3996.00    0.95145   0.87023   10.510
 3997.00    0.92556   0.87037   10.804
 3998.00    0.91013   0.87846   10.987
 3999.00    0.91046   0.89330   10.983
 4000.00    0.92733   0.91025   10.784
 4001.00    0.95532   0.92295   10.468
 4002.00    0.98444   0.92600   10.158
 4003.00    1.00390   0.91807    9.961
 4004.00    1.01343   0.90314    9.867
 4005.00    1.02234   0.88853    9.782
 4006.00    1.03183   0.88138    9.691
 4007.00    1.03376   0.88555    9.673
 4008.00    1.02631   0.90000    9.744
 4009.00    1.01674   0.91959    9.835
 4010.00    1.01315   0.93840    9.870
 4011.00    1.02013   0.95316    9.803
 4012.00    1.03383   0.96375    9.673
 4013.00    1.04581   0.97141    9.562
 4014.00    1.05675   0.97722    9.463
 4015.00    1.07287   0.98171    9.321
 4016.00    1.08782   0.98518    9.193
 4017.00    1.08836   0.98800    9.188
 4018.00    1.07807   0.99034    9.276
 4019.00    1.07159   0.99183    9.332
 4020.00    1.06968   0.99176    9.349
 4021.00    1.06349   0.98972    9.403
 4022.00    1.05524   0.98615    9.476
 4023.00    1.05452   0.98288    9.483
 4024.00    1.06263   0.98221    9.411
 4025.00    1.07390   0.98469    9.312
 4026.00    1.08365   0.98765    9.228
 4027.00    1.08676   0.98585    9.202
 4028.00    1.07311   0.97399    9.319
 4029.00    1.03611   0.94987    9.652
 4030.00    0.98719   0.91685   10.130
 4031.00    0.94509   0.88335   10.581
 4032.00    0.91622   0.85948   10.914
 4033.00    0.90043   0.85300   11.106
 4034.00    0.90305   0.86653   11.074
 4035.00    0.92730   0.89647   10.784
 4036.00    0.96238   0.93457   10.391
 4037.00    0.99348   0.97112   10.066
 4038.00    1.01594   0.99772    9.843
 4039.00    1.02804   1.00946    9.727
 4040.00    1.02096   1.00527    9.795
 4041.00    0.99024   0.98661   10.099
 4042.00    0.94879   0.95639   10.540
 4043.00    0.91219   0.91932   10.963
 4044.00    0.88243   0.88296   11.332
 4045.00    0.85714   0.85719   11.667
 4046.00    0.84011   0.85030   11.903
 4047.00    0.83614   0.86486   11.960
 4048.00    0.84534   0.89562   11.830
 4049.00    0.86329   0.93180   11.584
 4050.00    0.88208   0.96195   11.337
 4051.00    0.89451   0.97867   11.179
 4052.00    0.89781   0.98057   11.138
 4053.00    0.89489   0.97094   11.175
 4054.00    0.89444   0.95499   11.180
 4055.00    0.90554   0.93788   11.043
 4056.00    0.93271   0.92373   10.721
 4057.00    0.97011   0.91471   10.308
 4058.00    1.00000   0.91050   10.000
 4059.00    1.00945   0.90820    9.906
 4060.00    1.00003   0.90337   10.000
 4061.00    0.97928   0.89290   10.212
 4062.00    0.95473   0.87774   10.474
 4063.00    0.93287   0.86311   10.720
 4064.00    0.91880   0.85576   10.884
 4065.00    0.91701   0.85986   10.905
 4066.00    0.93018   0.87451   10.751
 4067.00    0.95091   0.89435   10.516
 4068.00    0.96133   0.91233   10.402
 4069.00    0.95158   0.92313   10.509
 4070.00    0.92628   0.92529   10.796
 4071.00    0.89213   0.92125   11.209
 4072.00    0.85331   0.91452   11.719
 4073.00    0.81674   0.90687   12.244
 4074.00    0.79252   0.89785   12.618
 4075.00    0.78643   0.88711   12.716
 4076.00    0.79788   0.87722   12.533
 4077.00    0.82389   0.87364   12.138
 4078.00    0.86026   0.88156   11.624
 4079.00    0.89986   0.90181   11.113
 4080.00    0.93345   0.92943   10.713
 4081.00    0.95433   0.95623   10.479
 4082.00    0.96072   0.97588   10.409
 4083.00    0.95827   0.98735   10.435
 4084.00    0.95782   0.99474   10.440
 4085.00    0.96696   1.00383   10.342
 4086.00    0.98712   1.01795   10.130
 4087.00    1.01249   1.03592    9.877
 4088.00    1.03247   1.05306    9.685
 4089.00    1.03852   1.06410    9.629
 4090.00    1.02716   1.06591    9.736
 4091.00    1.00270   1.05837    9.973
 4092.00    0.97454   1.04309    0.000
 4093.00    0.94948   1.02189    0.000
 4094.00    0.93019   0.99595    0.000
 4095.00    0.91563   0.96626    0.000
 4096.00    0.90185   0.93399    0.000
 4097.00    0.88359   0.90057    0.000
 4098.00    0.85918   0.86746    0.000
 4099.00    0.83852   0.83666    0.000
 4100.00    0.83464   0.81162    0.000
 4101.00    0.84647   0.79719    0.000
 4102.00    0.86457   0.79769    0.000
 4103.00    0.88530   0.81415    0.000
 4104.00    0.90830   0.84299    0.000
 4105.00    0.92899   0.87700    0.000
 4106.00    0.94209   0.90826    0.000
 4107.00    0.94811   0.93126    0.000
 4108.00    0.94889   0.94445    0.000
 4109.00    0.94070   0.95021    0.000
 4110.00    0.92050   0.95313    0.000
 4111.00    0.89497   0.95768    0.000
 4112.00    0.87468   0.96621    0.000
 4113.00    0.86565   0.97807   11.552
 4114.00    0.86825   0.99017   11.517
 4115.00    0.87745   0.99861   11.397
 4116.00    0.88682   1.00065   11.276
 4117.00    0.89287   0.99608   11.200
 4118.00    0.89471   0.98734   11.177
 4119.00    0.89314   0.97822   11.197
 4120.00    0.88949   0.97211   11.242
 4121.00    0.88480   0.97066   11.302
 4122.00    0.88195   0.97351   11.339
 4123.00    0.88690   0.97876   11.275
 4124.00    0.90230   0.98367   11.083
 4125.00    0.92243   0.98546   10.841
 4126.00    0.93784   0.98217   10.663
 4127.00    0.94004   0.97319   10.638
 4128.00    0.92653   0.95929   10.793
 4129.00    0.90373   0.94225   11.065
 4130.00    0.88224   0.92454   11.335
 4131.00    0.87241   0.90943   11.462
 4132.00    0.87828   0.90081   11.386
 4133.00    0.89473   0.90211   11.177
 4134.00    0.91412   0.91460   10.939
 4135.00    0.93124   0.93618   10.738
 4136.00    0.94684   0.96166   10.561
 4137.00    0.96728   0.98438   10.338
 4138.00    0.99213   0.99819   10.079
 4139.00    1.00999   0.99887    9.901
 4140.00    1.01364   0.98545    9.865
 4141.00    1.00633   0.96106    9.937
 4142.00    0.99319   0.93279   10.069
 4143.00    0.97703   0.90964   10.235
 4144.00    0.95914   0.89855   10.426
 4145.00    0.94048   0.90120   10.633
 4146.00    0.92472   0.91331   10.814
 4147.00    0.91733   0.92764   10.901
 4148.00    0.91739   0.93792   10.901
 4149.00    0.91742   0.94150   10.900
 4150.00    0.91604   0.93920   10.917
 4151.00    0.91922   0.93352   10.879
 4152.00    0.92783   0.92697   10.778
 4153.00    0.93568   0.92154   10.687
 4154.00    0.93872   0.91891   10.653
 4155.00    0.93742   0.92071   10.668
 4156.00    0.93425   0.92816   10.704
 4157.00    0.93314   0.94139   10.716
 4158.00    0.94012   0.95908   10.637
 4159.00    0.96057   0.97872   10.411
 4160.00    0.99158   0.99734   10.085
 4161.00    1.02338   1.01225    9.772
 4162.00    1.04855   1.02142    9.537
 4163.00    1.06270   1.02377    9.410
 4164.00    1.06010   1.01950    9.433
 4165.00    1.03719   1.01017    9.641
 4166.00    1.00297   0.99824    9.970
 4167.00    0.97411   0.98585   10.266
 4168.00    0.95958   0.97352   10.421
 4169.00    0.95897   0.96001   10.428
 4170.00    0.96593   0.94370   10.353
 4171.00    0.97081   0.92469   10.301
 4172.00    0.96429   0.90567   10.370
 4173.00    0.94166   0.89080   10.620
 4174.00    0.90910   0.88323   11.000
 4175.00    0.88028   0.88349   11.360
 4176.00    0.86846   0.88972   11.515
 4177.00    0.87984   0.89920   11.366
 4178.00    0.90552   0.90971   11.043
 4179.00    0.92991   0.91994   10.754
 4180.00    0.94493   0.92935   10.583
 4181.00    0.94999   0.93790   10.526
 4182.00    0.94899   0.94574   10.538
 4183.00    0.94773   0.95260   10.552
 4184.00    0.95087   0.95753   10.517
 4185.00    0.95861   0.95958   10.432
 4186.00    0.96375   0.95902   10.376
 4187.00    0.96088   0.95784   10.407
 4188.00    0.95661   0.95891   10.454
 4189.00    0.95742   0.96407   10.445
 4190.00    0.95617   0.97287   10.458
 4191.00    0.94477   0.98256   10.585
 4192.00    0.92790   0.98910   10.777
 4193.00    0.91363   0.98861   10.945
 4194.00    0.90342   0.97892   11.069
 4195.00    0.89585   0.96076   11.163
 4196.00    0.89087   0.93778   11.225
 4197.00    0.88995   0.91511   11.237
 4198.00    0.89540   0.89740   11.168
 4199.00    0.90725   0.88729   11.022
 4200.00    0.92128   0.88533   10.855
 4201.00    0.93390   0.89092   10.708
 4202.00    0.94543   0.90316   10.577
 4203.00    0.95534   0.92110   10.468
 4204.00    0.95960   0.94332   10.421
 4205.00    0.95679   0.96751   10.452
 4206.00    0.95139   0.99071   10.511
 4207.00    0.94775   1.01003   10.551
 4208.00    0.94618   1.02353   10.569
 4209.00    0.94403   1.03057   10.593
 4210.00    0.93726   1.03145   10.669
 4211.00    0.92511   1.02686   10.810
 4212.00    0.91211   1.01770   10.964
 4213.00    0.90537   1.00601   11.045
 4214.00    0.91202   0.99569   10.965
 4215.00    0.93504   0.99180   10.695
 4216.00    0.97129   0.99815   10.296
 4217.00    1.01295   1.01447    9.872
 4218.00    1.04914   1.03554    9.532
 4219.00    1.07023   1.05269    9.344
 4220.00    1.07024   1.05698    9.344
 4221.00    1.04887   1.04222    9.534
 4222.00    1.01155   1.00697    9.886
 4223.00    0.96643   0.95552   10.347
 4224.00    0.92226   0.89765   10.843
 4225.00    0.88537   0.84676   11.295
 4226.00    0.85981   0.81616   11.630
 4227.00    0.85196   0.81391   11.738
 4228.00    0.86868   0.83919   11.512
 4229.00    0.90700   0.88232   11.025
 4230.00    0.95440   0.92891   10.478
 4231.00    0.99993   0.96614   10.001
 4232.00    1.03640   0.98730    9.649
 4233.00    1.05707   0.99290    9.460
 4234.00    1.05760   0.98839    9.455
 4235.00    1.04359   0.98072    9.582
 4236.00    1.02754   0.97575    9.732
 4237.00    1.01660   0.97706    9.837
 4238.00    1.01180   0.98588    9.883
 4239.00    1.01379   1.00165    9.864
 4240.00    1.02299   1.02254    9.775
 4241.00    1.03709   1.04580    9.642
 4242.00    1.05241   1.06797    9.502
 4243.00    1.06762   1.08507    9.367
 4244.00    1.08089   1.09322    9.252
 4245.00    1.08315   1.08975    9.232
 4246.00    1.06550   1.07448    9.385
 4247.00    1.03473   1.05042    9.664
 4248.00    1.00674   1.02295    9.933
 4249.00    0.99064   0.99795   10.095
 4250.00    0.98818   0.97975   10.120
 4251.00    0.99722   0.96982   10.028
 4252.00    1.01226   0.96723    9.879
 4253.00    1.02469   0.96999    9.759
 4254.00    1.02939   0.97615    9.715
 4255.00    1.03305   0.98366    9.680
 4256.00    1.04183   0.98995    9.598
 4257.00    1.04432   0.99254    9.576
 4258.00    1.02826   0.99098    9.725
 4259.00    1.00334   0.98846    9.967
 4260.00    0.98714   0.99099   10.130
 4261.00    0.98534   1.00385   10.149
 4262.00    0.99446   1.02789   10.056
 4263.00    1.00758   1.05821    9.925
 4264.00    1.01744   1.08616    9.829
 4265.00    1.01910   1.10283    9.813
 4266.00    1.01002   1.10217    9.901
 4267.00    0.99000   1.08255   10.101
 4268.00    0.96138   1.04661   10.402
 4269.00    0.92915   1.00035   10.762
 4270.00    0.89923   0.95219   11.121
 4271.00    0.87685   0.91126   11.404
 4272.00    0.86596   0.88546   11.548
 4273.00    0.86872   0.87935   11.511
 4274.00    0.88586   0.89309   11.288
 4275.00    0.91670   0.92236   10.909
 4276.00    0.95704   0.95946   10.449
 4277.00    0.99827   0.99540   10.017
 4278.00    1.03176   1.02278    9.692
 4279.00    1.05187   1.03808    9.507
 4280.00    1.05569   1.04226    9.472
 4281.00    1.04294   1.03903    9.588
 4282.00    1.01724   1.03222    9.831
 4283.00    0.98613   1.02367   10.141
 4284.00    0.95714   1.01297   10.448
 4285.00    0.93549   0.99873   10.690
 4286.00    0.92455   0.98031   10.816
 4287.00    0.92550   0.95892   10.805
 4288.00    0.93398   0.93793   10.707
 4289.00    0.94071   0.92207   10.630
 4290.00    0.94196   0.91535   10.616
 4291.00    0.94195   0.91888   10.616
 4292.00    0.94108   0.92956   -2.000
 4293.00    0.93245   0.94097   -2.000
 4294.00    0.91038   0.94602   -2.000
 4295.00    0.87274   0.93953   -2.000
 4296.00    0.81612   0.91987   -2.000
 4297.00    0.73759   0.88926   -2.000
 4298.00    0.64838   0.85292   -2.000
 4299.00    0.57396   0.81759   -2.000
 4300.00    0.53657   0.78940   -2.000
 4301.00    0.54526   0.77147   -2.000
 4302.00    0.58452   0.76291   -2.000
 4303.00    0.62231   0.75976   -2.000
 4304.00    0.64511   0.75709   -2.000
 4305.00    0.66030   0.75176   -2.000
 4306.00    0.67198   0.74401   -2.000
 4307.00    0.67866   0.73752   -2.000
 4308.00    0.68610   0.73782   14.575
 4309.00    0.70547   0.74989   14.175
 4310.00    0.73986   0.77629   13.516
 4311.00    0.78483   0.81677   12.742
 4312.00    0.83801   0.86948   11.933
 4313.00    0.89880   0.93158   11.126
 4314.00    0.96277   0.99917   10.387
 4315.00    1.02297   1.06702    9.775
 4316.00    1.07520   1.12819    9.301
 4317.00    1.11802   1.17525    8.944
 4318.00    1.15048   1.20220    8.692
 4319.00    1.17030   1.20619    8.545
 4320.00    1.17171   1.18760    8.535
 4321.00    1.14970   1.14997    8.698
 4322.00    1.10799   1.09987    9.025
 4323.00    1.05851   1.04717    9.447
 4324.00    1.01798   1.00393    9.823
 4325.00    0.99981   0.98119   10.002
 4326.00    1.00315   0.98460    9.969
 4327.00    1.02089   1.01207    9.795
 4328.00    1.05293   1.05476    9.497
 4329.00    1.09795   1.10105    9.108
 4330.00    1.14051   1.14143    0.000
 4331.00    1.16456   1.17086    0.000
 4332.00    1.17197   1.18789    0.000
 4333.00    1.17012   1.19145    0.000
 4334.00    1.15504   1.17960    0.000
 4335.00    1.12257   1.15093    0.000
 4336.00    1.08234   1.10664    0.000
 4337.00    1.04729   1.05237    0.000
 4338.00    1.02126   0.99861    0.000
 4339.00    1.00449   0.95741    0.000
 4340.00    1.00000   0.93747    0.000
 4341.00    1.00994   0.94174    0.000
 4342.00    1.03167   0.96727    0.000
 4343.00    1.05958   1.00641    0.000
 4344.00    1.08735   1.05029    0.000
 4345.00    1.11207   1.09185    0.000
 4346.00    1.13655   1.12604    0.000
 4347.00    1.16136   1.14877    0.000
 4348.00    1.17943   1.15707    0.000
 4349.00    1.18358   1.15084    0.000
 4350.00    1.17258   1.13401    0.000
 4351.00    1.15108   1.11383    8.687
 4352.00    1.12818   1.09857    8.864
 4353.00    1.11010   1.09456    9.008
 4354.00    1.09652   1.10320    9.120
 4355.00    1.08808   1.12052    9.190
 4356.00    1.08936   1.14039    9.180
 4357.00    1.09814   1.15838    9.106
 4358.00    1.10225   1.17349    9.072
 4359.00    1.09693   1.18724    9.116
 4360.00    1.09166   1.20177    9.160
 4361.00    1.09493   1.21820    9.133
 4362.00    1.10714   1.23539    9.032
 4363.00    1.12591   1.24982    8.882
 4364.00    1.14824   1.25735    8.709
 4365.00    1.16780   1.25569    8.563
 4366.00    1.17587   1.24540    8.504
 4367.00    1.17041   1.22938    8.544
 4368.00    1.15772   1.21135    8.638
 4369.00    1.14353   1.19409    8.745
 4370.00    1.13047   1.17812    8.846
 4371.00    1.12212   1.16203    8.912
 4372.00    1.12276   1.14507    8.907
 4373.00    1.13100   1.12912    8.842
 4374.00    1.13979   1.11820    8.774
 4375.00    1.14406   1.11576    8.741
 4376.00    1.14246   1.12161    8.753
 4377.00    1.13485   1.13104    8.812
 4378.00    1.12151   1.13596    8.917
 4379.00    1.10360   1.12793    9.061
 4380.00    1.08251   1.10181    9.238
 4381.00    1.05791   1.05959    9.453
 4382.00    1.02874   1.01131    9.721
 4383.00    0.99699   0.97078   10.030
 4384.00    0.96769   0.94907   10.334
 4385.00    0.94668   0.95006   10.563
 4386.00    0.93995   0.97003   10.639
 4387.00    0.95346   1.00029   10.488
 4388.00    0.98985   1.03173   10.103
 4389.00    1.04194   1.05886    9.598
 4390.00    1.09650   1.08039    9.120
 4391.00    1.14457   1.09732    8.737
 4392.00    1.18173   1.11157    8.462
 4393.00    1.20488   1.12551    8.300
 4394.00    1.21366   1.14097    8.240
 4395.00    1.21391   1.15758    8.238
 4396.00    1.21305   1.17260    8.244
 4397.00    1.21172   1.18237    8.253
 4398.00    1.20670   1.18412    8.287
 4399.00    1.19749   1.17744    8.351
 4400.00    1.18559   1.16349    8.435
 4401.00    1.17182   1.14291    8.534
 4402.00    1.15554   1.11715    8.654
 4403.00    1.13430   1.09049    8.816
 4404.00    1.10949   1.06846    9.013
 4405.00    1.09271   1.05547    9.152
 4406.00    1.09444   1.05504    9.137
 4407.00    1.10988   1.06936    9.010
 4408.00    1.12955   1.09689    8.853
 4409.00    1.15267   1.13193    8.675
 4410.00    1.17875   1.16680    8.484
 4411.00    1.19786   1.19341    8.348
 4412.00    1.20127   1.20560    8.325
 4413.00    1.19270   1.20318    8.384
 4414.00    1.18176   1.19266    8.462
 4415.00    1.17609   1.18273    8.503
 4416.00    1.17756   1.18054    8.492
 4417.00    1.18019   1.18890    8.473
 4418.00    1.17802   1.20445    8.489
 4419.00    1.17150   1.22008    8.536
 4420.00    1.16258   1.22976    8.602
 4421.00    1.15095   1.23177    8.688
 4422.00    1.13833   1.22806    8.785
 4423.00    1.13085   1.22191    8.843
 4424.00    1.13198   1.21641    8.834
 4425.00    1.13820   1.21357    8.786
 4426.00    1.14607   1.21340    8.725
 4427.00    1.15634   1.21411    8.648
 4428.00    1.16864   1.21353    8.557
 4429.00    1.17915   1.21129    8.481
 4430.00    1.18684   1.20715    8.426
 4431.00    1.19557   1.19995    8.364
 4432.00    1.20367   1.18976    8.308
 4433.00    1.20154   1.17934    8.323
 4434.00    1.18947   1.17370    8.407
 4435.00    1.18266   1.17739    8.456
 4436.00    1.18909   1.19126    8.410
 4437.00    1.20147   1.21167    8.323
 4438.00    1.21117   1.23135    8.256
 4439.00    1.21484   1.24320    8.232
 4440.00    1.21360   1.24440    8.240
 4441.00    1.21184   1.23803    8.252
 4442.00    1.21416   1.23135    8.236
 4443.00    1.22356   1.23133    8.173
 4444.00    1.23919   1.24038    8.070
 4445.00    1.25691   1.25617    7.956
 4446.00    1.27397   1.27436    7.849
 4447.00    1.28953   1.28977    7.755
 4448.00    1.30061   1.29804    7.689
 4449.00    1.30161   1.29782    7.683
 4450.00    1.28709   1.28926    7.769
 4451.00    1.25456   1.27240    7.971
 4452.00    1.20976   1.24784    8.266
 4453.00    1.16458   1.21817    8.587
 4454.00    1.12724   1.18796    8.871
 4455.00    1.10001   1.16145    9.091
 4456.00    1.08088   1.14084    9.252
 4457.00    1.06655   1.12675    9.376
 4458.00    1.05866   1.11891    9.446
 4459.00    1.06247   1.11641    9.412
 4460.00    1.08045   1.11947    9.255
 4461.00    1.11077   1.12949    0.000
 4462.00    1.14722   1.14606    0.000
 4463.00    1.18101   1.16618    0.000
 4464.00    1.20417   1.18638    0.000
 4465.00    1.21264   1.20365    0.000
 4466.00    1.21050   1.21612    0.000
 4467.00    1.20628   1.22407    0.000
 4468.00    1.20511   1.23051    0.000
 4469.00    1.21068   1.23944    0.000
 4470.00    1.23064   1.25360    0.000
 4471.00    1.27136   1.27370    0.000
 4472.00    1.32862   1.29789    0.000
 4473.00    1.39135   1.32260    0.000
 4474.00    1.44963   1.34452    0.000
 4475.00    1.49474   1.36110    0.000
 4476.00    1.51801   1.36945    0.000
 4477.00    1.51420   1.36687    0.000
 4478.00    1.48624   1.35308    0.000
 4479.00    1.44348   1.33186    0.000
 4480.00    1.39856   1.31027    0.000
 4481.00    1.36382   1.29618    0.000
 4482.00    1.34719   1.29455    7.423
 4483.00    1.34944   1.30487    7.410
 4484.00    1.36191   1.32189    7.343
 4485.00    1.37230   1.33784    7.287
 4486.00    1.37120   1.34579    7.293
 4487.00    1.35668   1.34299    7.371
 4488.00    1.33717   1.33206    7.478
 4489.00    1.32220   1.31859    7.563
 4490.00    1.31397   1.30707    7.611
 4491.00    1.31102   1.29853    7.628
 4492.00    1.31222   1.29152    7.621
 4493.00    1.31882   1.28537    7.583
 4494.00    1.33492   1.28166    7.491
 4495.00    1.36050   1.28294    7.350
 4496.00    1.38733   1.29113    7.208
 4497.00    1.40886   1.30606    7.098
 4498.00    1.42678   1.32531    7.009
 4499.00    1.44497   1.34599    6.921
 4500.00    1.46509   1.36715    6.826
 4501.00    1.48675   1.38965    6.726
 4502.00    1.50804   1.41304    6.631
 4503.00    1.52685   1.43475    6.549
 4504.00    1.54145   1.45186    6.487
 4505.00    1.54988   1.46247    6.452
 4506.00    1.55058   1.46640    6.449
 4507.00    1.54820   1.46524    6.459
 4508.00    1.55401   1.46088    6.435
 4509.00    1.57281   1.45421    6.358
 4510.00    1.59778   1.44481    6.259
 4511.00    1.61779   1.43235    6.181
 4512.00    1.62237   1.41763    6.164
 4513.00    1.60713   1.40263    6.222
 4514.00    1.57587   1.38973    6.346
 4515.00    1.53927   1.38042    6.497
 4516.00    1.51158   1.37512    6.616
 4517.00    1.50096   1.37427    6.662
 4518.00    1.50528   1.37742    6.643
 4519.00    1.51159   1.38196    6.616
 4520.00    1.50139   1.38374    6.660
 4521.00    1.46887   1.37902    6.808
 4522.00    1.42347   1.36643    7.025
 4523.00    1.37771   1.34602    7.258
 4524.00    1.34215   1.31843    7.451
 4525.00    1.32262   1.28615    7.561
 4526.00    1.31913   1.25341    7.581
 4527.00    1.32511   1.22492    7.547
 4528.00    1.33058   1.20461    7.516
 4529.00    1.33076   1.19421    7.514
 4530.00    1.32771   1.19294    7.532
 4531.00    1.32829   1.19800    7.528
 4532.00    1.33970   1.20598    7.464
 4533.00    1.36063   1.21597    7.350
 4534.00    1.38677   1.23022    7.211
 4535.00    1.42668   1.25124    7.009
 4536.00    1.48195   1.27787    6.748
 4537.00    1.50167   1.30478    6.659
 4538.00    1.43092   1.32691    6.989
 4539.00    1.31919   1.34182    7.580
 4540.00    1.26910   1.34989    7.880
 4541.00    1.30581   1.35295    7.658
 4542.00    1.38019   1.35203    7.245
 4543.00    1.41758   1.34767    7.054
 4544.00    1.37469   1.34146    7.274
 4545.00    1.31237   1.33487    7.620
 4546.00    1.31402   1.32778    7.610
 4547.00    1.34931   1.31980    7.411
 4548.00    1.34451   1.31199    7.438
 4549.00    1.30887   1.30641    7.640
 4550.00    1.29573   1.30325    0.000
 4551.00    1.32641   1.30109    0.000
 4552.00    1.38407   1.30002    0.000
 4553.00    1.42196   1.30174    0.000
 4554.00    1.40952   1.30874    0.000
 4555.00    1.38175   1.32306    0.000
 4556.00    1.38607   1.34392    0.000
 4557.00    1.41914   1.36760    0.000
 4558.00    1.45596   1.38967    0.000
 4559.00    1.48717   1.40630    0.000
 4560.00    1.51233   1.41507    0.000
 4561.00    1.53038   1.41492    0.000
 4562.00    1.54521   1.40688    0.000
 4563.00    1.56879   1.39542    0.000
 4564.00    1.59232   1.38652    0.000
 4565.00    1.57035   1.38454    0.000
 4566.00    1.50598   1.38982    0.000
 4567.00    1.50167   1.39874    0.000
 4568.00    1.58687   1.40687    0.000
 4569.00    1.61309   1.41111    0.000
 4570.00    1.50594   1.41122    0.000
 4571.00    1.41740   1.41097    0.000
 4572.00    1.44667   1.41313    0.000
 4573.00    1.47770   1.41624    0.000
 4574.00    1.43539   1.41836    0.000
 4575.00    1.42258   1.41800    0.000
 4576.00    1.48985   1.41277    0.000
 4577.00    1.52627   1.40099    0.000
 4578.00    1.47689   1.38352    0.000
 4579.00    1.43645   1.36403    0.000
 4580.00    1.45515   1.34727    0.000
 4581.00    1.46172   1.33616    0.000
 4582.00    1.42500   1.33083    0.000
 4583.00    1.41059   1.33073    0.000
 4584.00    1.44674   1.33540    0.000
 4585.00    1.48136   1.34443    0.000
 4586.00    1.48498   1.35739    0.000
 4587.00    1.48203   1.37204    0.000
 4588.00    1.48219   1.38442    0.000
 4589.00    1.46443   1.39094    0.000
 4590.00    1.43141   1.39007    0.000
 4591.00    1.41685   1.38314    0.000
 4592.00    1.43160   1.37305    0.000
 4593.00    1.45032   1.36233    0.000
 4594.00    1.43698   1.35325    0.000
 4595.00    1.36940   1.34767    0.000
 4596.00    1.28646   1.34580    0.000
 4597.00    1.27001   1.34678    0.000
 4598.00    1.34464   1.34911    0.000
 4599.00    1.46148   1.35105    0.000
 4600.00    1.54313   1.35307    0.000
 4601.00    1.52912   1.35627    0.000
 4602.00    1.45781   1.36062    0.000
 4603.00    1.42911   1.36677    0.000
 4604.00    1.45737   1.37591    0.000
 4605.00    1.48462   1.38956    0.000
 4606.00    1.50082   1.40822    0.000
 4607.00    1.53445   1.42992    0.000
 4608.00    1.56809   1.45040    0.000
 4609.00    1.56028   1.46516    0.000
 4610.00    1.52963   1.47266    0.000
 4611.00    1.52477   1.47411    0.000
 4612.00    1.53213   1.47193    0.000
 4613.00    1.50966   1.46943    0.000
 4614.00    1.48055   1.46837    0.000
 4615.00    1.49570   1.46848    0.000
 4616.00    1.54044   1.46990    0.000
 4617.00    1.57089   1.47157    0.000
 4618.00    1.59733   1.47257    0.000
 4619.00    1.64137   1.47437    0.000
 4620.00    1.65308   1.47723    0.000
 4621.00    1.57525   1.47934    0.000
 4622.00    1.45060   1.48033    0.000
 4623.00    1.36515   1.48010    0.000
 4624.00    1.35085   1.47791    0.000
 4625.00    1.38753   1.47447    0.000
 4626.00    1.42585   1.47114    0.000
 4627.00    1.43844   1.46781    0.000
 4628.00    1.47152   1.46441    0.000
 4629.00    1.55856   1.46215    0.000
 4630.00    1.62480   1.46066    0.000
 4631.00    1.60081   1.45685    0.000
 4632.00    1.54527   1.44927    0.000
 4633.00    1.53662   1.43929    0.000
 4634.00    1.55712   1.42794    0.000
 4635.00    1.55370   1.41541    0.000
 4636.00    1.50678   1.40243    0.000
 4637.00    1.43635   1.39080    0.000
 4638.00    1.39569   1.38228    0.000
 4639.00    1.41426   1.37768    0.000
 4640.00    1.45626   1.37716    0.000
 4641.00    1.47485   1.37773    0.000
 4642.00    1.45726   1.37516    0.000
 4643.00    1.42054   1.36764    0.000
 4644.00    1.40147   1.35506    0.000
 4645.00    1.42432   1.33929    0.000
 4646.00    1.47835   1.32569    0.000
 4647.00    1.51769   1.31942    0.000
 4648.00    1.47742   1.32236    0.000
 4649.00    1.36765   1.33331    0.000
 4650.00    1.30418   1.34858    0.000
 4651.00    1.34640   1.36415    0.000
 4652.00    1.42357   1.37654    0.000
 4653.00    1.46298   1.38373    0.000
 4654.00    1.45729   1.38805    0.000
 4655.00    1.43232   1.39394    0.000
 4656.00    1.42259   1.40474    0.000
 4657.00    1.44342   1.42129    0.000
 4658.00    1.48357   1.43990    0.000
 4659.00    1.53216   1.45445    0.000
 4660.00    1.58350   1.45960    0.000
 4661.00    1.60491   1.45287    0.000
 4662.00    1.54670   1.43507    0.000
 4663.00    1.43560   1.40922    0.000
 4664.00    1.37096   1.37819    0.000
 4665.00    1.37034   1.34446    0.000
 4666.00    1.35495   1.31367    0.000
 4667.00    1.30536   1.29389    0.000
 4668.00    1.28042   1.28941    0.000
 4669.00    1.29415   1.29877    0.000
 4670.00    1.30567   1.31759    0.000
 4671.00    1.31707   1.34006    0.000
 4672.00    1.36886   1.36159    0.000
 4673.00    1.43791   1.37997    0.000
 4674.00    1.45387   1.39441    0.000
 4675.00    1.42469   1.40430    0.000
 4676.00    1.42007   1.40776    0.000
 4677.00    1.44043   1.40417    0.000
 4678.00    1.42665   1.39589    0.000
 4679.00    1.36576   1.38610    0.000
 4680.00    1.30007   1.37779    0.000
 4681.00    1.28704   1.37383    0.000
 4682.00    1.35851   1.37568    0.000
 4683.00    1.45752   1.38138    0.000
 4684.00    1.48924   1.38811    0.000
 4685.00    1.44725   1.39400    0.000
 4686.00    1.39262   1.39740    0.000
 4687.00    1.36658   1.39836    0.000
 4688.00    1.37488   1.39825    0.000
 4689.00    1.39146   1.39755    0.000
 4690.00    1.38651   1.39727    0.000
 4691.00    1.37023   1.39946    0.000
 4692.00    1.37110   1.40445    0.000
 4693.00    1.39111   1.41089    0.000
 4694.00    1.41150   1.41706    0.000
 4695.00    1.41207   1.41992    0.000
 4696.00    1.38423   1.41613    0.000
 4697.00    1.34401   1.40503    0.000
 4698.00    1.31748   1.39008    0.000
 4699.00    1.31830   1.37515    0.000
 4700.00    1.33025   1.36133    0.000
 4701.00    1.29535   1.34952    0.000
 4702.00    1.19272   1.34164    0.000
 4703.00    1.12072   1.33933    0.000
 4704.00    1.16767   1.34089    0.000
 4705.00    1.27155   1.34291    0.000
 4706.00    1.33546   1.34408    0.000
 4707.00    1.35501   1.34574    0.000
 4708.00    1.36075   1.34940    0.000
 4709.00    1.35315   1.35640    0.000
 4710.00    1.32389   1.36660    0.000
 4711.00    1.28097   1.37707    0.000
 4712.00    1.25298   1.38568    0.000
 4713.00    1.28413   1.39302    0.000
 4714.00    1.37699   1.40228    0.000
 4715.00    1.45861   1.41611    0.000
 4716.00    1.47719   1.43332    0.000
 4717.00    1.46735   1.45177    0.000
 4718.00    1.47488   1.47034    0.000
 4719.00    1.50310   1.48672    0.000
 4720.00    1.53737   1.49825    0.000
 4721.00    1.56332   1.50376    0.000
 4722.00    1.56354   1.50417    0.000
 4723.00    1.52114   1.50032    0.000
 4724.00    1.45699   1.49094    0.000
 4725.00    1.43318   1.47403    0.000
 4726.00    1.44997   1.44978    0.000
 4727.00    1.42041   1.42299    0.000
 4728.00    1.34068   1.39981    0.000
 4729.00    1.33392   1.38367    0.000
 4730.00    1.41913   1.37596    0.000
 4731.00    1.45290   1.37699    0.000
 4732.00    1.39513   1.38452    0.000
 4733.00    1.37734   1.39540    0.000
 4734.00    1.45447   1.40715    0.000
 4735.00    1.53403   1.41676    0.000
 4736.00    1.53980   1.42477    0.000
 4737.00    1.47457   1.43390    0.000
 4738.00    1.39300   1.44275    0.000
 4739.00    1.36903   1.44914    0.000
 4740.00    1.42282   1.45429    0.000
 4741.00    1.50799   1.46011    0.000
 4742.00    1.55908   1.46689    0.000
 4743.00    1.52953   1.47342    0.000
 4744.00    1.45566   1.47951    0.000
 4745.00    1.43076   1.48649    0.000
 4746.00    1.47102   1.49352    0.000
 4747.00    1.51614   1.49838    0.000
 4748.00    1.54292   1.50058    0.000
 4749.00    1.56923   1.50001    0.000
 4750.00    1.58022   1.49566    0.000
 4751.00    1.53945   1.48728    0.000
 4752.00    1.46341   1.47654    0.000
 4753.00    1.41154   1.46537    0.000
 4754.00    1.42039   1.45569    0.000
 4755.00    1.48367   1.44856    0.000
 4756.00    1.54497   1.44414    0.000
 4757.00    1.53922   1.44164    0.000
 4758.00    1.47747   1.43956    0.000
 4759.00    1.41886   1.43559    0.000
 4760.00    1.38504   1.42680    0.000
 4761.00    1.36620   1.41292    7.320
 4762.00    1.36124   1.39713    7.346
 4763.00    1.37476   1.38220    7.274
 4764.00    1.39972   1.36995    7.144
 4765.00    1.42205   1.36331    7.032
 4766.00    1.43251   1.36497    6.981
 4767.00    1.42691   1.37452    7.008
 4768.00    1.40440   1.38948    7.120
 4769.00    1.37948   1.40629    7.249
 4770.00    1.39584   1.42136    7.164
 4771.00    1.46979   1.43455    6.804
 4772.00    1.52095   1.44791    6.575
 4773.00    1.48289   1.46195    6.744
 4774.00    1.44101   1.47454    6.940
 4775.00    1.48791   1.48401    6.721
 4776.00    1.54687   1.49086    6.465
 4777.00    1.52334   1.49424    6.565
 4778.00    1.48206   1.49253    6.747
 4779.00    1.50946   1.48639    6.625
 4780.00    1.56107   1.47710    6.406
 4781.00    1.56492   1.46484    6.390
 4782.00    1.53177   1.45082    6.528
 4783.00    1.49874   1.43845    6.672
 4784.00    1.47054   1.42887    6.800
 4785.00    1.44175   1.42061    6.936
 4786.00    1.41948   1.41535    7.045
 4787.00    1.41510   1.41478    7.067
 4788.00    1.43436   1.41784    6.972
 4789.00    1.46483   1.42513    6.827
 4790.00    1.47315   1.43750    6.788
 4791.00    1.45216   1.45390    6.886
 4792.00    1.44543   1.47291    6.918
 4793.00    1.47766   1.49201    6.767
 4794.00    1.51440   1.50703    6.603
 4795.00    1.51827   1.51464    6.586
 4796.00    1.48595   1.51444    6.730
 4797.00    1.44121   1.50823    6.939
 4798.00    1.42213   1.49928    7.032
 4799.00    1.43937   1.49177    6.948
 4800.00    1.46113   1.48854    6.844
 4801.00    1.45868   1.48915    6.856
 4802.00    1.43174   1.49026    6.984
 4803.00    1.40964   1.48869    7.094
 4804.00    1.43666   1.48377    6.961
 4805.00    1.50555   1.47727    6.642
 4806.00    1.54819   1.47020    6.459
 4807.00    1.53180   1.46392    6.528
 4808.00    1.48791   1.46101    6.721
 4809.00    1.45165   1.46223    6.889
 4810.00    1.43661   1.46635    6.961
 4811.00    1.43947   1.47251    6.947
 4812.00    1.45031   1.48029    6.895
 4813.00    1.48113   1.48932    6.752
 4814.00    1.55663   1.49916    6.424
 4815.00    1.64878   1.50942    6.065
 4816.00    1.68388   1.51921    5.939
 4817.00    1.63670   1.52696    6.110
 4818.00    1.54583   1.53131    6.469
 4819.00    1.46571   1.53074    6.823
 4820.00    1.43818   1.52457    6.953
 4821.00    1.45698   1.51312    6.864
 4822.00    1.48266   1.49770    6.745
 4823.00    1.50754   1.48330    6.633
 4824.00    1.54611   1.47452    6.468
 4825.00    1.56893   1.47061    6.374
 4826.00    1.52773   1.46846    6.546
 4827.00    1.45083   1.46644    6.893
 4828.00    1.41293   1.46470    7.077
 4829.00    1.42085   1.46343    7.038
 4830.00    1.43227   1.46132    6.982
 4831.00    1.44597   1.45871    6.916
 4832.00    1.48364   1.45868    6.740
 4833.00    1.51984   1.46181    6.580
 4834.00    1.51087   1.46547    6.619
 4835.00    1.47038   1.46763    6.801
 4836.00    1.43899   1.46794    6.949
 4837.00    1.41060   1.46528    7.089
 4838.00    1.36778   1.45909    7.311
 4839.00    1.35575   1.45187    7.376
 4840.00    1.42230   1.44676    7.031
 4841.00    1.51344   1.44420    6.607
 4842.00    1.54150   1.44351    6.487
 4843.00    1.50273   1.44596    6.655
 4844.00    1.45231   1.45169    6.886
 4845.00    1.44610   1.45746    6.915
 4846.00    1.49999   1.45999    6.667
 4847.00    1.55386   1.45841    6.436
 4848.00    1.54877   1.45494    0.000
 4849.00    1.51771   1.45157    0.000
 4850.00    1.50829   1.44658    0.000
 4851.00    1.49030   1.43806    0.000
 4852.00    1.42515   1.42565    0.000
 4853.00    1.34434   1.40767    0.000
 4854.00    1.29274   1.38381    0.000
 4855.00    1.26781   1.35764    0.000
 4856.00    1.25451   1.33112    0.000
 4857.00    1.26049   1.30166    0.000
 4858.00    1.28916   1.26780    0.000
 4859.00    1.31683   1.23236    0.000
 4860.00    1.32319   1.20228    0.000
 4861.00    1.31582   1.18725    0.000
 4862.00    1.30962   1.19087    0.000
 4863.00    1.30924   1.20786    0.000
 4864.00    1.30819   1.23309    0.000
 4865.00    1.29297   1.26251    0.000
 4866.00    1.27006   1.29024    0.000
 4867.00    1.27572   1.31137    0.000
 4868.00    1.31696   1.32416    0.000
 4869.00    1.34526   1.32730    0.000
 4870.00    1.33516   1.32250    0.000
 4871.00    1.32236   1.31804    0.000
 4872.00    1.33727   1.32106    0.000
 4873.00    1.37128   1.33100    0.000
 4874.00    1.40992   1.34519    0.000
 4875.00    1.44897   1.36317    6.901
 4876.00    1.47913   1.38353    6.761
 4877.00    1.48415   1.40340    6.738
 4878.00    1.47093   1.42128    6.798
 4879.00    1.47116   1.43350    6.797
 4880.00    1.48427   1.43641    6.737
 4881.00    1.47030   1.43263    6.801
 4882.00    1.42778   1.42594    7.004
 4883.00    1.40544   1.41551    7.115
 4884.00    1.41647   1.40062    7.060
 4885.00    1.42366   1.38450    7.024
 4886.00    1.41229   1.37093    7.081
 4887.00    1.40414   1.36120    7.122
 4888.00    1.40919   1.35511    7.096
 4889.00    1.41734   1.35266    7.055
 4890.00    1.42806   1.35658    7.003
 4891.00    1.45218   1.37306    6.886
 4892.00    1.48765   1.40284    6.722
 4893.00    1.51897   1.43942    6.583
 4894.00    1.53781   1.47622    6.503
 4895.00    1.54462   1.50796    6.474
 4896.00    1.53704   1.53102    6.506
 4897.00    1.51177   1.54385    6.615
 4898.00    1.47744   1.54587    6.768
 4899.00    1.45243   1.53952    6.885
 4900.00    1.45171   1.53044    6.888
 4901.00    1.47606   1.52157    6.775
 4902.00    1.49650   1.51329    6.682
 4903.00    1.47929   1.50803    6.760
 4904.00    1.44373   1.50752    6.926
 4905.00    1.43636   1.50880    6.962
 4906.00    1.45730   1.50696    6.862
 4907.00    1.47231   1.49996    6.792
 4908.00    1.46256   1.48893    6.837
 4909.00    1.43805   1.47710    6.954
 4910.00    1.44238   1.46900    6.933
 4911.00    1.50913   1.46672    6.626
 4912.00    1.59251   1.46826    6.279
 4913.00    1.61903   1.47056    6.177
 4914.00    1.58249   1.47090    6.319
 4915.00    1.52077   1.46509    6.576
 4916.00    1.46118   1.44881    6.844
 4917.00    1.41832   1.42155    7.051
 4918.00    1.40151   1.38828    7.135
 4919.00    1.40575   1.35786    7.114
 4920.00    1.40160   1.33905    7.135
 4921.00    1.37071   1.33587    7.296
 4922.00    1.34672   1.34543    7.425
 4923.00    1.36874   1.36336    7.306
 4924.00    1.42495   1.38883    7.018
 4925.00    1.47606   1.42111    6.775
 4926.00    1.48924   1.45498    6.715
 4927.00    1.46421   1.48514    6.830
 4928.00    1.44986   1.50921    6.897
 4929.00    1.47814   1.52476    6.765
 4930.00    1.50726   1.53060    6.635
 4931.00    1.49552   1.52649    6.687
 4932.00    1.46621   1.51231    6.820
 4933.00    1.45570   1.49269    6.870
 4934.00    1.46675   1.47458    6.818
 4935.00    1.48280   1.45857    6.744
 4936.00    1.48419   1.44256    6.738
 4937.00    1.46413   1.42882    6.830
 4938.00    1.43805   1.42307    6.954
 4939.00    1.42864   1.42981    7.000
 4940.00    1.45234   1.44747    0.000
 4941.00    1.50189   1.46971    0.000
 4942.00    1.54172   1.49272    0.000
 4943.00    1.54779   1.51483    0.000
 4944.00    1.53012   1.53325    0.000
 4945.00    1.51594   1.54725    0.000
 4946.00    1.53274   1.55886    0.000
 4947.00    1.57474   1.56838    0.000
 4948.00    1.59821   1.57475    0.000
 4949.00    1.59088   1.57775    0.000
 4950.00    1.59196   1.57656    0.000
 4951.00    1.61253   1.56896    0.000
 4952.00    1.61240   1.55388    0.000
 4953.00    1.57456   1.53249    0.000
 4954.00    1.52742   1.50650    0.000
 4955.00    1.49021   1.47685    0.000
 4956.00    1.45679   1.44631    0.000
 4957.00    1.42796   1.42477    0.000
 4958.00    1.41942   1.42056    0.000
 4959.00    1.44130   1.42979    0.000
 4960.00    1.48982   1.44342    0.000
 4961.00    1.54676   1.45651    0.000
 4962.00    1.58672   1.46747    0.000
 4963.00    1.60069   1.47357    0.000
 4964.00    1.59635   1.47233    0.000
 4965.00    1.57452   1.46568    0.000
 4966.00    1.53266   1.45834    0.000
 4967.00    1.49608   1.45367    0.000
 4968.00    1.50344   1.45361    0.000
 4969.00    1.54329   1.45853    0.000
 4970.00    1.56504   1.46788    0.000
 4971.00    1.55180   1.48040    0.000
 4972.00    1.52432   1.49312    0.000
 4973.00    1.50376   1.50304    0.000
 4974.00    1.50054   1.50750    0.000
 4975.00    1.51073   1.50451    0.000
 4976.00    1.51955   1.49360    0.000
 4977.00    1.51068   1.47491    0.000
 4978.00    1.47599   1.45062    0.000
 4979.00    1.43018   1.42403    0.000
 4980.00    1.39568   1.39635    0.000
 4981.00    1.36985   1.36911    0.000
 4982.00    1.33794   1.34786    0.000
 4983.00    1.30653   1.33817    0.000
 4984.00    1.29643   1.34047    0.000
 4985.00    1.32052   1.35247    0.000
 4986.00    1.37057   1.37130    0.000
 4987.00    1.40511   1.39215    0.000
 4988.00    1.39225   1.41061    0.000
 4989.00    1.37169   1.42494    0.000
 4990.00    1.39563   1.43519    0.000
 4991.00    1.43855   1.44312    0.000
 4992.00    1.44943   1.44857    0.000
 4993.00    1.43366   1.45051    0.000
 4994.00    1.42278   1.45095    0.000
 4995.00    1.42532   1.45013    0.000
 4996.00    1.43474   1.44596    0.000
 4997.00    1.44499   1.43746    0.000
 4998.00    1.44805   1.42376    0.000
 4999.00    1.43107   1.40628    0.000
 5000.00    1.39601   1.38879    0.000
 5001.00    1.37537   1.37313    0.000
 5002.00    1.38349   1.35987    0.000
 5003.00    1.37592   1.34896    0.000
 5004.00    1.32622   1.33954    0.000
 5005.00    1.28984   1.33290    0.000
 5006.00    1.31757   1.33252    0.000
 5007.00    1.38289   1.33850    0.000
 5008.00    1.43597   1.34525    0.000
 5009.00    1.45192   1.34762    0.000
 5010.00    1.42958   1.34413    0.000
 5011.00    1.38653   1.33510    0.000
 5012.00    1.34741   1.32290    0.000
 5013.00    1.33418   1.31110    0.000
 5014.00    1.35479   1.30327    0.000
 5015.00    1.39682   1.30095    0.000
 5016.00    1.43315   1.30217    0.000
 5017.00    1.43148   1.30582    0.000
 5018.00    1.38760   1.31351    0.000
 5019.00    1.33699   1.32459    0.000
 5020.00    1.30955   1.33548    0.000
 5021.00    1.30776   1.34403    0.000
 5022.00    1.32876   1.35245    0.000
 5023.00    1.37247   1.36300    0.000
 5024.00    1.42136   1.37399    0.000
 5025.00    1.44049   1.38343    0.000
 5026.00    1.42444   1.39105    0.000
 5027.00    1.40772   1.39973    0.000
 5028.00    1.41427   1.41260    0.000
 5029.00    1.43766   1.42725    6.956
 5030.00    1.45308   1.44017    6.882
 5031.00    1.43277   1.45103    6.979
 5032.00    1.38312   1.45821    7.230
 5033.00    1.34329   1.45773    7.444
 5034.00    1.32985   1.44598    7.520
 5035.00    1.32740   1.42453    7.534
 5036.00    1.32548   1.40036    7.544
 5037.00    1.32655   1.37637    7.538
 5038.00    1.33037   1.35170    7.517
 5039.00    1.33232   1.32903    7.506
 5040.00    1.33357   1.31487    7.499
 5041.00    1.33925   1.31686    7.467
 5042.00    1.34518   1.33548    7.434
 5043.00    1.34216   1.36210    7.451
 5044.00    1.33642   1.38967    7.483
 5045.00    1.34479   1.41421    7.436
 5046.00    1.37002   1.43063    7.299
 5047.00    1.39969   1.43578    7.144
 5048.00    1.41842   1.43174    7.050
 5049.00    1.41507   1.42435    7.067
 5050.00    1.39187   1.41861    7.185
 5051.00    1.36466   1.41717    7.328
 5052.00    1.35875   1.42234    7.360
 5053.00    1.39150   1.43466    7.186
 5054.00    1.44234   1.45179    6.933
 5055.00    1.47614   1.47020    6.774
 5056.00    1.49427   1.48730    6.692
 5057.00    1.51790   1.50193    6.588
 5058.00    1.54503   1.51239    6.472
 5059.00    1.56007   1.51744    6.410
 5060.00    1.56032   1.51750    6.409
 5061.00    1.55315   1.51196    6.439
 5062.00    1.54540   1.49945    6.471
 5063.00    1.53935   1.48006    6.496
 5064.00    1.52963   1.45823    6.538
 5065.00    1.50805   1.44070    6.631
 5066.00    1.47046   1.42838    6.801
 5067.00    1.41748   1.41879    7.055
 5068.00    1.35455   1.41314    7.383
 5069.00    1.29652   1.41298    7.713
 5070.00    1.27117   1.41533    7.867
 5071.00    1.29436   1.41655    7.726
 5072.00    1.34427   1.41690    7.439
 5073.00    1.38392   1.41688    7.226
 5074.00    1.38873   1.41391    7.201
 5075.00    1.36053   1.40671    7.350
 5076.00    1.33429   1.39662    7.495
 5077.00    1.33431   1.38340    7.494
 5078.00    1.33782   1.36582    7.475
 5079.00    1.31893   1.34796    7.582
 5080.00    1.28721   1.33724    7.769
 5081.00    1.26566   1.33568    7.901
 5082.00    1.26848   1.34034    7.883
 5083.00    1.28762   1.35013    7.766
 5084.00    1.29074   1.36572    7.747
 5085.00    1.27442   1.38543    7.847
 5086.00    1.29022   1.40525    7.751
 5087.00    1.35482   1.42287    7.381
 5088.00    1.40402   1.43861    7.122
 5089.00    1.40258   1.45241    7.130
 5090.00    1.40110   1.46312    7.137
 5091.00    1.43699   1.47050    6.959
 5092.00    1.48305   1.47426    6.743
 5093.00    1.51004   1.47253    6.622
 5094.00    1.51890   1.46404    6.584
 5095.00    1.51295   1.44995    6.610
 5096.00    1.48560   1.43284    6.731
 5097.00    1.43813   1.41492    6.953
 5098.00    1.38646   1.39900    7.213
 5099.00    1.34926   1.38993    7.411
 5100.00    1.33951   1.38930    7.465
 5101.00    1.35334   1.39283    7.389
 5102.00    1.36976   1.39587    7.301
 5103.00    1.36925   1.39692    7.303
 5104.00    1.34391   1.39621    7.441
 5105.00    1.30551   1.39364    7.660
 5106.00    1.28019   1.38807    7.811
 5107.00    1.27894   1.38136    7.819
 5108.00    1.29324   1.37744    7.733
 5109.00    1.31783   1.37752    7.588
 5110.00    1.35389   1.38298    7.386
 5111.00    1.39328   1.39457    7.177
 5112.00    1.42076   1.40960    7.038
 5113.00    1.43542   1.42613    6.967
 5114.00    1.44965   1.44260    6.898
 5115.00    1.46750   1.45690    6.814
 5116.00    1.48049   1.46816    6.755
 5117.00    1.47381   1.47369    6.785
 5118.00    1.43919   1.47086    6.948
 5119.00    1.40153   1.46015    7.135
 5120.00    1.39699   1.44310    7.158
 5121.00    1.40820   1.42157    7.101
 5122.00    1.38823   1.39717    7.203
 5123.00    1.34528   1.37287    7.433
 5124.00    1.32582   1.35363    7.542
 5125.00    1.34124   1.34143    7.456
 5126.00    1.37019   1.33480    7.298
 5127.00    1.39365   1.33284    7.175
 5128.00    1.40222   1.33580    7.132
 5129.00    1.39668   1.34432    7.160
 5130.00    1.38485   1.35733    7.221
 5131.00    1.37600   1.37143    7.267
 5132.00    1.37713   1.38356    7.261
 5133.00    1.38878   1.39305    7.201
 5134.00    1.40546   1.40059    7.115
 5135.00    1.41774   1.40380    7.053
 5136.00    1.41631   1.39958    7.061
 5137.00    1.39748   1.38993    7.156
 5138.00    1.36502   1.37877    7.326
 5139.00    1.33111   1.36993    7.513
 5140.00    1.31063   1.36379    7.630
 5141.00    1.31328   1.35613    7.615
 5142.00    1.33908   1.34867    7.468
 5143.00    1.37458   1.34656    7.275
 5144.00    1.40057   1.34725    7.140
 5145.00    1.40198   1.34618    7.133
 5146.00    1.37662   1.34329    7.264
 5147.00    1.34185   1.34136    7.452
 5148.00    1.31866   1.34211    7.583
 5149.00    1.31505   1.34300    7.604
 5150.00    1.32559   1.34204    7.544
 5151.00    1.33436   1.34232    7.494
 5152.00    1.33310   1.34670    7.501
 5153.00    1.33445   1.35522    7.494
 5154.00    1.34919   1.36805    7.412
 5155.00    1.36864   1.38473    7.307
 5156.00    1.38346   1.40312    7.228
 5157.00    1.39770   1.41984    7.155
 5158.00    1.41467   1.43117    7.069
 5159.00    1.42673   1.43525    7.009
 5160.00    1.42131   1.42984    7.036
 5161.00    1.38720   1.41132    7.209
 5162.00    1.32435   1.38034    7.551
 5163.00    1.24806   1.34048    8.012
 5164.00    1.17691   1.29301    8.497
 5165.00    1.12424   1.23894    8.895
 5166.00    1.09406   1.18285    9.140
 5167.00    1.07986   1.13425    9.260
 5168.00    1.06979   1.10201    9.348
 5169.00    1.05234   1.08558    9.503
 5170.00    1.02974   1.07728    9.711
 5171.00    1.02096   1.07393    9.795
 5172.00    1.04369   1.08335    9.581
 5173.00    1.10181   1.11272    9.076
 5174.00    1.17033   1.15464    8.545
 5175.00    1.20355   1.19489    8.309
 5176.00    1.19611   1.22729    8.360
 5177.00    1.18942   1.25171    8.407
 5178.00    1.19508   1.26560    8.368
 5179.00    1.18282   1.26509    8.454
 5180.00    1.14988   1.25047    8.697
 5181.00    1.12985   1.22587    8.851
 5182.00    1.13174   1.19781    8.836
 5183.00    1.13362   1.17859    8.821
 5184.00    1.13270   1.18051    8.828
 5185.00    1.15091   1.20155    8.689
 5186.00    1.20034   1.22966    8.331
 5187.00    1.27089   1.25755    7.869
 5188.00    1.32731   1.28555    7.534
 5189.00    1.33197   1.31192    7.508
 5190.00    1.30598   1.32736    0.000
 5191.00    1.30751   1.32882    0.000
 5192.00    1.33653   1.32683    0.000
 5193.00    1.34790   1.32999    0.000
 5194.00    1.33999   1.33642    0.000
 5195.00    1.34619   1.34421    0.000
 5196.00    1.36855   1.35596    0.000
 5197.00    1.38566   1.37187    0.000
 5198.00    1.40023   1.38728    0.000
 5199.00    1.42590   1.39656    0.000
 5200.00    1.44251   1.39722    0.000
 5201.00    1.41735   1.38958    0.000
 5202.00    1.35998   1.37405    0.000
 5203.00    1.30745   1.35059    0.000
 5204.00    1.28076   1.32161    0.000
 5205.00    1.27980   1.29457    0.000
 5206.00    1.28841   1.27614    0.000
 5207.00    1.29044   1.26673    0.000
 5208.00    1.29203   1.26671    0.000
 5209.00    1.30750   1.27886    0.000
 5210.00    1.33457   1.30213    0.000
 5211.00    1.36092   1.33151    7.348
 5212.00    1.37826   1.36112    7.256
 5213.00    1.38452   1.38678    7.223
 5214.00    1.38406   1.40626    7.225
 5215.00    1.38604   1.42023    7.215
 5216.00    1.40162   1.43229    7.135
 5217.00    1.43306   1.44405    6.978
 5218.00    1.46333   1.45363    6.834
 5219.00    1.47596   1.45856    6.775
 5220.00    1.47596   1.45816    6.775
 5221.00    1.47261   1.45163    6.791
 5222.00    1.46114   1.43754    6.844
 5223.00    1.43633   1.41660    6.962
 5224.00    1.40632   1.39195    7.111
 5225.00    1.38496   1.36818    7.220
 5226.00    1.38295   1.35123    7.231
 5227.00    1.39873   1.34724    7.149
 5228.00    1.41427   1.35595    7.071
 5229.00    1.41778   1.37067    7.053
 5230.00    1.41959   1.38720    7.044
 5231.00    1.43095   1.40380    6.988
 5232.00    1.44870   1.41859    6.903
 5233.00    1.46527   1.43196    6.825
 5234.00    1.47659   1.44550    6.772
 5235.00    1.48314   1.46061    6.742
 5236.00    1.48959   1.47677    6.713
 5237.00    1.50022   1.49197    6.666
 5238.00    1.51568   1.50561    6.598
 5239.00    1.53089   1.51769    6.532
 5240.00    1.53562   1.52721    6.512
 5241.00    1.52389   1.53143    6.562
 5242.00    1.49892   1.52943    6.671
 5243.00    1.47124   1.52438    6.797
 5244.00    1.45493   1.51690    6.873
 5245.00    1.45504   1.50298    6.873
 5246.00    1.46244   1.48290    6.838
 5247.00    1.45853   1.46454    6.856
 5248.00    1.42508   1.45167    7.017
 5249.00    1.37525   1.43995    7.271
 5250.00    1.35300   1.42959    7.391
 5251.00    1.37813   1.42747    7.256
 5252.00    1.43100   1.43474    6.988
 5253.00    1.48055   1.44502    6.754
 5254.00    1.50235   1.45465    6.656
 5255.00    1.50177   1.46716    6.659
 5256.00    1.50775   1.48273    6.632
 5257.00    1.52607   1.49358    6.553
 5258.00    1.53496   1.49346    6.515
 5259.00    1.52090   1.48151    6.575
 5260.00    1.48674   1.45887    6.726
 5261.00    1.44170   1.42638    6.936
 5262.00    1.39666   1.38715    7.160
 5263.00    1.36002   1.34551    7.353
 5264.00    1.33266   1.30448    7.504
 5265.00    1.29885   1.26947    7.699
 5266.00    1.24074   1.24770    8.060
 5267.00    1.17793   1.23798    8.489
 5268.00    1.15197   1.23164    8.681
 5269.00    1.16985   1.23040    8.548
 5270.00    1.20842   1.24491    8.275
 5271.00    1.25142   1.27459    7.991
 5272.00    1.29115   1.30712    7.745
 5273.00    1.31566   1.33700    7.601
 5274.00    1.31866   1.36790    7.583
 5275.00    1.32183   1.40117    7.565
 5276.00    1.35368   1.43335    7.387
 5277.00    1.40587   1.45947    7.113
 5278.00    1.45014   1.47595    6.896
 5279.00    1.47898   1.48331    6.761
 5280.00    1.49971   1.48636    6.668
 5281.00    1.51455   1.48879    6.603
 5282.00    1.51996   1.49042    6.579
 5283.00    1.51083   1.49346    6.619
 5284.00    1.48936   1.50389    6.714
 5285.00    1.47527   1.52310    6.778
 5286.00    1.48843   1.54485    6.718
 5287.00    1.52520   1.56328    6.557
 5288.00    1.56807   1.57864    6.377
 5289.00    1.60160   1.59222    6.244
 5290.00    1.61735   1.60015    6.183
 5291.00    1.61696   1.59748    6.184
 5292.00    1.60643   1.58478    6.225
 5293.00    1.58958   1.56717    6.291
 5294.00    1.56880   1.54784    6.374
 5295.00    1.54641   1.52491    6.467
 5296.00    1.52430   1.49824    6.560
 5297.00    1.50352   1.47520    6.651
 5298.00    1.48463   1.46481    6.736
 5299.00    1.46858   1.46674    6.809
 5300.00    1.46120   1.47408    6.844
 5301.00    1.47493   1.48552    6.780
 5302.00    1.51138   1.50487    6.616
 5303.00    1.55028   1.53106    6.450
 5304.00    1.57525   1.55660    6.348
 5305.00    1.59151   1.57594    6.283
 5306.00    1.60770   1.58990    6.220
 5307.00    1.62306   1.60139    6.161
 5308.00    1.63540   1.61111    6.115
 5309.00    1.64572   1.61711    6.076
 5310.00    1.64960   1.61787    6.062
 5311.00    1.63461   1.61444    6.118
 5312.00    1.59884   1.60925    6.255
 5313.00    1.55967   1.60334    6.412
 5314.00    1.53994   1.59582    6.494
 5315.00    1.55585   1.58615    6.427
 5316.00    1.59668   1.57616    6.263
 5317.00    1.62384   1.56811    6.158
 5318.00    1.61752   1.56060    6.182
 5319.00    1.59294   1.55080    6.278
 5320.00    1.56653   1.53913    6.384
 5321.00    1.54188   1.52593    6.486
 5322.00    1.51941   1.50730    6.581
 5323.00    1.50044   1.48107    6.665
 5324.00    1.48519   1.45420    6.733
 5325.00    1.47175   1.43211    6.795
 5326.00    1.45580   1.41036    6.869
 5327.00    1.43332   1.38720    6.977
 5328.00    1.41076   1.37476    7.088
 5329.00    1.40383   1.38376    7.123
 5330.00    1.42151   1.40599    7.035
 5331.00    1.46019   1.42858    6.848
 5332.00    1.50335   1.45135    6.652
 5333.00    1.52987   1.47962    6.536
 5334.00    1.53826   1.50721    6.501
 5335.00    1.54427   1.52300    6.476
 5336.00    1.55402   1.52709    6.435
 5337.00    1.56246   1.52673    6.400
 5338.00    1.56922   1.52358    6.373
 5339.00    1.57870   1.51479    6.334
 5340.00    1.58977   1.50436    6.290
 5341.00    1.59330   1.50061    6.276
 5342.00    1.57302   1.50363    6.357
 5343.00    1.52143   1.50634    6.573
 5344.00    1.47210   1.50675    6.793
 5345.00    1.47064   1.50920    6.800
 5346.00    1.50318   1.51564    6.653
 5347.00    1.52152   1.52169    6.572
 5348.00    1.51855   1.52543    6.585
 5349.00    1.51910   1.53232    6.583
 5350.00    1.53729   1.54698    6.505
 5351.00    1.57368   1.56620    6.355
 5352.00    1.62379   1.58445    6.158
 5353.00    1.67549   1.60270    5.968
 5354.00    1.70365   1.62301    5.870
 5355.00    1.69028   1.64091    5.916
 5356.00    1.65438   1.65156    6.045
 5357.00    1.63019   1.65563    6.134
 5358.00    1.63022   1.65546    6.134
 5359.00    1.64458   1.65010    6.081
 5360.00    1.64817   1.63782    6.067
 5361.00    1.62343   1.62102    6.160
 5362.00    1.58550   1.60314    6.307
 5363.00    1.55623   1.58520    6.426
 5364.00    1.53165   1.56567    6.529
 5365.00    1.50110   1.54475    6.662
 5366.00    1.47134   1.52495    6.796
 5367.00    1.45456   1.50817    6.875
 5368.00    1.45342   1.49396    6.880
 5369.00    1.46402   1.48115    6.831
 5370.00    1.48027   1.47312    6.756
 5371.00    1.49549   1.47508    6.687
 5372.00    1.50395   1.48898    6.649
 5373.00    1.50501   1.50975    6.644
 5374.00    1.50586   1.53125    6.641
 5375.00    1.51535   1.55178    6.599
 5376.00    1.53806   1.57060    6.502
 5377.00    1.56937   1.58563    6.372
 5378.00    1.59383   1.59405    6.274
 5379.00    1.59938   1.59591    6.252
 5380.00    1.58624   1.59339   -2.000
 5381.00    1.55638   1.58938   -2.000
 5382.00    1.50755   1.58538   -2.000
 5383.00    1.44433   1.58161   -2.000
 5384.00    1.38448   1.57849   -2.000
 5385.00    1.35221   1.57517   -2.000
 5386.00    1.37015   1.56999   -2.000
 5387.00    1.43850   1.56251   -2.000
 5388.00    1.52747   1.55301   -2.000
 5389.00    1.59994   1.54106   -2.000
 5390.00    1.62756   1.52746   -2.000
 5391.00    1.60787   1.51310   -2.000
 5392.00    1.56600   1.49806   -2.000
 5393.00    1.52388   1.48461   -2.000
 5394.00    1.48824   1.47492   -2.000
 5395.00    1.46352   1.46667    6.833
 5396.00    1.45527   1.45839    6.872
 5397.00    1.45925   1.45557    6.853
 5398.00    1.46137   1.46010    6.843
 5399.00    1.45473   1.46389    6.874
 5400.00    1.44388   1.46175    6.926
 5401.00    1.43541   1.45825    6.967
 5402.00    1.43215   1.45557    6.983
 5403.00    1.42650   1.44701    7.010
 5404.00    1.40597   1.43126    7.113
 5405.00    1.37795   1.41753    7.257
 5406.00    1.36600   1.41332    7.321
 5407.00    1.37492   1.41651    7.273
 5408.00    1.38987   1.42197    7.195
 5409.00    1.40440   1.43067    7.120
 5410.00    1.42241   1.44785    7.030
 5411.00    1.44164   1.47315    6.937
 5412.00    1.45682   1.49827    6.864
 5413.00    1.47831   1.51805    6.764
 5414.00    1.52137   1.53517    6.573
 5415.00    1.57095   1.55249    6.366
 5416.00    1.59371   1.56728    6.275
 5417.00    1.58236   1.57589    6.320
 5418.00    1.55453   1.57799    6.433
 5419.00    1.52960   1.57578    6.538
 5420.00    1.51911   1.57264    6.583
 5421.00    1.51834   1.57040    6.586
 5422.00    1.51301   1.56723    6.609
 5423.00    1.49475   1.56047    6.690
 5424.00    1.46616   1.55241    6.821
 5425.00    1.44391   1.54794    6.926
 5426.00    1.44573   1.54576    6.917
 5427.00    1.46888   1.53825    6.808
 5428.00    1.49543   1.52265    6.687
 5429.00    1.50601   1.50648    6.640
 5430.00    1.49085   1.49707    6.708
 5431.00    1.46183   1.49053    6.841
 5432.00    1.43992   1.48145    6.945
 5433.00    1.43614   1.47530    6.963
 5434.00    1.45131   1.47995    6.890
 5435.00    1.47910   1.49385    6.761
 5436.00    1.50977   1.51142    6.624
 5437.00    1.53443   1.53229    6.517
 5438.00    1.55075   1.55608    6.449
 5439.00    1.56739   1.57829    6.380
 5440.00    1.58925   1.59409    6.292
 5441.00    1.60285   1.60089    6.239
 5442.00    1.59544   1.59897    6.268
 5443.00    1.57409   1.58975    6.353
 5444.00    1.55271   1.57417    6.440
 5445.00    1.53807   1.55393    6.502
 5446.00    1.53012   1.53460    6.535
 5447.00    1.52392   1.52341    6.562
 5448.00    1.51525   1.52043    6.600
 5449.00    1.50485   1.51925    6.645
 5450.00    1.49590   1.51690    6.685
 5451.00    1.49151   1.51577    6.705
 5452.00    1.49293   1.51638    6.698
 5453.00    1.49816   1.51423    6.675
 5454.00    1.50069   1.50748    6.664
 5455.00    1.49139   1.50157    6.705
 5456.00    1.47616   1.50297    6.774
 5457.00    1.48085   1.50934    6.753
 5458.00    1.51076   1.51412    6.619
 5459.00    1.53374   1.51718    6.520
 5460.00    1.52947   1.52169    6.538
 5461.00    1.51324   1.52550    6.608
 5462.00    1.50608   1.52514    6.640
 5463.00    1.51728   1.52431    6.591
 5464.00    1.54294   1.52678    6.481
 5465.00    1.56901   1.52948    6.373
 5466.00    1.58694   1.53047    6.301
 5467.00    1.59864   1.53246    6.255
 5468.00    1.60432   1.53427    6.233
 5469.00    1.59891   1.53131    6.254
 5470.00    1.58077   1.52442    6.326
 5471.00    1.55526   1.51588    6.430
 5472.00    1.53339   1.50380    6.521
 5473.00    1.52685   1.48980    6.549
 5474.00    1.53240   1.47884    6.526
 5475.00    1.53299   1.46896    6.523
 5476.00    1.52199   1.45806    6.570
 5477.00    1.50754   1.45350    6.633
 5478.00    1.49847   1.45885    6.673
 5479.00    1.49826   1.46587    6.674
 5480.00    1.50149   1.47037    6.660
 5481.00    1.49826   1.47838    6.674
 5482.00    1.48915   1.49157    6.715
 5483.00    1.48312   1.50404    6.743
 5484.00    1.48022   1.51366    6.756
 5485.00    1.47474   1.52146    6.781
 5486.00    1.47497   1.52676    6.780
 5487.00    1.49319   1.53018    6.697
 5488.00    1.51098   1.53368    6.618
 5489.00    1.50364   1.53597    6.651
 5490.00    1.51054   1.53659    6.620
 5491.00    1.57482   1.53802   -2.000
 5492.00    1.59039   1.53925   -2.000
 5493.00    1.45336   1.53884   -2.000
 5494.00    1.40756   1.53973   -2.000
 5495.00    1.71687   1.54166   -2.000
 5496.00    1.95791   1.53951   -2.000
 5497.00    1.50582   1.53515   -2.000
 5498.00    0.58517   1.53478   -2.000
 5499.00   -0.11960   1.53528   -2.000
 5500.00   -0.39749   1.53014   -2.000
 5501.00   -0.44354   1.52211   -2.000
 5502.00   -0.50197   1.51728   -2.000
 5503.00   -0.58240   1.51484   -2.000
 5504.00   -0.17237   1.51064   -2.000
 5505.00    1.05766   1.50440   -2.000
 5506.00    2.30218   1.50010   -2.000
 5507.00    2.59597   1.49968   -2.000
 5508.00    2.17975   1.49925   -2.000
 5509.00    1.79028   1.49591   -2.000
 5510.00    1.61267   1.49214   -2.000
 5511.00    1.51718   1.48973   -2.000
 5512.00    1.46501   1.48833   -2.000
 5513.00    1.46694   1.48974   -2.000
 5514.00    1.49438   1.49567    6.692
 5515.00    1.51054   1.50499    6.620
 5516.00    1.51004   1.51684    6.622
 5517.00    1.50619   1.53177    6.639
 5518.00    1.51422   1.54765    6.604
 5519.00    1.53920   1.56015    6.497
 5520.00    1.56823   1.56775    6.377
 5521.00    1.58627   1.57148    6.304
 5522.00    1.58952   1.57098    6.291
 5523.00    1.57955   1.56497    6.331
 5524.00    1.55813   1.55493    6.418
 5525.00    1.52952   1.54429    6.538
 5526.00    1.50221   1.53405    6.657
 5527.00    1.48697   1.52400    6.725
 5528.00    1.49407   1.51753    6.693
 5529.00    1.52390   1.51769    6.562
 5530.00    1.56245   1.52099    6.400
 5531.00    1.59097   1.52389    6.285
 5532.00    1.59422   1.52829    6.273
 5533.00    1.57164   1.53452    6.363
 5534.00    1.54092   1.53933    6.490
 5535.00    1.52209   1.54329    6.570
 5536.00    1.52660   1.54896    6.551
 5537.00    1.54730   1.55475    6.463
 5538.00    1.56009   1.55947    6.410
 5539.00    1.55533   1.56520    6.429
 5540.00    1.54786   1.57174    6.461
 5541.00    1.55152   1.57561    6.445
 5542.00    1.56775   1.57631    6.379
 5543.00    1.58887   1.57752    6.294
 5544.00    1.60318   1.58061    6.238
 5545.00    1.60853   1.58310    6.217
 5546.00    1.61330   1.58528    6.198
 5547.00    1.61956   1.59025    6.175
 5548.00    1.62188   1.59654    6.166
 5549.00    1.62607   1.60021    6.150
 5550.00    1.64745   1.60159    6.070
 5551.00    1.68315   1.60213    5.941
 5552.00    1.71058   1.60016    5.846
 5553.00    1.71194   1.59484    5.841
 5554.00    1.68316   1.58914    5.941
 5555.00    1.63622   1.58498    6.112
 5556.00    1.59278   1.58074    6.278
 5557.00    1.56530   1.57556    6.389
 5558.00    1.55423   1.57110    6.434
 5559.00    1.55441   1.56771    6.433
 5560.00    1.55766   1.56341    6.420
 5561.00    1.55491   1.55693    6.431
 5562.00    1.54110   1.54964    6.489
 5563.00    1.52458   1.54366    6.559
 5564.00    1.51945   1.53812    6.581
 5565.00    1.52496   1.53136    6.558
 5566.00    1.52907   1.52624    6.540
 5567.00    1.52470   1.52457    6.559
 5568.00    1.51279   1.52260    6.610
 5569.00    1.50150   1.52067    6.660
 5570.00    1.50128   1.52326    6.661
 5571.00    1.51645   1.52709    6.594
 5572.00    1.54426   1.52815    6.476
 5573.00    1.57597   1.53203    6.345
 5574.00    1.60340   1.54019    6.237
 5575.00    1.62817   1.54607    6.142
 5576.00    1.65240   1.54996    6.052
 5577.00    1.66378   1.55546    6.010
 5578.00    1.64750   1.55954    6.070
 5579.00    1.60570   1.56010    6.228
 5580.00    1.55421   1.55798    6.434
 5581.00    1.51396   1.55160    6.605
 5582.00    1.49935   1.54063    6.670
 5583.00    1.50594   1.52702    6.640
 5584.00    1.51905   1.51056    6.583
 5585.00    1.52589   1.49135    6.554
 5586.00    1.52199   1.47261    6.570
 5587.00    1.51571   1.45773    6.598
 5588.00    1.51672   1.44793    6.593
 5589.00    1.52398   1.44347    6.562
 5590.00    1.52952   1.44484    6.538
 5591.00    1.52420   1.45211    6.561
 5592.00    1.50702   1.46277    6.636
 5593.00    1.49140   1.47274    6.705
 5594.00    1.48894   1.48144    6.716
 5595.00    1.49629   1.49082    6.683
 5596.00    1.50725   1.49729    6.635
 5597.00    1.52214   1.49611    6.570
 5598.00    1.53829   1.49203    6.501
 5599.00    1.54414   1.49125    6.476
 5600.00    1.53353   1.49163    6.521
 5601.00    1.51493   1.49153    6.601
 5602.00    1.50211   1.49616    6.657
 5603.00    1.50583   1.50871    6.641
 5604.00    1.52491   1.52598    6.558
 5605.00    1.54412   1.54386    6.476
 5606.00    1.55506   1.56106    6.431
 5607.00    1.56547   1.57686    6.388
 5608.00    1.58064   1.58886    6.327
 5609.00    1.59462   1.59462    6.271
 5610.00    1.60091   1.59278    6.246
 5611.00    1.59792   1.58461    6.258
 5612.00    1.58690   1.57373    6.302
 5613.00    1.57077   1.56022    6.366
 5614.00    1.55457   1.54201    6.433
 5615.00    1.54368   1.52448    6.478
 5616.00    1.53511   1.51531    6.514
 5617.00    1.51873   1.51166    6.584
 5618.00    1.49700   1.50794    6.680
 5619.00    1.48683   1.50635    6.726
 5620.00    1.49491   1.50899    6.689
 5621.00    1.51114   1.51277    6.618
 5622.00    1.52003   1.51438    6.579
 5623.00    1.51056   1.51300    6.620
 5624.00    1.49388   1.51189    6.694
 5625.00    1.49645   1.51567    6.682
 5626.00    1.52009   1.52279    6.579
 5627.00    1.54107   1.52956    6.489
 5628.00    1.54564   1.53798    6.470
 5629.00    1.53726   1.54932    6.505
 5630.00    1.52583   1.55903    6.554
 5631.00    1.52095   1.56412    6.575
 5632.00    1.52288   1.56544    6.567
 5633.00    1.52505   1.56328    6.557
 5634.00    1.52591   1.55804    6.553
 5635.00    1.52880   1.55093    6.541
 5636.00    1.53499   1.54228    6.515
 5637.00    1.54168   1.53359    6.486
 5638.00    1.54183   1.52791    6.486
 5639.00    1.52948   1.52474    6.538
 5640.00    1.51059   1.52167    6.620
 5641.00    1.49862   1.52058    6.673
 5642.00    1.50179   1.52359    6.659
 5643.00    1.51897   1.52813    6.583
 5644.00    1.53734   1.53213    6.505
 5645.00    1.54236   1.53703    6.484
 5646.00    1.53489   1.54306    6.515
 5647.00    1.52606   1.54875    6.553
 5648.00    1.52441   1.55313    6.560
 5649.00    1.53231   1.55575    6.526
 5650.00    1.54415   1.55651    6.476
 5651.00    1.55241   1.55616    6.442
 5652.00    1.55638   1.55429    6.425
 5653.00    1.55733   1.54752    6.421
 5654.00    1.55112   1.53559    6.447
 5655.00    1.53545   1.52493    6.513
 5656.00    1.51944   1.51639    6.581
 5657.00    1.51384   1.50320    6.606
 5658.00    1.51866   1.48928    6.585
 5659.00    1.52805   1.48541    6.544
 5660.00    1.53734   1.48792    6.505
 5661.00    1.54273   1.48810    6.482
 5662.00    1.54057   1.49057    6.491
 5663.00    1.53013   1.50010    6.535
 5664.00    1.51629   1.51085    6.595
 5665.00    1.50792   1.51822    6.632
 5666.00    1.51521   1.52433    6.600
 5667.00    1.54035   1.53120    6.492
 5668.00    1.57090   1.53893    6.366
 5669.00    1.59116   1.54685    6.285
 5670.00    1.59262   1.55407    6.279
 5671.00    1.57981   1.56208    6.330
 5672.00    1.57160   1.57260    6.363
 5673.00    1.58230   1.58280    6.320
 5674.00    1.60859   1.58893    6.217
 5675.00    1.63640   1.59280    6.111
 5676.00    1.64829   1.59650    6.067
 5677.00    1.63693   1.59647    6.109
 5678.00    1.61171   1.59042    6.205
 5679.00    1.58691   1.58306    6.302
 5680.00    1.57304   1.57676    6.357
 5681.00    1.57068   1.56806    6.367
 5682.00    1.56960   1.55698    6.371
 5683.00    1.56224   1.54855    6.401
 5684.00    1.55050   1.54385    6.450
 5685.00    1.54303   1.54002    6.481
 5686.00    1.54975   1.53735    6.453
 5687.00    1.56359   1.53835    6.396
 5688.00    1.56104   1.54366    6.406
 5689.00    1.54191   1.55101    6.485
 5690.00    1.53595   1.55851    6.511
 5691.00    1.55617   1.56675    6.426
 5692.00    1.58577   1.57554    6.306
 5693.00    1.60504   1.58131    6.230
 5694.00    1.60350   1.58206    6.236
 5695.00    1.58326   1.58066    6.316
 5696.00    1.55631   1.57706    6.425
 5697.00    1.53126   1.56831    6.531
 5698.00    1.51049   1.55699    6.620
 5699.00    1.49592   1.54767    6.685
 5700.00    1.48984   1.53848    6.712
 5701.00    1.49180   1.52719    6.703
 5702.00    1.49826   1.51754    6.674
 5703.00    1.50477   1.51090    6.646
 5704.00    1.50655   1.50303    6.638
 5705.00    1.49834   1.49300    6.674
 5706.00    1.47783   1.48462    6.767
 5707.00    1.45365   1.47780    6.879
 5708.00    1.43928   1.47100    6.948
 5709.00    1.43450   1.46845    6.971
 5710.00    1.43148   1.47211    6.986
 5711.00    1.43761   1.47890    6.956
 5712.00    1.46735   1.49035    6.815
 5713.00    1.51564   1.50777    6.598
 5714.00    1.56489   1.52582    6.390
 5715.00    1.60940   1.54308    6.213
 5716.00    1.64930   1.56114    6.063
 5717.00    1.67158   1.57724    5.982
 5718.00    1.66471   1.59035    6.007
 5719.00    1.64847   1.60186    6.066
 5720.00    1.65201   1.61092    6.053
 5721.00    1.67111   1.61749    5.984
 5722.00    1.68302   1.62183    5.942
 5723.00    1.67936   1.62256    5.955
 5724.00    1.66515   1.62120    6.005
 5725.00    1.64993   1.61926    6.061
 5726.00    1.64171   1.61444    6.091
 5727.00    1.64081   1.60767    6.095
 5728.00    1.64328   1.60411    6.085
 5729.00    1.64630   1.60304    6.074
 5730.00    1.64859   1.60049    6.066
 5731.00    1.64994   1.59912    6.061
 5732.00    1.64876   1.60198    6.065
 5733.00    1.63983   1.60566    6.098
 5734.00    1.62029   1.60742    6.172
 5735.00    1.59566   1.60926    6.267
 5736.00    1.57344   1.61171    6.356
 5737.00    1.55645   1.61297    6.425
 5738.00    1.54707   1.61275    6.464
 5739.00    1.55084   1.61181    6.448
 5740.00    1.56891   1.61127    0.000
 5741.00    1.59194   1.61144    0.000
 5742.00    1.60913   1.61134    0.000
 5743.00    1.61620   1.61053    0.000
 5744.00    1.61543   1.60996    0.000
 5745.00    1.61427   1.61011    0.000
 5746.00    1.61741   1.60913    0.000
 5747.00    1.62174   1.60560    0.000
 5748.00    1.62152   1.60121    0.000
 5749.00    1.61346   1.59744    0.000
 5750.00    1.60474   1.59273    0.000
 5751.00    1.61330   1.58729    0.000
 5752.00    1.63873   1.58338    0.000
 5753.00    1.65153   1.58119    0.000
 5754.00    1.63610   1.58074    0.000
 5755.00    1.61065   1.58220    0.000
 5756.00    1.59665   1.58416    0.000
 5757.00    1.60119   1.58554    0.000
 5758.00    1.61622   1.58620    0.000
 5759.00    1.62306   1.58554    0.000
 5760.00    1.61340   1.58437    0.000
 5761.00    1.59615   1.58313    0.000
 5762.00    1.58233   1.58243    0.000
 5763.00    1.57753   1.58530    0.000
 5764.00    1.58020   1.59213    0.000
 5765.00    1.58383   1.59921    0.000
 5766.00    1.58761   1.60616    0.000
 5767.00    1.59715   1.61390    0.000
 5768.00    1.61131   1.61922    0.000
 5769.00    1.62090   1.62105    0.000
 5770.00    1.62133   1.62067    0.000
 5771.00    1.61551   1.61842    0.000
 5772.00    1.60847   1.61498    0.000
 5773.00    1.60444   1.61091    0.000
 5774.00    1.60392   1.60553    0.000
 5775.00    1.60385   1.59925    0.000
 5776.00    1.60070   1.59175    0.000
 5777.00    1.59287   1.58088    0.000
 5778.00    1.58445   1.56827    0.000
 5779.00    1.58043   1.55526    0.000
 5780.00    1.57263   1.53965    0.000
 5781.00    1.54741   1.52345    0.000
 5782.00    1.51212   1.51293    0.000
 5783.00    1.48848   1.50733    0.000
 5784.00    1.48367   1.50343    0.000
 5785.00    1.49119   1.50533    0.000
 5786.00    1.50640   1.51426    0.000
 5787.00    1.52801   1.52475    0.000
 5788.00    1.55414   1.53577    0.000
 5789.00    1.58158   1.54881    0.000
 5790.00    1.60575   1.56095    0.000
 5791.00    1.62168   1.57151    0.000
 5792.00    1.62579   1.58208    0.000
 5793.00    1.61986   1.58982    0.000
 5794.00    1.61642   1.59554    0.000
 5795.00    1.62827   1.60327    0.000
 5796.00    1.65165   1.60970    0.000
 5797.00    1.67430   1.61307    0.000
 5798.00    1.69085   1.61816    0.000
 5799.00    1.69934   1.62460    0.000
 5800.00    1.69375   1.62765    0.000
 5801.00    1.67056   1.62905    0.000
 5802.00    1.63799   1.63148    0.000
 5803.00    1.61119   1.63135    0.000
 5804.00    1.60397   1.62794    0.000
 5805.00    1.61564   1.62514   -2.000
 5806.00    1.61950   1.62347   -2.000
 5807.00    1.59089   1.62156   -2.000
 5808.00    1.53789   1.62041   -2.000
 5809.00    1.49031   1.62090   -2.000
 5810.00    1.48244   1.62192   -2.000
 5811.00    1.52237   1.62168   -2.000
 5812.00    1.56921   1.62027   -2.000
 5813.00    1.58189   1.61953   -2.000
 5814.00    1.56275   1.61920   -2.000
 5815.00    1.53564   1.61819   -2.000
 5816.00    1.52319   1.61857   -2.000
 5817.00    1.53704   1.62210   -2.000
 5818.00    1.57253   1.62686   -2.000
 5819.00    1.61792   1.63124   -2.000
 5820.00    1.66187   1.63669   -2.000
 5821.00    1.69407   1.64272   -2.000
 5822.00    1.70628   1.64665   -2.000
 5823.00    1.69845   1.64897   -2.000
 5824.00    1.68140   1.65119    0.000
 5825.00    1.66794   1.65309    0.000
 5826.00    1.66572   1.65388    0.000
 5827.00    1.66831   1.65406    0.000
 5828.00    1.65601   1.65461    0.000
 5829.00    1.62756   1.65496    0.000
 5830.00    1.60973   1.65357    0.000
 5831.00    1.61521   1.65114    0.000
 5832.00    1.62745   1.64985    0.000
 5833.00    1.63564   1.64809    0.000
 5834.00    1.64735   1.64439    0.000
 5835.00    1.66506   1.64232    0.000
 5836.00    1.67884   1.64310    0.000
 5837.00    1.68241   1.64319    0.000
 5838.00    1.67826   1.64319    0.000
 5839.00    1.66939   1.64605    0.000
 5840.00    1.65679   1.64918    0.000
 5841.00    1.64301   1.64993    0.000
 5842.00    1.63253   1.64978    0.000
 5843.00    1.62828   1.64862    0.000
 5844.00    1.63045   1.64487    0.000
 5845.00    1.63708   1.63894    0.000
 5846.00    1.64485   1.63147    0.000
 5847.00    1.65074   1.62279    0.000
 5848.00    1.65267   1.61348    0.000
 5849.00    1.64979   1.60330    0.000
 5850.00    1.64260   1.59295    0.000
 5851.00    1.63312   1.58344    0.000
 5852.00    1.62403   1.57310    0.000
 5853.00    1.61663   1.56174    0.000
 5854.00    1.61078   1.55291    0.000
 5855.00    1.60613   1.54644    0.000
 5856.00    1.60154   1.53975    0.000
 5857.00    1.59314   1.53558    0.000
 5858.00    1.57733   1.53613    0.000
 5859.00    1.55795   1.53882    0.000
 5860.00    1.54389   1.54251    0.000
 5861.00    1.54111   1.54841    0.000
 5862.00    1.55109   1.55477    0.000
 5863.00    1.57090   1.56093    0.000
 5864.00    1.59324   1.56806    0.000
 5865.00    1.60697   1.57374    0.000
 5866.00    1.60664   1.57789    0.000
 5867.00    1.60724   1.58356    0.000
 5868.00    1.62696   1.58983    0.000
 5869.00    1.65743   1.59387    0.000
 5870.00    1.67794   1.59740    0.000
 5871.00    1.68304   1.60136    0.000
 5872.00    1.67667   1.60281    0.000
 5873.00    1.65877   1.60174    0.000
 5874.00    1.63086   1.60014    0.000
 5875.00    1.60503   1.59660    0.000
 5876.00    1.59348   1.58994    0.000
 5877.00    1.59480   1.58317    0.000
 5878.00    1.60117   1.57687    0.000
 5879.00    1.60862   1.56813    0.000
 5880.00    1.61636   1.55781    0.000
 5881.00    1.62448   1.54831    0.000
 5882.00    1.62936   1.53636    0.000
 5883.00    1.62012   1.51870    0.000
 5884.00    1.58880   1.49712    0.000
 5885.00    1.53991   1.46924    0.000
 5886.00    1.48317   1.43332    0.000
 5887.00    1.42633   1.39609    0.000
 5888.00    1.37649   1.35821    0.000
 5889.00    1.34109   1.31811    0.000
 5890.00    1.32228   1.28735    0.000
 5891.00    1.31302   1.26887    0.000
 5892.00    1.30386   1.25344    0.000
 5893.00    1.28922   1.24882    0.000
 5894.00    1.27345   1.26013    0.000
 5895.00    1.27231   1.27319    0.000
 5896.00    1.29469   1.29074    0.000
 5897.00    1.33217   1.32203    0.000
 5898.00    1.37253   1.35352    0.000
 5899.00    1.40852   1.38255    0.000
 5900.00    1.43614   1.41941    0.000
 5901.00    1.45386   1.45502    6.878
 5902.00    1.46509   1.48084    6.826
 5903.00    1.47803   1.50331    6.766
 5904.00    1.49707   1.52291    6.680
 5905.00    1.51947   1.53537    6.581
 5906.00    1.54182   1.54359    6.486
 5907.00    1.56285   1.55072    6.399
 5908.00    1.58075   1.55505    6.326
 5909.00    1.59267   1.55595    6.279
 5910.00    1.59761   1.55556    6.259
 5911.00    1.59683   1.55474    6.262
 5912.00    1.59014   1.55188    6.289
 5913.00    1.57662   1.54744    6.343
 5914.00    1.56289   1.54425    6.398
 5915.00    1.56100   1.54277    6.406
 5916.00    1.56939   1.54222    6.372
 5917.00    1.57247   1.54346    6.359
 5918.00    1.56254   1.54662    6.400
 5919.00    1.54460   1.55091    6.474
 5920.00    1.52720   1.55622    6.548
 5921.00    1.51779   1.56046    6.589
 5922.00    1.51830   1.56353    6.586
 5923.00    1.52529   1.56682    6.556
 5924.00    1.53399   1.56857    6.519
 5925.00    1.54110   1.56837    6.489
 5926.00    1.54887   1.56777    6.456
 5927.00    1.56082   1.56665    6.407
 5928.00    1.56927   1.56505    6.372
 5929.00    1.56155   1.56329    6.404
 5930.00    1.54156   1.56119    6.487
 5931.00    1.52544   1.56064    6.555
 5932.00    1.52146   1.56161    6.573
 5933.00    1.52883   1.56177    6.541
 5934.00    1.54461   1.56243    6.474
 5935.00    1.56421   1.56538    6.393
 5936.00    1.57981   1.56818    6.330
 5937.00    1.58530   1.56839    6.308
 5938.00    1.58534   1.56921    6.308
 5939.00    1.58978   1.57192    6.290
 5940.00    1.60133   1.57225    6.245
 5941.00    1.61621   1.57130    6.187
 5942.00    1.62853   1.57257    6.141
 5943.00    1.63330   1.57353    6.123
 5944.00    1.62981   1.57255    6.136
 5945.00    1.62071   1.57197    6.170
 5946.00    1.60994   1.57185    6.211
 5947.00    1.60101   1.57051    6.246
 5948.00    1.59499   1.56719    6.270
 5949.00    1.58950   1.56338    6.291
 5950.00    1.57845   1.56126    6.335
 5951.00    1.56002   1.55887    6.410
 5952.00    1.54512   1.55484    6.472
 5953.00    1.54304   1.55331    6.481
 5954.00    1.54599   1.55510    6.468
 5955.00    1.54508   1.55563    6.472
 5956.00    1.54744   1.55607    6.462
 5957.00    1.56172   1.56055    6.403
 5958.00    1.58298   1.56645    6.317
 5959.00    1.60192   1.57119    6.243
 5960.00    1.61462   1.57699    6.193
 5961.00    1.62152   1.58347    6.167
 5962.00    1.62536   1.58833    6.152
 5963.00    1.62700   1.59260    6.146
 5964.00    1.62329   1.59652    6.160
 5965.00    1.61675   1.59863    6.185
 5966.00    1.62041   1.60055    6.171
 5967.00    1.63684   1.60377    6.109
 5968.00    1.64657   1.60568    6.073
 5969.00    1.63623   1.60653    6.112
 5970.00    1.61567   1.60814    6.189
 5971.00    1.59874   1.60774    6.255
 5972.00    1.59036   1.60446    6.288
 5973.00    1.58733   1.60037    6.300
 5974.00    1.58151   1.59509    6.323
 5975.00    1.57192   1.58811    6.362
 5976.00    1.56847   1.58159    6.376
 5977.00    1.57515   1.57624    6.349
 5978.00    1.58351   1.57142    6.315
 5979.00    1.58681   1.56754    6.302
 5980.00    1.58581   1.56435    6.306
 5981.00    1.58148   1.56146    6.323
 5982.00    1.57250   1.55948    6.359
 5983.00    1.56020   1.55737    6.409
 5984.00    1.54927   1.55512    6.455
 5985.00    1.54152   1.55592    6.487
 5986.00    1.53516   1.55851    6.514
 5987.00    1.53222   1.56044    6.526
 5988.00    1.53867   1.56493    6.499
 5989.00    1.55390   1.57195    6.435
 5990.00    1.56940   1.57719    6.372
 5991.00    1.57734   1.58089    6.340
 5992.00    1.57508   1.58516    6.349
 5993.00    1.56916   1.58833    6.373
 5994.00    1.57150   1.58849    6.363
 5995.00    1.58457   1.58737    6.311
 5996.00    1.60073   1.58597    6.247
 5997.00    1.61354   1.58327    6.198
 5998.00    1.62029   1.57967    6.172
 5999.00    1.61987   1.57590    6.173
 6000.00    1.61281   1.57250    6.200
 6001.00    1.60271   1.56933    6.239
 6002.00    1.59445   1.56542    6.272
 6003.00    1.58901   1.56188    6.293
 6004.00    1.58413   1.55896    6.313
 6005.00    1.57844   1.55490    6.335
 6006.00    1.57159   1.55157    6.363
 6007.00    1.56278   1.55003    6.399
 6008.00    1.55168   1.54837    6.445
 6009.00    1.54084   1.54801    6.490
 6010.00    1.53480   1.54910    6.516
 6011.00    1.53760   1.54952    6.504
 6012.00    1.54963   1.54975    6.453
 6013.00    1.56321   1.54984    6.397
 6014.00    1.56909   1.54987    6.373
 6015.00    1.56786   1.54887    6.378
 6016.00    1.56587   1.54578    6.386
 6017.00    1.56639   1.54412    6.384
 6018.00    1.57030   1.54447    6.368
 6019.00    1.57890   1.54305    6.334
 6020.00    1.59135   1.54217    6.284
 6021.00    1.60117   1.54522    6.245
 6022.00    1.60224   1.54939    6.241
 6023.00    1.59678   1.55309    6.263
 6024.00    1.59106   1.55913    6.285
 6025.00    1.58893   1.56794    6.294
 6026.00    1.59069   1.57588    6.287
 6027.00    1.59297   1.58275    6.278
 6028.00    1.59336   1.59161    6.276
 6029.00    1.59484   1.59983    6.270
 6030.00    1.60076   1.60530    6.247
 6031.00    1.60957   1.61097    6.213
 6032.00    1.61740   1.61654    6.183
 6033.00    1.62109   1.61993    6.169
 6034.00    1.61807   1.62209    6.180
 6035.00    1.60648   1.62394    6.225
 6036.00    1.58838   1.62480    6.296
 6037.00    1.57154   1.62478    6.363
 6038.00    1.56186   1.62442    6.403
 6039.00    1.55827   1.62400    6.417
 6040.00    1.55909   1.62436    6.414
 6041.00    1.56631   1.62537    6.384
 6042.00    1.57969   1.62659    6.330
 6043.00    1.59332   1.62929    6.276
 6044.00    1.60149   1.63267    6.244
 6045.00    1.60260   1.63505    6.240
 6046.00    1.59897   1.63767    6.254
 6047.00    1.59574   1.64006    6.267
 6048.00    1.59584   1.64019    6.266
 6049.00    1.59779   1.63892    6.259
 6050.00    1.59917   1.63727    6.253
 6051.00    1.59945   1.63397    6.252
 6052.00    1.60402   1.62901    6.234
 6053.00    1.62208   1.62429    6.165
 6054.00    1.64745   1.62012    6.070
 6055.00    1.65668   1.61571    6.036
 6056.00    1.64239   1.61201    6.089
 6057.00    1.62154   1.60998    6.167
 6058.00    1.60574   1.60818    6.228
 6059.00    1.59167   1.60614    6.283
 6060.00    1.57509   1.60471    6.349
 6061.00    1.55745   1.60245    6.421
 6062.00    1.54843   1.59952    6.458
 6063.00    1.56076   1.59845    6.407
 6064.00    1.58945   1.59843    6.291
 6065.00    1.61271   1.59900    6.201
 6066.00    1.61890   1.60384    6.177
 6067.00    1.61277   1.61176    6.200
 6068.00    1.60633   1.61900    6.225
 6069.00    1.61182   1.62763    6.204
 6070.00    1.63041   1.63695    6.133
 6071.00    1.65169   1.64290    6.054
 6072.00    1.66158   1.64596    6.018
 6073.00    1.64984   1.64699    6.061
 6074.00    1.62301   1.64463    6.161
 6075.00    1.59907   1.63888    6.254
 6076.00    1.58709   1.63177    6.301
 6077.00    1.58599   1.62369    6.305
 6078.00    1.59320   1.61360    6.277
 6079.00    1.60498   1.60450    6.231
 6080.00    1.61327   1.59798    6.199
 6081.00    1.60959   1.59087    6.213
 6082.00    1.59413   1.58508    6.273
 6083.00    1.57371   1.58337    6.354
 6084.00    1.55478   1.58196    6.432
 6085.00    1.54258   1.58008    6.483
 6086.00    1.54180   1.58009    6.486
 6087.00    1.55244   1.58067    6.441
 6088.00    1.56336   1.58067    6.396
 6089.00    1.56164   1.58036    6.404
 6090.00    1.54834   1.58048    6.459
 6091.00    1.53435   1.58246    6.517
 6092.00    1.53047   1.58459    6.534
 6093.00    1.54180   1.58600    6.486
 6094.00    1.56244   1.58954    6.400
 6095.00    1.58199   1.59304    6.321
 6096.00    1.59479   1.59325    6.270
 6097.00    1.59966   1.59291    6.251
 6098.00    1.59800   1.59114    6.258
 6099.00    1.59254   1.58508    6.279
 6100.00    1.58596   1.57907    6.305
 6101.00    1.57878   1.57397    6.334
 6102.00    1.56784   1.56705    6.378
 6103.00    1.55255   1.56393    6.441
 6104.00    1.54036   1.56593    6.492
 6105.00    1.53684   1.56769    6.507
 6106.00    1.53680   1.57255    6.507
 6107.00    1.53641   1.58097    6.509
 6108.00    1.54355   1.58760    6.479
 6109.00    1.56685   1.59435    6.382
 6110.00    1.60546   1.60103    6.229
 6111.00    1.64785   1.60495    6.069
 6112.00    1.67373   1.60807    5.975
 6113.00    1.67180   1.60972    5.982
 6114.00    1.65094   1.60878    6.057
 6115.00    1.62434   1.60587    6.156
 6116.00    1.59820   1.60040    6.257
 6117.00    1.57604   1.59389    6.345
 6118.00    1.56121   1.58553    6.405
 6119.00    1.55242   1.57487    6.442
 6120.00    1.54230   1.56724    6.484
 6121.00    1.52649   1.56124    6.551
 6122.00    1.50841   1.55471    6.629
 6123.00    1.49598   1.55420    6.685
 6124.00    1.49841   1.55725    6.674
 6125.00    1.52034   1.55876    6.577
 6126.00    1.55826   1.56396    6.417
 6127.00    1.59793   1.57095    6.258
 6128.00    1.61799   1.57409    6.181
 6129.00    1.61095   1.57654    6.208
 6130.00    1.58875   1.57800    6.294
 6131.00    1.56435   1.57446    6.392
 6132.00    1.54397   1.56757    6.477
 6133.00    1.52928   1.55823    6.539
 6134.00    1.51898   1.54594    6.583
 6135.00    1.51111   1.53422    6.618
 6136.00    1.50469   1.52442    6.646
 6137.00    1.50225   1.51695    6.657
 6138.00    1.50879   1.51582    6.628
 6139.00    1.52524   1.52067    6.556
 6140.00    1.54719   1.52824    6.463
 6141.00    1.56828   1.53881    6.376
 6142.00    1.58248   1.55186    6.319
 6143.00    1.58776   1.56423    6.298
 6144.00    1.58576   1.57331    6.306
 6145.00    1.57790   1.57986    6.338
 6146.00    1.56504   1.58470    6.390
 6147.00    1.54945   1.58583    6.454
 6148.00    1.53550   1.58391    6.513
 6149.00    1.53025   1.58183    6.535
 6150.00    1.53891   1.57904    6.498
 6151.00    1.55468   1.57474    6.432
 6152.00    1.56209   1.57088    6.402
 6153.00    1.54913   1.56691    6.455
 6154.00    1.51375   1.55985    6.606
 6155.00    1.47084   1.55103    6.799
 6156.00    1.44032   1.54096    6.943
 6157.00    1.42248   1.52603    7.030
 6158.00    1.40589   1.50780    7.113
 6159.00    1.38945   1.49010    7.197
 6160.00    1.38047   1.47164    7.244
 6161.00    1.38450   1.45367    7.223
 6162.00    1.40106   1.44058    7.137
 6163.00    1.41998   1.43263    7.042
 6164.00    1.42966   1.42934    6.995
 6165.00    1.42985   1.43015    6.994
 6166.00    1.42842   1.43355    7.001
 6167.00    1.43386   1.44053    6.974
 6168.00    1.44907   1.44861    6.901
 6169.00    1.46537   1.45428    6.824
 6170.00    1.47227   1.46197    6.792
 6171.00    1.47041   1.47232    6.801
 6172.00    1.46895   1.48007    6.808
 6173.00    1.47988   1.48756    6.757
 6174.00    1.50732   1.49811    6.634
 6175.00    1.53778   1.50758    6.503
 6176.00    1.55504   1.51420    6.431
 6177.00    1.55617   1.52150    6.426
 6178.00    1.54835   1.52947    6.458
 6179.00    1.54310   1.53440    6.480
 6180.00    1.54529   1.53731    6.471
 6181.00    1.54547   1.54094    6.471
 6182.00    1.53691   1.54174    6.507
 6183.00    1.52883   1.53842    6.541
 6184.00    1.52805   1.53430    6.544
 6185.00    1.52520   1.52780    6.557
 6186.00    1.51027   1.51833    6.621
 6187.00    1.48474   1.50853    6.735
 6188.00    1.45683   1.49837    6.864
 6189.00    1.43647   1.49029    6.961
 6190.00    1.42710   1.48521    7.007
 6191.00    1.42218   1.48139    7.031
 6192.00    1.41772   1.48285    7.054
 6193.00    1.41854   1.48859    7.049
 6194.00    1.42740   1.49380    7.006
 6195.00    1.43917   1.50095    6.948
 6196.00    1.44659   1.50911    6.913
 6197.00    1.44410   1.51486    6.925
 6198.00    1.43052   1.51968    6.990
 6199.00    1.41009   1.52372    7.092
 6200.00    1.39143   1.52716    7.187
 6201.00    1.38489   1.53115    7.221
 6202.00    1.39340   1.53507    7.177
 6203.00    1.41019   1.53907    7.091
 6204.00    1.42740   1.54308    7.006
 6205.00    1.44030   1.54605    6.943
 6206.00    1.44840   1.54718    6.904
 6207.00    1.45434   1.54545    6.876
 6208.00    1.45849   1.54138    6.856
 6209.00    1.45759   1.53467    6.861
 6210.00    1.44771   1.52414   -2.000
 6211.00    1.42624   1.51247   -2.000
 6212.00    1.39479   1.50026   -2.000
 6213.00    1.36104   1.48657   -2.000
 6214.00    1.34119   1.47531   -2.000
 6215.00    1.35338   1.46661   -2.000
 6216.00    1.39655   1.45891   -2.000
 6217.00    1.44964   1.45539   -2.000
 6218.00    1.48786   1.45464   -2.000
 6219.00    1.49346   1.45467   -2.000
 6220.00    1.47074   1.45723   -2.000
 6221.00    1.44144   1.46061   -2.000
 6222.00    1.42363   1.46382    7.024
 6223.00    1.42433   1.46674    7.021
 6224.00    1.43539   1.46790    6.967
 6225.00    1.44155   1.46836    6.937
 6226.00    1.43947   1.46670    6.947
 6227.00    1.43584   1.46196    6.965
 6228.00    1.43456   1.45819    6.971
 6229.00    1.43419   1.45446    6.973
 6230.00    1.42829   1.44984    7.001
 6231.00    1.41120   1.44956    7.086
 6232.00    1.38802   1.45227    7.205
 6233.00    1.37121   1.45465    7.293
 6234.00    1.37144   1.45967    7.292
 6235.00    1.39173   1.46537    7.185
 6236.00    1.42117   1.46728    7.036
 6237.00    1.44208   1.46699    6.934
 6238.00    1.44240   1.46576    6.933
 6239.00    1.41833   1.46057    7.051
 6240.00    1.37530   1.45296    7.271
 6241.00    1.32648   1.44822    7.539
 6242.00    1.29018   1.44320    7.751
 6243.00    1.28183   1.43773    7.801
 6244.00    1.30458   1.43821    7.665
 6245.00    1.35201   1.44009    7.396
 6246.00    1.41251   1.44066    7.080
 6247.00    1.46857   1.44495    6.809
 6248.00    1.49693   1.44844    6.680
 6249.00    1.48623   1.44754    6.728
 6250.00    1.45361   1.44643    6.879
 6251.00    1.42405   1.44302    7.022
 6252.00    1.40837   1.43543    7.100
 6253.00    1.40395   1.42805    7.123
 6254.00    1.39890   1.42129    7.148
 6255.00    1.38744   1.41427    7.208
 6256.00    1.38101   1.41071    7.241
 6257.00    1.38995   1.41131    7.195
 6258.00    1.40880   1.41365    7.098
 6259.00    1.42575   1.42035    7.014
 6260.00    1.43181   1.43120    6.984
 6261.00    1.42793   1.44128    7.003
 6262.00    1.42755   1.45237    7.005
 6263.00    1.44094   1.46481    6.940
 6264.00    1.46532   1.47373    6.824
 6265.00    1.49180   1.48030    6.703
 6266.00    1.51125   1.48711    6.617
 6267.00    1.51988   1.49170    6.579
 6268.00    1.52143   1.49405    6.573
 6269.00    1.52117   1.49725    6.574
 6270.00    1.52208   1.50038    6.570
 6271.00    1.52421   1.50209    6.561
 6272.00    1.52492   1.50442    6.558
 6273.00    1.52210   1.50653    6.570
 6274.00    1.51577   1.50679    6.597
 6275.00    1.50793   1.50702    6.632
 6276.00    1.50168   1.50634    6.659
 6277.00    1.49807   1.50386    6.675
 6278.00    1.49537   1.50230    6.687
 6279.00    1.49197   1.50082    6.703
 6280.00    1.48793   1.49944    0.000
 6281.00    1.48571   1.50083    0.000
 6282.00    1.48857   1.50335    0.000
 6283.00    1.49364   1.50732    0.000
 6284.00    1.49311   1.51341    0.000
 6285.00    1.48699   1.51927    0.000
 6286.00    1.48347   1.52538    0.000
 6287.00    1.48585   1.53053    0.000
 6288.00    1.49095   1.53357    0.000
 6289.00    1.49760   1.53523    0.000
 6290.00    1.50665   1.53402    0.000
 6291.00    1.51395   1.53104    0.000
 6292.00    1.51264   1.52685    0.000
 6293.00    1.50491   1.52038    0.000
 6294.00    1.49928   1.51388    0.000
 6295.00    1.49624   1.50738    0.000
 6296.00    1.48957   1.50029    0.000
 6297.00    1.47803   1.49456    0.000
 6298.00    1.46649   1.48994    0.000
 6299.00    1.46206   1.48648    0.000
 6300.00    1.47017   1.48544    0.000
 6301.00    1.48853   1.48619    0.000
 6302.00    1.50818   1.48872    0.000
 6303.00    1.51836   1.49377    0.000
 6304.00    1.51388   1.50018    0.000
 6305.00    1.50643   1.50653    0.000
 6306.00    1.51232   1.51318    0.000
 6307.00    1.52856   1.51928    0.000
 6308.00    1.53975   1.52243    0.000
 6309.00    1.53629   1.52325    0.000
 6310.00    1.51779   1.52278    0.000
 6311.00    1.49346   1.51879    0.000
 6312.00    1.47529   1.51235    0.000
 6313.00    1.46839   1.50698    0.000
 6314.00    1.47070   1.50017    0.000
 6315.00    1.47496   1.49249    0.000
 6316.00    1.47459   1.48896    0.000
 6317.00    1.47057   1.48678    0.000
 6318.00    1.46862   1.48517    0.000
 6319.00    1.47444   1.48832    0.000
 6320.00    1.49070   1.49395    0.000
 6321.00    1.51425   1.49999    6.604
 6322.00    1.53737   1.50815    6.505
 6323.00    1.55008   1.51745    6.451
 6324.00    1.54715   1.52539    6.464
 6325.00    1.53429   1.53272    6.518
 6326.00    1.52086   1.53954    6.575
 6327.00    1.51258   1.54354    6.611
 6328.00    1.51314   1.54639    6.609
 6329.00    1.52532   1.54782    6.556
 6330.00    1.54383   1.54627    6.477
 6331.00    1.55152   1.54406    6.445
 6332.00    1.53864   1.53999    6.499
 6333.00    1.51603   1.53425    6.596
 6334.00    1.49833   1.52950    6.674
 6335.00    1.49099   1.52411    6.707
 6336.00    1.49228   1.51939    6.701
 6337.00    1.49621   1.51768    6.684
 6338.00    1.49797   1.51652    6.676
 6339.00    1.49706   1.51638    6.680
 6340.00    1.49465   1.51836    6.691
 6341.00    1.49211   1.51983    6.702
 6342.00    1.49275   1.52165    6.699
 6343.00    1.50148   1.52405    6.660
 6344.00    1.51698   1.52572    6.592
 6345.00    1.52978   1.52873    6.537
 6346.00    1.53396   1.53214    6.519
 6347.00    1.53253   1.53496    6.525
 6348.00    1.53321   1.53853    6.522
 6349.00    1.54370   1.54092    6.478
 6350.00    1.56033   1.54153    6.409
 6351.00    1.56769   1.54040    6.379
 6352.00    1.55858   1.53642    6.416
 6353.00    1.53942   1.53070    6.496
 6354.00    1.51742   1.52291    6.590
 6355.00    1.49581   1.51272    6.685
 6356.00    1.47610   1.50276    6.775
 6357.00    1.45919   1.49294    6.853
 6358.00    1.44592   1.48271    6.916
 6359.00    1.43680   1.47484    6.960
 6360.00    1.43042   1.46978    6.991
 6361.00    1.42474   1.46665    7.019
 6362.00    1.42244   1.46720    7.030
 6363.00    1.43017   1.47140    6.992
 6364.00    1.45140   1.47807    6.890
 6365.00    1.48336   1.48758    6.741
 6366.00    1.51463   1.49869    6.602
 6367.00    1.53115   1.51031    6.531
 6368.00    1.53258   1.52228    6.525
 6369.00    1.53062   1.53336    6.533
 6370.00    1.53487   1.54318    6.515
 6371.00    1.54769   1.55159    6.461
 6372.00    1.56106   1.55801    6.406
 6373.00    1.56372   1.56280    6.395
 6374.00    1.55740   1.56567    6.421
 6375.00    1.55212   1.56620    6.443
 6376.00    1.55047   1.56574    6.450
 6377.00    1.54907   1.56424    6.455
 6378.00    1.54733   1.56113    6.463
 6379.00    1.54603   1.55876    6.468
 6380.00    1.54235   1.55703    6.484
 6381.00    1.53357   1.55492    6.521
 6382.00    1.52444   1.55453    6.560
 6383.00    1.52410   1.55518    6.561
 6384.00    1.53896   1.55536    6.498
 6385.00    1.56685   1.55622    6.382
 6386.00    1.59082   1.55691    6.286
 6387.00    1.59261   1.55587    6.279
 6388.00    1.57202   1.55429    6.361
 6389.00    1.54126   1.55182    6.488
 6390.00    1.51387   1.54707    6.606
 6391.00    1.49758   1.54269    6.677
 6392.00    1.48794   1.53912    6.721
 6393.00    1.47750   1.53439    6.768
 6394.00    1.46674   1.53125    6.818
 6395.00    1.46052   1.53084    6.847
 6396.00    1.46248   1.52967    6.838
 6397.00    1.47103   1.52895    6.798
 6398.00    1.47691   1.53155    6.771
 6399.00    1.47441   1.53336    6.782
 6400.00    1.47119   1.53492    6.797
 6401.00    1.47603   1.53970    6.775
 6402.00    1.48759   1.54328    6.722
 6403.00    1.49956   1.54656    6.669
 6404.00    1.50623   1.55063    6.639
 6405.00    1.50514   1.55133    6.644
 6406.00    1.49869   1.55200    6.672
 6407.00    1.49218   1.55188    6.702
 6408.00    1.49139   1.54819    6.705
 6409.00    1.49681   1.54635    6.681
 6410.00    1.50127   1.54493    6.661
 6411.00    1.50086   1.54162    6.663
 6412.00    1.50092   1.54100    6.663
 6413.00    1.50681   1.54115    6.637
 6414.00    1.51825   1.53978    6.587
 6415.00    1.53154   1.53982    6.529
 6416.00    1.54159   1.53991    6.487
 6417.00    1.54453   1.53868    6.474
 6418.00    1.53915   1.53813    6.497
 6419.00    1.52687   1.53851    6.549
 6420.00    1.51154   1.53966    6.616
 6421.00    1.49852   1.54189    6.673
 6422.00    1.49324   1.54577    6.697
 6423.00    1.49715   1.55092    6.679
 6424.00    1.50677   1.55527    6.637
 6425.00    1.51756   1.55904    6.590
 6426.00    1.52636   1.56206    6.552
 6427.00    1.53354   1.56202    6.521
 6428.00    1.54211   1.56029    6.485
 6429.00    1.55106   1.55839    6.447
 6430.00    1.55522   1.55485    6.430
 6431.00    1.55361   1.55199    6.437
 6432.00    1.55031   1.55067    6.450
 6433.00    1.54698   1.54936    6.464
 6434.00    1.54161   1.55037    6.487
 6435.00    1.53280   1.55178    6.524
 6436.00    1.52192   1.55256    6.571
 6437.00    1.51539   1.55600    6.599
 6438.00    1.52051   1.55919    6.577
 6439.00    1.53281   1.56213    6.524
 6440.00    1.53875   1.56766    6.499
 6441.00    1.53188   1.57260    6.528
 6442.00    1.51614   1.57681    6.596
 6443.00    1.50324   1.58009    6.652
 6444.00    1.50538   1.58021    6.643
 6445.00    1.52050   1.57850    6.577
 6446.00    1.53540   1.57297    6.513
 6447.00    1.53969   1.56449    6.495
 6448.00    1.52902   1.55706    6.540
 6449.00    1.50542   1.54813    6.643
 6450.00    1.47597   1.54073    6.775
 6451.00    1.45025   1.53838    6.895
 6452.00    1.43693   1.53690    6.959
 6453.00    1.43874   1.53840    6.951
 6454.00    1.45251   1.54374    6.885
 6455.00    1.47120   1.54832    6.797
 6456.00    1.48812   1.55265    6.720
 6457.00    1.50282   1.55749    6.654
 6458.00    1.51699   1.56055    6.592
 6459.00    1.52719   1.56063    6.548
 6460.00    1.52724   1.56039    6.548
 6461.00    1.51338   1.56040    6.608
 6462.00    1.48955   1.55845    6.713
 6463.00    1.47240   1.55794    6.792
 6464.00    1.47680   1.55967    6.771
 6465.00    1.49793   1.56089    6.676
 6466.00    1.52155   1.56354    6.572
 6467.00    1.53861   1.56732    6.499
 6468.00    1.54621   1.56922    6.467
 6469.00    1.54663   1.57068    6.466
 6470.00    1.54370   1.57257    6.478
 6471.00    1.53946   1.57219    6.496
 6472.00    1.53752   1.57101    6.504
 6473.00    1.54570   1.57099    6.470
 6474.00    1.56760   1.57005    6.379
 6475.00    1.59525   1.56815    6.269
 6476.00    1.61536   1.56655    6.191
 6477.00    1.61659   1.56451    6.186
 6478.00    1.60004   1.56106    6.250
 6479.00    1.58454   1.55697    6.311
 6480.00    1.58266   1.55301    6.318
 6481.00    1.58469   1.54897    6.310
 6482.00    1.57824   1.54544    6.336
 6483.00    1.56250   1.54292    6.400
 6484.00    1.54223   1.54094    6.484
 6485.00    1.52267   1.53937    6.567
 6486.00    1.50676   1.53731    6.637
 6487.00    1.49434   1.53285    6.692
 6488.00    1.48713   1.52534    6.724
 6489.00    1.48934   1.51527    6.714
 6490.00    1.49487   1.50108    6.690
 6491.00    1.48440   1.48276    6.737
 6492.00    1.44910   1.46450    6.901
 6493.00    1.40086   1.44618    7.138
 6494.00    1.35972   1.42938    7.354
 6495.00    1.34423   1.41872    7.439
 6496.00    1.35781   1.41243    7.365
 6497.00    1.38686   1.41304    7.211
 6498.00    1.41959   1.42129    7.044
 6499.00    1.45187   1.43270    6.888
 6500.00    1.47686   1.44907    6.771
 6501.00    1.48525   1.46765    6.733
 6502.00    1.48321   1.48514    6.742
 6503.00    1.49155   1.50271    6.704
 6504.00    1.51765   1.51757    6.589
 6505.00    1.54980   1.52926    6.452
 6506.00    1.57368   1.53882    6.355
 6507.00    1.58013   1.54553    6.329
 6508.00    1.57100   1.54987    6.365
 6509.00    1.55771   1.55206    6.420
 6510.00    1.55168   1.55290    6.445
 6511.00    1.55885   1.55268    6.415
 6512.00    1.57312   1.55061    6.357
 6513.00    1.58066   1.54802    6.326
 6514.00    1.57595   1.54565    6.345
 6515.00    1.56392   1.54236    6.394
 6516.00    1.55458   1.53978    6.433
 6517.00    1.55709   1.53904    6.422
 6518.00    1.56965   1.53875    6.371
 6519.00    1.58195   1.54010    6.321
 6520.00    1.58559   1.54272    6.307
 6521.00    1.57746   1.54551    6.339
 6522.00    1.56148   1.54934    6.404
 6523.00    1.54600   1.55206    6.468
 6524.00    1.53788   1.55359    6.502
 6525.00    1.54050   1.55542    6.491
 6526.00    1.55224   1.55575    6.442
 6527.00    1.56724   1.55521    6.381
 6528.00    1.57742   1.55491    0.000
 6529.00    1.57690   1.55410    0.000
 6530.00    1.56838   1.55371    0.000
 6531.00    1.55968   1.55394    0.000
 6532.00    1.55699   1.55458    0.000
 6533.00    1.56210   1.55613    0.000
 6534.00    1.57044   1.55791    0.000
 6535.00    1.57705   1.55996    0.000
 6536.00    1.58457   1.56252    0.000
 6537.00    1.59593   1.56423    0.000
 6538.00    1.60471   1.56476    0.000
 6539.00    1.60367   1.56422    0.000
 6540.00    1.59589   1.56154    0.000
 6541.00    1.59005   1.55759    0.000
 6542.00    1.59329   1.55215    0.000
 6543.00    1.60581   1.54440    0.000
 6544.00    1.61715   1.53749    0.000
 6545.00    1.61835   1.53074    0.000
 6546.00    1.61315   1.52337    0.000
 6547.00    1.60696   1.51776    0.000
 6548.00    1.59664   1.51225    0.000
 6549.00    1.58017   1.50696    0.000
 6550.00    1.56449   1.50225    0.000
 6551.00    1.55182   1.49569    0.000
 6552.00    1.53049   1.48816    0.000
 6553.00    1.49537   1.47949    0.000
 6554.00    1.46176   1.46837    0.000
 6555.00    1.44451   1.45508    0.000
 6556.00    1.44297   1.43813    0.000
 6557.00    1.44760   1.41886    0.000
 6558.00    1.44751   1.39920    0.000
 6559.00    1.44470   1.37472    0.000
 6560.00    1.45778   1.35069    0.000
 6561.00    1.48887   1.33590    0.000
 6562.00    1.51044   1.32359    0.000
 6563.00    1.50719   1.31692    0.000
 6564.00    1.49544   1.32287    0.000
 6565.00    1.49500   1.33450    0.000
 6566.00    1.51259   1.35171    0.000
 6567.00    1.53878   1.37355    0.000
 6568.00    1.55213   1.39412    0.000
 6569.00    1.54416   1.41380    0.000
 6570.00    1.52656   1.43096    0.000
 6571.00    1.50978   1.44322    0.000
 6572.00    1.49493   1.45302    0.000
 6573.00    1.48126   1.46224    0.000
 6574.00    1.46936   1.46936    0.000
 6575.00    1.46103   1.47569    0.000
 6576.00    1.45908   1.48345    0.000
 6577.00    1.46681   1.49030    0.000
 6578.00    1.48797   1.49635    0.000
 6579.00    1.52711   1.50326    0.000
 6580.00    1.58594   1.50859    0.000
 6581.00    1.65166   1.51283    0.000
 6582.00    1.70070   1.51709    0.000
 6583.00    1.72115   1.51947    0.000
 6584.00    1.71633   1.52177    0.000
 6585.00    1.69478   1.52386    0.000
 6586.00    1.66478   1.52329    0.000
 6587.00    1.62805   1.52228    0.000
 6588.00    1.58361   1.52029    0.000
 6589.00    1.54125   1.51536    0.000
 6590.00    1.51645   1.50918    0.000
 6591.00    1.51066   1.50361    0.000
 6592.00    1.51354   1.49850    0.000
 6593.00    1.51851   1.49376    0.000
 6594.00    1.52388   1.49136    0.000
 6595.00    1.52783   1.49122    0.000
 6596.00    1.52946   1.49320    0.000
 6597.00    1.53279   1.49781    0.000
 6598.00    1.54170   1.50259    0.000
 6599.00    1.54976   1.50752    0.000
 6600.00    1.54681   1.51274    0.000
 6601.00    1.53335   1.51569    0.000
 6602.00    1.51673   1.51692    0.000
 6603.00    1.50100   1.51689    0.000
 6604.00    1.48760   1.51508    0.000
 6605.00    1.47900   1.51241    0.000
 6606.00    1.47914   1.50909    0.000
 6607.00    1.49286   1.50686    0.000
 6608.00    1.51900   1.50651    0.000
 6609.00    1.54214   1.50686    6.484
 6610.00    1.54870   1.50875    6.457
 6611.00    1.54751   1.51244    6.462
 6612.00    1.55295   1.51789    6.439
 6613.00    1.56230   1.52348    6.401
 6614.00    1.56496   1.52824    6.390
 6615.00    1.55599   1.53337    6.427
 6616.00    1.53843   1.53773    6.500
 6617.00    1.52337   1.54060    6.564
 6618.00    1.51959   1.54203    6.581
 6619.00    1.52392   1.54185    6.562
 6620.00    1.52882   1.54078    6.541
 6621.00    1.53075   1.53791    6.533
 6622.00    1.53255   1.53360    6.525
 6623.00    1.54333   1.52993    6.480
 6624.00    1.56376   1.52534    6.395
 6625.00    1.57648   1.52031    6.343
 6626.00    1.56899   1.51635    6.374
 6627.00    1.54989   1.51199    6.452
 6628.00    1.52997   1.50823    6.536
 6629.00    1.50858   1.50487    6.629
 6630.00    1.48338   1.50071    6.741
 6631.00    1.45775   1.49768    6.860
 6632.00    1.44082   1.49595    6.940
 6633.00    1.44489   1.49436    6.921
 6634.00    1.47179   1.49397    6.794
 6635.00    1.50672   1.49501    6.637
 6636.00    1.53183   1.49639    6.528
 6637.00    1.53594   1.49835    6.511
 6638.00    1.52197   1.50101    6.570
 6639.00    1.50714   1.50292    6.635
 6640.00    1.50402   1.50323    6.649
 6641.00    1.51176   1.50381    6.615
 6642.00    1.52211   1.50460    6.570
 6643.00    1.52469   1.50419    6.559
 6644.00    1.51610   1.50378    6.596
 6645.00    1.50235   1.50380    6.656
 6646.00    1.49156   1.50461    6.704
 6647.00    1.48975   1.50574    6.713
 6648.00    1.49705   1.50607    6.680
 6649.00    1.50789   1.50676    6.632
 6650.00    1.51709   1.50781    6.592
 6651.00    1.52192   1.50812    6.571
 6652.00    1.52123   1.50804    6.574
 6653.00    1.51579   1.50743    6.597
 6654.00    1.51054   1.50643    6.620
 6655.00    1.51207   1.50534    6.613
 6656.00    1.51877   1.50323    6.584
 6657.00    1.52219   1.50023    6.569
 6658.00    1.51986   1.49706    6.580
 6659.00    1.51471   1.49326    6.602
 6660.00    1.50348   1.48816    6.651
 6661.00    1.48102   1.48387    6.752
 6662.00    1.45886   1.48070    6.855
 6663.00    1.45758   1.47734    6.861
 6664.00    1.47727   1.47593    6.769
 6665.00    1.50057   1.47622    6.664
 6666.00    1.51557   1.47795    6.598
 6667.00    1.51947   1.48168    6.581
 6668.00    1.51489   1.48542    6.601
 6669.00    1.50688   1.48944    6.636
 6670.00    1.49881   1.49372    6.672
 6671.00    1.49229   1.49634    6.701
 6672.00    1.48866   1.49717    6.717
 6673.00    1.48815   1.49670    6.720
 6674.00    1.48808   1.49371    6.720
 6675.00    1.48476   1.48877    6.735
 6676.00    1.47711   1.48504    6.770
 6677.00    1.46721   1.48109    6.816
 6678.00    1.46002   1.47668    6.849
 6679.00    1.46051   1.47510    6.847
 6680.00    1.46941   1.47514    6.805
 6681.00    1.48189   1.47686    6.748
 6682.00    1.48724   1.48001    6.724
 6683.00    1.48071   1.48302    6.754
 6684.00    1.47750   1.48724    6.768
 6685.00    1.49552   1.49132    6.687
 6686.00    1.53250   1.49415    6.525
 6687.00    1.57098   1.49627    6.365
 6688.00    1.58821   1.49744    6.296
 6689.00    1.57272   1.49784    6.358
 6690.00    1.53904   1.49712    6.498
 6691.00    1.50754   1.49585    6.633
 6692.00    1.48301   1.49379    6.743
 6693.00    1.46367   1.49057    6.832
 6694.00    1.45138   1.48811    6.890
 6695.00    1.44851   1.48566    6.904
 6696.00    1.45411   1.48306    0.000
 6697.00    1.46191   1.48198    0.000
 6698.00    1.46066   1.48109    0.000
 6699.00    1.44890   1.48096    0.000
 6700.00    1.44372   1.48162    0.000
 6701.00    1.45727   1.48167    0.000
 6702.00    1.48046   1.48248    0.000
 6703.00    1.49917   1.48340    0.000
 6704.00    1.50634   1.48332    0.000
 6705.00    1.50129   1.48330    0.000
 6706.00    1.48803   1.48307    0.000
 6707.00    1.47142   1.48158    0.000
 6708.00    1.45487   1.47982    0.000
 6709.00    1.44152   1.47737    0.000
 6710.00    1.43417   1.47319    0.000
 6711.00    1.43113   1.46886    0.000
 6712.00    1.42634   1.46344    0.000
 6713.00    1.42202   1.45727    0.000
 6714.00    1.43065   1.45145    0.000
 6715.00    1.45216   1.44596    0.000
 6716.00    1.46875   1.44293    0.000
 6717.00    1.47306   1.44111    0.000
 6718.00    1.47580   1.44060    0.000
 6719.00    1.48118   1.44259    0.000
 6720.00    1.48062   1.44601    0.000
 6721.00    1.47156   1.45068    0.000
 6722.00    1.46215   1.45502    0.000
 6723.00    1.45941   1.45914    0.000
 6724.00    1.46494   1.46403    0.000
 6725.00    1.47658   1.46800    0.000
 6726.00    1.48961   1.47073    0.000
 6727.00    1.49873   1.47325    0.000
 6728.00    1.50054   1.47550    0.000
 6729.00    1.49914   1.47730    0.000
 6730.00    1.50293   1.47841    0.000
 6731.00    1.51020   1.47882    0.000
 6732.00    1.50978   1.47898    0.000
 6733.00    1.49454   1.47871    0.000
 6734.00    1.46644   1.47737    0.000
 6735.00    1.43882   1.47524    0.000
 6736.00    1.42867   1.47307    0.000
 6737.00    1.43657   1.47052    0.000
 6738.00    1.44848   1.46790    0.000
 6739.00    1.45135   1.46506    0.000
 6740.00    1.44101   1.46220    0.000
 6741.00    1.43047   1.46052    0.000
 6742.00    1.43782   1.45870    0.000
 6743.00    1.45893   1.45652    0.000
 6744.00    1.47260   1.45490    0.000
 6745.00    1.46142   1.45335    0.000
 6746.00    1.42121   1.45216    0.000
 6747.00    1.37003   1.45054    0.000
 6748.00    1.33432   1.44932    0.000
 6749.00    1.32346   1.44913    0.000
 6750.00    1.33222   1.44878    0.000
 6751.00    1.35165   1.45040    0.000
 6752.00    1.37322   1.45269    0.000
 6753.00    1.39248   1.45560    7.181
 6754.00    1.41012   1.46062    7.092
 6755.00    1.43201   1.46528    6.983
 6756.00    1.45988   1.47080    6.850
 6757.00    1.48012   1.47655    6.756
 6758.00    1.48055   1.48079    6.754
 6759.00    1.47163   1.48451    6.795
 6760.00    1.46934   1.48719    6.806
 6761.00    1.47296   1.48819    6.789
 6762.00    1.47534   1.48771    6.778
 6763.00    1.47629   1.48602    6.774
 6764.00    1.47650   1.48291    6.773
 6765.00    1.47026   1.47969    6.801
 6766.00    1.45106   1.47682    6.892
 6767.00    1.41790   1.47356    7.053
 6768.00    1.37836   1.47125    7.255
 6769.00    1.34940   1.47079    7.411
 6770.00    1.34532   1.47170    7.433
 6771.00    1.36760   1.47386    7.312
 6772.00    1.40963   1.47706    7.094
 6773.00    1.46101   1.48114    6.845
 6774.00    1.50605   1.48576    6.640
 6775.00    1.52586   1.48984    6.554
 6776.00    1.52304   1.49286    6.566
 6777.00    1.53270   1.49436    6.524
 6778.00    1.57501   1.49424    6.349
 6779.00    1.62813   1.49228    6.142
 6780.00    1.66555   1.48835    6.004
 6781.00    1.67975   1.48336    5.953
 6782.00    1.67286   1.47775    5.978
 6783.00    1.65020   1.47214    6.060
 6784.00    1.62002   1.46740    6.173
 6785.00    1.59208   1.46412    6.281
 6786.00    1.56989   1.46183    6.370
 6787.00    1.54882   1.46091    6.457
 6788.00    1.52705   1.46159    6.549
 6789.00    1.50915   1.46254    6.626
 6790.00    1.49675   1.46375    6.681
 6791.00    1.48691   1.46506    6.725
 6792.00    1.48492   1.46635    6.734
 6793.00    1.50278   1.46734    6.654
 6794.00    1.53040   1.46836    6.534
 6795.00    1.53664   1.46933    6.508
 6796.00    1.51923   1.47039    6.582
 6797.00    1.51043   1.47247    6.621
 6798.00    1.52641   1.47404    6.551
 6799.00    1.55575   1.47575    6.428
 6800.00    1.58481   1.47781    6.310
 6801.00    1.60504   1.47873    6.230
 6802.00    1.60764   1.48013    6.220
 6803.00    1.58771   1.48073    6.298
 6804.00    1.56180   1.48020    6.403
 6805.00    1.55804   1.48045    6.418
 6806.00    1.57468   1.47973    6.350
 6807.00    1.58564   1.47863    6.307
 6808.00    1.58568   1.47840    6.306
 6809.00    1.58660   1.47748    6.303
 6810.00    1.57809   1.47698    6.337
 6811.00    1.54095   1.47681    6.489
 6812.00    1.49928   1.47596    6.670
 6813.00    1.49883   1.47655    6.672
 6814.00    1.53406   1.47733    6.519
 6815.00    1.56175   1.47752    6.403
 6816.00    1.56204   1.47873    6.402
 6817.00    1.54404   1.47998    6.477
 6818.00    1.53110   1.48178    6.531
 6819.00    1.54196   1.48387    6.485
 6820.00    1.56300   1.48526    6.398
 6821.00    1.56654   1.48708    6.384
 6822.00    1.54978   1.48889    6.453
 6823.00    1.52842   1.49013    6.543
 6824.00    1.51533   1.49076    6.599
 6825.00    1.51400   1.49048    6.605
 6826.00    1.51471   1.49034    6.602
 6827.00    1.50988   1.49020    6.623
 6828.00    1.51510   1.48957    6.600
 6829.00    1.54412   1.48894    6.476
 6830.00    1.57370   1.48836    6.354
 6831.00    1.57277   1.48828    6.358
 6832.00    1.54378   1.48798    6.478
 6833.00    1.50905   1.48666    6.627
 6834.00    1.48794   1.48475    6.721
 6835.00    1.48713   1.48218    6.724
 6836.00    1.49416   1.47846    6.693
 6837.00    1.49484   1.47388    6.690
 6838.00    1.49119   1.46867    6.706
 6839.00    1.48936   1.46370    6.714
 6840.00    1.48683   1.46015    6.726
 6841.00    1.48170   1.45754    6.749
 6842.00    1.48118   1.45670    6.751
 6843.00    1.48912   1.45765    6.715
 6844.00    1.49655   1.46002    6.682
 6845.00    1.50056   1.46390    6.664
 6846.00    1.51712   1.46762    6.591
 6847.00    1.55308   1.47094    6.439
 6848.00    1.58745   1.47380    6.299
 6849.00    1.60106   1.47522    6.246
 6850.00    1.59689   1.47531    6.262
 6851.00    1.58258   1.47383    6.319
 6852.00    1.55911   1.47061    6.414
 6853.00    1.53216   1.46735    6.527
 6854.00    1.51684   1.46376    6.593
 6855.00    1.51938   1.45949    6.582
 6856.00    1.52932   1.45643    6.539
 6857.00    1.54142   1.45373    6.488
 6858.00    1.56355   1.45175    6.396
 6859.00    1.58990   1.45151    6.290
 6860.00    1.59381   1.45165    6.274
 6861.00    1.56622   1.45281    6.385
 6862.00    1.52894   1.45441    6.540
 6863.00    1.50336   1.45574    6.652
 6864.00    1.49597   1.45736    6.685
 6865.00    1.50334   1.45837    6.652
 6866.00    1.51684   1.45908    6.593
 6867.00    1.53143   1.45936    6.530
 6868.00    1.54717   1.45894    6.463
 6869.00    1.56057   1.45887    6.408
 6870.00    1.56447   1.45909    6.392
 6871.00    1.56015   1.45975    6.410
 6872.00    1.55662   1.46076    6.424
 6873.00    1.55297   1.46204    6.439
 6874.00    1.53912   1.46410    6.497
 6875.00    1.51831   1.46657    6.586
 6876.00    1.50579   1.46877    6.641
 6877.00    1.50249   1.47045    6.656
 6878.00    1.49525   1.47168    6.688
 6879.00    1.48090   1.47263    6.753
 6880.00    1.46799   1.47325    6.812
 6881.00    1.46251   1.47360    6.838
 6882.00    1.46524   1.47420    6.825
 6883.00    1.47537   1.47495    6.778
 6884.00    1.49201   1.47685    6.702
 6885.00    1.51562   1.47974    6.598
 6886.00    1.54442   1.48289    6.475
 6887.00    1.56621   1.48679    6.385
 6888.00    1.56492   1.49076    6.390
 6889.00    1.53792   1.49456    6.502
 6890.00    1.49719   1.49796    6.679
 6891.00    1.46399   1.50053    6.831
 6892.00    1.45621   1.50202    6.867
 6893.00    1.46812   1.50296    6.811
 6894.00    1.48276   1.50346    6.744
 6895.00    1.49918   1.50332    6.670
 6896.00    1.52268   1.50320    6.567
 6897.00    1.54183   1.50293    6.486
 6898.00    1.54132   1.50308    6.488
 6899.00    1.52653   1.50406    6.551
 6900.00    1.51202   1.50491    6.614
 6901.00    1.50018   1.50609    6.666
 6902.00    1.49005   1.50782    6.711
 6903.00    1.49241   1.50965    6.701
 6904.00    1.51469   1.51174    6.602
 6905.00    1.54048   1.51306    6.491
 6906.00    1.55000   1.51380    6.452
 6907.00    1.54638   1.51455    6.467
 6908.00    1.53890   1.51403    6.498
 6909.00    1.52207   1.51263    6.570
 6910.00    1.49442   1.51062    6.692
 6911.00    1.47796   1.50748    6.766
 6912.00    1.48468   1.50474    6.735
 6913.00    1.48571   1.50207    6.731
 6914.00    1.45990   1.49898    6.850
 6915.00    1.43750   1.49758    6.957
 6916.00    1.44946   1.49646    6.899
 6917.00    1.48246   1.49611    6.746
 6918.00    1.51247   1.49687    6.612
 6919.00    1.53441   1.49684    6.517
 6920.00    1.54792   1.49731    6.460
 6921.00    1.54617   1.49714    6.468
 6922.00    1.52952   1.49643    6.538
 6923.00    1.51309   1.49572    6.609
 6924.00    1.50303   1.49444    6.653
 6925.00    1.48681   1.49337    6.726
 6926.00    1.48179   1.49246    6.749
 6927.00    1.54362   1.49234    6.478
 6928.00    1.61562   1.49267    6.190
 6929.00    1.49827   1.49334    6.674
 6930.00    1.22100   1.49421    8.190
 6931.00    1.15320   1.49528    8.672
 6932.00    1.41055   1.49687    7.089
 6933.00    1.64031   1.49793    6.096
 6934.00    1.62579   1.49922    6.151
 6935.00    1.52845   1.50060    6.543
 6936.00    1.50531   1.50187    6.643
 6937.00    1.54429   1.50317    6.475
 6938.00    1.59586   1.50374    6.266
 6939.00    1.63416   1.50376    6.119
 6940.00    1.64479   1.50322    6.080
 6941.00    1.62353   1.50226    6.159
 6942.00    1.59510   1.50058    6.269
 6943.00    1.60251   1.49889    6.240
 6944.00    1.64069   1.49739    6.095
 6945.00    1.65529   1.49562    6.041
 6946.00    1.62621   1.49475    6.149
 6947.00    1.58313   1.49436    6.317
 6948.00    1.55703   1.49405    6.422
 6949.00    1.56207   1.49454    6.402
 6950.00    1.59238   1.49480    6.280
 6951.00    1.62613   1.49503    6.150
 6952.00    1.64005   1.49603    6.097
 6953.00    1.62146   1.49703    6.167
 6954.00    1.58802   1.49863    6.297
 6955.00    1.57393   1.50086    6.354
 6956.00    1.58175   1.50348    6.322
 6957.00    1.58845   1.50664    6.295
 6958.00    1.58994   1.51008    6.290
 6959.00    1.59910   1.51357    6.254
 6960.00    1.61706   1.51666    6.184
 6961.00    1.63274   1.51968    6.125
 6962.00    1.63614   1.52220    6.112
 6963.00    1.62460   1.52422    6.155
 6964.00    1.60859   1.52618    6.217
 6965.00    1.60231   1.52751    6.241
 6966.00    1.60412   1.52810    6.234
 6967.00    1.60191   1.52837    6.243
 6968.00    1.58902   1.52788    6.293
 6969.00    1.56824   1.52676    6.377
 6970.00    1.55301   1.52482    6.439
 6971.00    1.55482   1.52097    6.432
 6972.00    1.56400   1.51626    6.394
 6973.00    1.56174   1.51051    6.403
 6974.00    1.54200   1.50395    6.485
 6975.00    1.51345   1.49749    6.607
 6976.00    1.49690   1.49115    6.680
 6977.00    1.51247   1.48684    6.612
 6978.00    1.56271   1.48415    6.399
 6979.00    1.62109   1.48375    6.169
 6980.00    1.62594   1.48631    6.150
 6981.00    1.55260   1.49065    6.441
 6982.00    1.48775   1.49724    6.722
 6983.00    1.51416   1.50413    6.604
 6984.00    1.58544   1.51035    6.307
 6985.00    1.62378   1.51617    6.158
 6986.00    1.62761   1.52045    6.144
 6987.00    1.61501   1.52372    6.192
 6988.00    1.56521   1.52589    6.389
 6989.00    1.47494   1.52667    6.780
 6990.00    1.40627   1.52701    7.111
 6991.00    1.41371   1.52678    7.074
 6992.00    1.48256   1.52647    6.745
 6993.00    1.56483   1.52614    6.390
 6994.00    1.61480   1.52486    6.193
 6995.00    1.61148   1.52321    6.205
 6996.00    1.57057   1.52097    6.367
 6997.00    1.52065   1.51849    6.576
 6998.00    1.48506   1.51620    6.734
 6999.00    1.47910   1.51324    6.761
 7000.00    1.50730   1.51041    6.634
 7001.00    1.55329   1.50783   -2.000
 7002.00    1.58045   1.50605   -2.000
 7003.00    1.57235   1.50528   -2.000
 7004.00    1.55101   1.50484   -2.000
 7005.00    1.54261   1.50481   -2.000
 7006.00    1.55655   1.50501   -2.000
 7007.00    1.58010   1.50567   -2.000
 7008.00    1.58312   1.50642   -2.000
 7009.00    1.55221   1.50694   -2.000
 7010.00    1.50441   1.50678   -2.000
 7011.00    1.47217   1.50544   -2.000
 7012.00    1.48591   1.50373   -2.000
 7013.00    1.53223   1.50165   -2.000
 7014.00    1.55777   1.49985   -2.000
 7015.00    1.55639   1.49877   -2.000
 7016.00    1.57392   1.49752   -2.000
 7017.00    1.59118   1.49722   -2.000
 7018.00    1.53662   1.49792   -2.000
 7019.00    1.48847   1.49933   -2.000
 7020.00    1.61139   1.50159   -2.000
 7021.00    1.71059   1.50337   -2.000
 7022.00    1.36623   1.50476   -2.000
 7023.00    0.81208   1.50609   -2.000
 7024.00    0.78711   1.50725   -2.000
 7025.00    1.28942   1.50867   -2.000
 7026.00    1.62517   1.51065   -2.000
 7027.00    1.57521   1.51279   -2.000
 7028.00    1.46067   1.51538   -2.000
 7029.00    1.44975   1.51778   -2.000
 7030.00    1.47616   1.52000   -2.000
 7031.00    1.49649   1.52239   -2.000
 7032.00    1.52304   1.52410   -2.000
 7033.00    1.54922   1.52532   -2.000
 7034.00    1.54955   1.52631   -2.000
 7035.00    1.51736   1.52724   -2.000
 7036.00    1.46720   1.52924   -2.000
 7037.00    1.42216   1.53211   -2.000
 7038.00    1.40720   1.53536   -2.000
 7039.00    1.44093   1.53963   -2.000
 7040.00    1.52178   1.54445   -2.000
 7041.00    1.60791   1.55020   -2.000
 7042.00    1.64677   1.55635   -2.000
 7043.00    1.63010   1.56167   -2.000
 7044.00    1.59001   1.56559   -2.000
 7045.00    1.57610   1.56765   -2.000
 7046.00    1.61505   1.56827   -2.000
 7047.00    1.66016   1.56648   -2.000
 7048.00    1.65589   1.56268   -2.000
 7049.00    1.63404   1.55637   -2.000
 7050.00    1.64799   1.54748   -2.000
 7051.00    1.67234   1.53740   -2.000
 7052.00    1.65521   1.52566   -2.000
 7053.00    1.59774   1.51367   -2.000
 7054.00    1.53534   1.50180   -2.000
 7055.00    1.50285   1.49021   -2.000
 7056.00    1.51152   1.48050   -2.000
 7057.00    1.53085   1.47213   -2.000
 7058.00    1.52417   1.46534   -2.000
 7059.00    1.48712   1.46002   -2.000
 7060.00    1.44428   1.45529   -2.000
 7061.00    1.43719   1.45163   -2.000
 7062.00    1.47498   1.44890   -2.000
 7063.00    1.49897   1.44653   -2.000
 7064.00    1.46698   1.44537   -2.000
 7065.00    1.42058   1.44457   -2.000
 7066.00    1.41065   1.44432   -2.000
 7067.00    1.43504   1.44538   -2.000
 7068.00    1.46273   1.44676   -2.000
 7069.00    1.46060   1.44957   -2.000
 7070.00    1.42846   1.45343   -2.000
 7071.00    1.41285   1.45801   -2.000
 7072.00    1.43497   1.46318   -2.000
 7073.00    1.45473   1.46802   -2.000
 7074.00    1.46194   1.47201   -2.000
 7075.00    1.51418   1.47531   -2.000
 7076.00    1.60236   1.47761   -2.000
 7077.00    1.61652   1.47817   -2.000
 7078.00    1.61904   1.47719   -2.000
 7079.00    1.86718   1.47365   -2.000
 7080.00    2.10797   1.46844   -2.000
 7081.00    1.52415   1.46177   -2.000
 7082.00    0.33268   1.45306   -2.000
 7083.00    0.05846   1.44352   -2.000
 7084.00    1.05396   1.43280   -2.000
 7085.00    1.88354   1.42173   -2.000
 7086.00    1.81771   1.41189   -2.000
 7087.00    1.56358   1.40278   -2.000
 7088.00    1.61787   1.39532   -2.000
 7089.00    1.75347   1.38960   -2.000
 7090.00    1.77049   1.38442   -2.000
 7091.00    1.73212   1.38168   -2.000
 7092.00    1.71131   1.38045   -2.000
 7093.00    1.70865   1.38028   -2.000
 7094.00    1.70509   1.38225   -2.000
 7095.00    1.68943   1.38386   -2.000
 7096.00    1.68304   1.38691   -2.000
 7097.00    1.72267   1.39013   -2.000
 7098.00    1.78732   1.39325   -2.000
 7099.00    1.81073   1.39716   -2.000
 7100.00    1.77799   1.40009   -2.000
 7101.00    1.73054   1.40308   -2.000
 7102.00    1.70547   1.40506   -2.000
 7103.00    1.71505   1.40640   -2.000
 7104.00    1.73863   1.40743   -2.000
 7105.00    1.73926   1.40776   -2.000
 7106.00    1.70626   1.40779   -2.000
 7107.00    1.65938   1.40735   -2.000
 7108.00    1.63491   1.40661   -2.000
 7109.00    1.66190   1.40599   -2.000
 7110.00    1.72146   1.40558   -2.000
 7111.00    1.76507   1.40588   -2.000
 7112.00    1.76641   1.40637   -2.000
 7113.00    1.72891   1.40727   -2.000
 7114.00    1.68003   1.40875   -2.000
 7115.00    1.65163   1.41029   -2.000
 7116.00    1.64886   1.41204   -2.000
 7117.00    1.65240   1.41253   -2.000
 7118.00    1.63278   1.41283   -2.000
 7119.00    1.59104   1.41241   -2.000
 7120.00    1.60818   1.41062   -2.000
 7121.00    1.70030   1.40834   -2.000
 7122.00    1.62468   1.40444   -2.000
 7123.00    1.22767   1.40057   -2.000
 7124.00    0.90950   1.39598   -2.000
 7125.00    1.09047   1.39071   -2.000
 7126.00    1.49937   1.38578   -2.000
 7127.00    1.67315   1.38082   -2.000
 7128.00    1.63019   1.37670   -2.000
 7129.00    1.59077   1.37396   -2.000
 7130.00    1.58767   1.37247   -2.000
 7131.00    1.56894   1.37223   -2.000
 7132.00    1.54507   1.37349   -2.000
 7133.00    1.54407   1.37544   -2.000
 7134.00    1.55606   1.37912   -2.000
 7135.00    1.56853   1.38322   -2.000
 7136.00    1.59965   1.38725   -2.000
 7137.00    1.65591   1.39102   -2.000
 7138.00    1.69860   1.39376   -2.000
 7139.00    1.69889   1.39638   -2.000
 7140.00    1.67945   1.39791   -2.000
 7141.00    1.66167   1.39878   -2.000
 7142.00    1.62874   1.39866   -2.000
 7143.00    1.57706   1.39778   -2.000
 7144.00    1.54802   1.39693   -2.000
 7145.00    1.57094   1.39533   -2.000
 7146.00    1.62715   1.39435   -2.000
 7147.00    1.68370   1.39388   -2.000
 7148.00    1.71789   1.39417   -2.000
 7149.00    1.72217   1.39577   -2.000
 7150.00    1.70411   1.39767   -2.000
 7151.00    1.67272   1.40122   -2.000
 7152.00    1.63302   1.40614   -2.000
 7153.00    1.59991   1.41046   -2.000
 7154.00    1.59764   1.41465   -2.000
 7155.00    1.61982   1.41769   -2.000
 7156.00    1.62351   1.41979   -2.000
 7157.00    1.59865   1.42136   -2.000
 7158.00    1.58457   1.42074   -2.000
 7159.00    1.59381   1.41945   -2.000
 7160.00    1.59319   1.41650   -2.000
 7161.00    1.57043   1.41317   -2.000
 7162.00    1.55184   1.41031   -2.000
 7163.00    1.55880   1.40775   -2.000
 7164.00    1.58970   1.40646   -2.000
 7165.00    1.62031   1.40542   -2.000
 7166.00    1.61697   1.40602   -2.000
 7167.00    1.57957   1.40811   -2.000
 7168.00    1.53996   1.41195   -2.000
 7169.00    1.50862   1.41634   -2.000
 7170.00    1.47607   1.42014   -2.000
 7171.00    1.47004   1.42311   -2.000
 7172.00    1.53269   1.42540   -2.000
 7173.00    1.60808   1.42738   -2.000
 7174.00    1.59694   1.42801   -2.000
 7175.00    1.58381   1.42707   -2.000
 7176.00    1.70446   1.42467   -2.000
 7177.00    1.67167   1.42195   -2.000
 7178.00    1.08781   1.41961   -2.000
 7179.00    0.44126   1.41703   -2.000
 7180.00    0.63371   1.41479   -2.000
 7181.00    1.43050   1.41222   -2.000
 7182.00    1.86114   1.40911   -2.000
 7183.00    1.76897   1.40697   -2.000
 7184.00    1.64156   1.40502   -2.000
 7185.00    1.63544   1.40376   -2.000
 7186.00    1.60771   1.40231   -2.000
 7187.00    1.53392   1.39967   -2.000
 7188.00    1.49503   1.39800   -2.000
 7189.00    1.51833   1.39673   -2.000
 7190.00    1.56798   1.39684   -2.000
 7191.00    1.57795   1.39818   -2.000
 7192.00    1.50322   1.39912   -2.000
 7193.00    1.38700   1.40134   -2.000
 7194.00    1.31838   1.40336   -2.000
 7195.00    1.35501   1.40555   -2.000
 7196.00    1.49376   1.40797   -2.000
 7197.00    1.65041   1.40960   -2.000
 7198.00    1.72480   1.41163   -2.000
 7199.00    1.68714   1.41260   -2.000
 7200.00    1.57536   1.41342   -2.000
 7201.00    1.47416   1.41380   -2.000
 7202.00    1.45246   1.41251   -2.000
 7203.00    1.49859   1.41164   -2.000
 7204.00    1.56126   1.40994   -2.000
 7205.00    1.60193   1.40881   -2.000
 7206.00    1.60842   1.40839   -2.000
 7207.00    1.59986   1.40697   -2.000
 7208.00    1.59170   1.40673   -2.000
 7209.00    1.56700   1.40654   -2.000
 7210.00    1.52464   1.40826   -2.000
 7211.00    1.51648   1.41154   -2.000
 7212.00    1.57406   1.41466   -2.000
 7213.00    1.65082   1.41866   -2.000
 7214.00    1.67712   1.42162   -2.000
 7215.00    1.61282   1.42463   -2.000
 7216.00    1.48684   1.42769   -2.000
 7217.00    1.40758   1.43064   -2.000
 7218.00    1.44365   1.43355   -2.000
