###################################################################
## OUTPUT of StarlightChains_v04.for    [Cid@UFSC - 01/Apr/2007] ##
###################################################################

## Some input info
1995bd.txt                               [arq_obs]
Base.CB07.vall.4m                        [arq_base]
Masks.EmLines.NEW.gm                     [arq_masks]
StCv04.C11.config                        [arq_config]
   66                                    [N_base]
    0                                    [N_YAV_components = # of components with extra extinction!]
    0                                    [i_FitPowerLaw (1/0 = Yes/No)]
-9.99                                    [alpha_PowerLaw]
CCM                                      [red_law_option]
 1.458241                                [q_norm = A(l_norm)/A(V)]

## (Re)Sampling Parameters
 3741.00                                 [l_ini (A)]
 7218.00                                 [l_fin (A)]
    1.00                                 [dl    (A)]     (OBS: dl_cushion =    50.00 A)

## Normalization info
 4020.00                                 [l_norm (A) - for base]
 4010.00                                 [llow_norm (A) - window for f_obs]
 4060.00                                 [lupp_norm (A) - window for f_obs]
2.691508E-16                             [fobs_norm (in input units)]

## S/N
 3691.00                                 [llow_SN (A) - window for S/N]
 7268.00                                 [lupp_SN (A) - window for S/N]
   8.342                                 [S/N in S/N window]
   8.501                                 [S/N in norm. window]
  10.943                                 [S/N_err in S/N window]
  11.151                                 [S/N_err in norm. window]
  1.0000                                 [fscale_chi2]

## etc...
    -2007222                             [idum_orig]
  2383                                   [NOl_eff]
  2380                                   [Nl_eff]
     3    NSIGMA                         [Ntot_cliped & clip_method]
  1922270                                [Nglobal_steps]
   7                                     [N_chains]
  32                                     [NEX0s_base = N_base in EX0s-fits]
 0   0   1        1   2.0   1.861E+01    [Clip-Bug, RC-Crash & Burn-In warning-flags, n_censored_weights, wei_nsig_threshold & wei_limit]
    17     16.352     15.810      0.542  [idt_all, wdt_TotTime, wdt_UsrTime & wdt_SysTime (sec)]

## Synthesis Results - Best model ##

 5.32210E-01                             [chi2/Nl_eff]
     6.55152                             [adev (%)]

    96.94206                             [sum-of-x (%)]
 4.96675E-16                             [Flux_tot (units of input spectrum!)]
 9.12460E-12                             [Mini_tot (???)]
 4.69171E-12                             [Mcor_tot (???)]

 381.51                                  [v0_min  (km/s)]
 137.46                                  [vd_min  (km/s)]
 0.4793                                  [AV_min  (mag)]
 0.0000                                  [YAV_min (mag)]

# j     x_j(%)      Mini_j(%)     Mcor_j(%)     age_j(yr)     Z_j      (L/M)_j    YAV?  Mstars   component_j        a/Fe...       SSP_chi2r SSP_adev(%)   SSP_AV   SSP_x(%)
  1      1.7150     8.8020E-03    1.7118E-02    1.000000E+06  0.00400  1.094E-02    0   1.0000   age020_m42            0.0000     7.9144E-01     7.7938   3.2143    85.9266
  2      0.0000     0.0000E+00    0.0000E+00    3.160000E+06  0.00400  4.007E-02    0   0.9999   age045_m42            0.0000     7.1920E-01     7.4623   2.5159    90.5396
  3      1.4569     3.2220E-03    5.9454E-03    5.010000E+06  0.00400  2.539E-02    0   0.9488   age055_m42            0.0000     7.3280E-01     7.5355   2.8197    89.0379
  4      0.0000     0.0000E+00    0.0000E+00    6.610000E+06  0.00400  2.620E-02    0   0.9220   age061_m42            0.0000     6.9735E-01     7.3669   2.4369    90.9343
  5      1.9462     8.2663E-03    1.4247E-02    1.000000E+07  0.00400  1.322E-02    0   0.8862   age070_m42            0.0000     6.5129E-01     7.2950   2.1102    94.4749
  6      0.0000     0.0000E+00    0.0000E+00    1.445000E+07  0.00400  7.883E-03    0   0.8571   age078_m42            0.0000     6.6604E-01     7.3521   2.4346    92.2595
  7      0.0000     0.0000E+00    0.0000E+00    2.512000E+07  0.00400  5.251E-03    0   0.8174   age090_m42            0.0000     6.6302E-01     7.3777   1.9741    95.1902
  8      0.0090     1.3842E-04    2.1135E-04    4.000000E+07  0.00400  3.649E-03    0   0.7851   age104_m42            0.0000     6.4953E-01     7.2810   1.7553    95.6353
  9      0.0092     1.6622E-04    2.4662E-04    5.500000E+07  0.00400  3.098E-03    0   0.7629   age110_m42            0.0000     6.5986E-01     7.2597   1.9335    94.6667
 10      0.0000     0.0000E+00    0.0000E+00    1.015200E+08  0.00400  2.228E-03    0   0.7207   age116_m42            0.0000     6.7525E-01     7.2869   1.9705    94.1881
 11      0.0000     0.0000E+00    0.0000E+00    2.861200E+08  0.00400  1.093E-03    0   0.6648   age125_m42            0.0000     6.8675E-01     7.3135   1.3872    97.4684
 12      0.1896     1.6141E-02    1.9980E-02    5.088000E+08  0.00400  6.597E-04    0   0.6365   age130_m42            0.0000     6.7565E-01     7.1606   1.4050    97.1887
 13      0.0000     0.0000E+00    0.0000E+00    1.434000E+09  0.00400  2.132E-04    0   0.5798   age139_m42            0.0000     6.1556E-01     6.7990   0.4598    98.1004
 14     19.5924     1.8662E+01    1.9515E+01    4.250000E+09  0.00400  5.895E-05    0   0.5377   age158_m42            0.0000     6.2515E-01     6.8154   0.0434    93.7182
 15      8.0425     1.2866E+01    1.3041E+01    7.500000E+09  0.00400  3.510E-05    0   0.5212   age171_m42            0.0000     6.7299E-01     6.9769  -0.1304    92.6198
 16      8.6775     2.4301E+01    2.3791E+01    1.300000E+10  0.00400  2.005E-05    0   0.5034   age193_m42            0.0000     7.2817E-01     7.1450  -0.2841    91.7644
 17      8.9320     3.2887E+01    3.1769E+01    1.800000E+10  0.00400  1.525E-05    0   0.4967   age213_m42            0.0000     7.2152E-01     7.1086  -0.3105    91.4822
 18      1.8668     8.4667E-03    1.6466E-02    1.000000E+06  0.00800  1.238E-02    0   1.0000   age020_m52            0.0000     7.9297E-01     7.8102   3.2107    86.0998
 19      0.0000     0.0000E+00    0.0000E+00    3.160000E+06  0.00800  3.074E-02    0   0.9966   age045_m52            0.0000     7.9157E-01     7.8088   3.1379    86.7232
 20      1.2944     2.7242E-03    5.0030E-03    5.010000E+06  0.00800  2.668E-02    0   0.9443   age055_m52            0.0000     7.3575E-01     7.5542   2.8973    88.4593
 21     29.9902     7.8836E-02    1.4070E-01    6.610000E+06  0.00800  2.136E-02    0   0.9177   age061_m52            0.0000     5.7289E-01     6.8655   1.6128    95.5999
 22      0.0000     0.0000E+00    0.0000E+00    1.000000E+07  0.00800  1.215E-02    0   0.8827   age070_m52            0.0000     6.6573E-01     7.4146   2.2720    94.9279
 23      0.0338     2.1779E-04    3.6223E-04    1.445000E+07  0.00800  8.717E-03    0   0.8552   age078_m52            0.0000     6.5465E-01     7.3136   2.3999    93.5169
 24      0.0000     0.0000E+00    0.0000E+00    2.512000E+07  0.00800  5.592E-03    0   0.8162   age090_m52            0.0000     6.6658E-01     7.4036   2.0377    96.2754
 25      0.0004     6.0455E-06    9.2191E-06    4.000000E+07  0.00800  3.896E-03    0   0.7841   age104_m52            0.0000     6.6381E-01     7.3399   1.9637    96.4398
 26      0.0000     0.0000E+00    0.0000E+00    1.015200E+08  0.00800  2.148E-03    0   0.7226   age116_m52            0.0000     6.5687E-01     7.2131   1.9262    95.3842
 27      0.0000     0.0000E+00    0.0000E+00    2.861200E+08  0.00800  9.925E-04    0   0.6683   age125_m52            0.0000     6.7974E-01     7.1949   1.4702    98.0514
 28      0.0000     0.0000E+00    0.0000E+00    9.047900E+08  0.00800  3.141E-04    0   0.6138   age135_m52            0.0000     6.9309E-01     7.1650   0.7202   100.0726
 29      0.0000     0.0000E+00    0.0000E+00    1.434000E+09  0.00800  1.719E-04    0   0.5853   age139_m52            0.0000     6.5783E-01     6.9819   0.1379    98.3328
 30      0.0000     0.0000E+00    0.0000E+00    2.500000E+09  0.00800  7.872E-05    0   0.5600   age150_m52            0.0000     7.1541E-01     7.1896  -0.0966    94.6005
 31      0.0000     0.0000E+00    0.0000E+00    4.250000E+09  0.00800  4.336E-05    0   0.5426   age158_m52            0.0000     7.2290E-01     7.1995  -0.1112    93.7175
 32      4.2795     7.6065E+00    7.8686E+00    6.250000E+09  0.00800  3.159E-05    0   0.5319   age166_m52            0.0000     8.2150E-01     7.5392  -0.2911    92.9227
 33      0.0000     0.0000E+00    0.0000E+00    1.300000E+10  0.00800  1.361E-05    0   0.5073   age193_m52            0.0000     1.0047E+00     8.1481  -0.7276    91.1866
 34      0.0000     0.0000E+00    0.0000E+00    1.800000E+10  0.00800  9.886E-06    0   0.4990   age213_m52            0.0000     1.1467E+00     8.6664  -0.8120    89.9198
 35      4.3023     1.5646E-02    3.0428E-02    1.000000E+06  0.02000  1.544E-02    0   1.0000   age020_m62            0.0000     7.9728E-01     7.8408   3.2061    86.3334
 36      0.0000     0.0000E+00    0.0000E+00    3.160000E+06  0.02000  3.762E-02    0   0.9858   age045_m62            0.0000     7.9902E-01     7.8460   3.1456    87.1059
 37      0.0229     3.9055E-05    7.0958E-05    5.010000E+06  0.02000  3.296E-02    0   0.9342   age055_m62            0.0000     7.3197E-01     7.5176   2.7886    89.7978
 38      0.0000     0.0000E+00    0.0000E+00    8.710000E+06  0.02000  1.154E-02    0   0.8861   age067_m62            0.0000     9.9468E-01     9.0968   1.6329   101.1094
 39      0.0000     0.0000E+00    0.0000E+00    1.445000E+07  0.02000  7.663E-03    0   0.8472   age078_m62            0.0000     7.1668E-01     7.7137   1.8914    98.1075
 40      0.0042     5.2369E-05    8.2488E-05    2.512000E+07  0.02000  4.532E-03    0   0.8099   age090_m62            0.0000     7.6313E-01     7.9146   1.8796    97.9494
 41      0.0000     0.0000E+00    0.0000E+00    5.500000E+07  0.02000  2.733E-03    0   0.7595   age110_m62            0.0000     6.4850E-01     7.2729   1.9431    95.9401
 42      0.0000     0.0000E+00    0.0000E+00    1.609000E+08  0.02000  1.369E-03    0   0.6985   age120_m62            0.0000     6.7707E-01     7.2904   1.8175    97.0829
 43      0.0000     0.0000E+00    0.0000E+00    2.861200E+08  0.02000  9.013E-04    0   0.6714   age125_m62            0.0000     7.0980E-01     7.3310   1.5891    98.9025
 44      0.0000     0.0000E+00    0.0000E+00    5.088000E+08  0.02000  5.028E-04    0   0.6449   age130_m62            0.0000     7.3409E-01     7.2975   1.2551    99.7414
 45      0.0000     0.0000E+00    0.0000E+00    9.047900E+08  0.02000  2.428E-04    0   0.6179   age135_m62            0.0000     6.9763E-01     7.2248   0.6886    98.5061
 46      0.0000     0.0000E+00    0.0000E+00    1.434000E+09  0.02000  1.263E-04    0   0.5908   age139_m62            0.0000     7.1689E-01     7.2610   0.2532    96.8475
 47      0.0064     6.0031E-03    6.6233E-03    2.500000E+09  0.02000  5.985E-05    0   0.5673   age150_m62            0.0000     8.2870E-01     7.6303  -0.0859    94.6408
 48      2.0531     3.5243E+00    3.7479E+00    4.250000E+09  0.02000  3.271E-05    0   0.5468   age158_m62            0.0000     1.0229E+00     8.2734  -0.3545    92.5175
 49      0.0000     0.0000E+00    0.0000E+00    1.000000E+10  0.02000  1.360E-05    0   0.5167   age181_m62            0.0000     1.3153E+00     9.3176  -0.6606    90.5842
 50      0.0000     0.0000E+00    0.0000E+00    1.800000E+10  0.02000  7.124E-06    0   0.5013   age213_m62            0.0000     1.5646E+00    10.2214  -0.8371    88.6887
 51      1.4337     3.1057E-03    6.0389E-03    1.000000E+06  0.05000  2.592E-02    0   0.9998   age020_m72            0.0000     8.0909E-01     7.9160   3.1951    86.4626
 52      1.0821     1.2541E-03    2.3358E-03    3.160000E+06  0.05000  4.845E-02    0   0.9577   age045_m72            0.0000     7.8820E-01     7.7787   3.0386    87.8574
 53      0.0000     0.0000E+00    0.0000E+00    5.010000E+06  0.05000  3.072E-02    0   0.9147   age055_m72            0.0000     7.1575E-01     7.5920   2.4990    93.7738
 54      0.0000     0.0000E+00    0.0000E+00    6.610000E+06  0.05000  1.455E-02    0   0.8877   age061_m72            0.0000     1.7557E+00    11.3091   1.6357   103.8551
 55      0.0000     0.0000E+00    0.0000E+00    1.000000E+07  0.05000  9.074E-03    0   0.8524   age070_m72            0.0000     9.3029E-01     8.1801   2.6822    93.6072
 56      0.0000     0.0000E+00    0.0000E+00    2.512000E+07  0.05000  4.250E-03    0   0.7902   age090_m72            0.0000     8.0763E-01     7.8766   2.3880    94.8712
 57      0.0000     0.0000E+00    0.0000E+00    4.000000E+07  0.05000  3.087E-03    0   0.7618   age104_m72            0.0000     8.3625E-01     7.9942   2.1573    96.4511
 58      0.0000     0.0000E+00    0.0000E+00    1.015200E+08  0.05000  1.700E-03    0   0.7096   age116_m72            0.0000     7.0916E-01     7.4704   1.9431    97.2983
 59      0.0000     0.0000E+00    0.0000E+00    2.861200E+08  0.05000  7.384E-04    0   0.6633   age125_m72            0.0000     7.2143E-01     7.2817   1.4798    99.2885
 60      0.0000     0.0000E+00    0.0000E+00    5.088000E+08  0.05000  3.819E-04    0   0.6372   age130_m72            0.0000     7.1909E-01     7.3141   1.0259    99.4310
 61      0.0018     6.1145E-04    7.2658E-04    9.047900E+08  0.05000  1.676E-04    0   0.6110   age135_m72            0.0000     8.2866E-01     7.7700   0.3705    96.3945
 62      0.0000     0.0000E+00    0.0000E+00    1.434000E+09  0.05000  8.837E-05    0   0.5874   age139_m72            0.0000     8.9519E-01     7.9241  -0.0783    95.6698
 63      0.0000     0.0000E+00    0.0000E+00    2.500000E+09  0.05000  4.233E-05    0   0.5598   age150_m72            0.0000     1.1074E+00     8.5967  -0.3446    92.9301
 64      0.0000     0.0000E+00    0.0000E+00    6.250000E+09  0.05000  1.435E-05    0   0.5249   age166_m72            0.0000     1.4177E+00     9.7164  -0.7465    89.8480
 65      0.0000     0.0000E+00    0.0000E+00    1.300000E+10  0.05000  6.513E-06    0   0.5036   age193_m72            0.0000     1.7688E+00    10.8950  -0.9845    89.1961
 66      0.0000     0.0000E+00    0.0000E+00    1.800000E+10  0.05000  4.527E-06    0   0.4945   age213_m72            0.0000     2.0753E+00    11.7540  -1.0000    83.5760


## Synthesis Results - Average & Chains ##

# j      x_j: min, <> & last-chain-values for 1 ...  7 chains
  1      1.7150      1.6238      0.3272      1.8088      1.9294      1.5996      1.6010      2.0901      1.1561
  2      0.0000      0.4932      0.0000      0.0000      0.2601      0.0000      1.4868      0.0000      0.9693
  3      1.4569      1.8725      2.6356      1.7369      1.9521      3.2051      2.0106      2.6570      2.9928
  4      0.0000      0.5186      0.0000      0.0000      0.3809      1.6225      0.0000      0.5186      1.2225
  5      1.9462      1.6784      2.3881      1.8322      2.9623      2.6536      4.7005      3.6605      5.4100
  6      0.0000      0.8629      0.0000      0.0000      1.1363      0.0000      0.0000      0.0789      2.2499
  7      0.0000      0.7220      0.0000      0.0000      0.0000      0.0000      0.4596      0.2526      2.5363
  8      0.0090      0.8387      2.1984      1.8069      0.6606      0.5612      1.3760      1.3808      0.0000
  9      0.0092      0.4606      0.2755      0.8312      0.7650      0.0000      0.0000      0.0000      0.0000
 10      0.0000      0.6686      0.2441      0.0000      0.0000      0.0000      0.0000      3.0009      0.2443
 11      0.0000      1.0027      1.0371      0.5129      0.0000      0.0000      1.2854      0.0000      0.2574
 12      0.1896      1.2464      1.7085      0.0000      1.0297      3.0673      2.8509      0.0000      4.0428
 13      0.0000      1.3852      0.0391      0.0000      1.5337      0.9255      0.0000      0.0000      0.0000
 14     19.5924     14.4913     16.2430     15.0815     15.7773     14.8804     14.3205     15.1535     17.1790
 15      8.0425      7.1262      9.1703      6.6052      8.3472      8.3621      7.7577      6.4092      6.5752
 16      8.6775      5.1106      6.6438      5.3963      5.4601      5.7938      5.0322      5.1808      5.1906
 17      8.9320      6.7308      6.1869      9.8028      6.2274      6.3152      6.2663      7.8527      7.6313
 18      1.8668      1.2003      1.8763      1.1670      1.8141      2.9809      1.1965      1.7919      1.8923
 19      0.0000      0.4554      0.0000      0.0000      0.0000      0.0000      0.0000      0.0000      0.0000
 20      1.2944      1.2875      4.1343      1.6672      1.1581      0.0000      1.5170      0.0000      2.6314
 21     29.9902      9.1664     12.3805      9.9147     11.9515     11.2331     10.1688     10.4159      8.1673
 22      0.0000      0.5598      0.1008      0.3924      0.0000      1.2674      1.0693      0.0000      0.0000
 23      0.0338      2.2006      2.0263      2.4862      1.9535      2.5091      0.0000      1.2106      3.6814
 24      0.0000      0.4094      0.0000      1.0012      0.0000      0.0000      0.0000      0.0000      0.9596
 25      0.0004      0.3547      0.0000      0.2947      2.1026      0.0000      0.0000      0.0000      0.3196
 26      0.0000      0.4400      0.2336      2.6006      0.0000      0.0099      0.5036      0.0000      0.0000
 27      0.0000      0.4887      0.0000      0.3555      0.1419      0.0000      0.1299      1.1857      0.0000
 28      0.0000      0.7863      0.0000      0.0000      0.0000      0.0000      0.0000      0.1684      0.0000
 29      0.0000      0.5474      0.0000      0.0000      0.0000      0.0000      0.2704      0.0000      0.0000
 30      0.0000      0.5485      0.0000      0.0000      0.0000      0.0000      0.4994      0.0000      0.0000
 31      0.0000      0.4683      0.0000      0.9028      0.4257      0.0000      0.0000      0.0000      0.0000
 32      4.2795      6.8855      6.2757      6.5605      8.4191      6.4242      6.8906      8.1622      8.6029
 33      0.0000      0.1214      0.5998      0.0000      0.4605      0.0000      0.0000      0.0000      0.0000
 34      0.0000      0.1154      0.0000      0.0000      0.2891      0.0000      0.0000      0.0579      0.0000
 35      4.3023      3.6071      2.9454      4.4400      5.1793      4.0543      3.2270      3.5121      3.7205
 36      0.0000      0.3908      0.0000      0.2017      0.0000      1.2928      0.0000      0.0000      0.1574
 37      0.0229      0.2667      0.0489      0.3379      1.0604      0.0000      3.0162      0.0000      0.0000
 38      0.0000      0.4528      0.7279      0.0000      0.5142      0.0000      0.0000      0.9338      0.0000
 39      0.0000      0.3149      0.0000      0.0000      0.1814      0.0000      0.0000      0.0000      0.0000
 40      0.0042      0.8168      0.0000      0.0000      0.6459      0.0000      0.0000      1.7402      0.0000
 41      0.0000      0.4222      2.3124      0.9628      0.1607      0.0000      0.0000      0.0000      0.0000
 42      0.0000      0.3637      0.0000      0.0000      0.0000      0.0000      0.0000      0.0000      0.0000
 43      0.0000      0.3155      0.0000      0.0000      0.0000      0.0000      0.0000      0.0000      0.0000
 44      0.0000      0.4870      1.7510      0.4669      0.0000      0.0000      0.0000      0.0000      0.0000
 45      0.0000      0.8692      0.5215      1.4671      0.0000      0.1829      0.0000      0.0000      0.3996
 46      0.0000      0.8329      0.0000      0.0000      0.0000      0.0000      0.0000      1.8183      0.0000
 47      0.0064      2.8749      2.5510      1.2918      2.7097      4.2007      4.5822      2.6698      3.3094
 48      2.0531      1.0499      0.7462      2.3138      2.2597      0.8602      2.2136      1.9641      0.9761
 49      0.0000      0.2768      0.0000      1.1153      0.0000      0.0000      0.3814      0.0000      0.0000
 50      0.0000      0.0729      0.0000      0.0000      0.0000      0.4519      0.0000      0.0000      0.0000
 51      1.4337      1.6088      2.5396      1.3827      1.7881      2.7445      1.1577      2.1533      2.6191
 52      1.0821      0.8073      0.0000      2.5944      2.0263      1.3692      2.4331      2.4689      0.0000
 53      0.0000      2.4147      2.8094      3.5149      1.1652      2.8141      2.9078      4.3712      0.0000
 54      0.0000      0.2755      0.0000      0.0000      0.0000      0.0000      0.1355      0.0000      0.0000
 55      0.0000      0.5119      0.0000      0.0000      0.0000      0.0937      0.7321      0.7867      0.0000
 56      0.0000      0.4299      0.8976      0.0000      0.0000      0.0000      0.0000      0.0000      0.0000
 57      0.0000      0.2003      0.0000      0.9725      0.0000      0.0000      0.0000      0.0000      0.0000
 58      0.0000      0.1760      0.0000      0.0000      0.2605      0.0000      0.0000      0.6194      0.0000
 59      0.0000      0.5045      0.0000      0.0000      0.3928      0.0000      0.9627      0.0000      0.0000
 60      0.0000      0.6003      0.0000      0.0000      0.7474      1.1837      0.0000      0.0000      0.0000
 61      0.0018      2.3750      2.0842      3.6604      1.3995      0.0000      3.6973      1.6207      0.2206
 62      0.0000      0.5539      0.0000      0.0000      0.0000      4.1671      0.0000      0.0000      0.0000
 63      0.0000      0.7863      1.2334      0.0000      0.0000      0.6003      0.8423      1.5846      2.2051
 64      0.0000      0.1338      0.0000      0.0000      0.0000      0.0000      0.0766      0.0740      0.0000
 65      0.0000      0.0449      0.0000      0.0000      0.0000      0.0000      0.0000      0.0000      0.0000
 66      0.0000      0.0244      0.0000      0.0000      0.0000      0.0000      0.0000      0.0000      0.0000

# j      m_j: min, <> & last-chain-values for 1 ...  7 chains
  1  1.7118E-02  1.7736E-02  3.5170E-03  1.7824E-02  2.0386E-02  1.7182E-02  1.7719E-02  2.2197E-02  1.2236E-02
  2  0.0000E+00  1.4705E-03  0.0000E+00  0.0000E+00  7.5024E-04  0.0000E+00  4.4923E-03  0.0000E+00  2.8005E-03
  3  5.9454E-03  8.3613E-03  1.1581E-02  6.9975E-03  8.4321E-03  1.4074E-02  9.0972E-03  1.1536E-02  1.2949E-02
  4  0.0000E+00  2.1809E-03  0.0000E+00  0.0000E+00  1.5496E-03  6.7097E-03  0.0000E+00  2.1203E-03  4.9812E-03
  5  1.4247E-02  1.3444E-02  1.8824E-02  1.3241E-02  2.2954E-02  2.0903E-02  3.8152E-02  2.8509E-02  4.1991E-02
  6  0.0000E+00  1.1210E-02  0.0000E+00  0.0000E+00  1.4281E-02  0.0000E+00  0.0000E+00  9.9627E-04  2.8325E-02
  7  0.0000E+00  1.3430E-02  0.0000E+00  0.0000E+00  0.0000E+00  0.0000E+00  8.6622E-03  4.5692E-03  4.5715E-02
  8  2.1135E-04  2.1563E-02  5.5617E-02  4.1912E-02  1.6429E-02  1.4188E-02  3.5846E-02  3.4516E-02  0.0000E+00
  9  2.4662E-04  1.3554E-02  7.9785E-03  2.2066E-02  2.1777E-02  0.0000E+00  0.0000E+00  0.0000E+00  0.0000E+00
 10  0.0000E+00  2.5844E-02  9.2830E-03  0.0000E+00  0.0000E+00  0.0000E+00  0.0000E+00  1.1278E-01  9.1499E-03
 11  0.0000E+00  7.2878E-02  7.4171E-02  3.3631E-02  0.0000E+00  0.0000E+00  9.4664E-02  0.0000E+00  1.8128E-02
 12  1.9980E-02  1.4370E-01  1.9382E-01  0.0000E+00  1.1485E-01  3.4776E-01  3.3304E-01  0.0000E+00  4.5164E-01
 13  0.0000E+00  4.5014E-01  1.2492E-02  0.0000E+00  4.8212E-01  2.9578E-01  0.0000E+00  0.0000E+00  0.0000E+00
 14  1.9515E+01  1.5794E+01  1.7421E+01  1.4830E+01  1.6635E+01  1.5950E+01  1.5815E+01  1.6059E+01  1.8143E+01
 15  1.3041E+01  1.2644E+01  1.6011E+01  1.0574E+01  1.4327E+01  1.4591E+01  1.3948E+01  1.1057E+01  1.1305E+01
 16  2.3791E+01  1.5332E+01  1.9614E+01  1.4606E+01  1.5846E+01  1.7094E+01  1.5298E+01  1.5112E+01  1.5089E+01
 17  3.1769E+01  2.6196E+01  2.3695E+01  3.4420E+01  2.3445E+01  2.4171E+01  2.4712E+01  2.9716E+01  2.8779E+01
 18  1.6466E-02  1.1585E-02  1.7821E-02  1.0162E-02  1.6939E-02  2.8295E-02  1.1702E-02  1.6816E-02  1.7698E-02
 19  0.0000E+00  1.7643E-03  0.0000E+00  0.0000E+00  0.0000E+00  0.0000E+00  0.0000E+00  0.0000E+00  0.0000E+00
 20  5.0030E-03  5.4452E-03  1.7206E-02  6.3612E-03  4.7380E-03  0.0000E+00  6.5011E-03  0.0000E+00  1.0784E-02
 21  1.4070E-01  4.7058E-02  6.2544E-02  4.5922E-02  5.9354E-02  5.6713E-02  5.2898E-02  5.1992E-02  4.0629E-02
 22  0.0000E+00  4.8599E-03  8.6131E-04  3.0731E-03  0.0000E+00  1.0820E-02  9.4056E-03  0.0000E+00  0.0000E+00
 23  3.6223E-04  2.5797E-02  2.3375E-02  2.6295E-02  2.2153E-02  2.8926E-02  0.0000E+00  1.3799E-02  4.1818E-02
 24  0.0000E+00  7.1409E-03  0.0000E+00  1.5754E-02  0.0000E+00  0.0000E+00  0.0000E+00  0.0000E+00  1.6218E-02
 25  9.2191E-06  8.5289E-03  0.0000E+00  6.3950E-03  4.8915E-02  0.0000E+00  0.0000E+00  0.0000E+00  7.4486E-03
 26  0.0000E+00  1.7686E-02  9.2389E-03  9.4313E-02  0.0000E+00  3.9254E-04  2.0513E-02  0.0000E+00  0.0000E+00
 27  0.0000E+00  3.9319E-02  0.0000E+00  2.5810E-02  1.1042E-02  0.0000E+00  1.0593E-02  9.2762E-02  0.0000E+00
 28  0.0000E+00  1.8361E-01  0.0000E+00  0.0000E+00  0.0000E+00  0.0000E+00  0.0000E+00  3.8226E-02  0.0000E+00
 29  0.0000E+00  2.2270E-01  0.0000E+00  0.0000E+00  0.0000E+00  0.0000E+00  1.1146E-01  0.0000E+00  0.0000E+00
 30  0.0000E+00  4.6626E-01  0.0000E+00  0.0000E+00  0.0000E+00  0.0000E+00  4.3018E-01  0.0000E+00  0.0000E+00
 31  0.0000E+00  7.0028E-01  0.0000E+00  1.2180E+00  6.1576E-01  0.0000E+00  0.0000E+00  0.0000E+00  0.0000E+00
 32  7.8686E+00  1.3853E+01  1.2425E+01  1.1909E+01  1.6386E+01  1.2711E+01  1.4048E+01  1.5967E+01  1.6772E+01
 33  0.0000E+00  5.4068E-01  2.6289E+00  0.0000E+00  1.9840E+00  0.0000E+00  0.0000E+00  0.0000E+00  0.0000E+00
 34  0.0000E+00  6.9592E-01  0.0000E+00  0.0000E+00  1.6868E+00  0.0000E+00  0.0000E+00  3.3930E-01  0.0000E+00
 35  3.0428E-02  2.7916E-02  2.2431E-02  3.1001E-02  3.8775E-02  3.0856E-02  2.5306E-02  2.6428E-02  2.7901E-02
 36  0.0000E+00  1.2236E-03  0.0000E+00  5.6993E-04  0.0000E+00  3.9808E-03  0.0000E+00  0.0000E+00  4.7755E-04
 37  7.0958E-05  9.0311E-04  1.6304E-04  1.0324E-03  3.4741E-03  0.0000E+00  1.0351E-02  0.0000E+00  0.0000E+00
 38  0.0000E+00  4.1548E-03  6.5719E-03  0.0000E+00  4.5641E-03  0.0000E+00  0.0000E+00  8.3305E-03  0.0000E+00
 39  0.0000E+00  4.1604E-03  0.0000E+00  0.0000E+00  2.3185E-03  0.0000E+00  0.0000E+00  0.0000E+00  0.0000E+00
 40  8.2488E-05  1.7441E-02  0.0000E+00  0.0000E+00  1.3343E-02  0.0000E+00  0.0000E+00  3.6132E-02  0.0000E+00
 41  0.0000E+00  1.4021E-02  7.5563E-02  2.8844E-02  5.1624E-03  0.0000E+00  0.0000E+00  0.0000E+00  0.0000E+00
 42  0.0000E+00  2.2177E-02  0.0000E+00  0.0000E+00  0.0000E+00  0.0000E+00  0.0000E+00  0.0000E+00  0.0000E+00
 43  0.0000E+00  2.8079E-02  0.0000E+00  0.0000E+00  0.0000E+00  0.0000E+00  0.0000E+00  0.0000E+00  0.0000E+00
 44  0.0000E+00  7.4636E-02  2.6408E-01  6.4558E-02  0.0000E+00  0.0000E+00  0.0000E+00  0.0000E+00  0.0000E+00
 45  0.0000E+00  2.6432E-01  1.5605E-01  4.0250E-01  0.0000E+00  5.4688E-02  0.0000E+00  0.0000E+00  1.1775E-01
 46  0.0000E+00  4.6554E-01  0.0000E+00  0.0000E+00  0.0000E+00  0.0000E+00  0.0000E+00  9.8822E-01  0.0000E+00
 47  6.6233E-03  3.2562E+00  2.8432E+00  1.3201E+00  2.9689E+00  4.6790E+00  5.2588E+00  2.9401E+00  3.6320E+00
 48  3.7479E+00  2.0972E+00  1.4667E+00  4.1699E+00  4.3664E+00  1.6898E+00  4.4803E+00  3.8145E+00  1.8893E+00
 49  0.0000E+00  1.2566E+00  0.0000E+00  4.5681E+00  0.0000E+00  0.0000E+00  1.7545E+00  0.0000E+00  0.0000E+00
 50  0.0000E+00  6.1295E-01  0.0000E+00  0.0000E+00  0.0000E+00  3.7370E+00  0.0000E+00  0.0000E+00  0.0000E+00
 51  6.0389E-03  7.4152E-03  1.1519E-02  5.7498E-03  7.9726E-03  1.2440E-02  5.4069E-03  9.6500E-03  1.1697E-02
 52  2.3358E-03  1.9069E-03  0.0000E+00  5.5285E-03  4.6298E-03  3.1803E-03  5.8231E-03  5.6699E-03  0.0000E+00
 53  0.0000E+00  8.5912E-03  9.8360E-03  1.1283E-02  4.0104E-03  9.8464E-03  1.0483E-02  1.5122E-02  0.0000E+00
 54  0.0000E+00  2.0084E-03  0.0000E+00  0.0000E+00  0.0000E+00  0.0000E+00  1.0011E-03  0.0000E+00  0.0000E+00
 55  0.0000E+00  5.7460E-03  0.0000E+00  0.0000E+00  0.0000E+00  1.0347E-03  8.3273E-03  8.5864E-03  0.0000E+00
 56  0.0000E+00  9.5501E-03  1.9623E-02  0.0000E+00  0.0000E+00  0.0000E+00  0.0000E+00  0.0000E+00  0.0000E+00
 57  0.0000E+00  5.9056E-03  0.0000E+00  2.5872E-02  0.0000E+00  0.0000E+00  0.0000E+00  0.0000E+00  0.0000E+00
 58  0.0000E+00  8.7783E-03  0.0000E+00  0.0000E+00  1.2568E-02  0.0000E+00  0.0000E+00  3.0038E-02  0.0000E+00
 59  0.0000E+00  5.4148E-02  0.0000E+00  0.0000E+00  4.0785E-02  0.0000E+00  1.0471E-01  0.0000E+00  0.0000E+00
 60  0.0000E+00  1.1969E-01  0.0000E+00  0.0000E+00  1.4415E-01  2.3208E-01  0.0000E+00  0.0000E+00  0.0000E+00
 61  7.2658E-04  1.0346E+00  8.9343E-01  1.4386E+00  5.8977E-01  0.0000E+00  1.6320E+00  6.8644E-01  9.3116E-02
 62  0.0000E+00  4.3993E-01  0.0000E+00  0.0000E+00  0.0000E+00  3.2549E+00  0.0000E+00  0.0000E+00  0.0000E+00
 63  0.0000E+00  1.2425E+00  1.9180E+00  0.0000E+00  0.0000E+00  9.3291E-01  1.3488E+00  2.4347E+00  3.3765E+00
 64  0.0000E+00  5.8495E-01  0.0000E+00  0.0000E+00  0.0000E+00  0.0000E+00  3.3921E-01  3.1462E-01  0.0000E+00
 65  0.0000E+00  4.1460E-01  0.0000E+00  0.0000E+00  0.0000E+00  0.0000E+00  0.0000E+00  0.0000E+00  0.0000E+00
 66  0.0000E+00  3.1858E-01  0.0000E+00  0.0000E+00  0.0000E+00  0.0000E+00  0.0000E+00  0.0000E+00  0.0000E+00

# AV, chi2 & Mass for <> & i_chain = 1 ...  7 solutions
AV       0.4793      0.5076      0.5041      0.4966      0.4996      0.5086      0.5139      0.5164      0.5136
chi2 5.3221E-01  5.4030E-01  5.3783E-01  5.3814E-01  5.3743E-01  5.3808E-01  5.3815E-01  5.3840E-01  5.3764E-01
Mass 4.6917E-12  4.4541E-12  4.5048E-12  4.8642E-12  4.5548E-12  4.5348E-12  4.4330E-12  4.6350E-12  4.6334E-12
 381.51                                  [v0_min (km/s) before EX0s...]
 137.46                                  [vd_min (km/s) before EX0s...]


## Synthetic spectrum (Best Model) ##l_obs f_obs f_syn wei
 3478    [Nl_obs]
 3741.00    0.80496   0.57977    0.000
 3742.00    0.81513   0.61790    0.000
 3743.00    0.84952   0.66305    0.000
 3744.00    0.89703   0.70407    0.000
 3745.00    0.92819   0.73176    3.710
 3746.00    0.92462   0.74146    3.737
 3747.00    0.88832   0.73421    3.900
 3748.00    0.84613   0.71508    4.032
 3749.00    0.82926   0.68937    3.945
 3750.00    0.83355   0.66004    3.803
 3751.00    0.83240   0.62860    3.859
 3752.00    0.81401   0.59662    4.028
 3753.00    0.78906   0.57050    4.053
 3754.00    0.79074   0.56040    3.993
 3755.00    0.84785   0.57369    4.048
 3756.00    0.94365   0.60880    4.146
 3757.00    1.03419   0.65552    4.098
 3758.00    1.08506   0.70138    3.971
 3759.00    1.08239   0.73576    3.941
 3760.00    1.04014   0.75240    4.050
 3761.00    0.99452   0.75084    4.228
 3762.00    0.99273   0.73784    4.286
 3763.00    1.05209   0.72511    4.122
 3764.00    1.11668   0.72123    3.954
 3765.00    1.11539   0.72695    3.983
 3766.00    1.03304   0.73689    4.165
 3767.00    0.90126   0.74435    4.351
 3768.00    0.77736   0.74557    4.446
 3769.00    0.70887   0.73978    4.473
 3770.00    0.70171   0.72654    4.574
 3771.00    0.73810   0.70658    4.770
 3772.00    0.79644   0.68298    4.731
 3773.00    0.85428   0.65980    4.335
 3774.00    0.89022   0.64230    4.017
 3775.00    0.88984   0.63695    4.010
 3776.00    0.85108   0.64786    4.191
 3777.00    0.78831   0.67247    4.361
 3778.00    0.73174   0.70329    4.433
 3779.00    0.70143   0.73282    4.437
 3780.00    0.69138   0.75792    4.468
 3781.00    0.69069   0.77966    4.585
 3782.00    0.69795   0.79971    4.751
 3783.00    0.71525   0.81884    4.860
 3784.00    0.74271   0.83646    4.798
 3785.00    0.77172   0.85085    4.637
 3786.00    0.78352   0.86062    4.623
 3787.00    0.76284   0.86489    4.772
 3788.00    0.70649   0.86269    4.760
 3789.00    0.62688   0.85288    4.561
 3790.00    0.55279   0.83553    4.597
 3791.00    0.52473   0.81419    4.981
 3792.00    0.58115   0.79398    5.255
 3793.00    0.70821   0.77827    5.089
 3794.00    0.83628   0.76747    4.827
 3795.00    0.92142   0.75902    4.751
 3796.00    0.96891   0.74853    4.884
 3797.00    0.98513   0.73166    5.093
 3798.00    0.96445   0.70625    5.135
 3799.00    0.91443   0.67319    5.047
 3800.00    0.85920   0.63639    5.131
 3801.00    0.81800   0.60222    5.406
 3802.00    0.79886   0.57981    5.534
 3803.00    0.80360   0.57848    5.431
 3804.00    0.82899   0.60175    5.383
 3805.00    0.86515   0.64413    5.431
 3806.00    0.90112   0.69393    5.383
 3807.00    0.94108   0.73990    5.272
 3808.00    0.99400   0.77459    5.307
 3809.00    1.03534   0.79547    5.467
 3810.00    1.02490   0.80526    5.526
 3811.00    0.97474   0.80999    5.463
 3812.00    0.93561   0.81651    5.449
 3813.00    0.92699   0.82751    5.520
 3814.00    0.93353   0.83946    5.601
 3815.00    0.93379   0.84591    5.718
 3816.00    0.91635   0.84214    5.926
 3817.00    0.89802   0.82815    6.014
 3818.00    0.90300   0.80900    5.736
 3819.00    0.91771   0.79147    5.392
 3820.00    0.90577   0.77965    5.366
 3821.00    0.84963   0.77312    5.615
 3822.00    0.75873   0.76687    5.871
 3823.00    0.66895   0.75620    5.999
 3824.00    0.61220   0.74293    6.047
 3825.00    0.57175   0.73420    6.095
 3826.00    0.51729   0.73392    6.186
 3827.00    0.46339   0.73784    6.270
 3828.00    0.43576   0.73755    6.271
 3829.00    0.41607   0.72863    6.214
 3830.00    0.37072   0.71413    6.193
 3831.00    0.29636   0.69955    6.304
 3832.00    0.21421   0.68778   -1.000
 3833.00    0.15483   0.67725   -1.000
 3834.00    0.13604   0.66391   -1.000
 3835.00    0.14245   0.64358    6.194
 3836.00    0.15344   0.61430    6.335
 3837.00    0.17234   0.57923    6.565
 3838.00    0.20036   0.54583    6.556
 3839.00    0.21201   0.52203    6.485
 3840.00    0.19570   0.51345    6.583
 3841.00    0.18775   0.52050    6.701
 3842.00    0.21998   0.53908    6.621
 3843.00    0.27545   0.56572    6.394
 3844.00    0.31935   0.59836    6.197
 3845.00    0.32939   0.63550    6.171
 3846.00    0.31319   0.67573    6.317
 3847.00    0.31355   0.71527    0.000
 3848.00    0.36103   0.74918    0.000
 3849.00    0.44408   0.77509    0.000
 3850.00    0.53982   0.79273    0.000
 3851.00    0.63503   0.80384    0.000
 3852.00    0.71924   0.81006    0.000
 3853.00    0.78242   0.81204    0.000
 3854.00    0.83060   0.81181    0.000
 3855.00    0.88806   0.81256    0.000
 3856.00    0.95879   0.81592    0.000
 3857.00    1.01389   0.81962    0.000
 3858.00    1.03673   0.82000    0.000
 3859.00    1.04070   0.81516    0.000
 3860.00    1.04006   0.80565    0.000
 3861.00    1.03696   0.79392    0.000
 3862.00    1.02866   0.78232    0.000
 3863.00    1.01180   0.77243    0.000
 3864.00    0.98546   0.76794    0.000
 3865.00    0.95342   0.77293    0.000
 3866.00    0.92803   0.78714    0.000
 3867.00    0.92469   0.80508    0.000
 3868.00    0.93716   0.81944    0.000
 3869.00    0.93805   0.82608    0.000
 3870.00    0.91124   0.82605    0.000
 3871.00    0.86002   0.82309    0.000
 3872.00    0.79687   0.81913    0.000
 3873.00    0.73784   0.81360    0.000
 3874.00    0.69648   0.80432    0.000
 3875.00    0.68263   0.79080    0.000
 3876.00    0.70407   0.77699    0.000
 3877.00    0.76267   0.76879    0.000
 3878.00    0.84366   0.77003    0.000
 3879.00    0.91943   0.77745    0.000
 3880.00    0.96557   0.78311    0.000
 3881.00    0.96936   0.78111    7.085
 3882.00    0.93930   0.77175    6.739
 3883.00    0.89658   0.76040    6.784
 3884.00    0.85288   0.75229    7.080
 3885.00    0.80887   0.74682    7.126
 3886.00    0.76110   0.74010    6.926
 3887.00    0.70885   0.72980    6.850
 3888.00    0.66377   0.71434    6.951
 3889.00    0.64214   0.69137    7.072
 3890.00    0.64845   0.65903    7.168
 3891.00    0.67778   0.62121    7.255
 3892.00    0.72410   0.58715    7.222
 3893.00    0.77822   0.56660    7.020
 3894.00    0.82310   0.56748    6.942
 3895.00    0.84302   0.59124    7.230
 3896.00    0.83731   0.62963    7.542
 3897.00    0.81472   0.67069    7.383
 3898.00    0.78338   0.70534    7.104
 3899.00    0.74994   0.73092    7.209
 3900.00    0.72006   0.74956    7.589
 3901.00    0.69713   0.76475    7.826
 3902.00    0.68082   0.77732    7.718
 3903.00    0.66980   0.78649    7.431
 3904.00    0.66466   0.79356    7.341
 3905.00    0.66470   0.80024    7.638
 3906.00    0.66461   0.80652    8.054
 3907.00    0.65811   0.80992    8.199
 3908.00    0.64182   0.80961    8.158
 3909.00    0.61575   0.80768    8.184
 3910.00    0.58371   0.80665    8.279
 3911.00    0.55413   0.81120    8.370
 3912.00    0.54011   0.82357    8.465
 3913.00    0.55268   0.84031    8.503
 3914.00    0.59544   0.85652    8.280
 3915.00    0.66523   0.86846    7.847
 3916.00    0.75302   0.87516    7.609
 3917.00    0.84517   0.87702    7.725
 3918.00    0.92512   0.87443    7.920
 3919.00    0.97956   0.86923    7.890
 3920.00    1.00212   0.86273    7.648
 3921.00    0.99149   0.85430    7.414
 3922.00    0.95095   0.84399    7.424
 3923.00    0.89247   0.83157    7.675
 3924.00    0.83619   0.81797    7.821
 3925.00    0.79472   0.80599    7.662
 3926.00    0.76677   0.79820    7.434
 3927.00    0.74866   0.79484    7.384
 3928.00    0.73956   0.79242    7.597
 3929.00    0.73825   0.78644    7.896
 3930.00    0.74174   0.77293    7.853
 3931.00    0.74620   0.75075    7.534
 3932.00    0.74787   0.72179    7.508
 3933.00    0.74461   0.68814    7.836
 3934.00    0.73515   0.65173    7.951
 3935.00    0.71409   0.61421    7.714
 3936.00    0.67477   0.57790    7.652
 3937.00    0.62601   0.54745    7.964
 3938.00    0.59139   0.52903    8.376
 3939.00    0.58663   0.52832    8.549
 3940.00    0.61340   0.54677    8.340
 3941.00    0.66479   0.58050    7.894
 3942.00    0.72707   0.62238    7.482
 3943.00    0.77981   0.66486    7.293
 3944.00    0.80377   0.70219    7.420
 3945.00    0.80161   0.73075    7.830
 3946.00    0.79429   0.74924    8.315
 3947.00    0.79745   0.76058    8.487
 3948.00    0.81751   0.76911    8.093
 3949.00    0.85736   0.77899    7.573
 3950.00    0.91619   0.79286    7.450
 3951.00    0.98624   0.80836    7.608
 3952.00    1.05451   0.82096    7.592
 3953.00    1.10825   0.82990    7.389
 3954.00    1.13952   0.83690    7.302
 3955.00    1.15150   0.84259    7.390
 3956.00    1.15064   0.84625    7.540
 3957.00    1.13105   0.84721    7.703
 3958.00    1.08788   0.84671    7.854
 3959.00    1.04398   0.84548    7.840
 3960.00    1.02739   0.84166    0.000
 3961.00    1.02932   0.83488    0.000
 3962.00    1.01985   0.82685    0.000
 3963.00    0.98155   0.81668    0.000
 3964.00    0.91205   0.80062    0.000
 3965.00    0.82038   0.77531    0.000
 3966.00    0.72458   0.74093    0.000
 3967.00    0.64804   0.70186    0.000
 3968.00    0.60399   0.66116    0.000
 3969.00    0.57862   0.61738    0.000
 3970.00    0.55460   0.56871    0.000
 3971.00    0.53879   0.51606    0.000
 3972.00    0.54143   0.46479    0.000
 3973.00    0.55188   0.42470    0.000
 3974.00    0.55844   0.40587    0.000
 3975.00    0.56881   0.41383    0.000
 3976.00    0.58776   0.44736    0.000
 3977.00    0.59730   0.49872    0.000
 3978.00    0.58812   0.55781    0.000
 3979.00    0.58539   0.61679    0.000
 3980.00    0.61338   0.67102    0.000
 3981.00    0.66604   0.71819    8.345
 3982.00    0.72399   0.75845    7.992
 3983.00    0.77114   0.79245    7.650
 3984.00    0.80527   0.81919    7.584
 3985.00    0.84134   0.83770    7.627
 3986.00    0.88532   0.84846    7.238
 3987.00    0.91958   0.85418    6.050
 3988.00    0.92777   0.85926    4.967
 3989.00    0.91033   0.86639    4.883
 3990.00    0.87596   0.87545    6.064
 3991.00    0.83611   0.88508    7.895
 3992.00    0.80601   0.89406    8.349
 3993.00    0.80236   0.90228    7.921
 3994.00    0.82748   0.90900    7.844
 3995.00    0.86392   0.91457    7.916
 3996.00    0.88958   0.92017    7.911
 3997.00    0.88947   0.92435    8.079
 3998.00    0.87287   0.92498    8.433
 3999.00    0.86999   0.92079    8.490
 4000.00    0.88415   0.91310    8.126
 4001.00    0.88533   0.90557    7.824
 4002.00    0.86820   0.90198    7.860
 4003.00    0.86277   0.90483    8.186
 4004.00    0.88425   0.91414    8.486
 4005.00    0.92126   0.92607    8.297
 4006.00    0.96342   0.93506    7.806
 4007.00    1.00769   0.93739    7.618
 4008.00    1.04629   0.93164    7.829
 4009.00    1.06734   0.91920    8.096
 4010.00    1.06943   0.90564    8.195
 4011.00    1.06154   0.89825    8.193
 4012.00    1.04990   0.90033    8.201
 4013.00    1.03673   0.90903    8.277
 4014.00    1.02704   0.91958    8.455
 4015.00    1.02595   0.92905    8.685
 4016.00    1.02733   0.93654    8.646
 4017.00    1.01953   0.94192    8.084
 4018.00    1.00502   0.94599    7.498
 4019.00    0.99856   0.94922    7.439
 4020.00    1.01258   0.95137    7.776
 4021.00    1.04856   0.95269    8.005
 4022.00    1.08699   0.95330    8.121
 4023.00    1.09979   0.95403    8.535
 4024.00    1.07783   0.95537    9.211
 4025.00    1.03078   0.95527    9.731
 4026.00    0.97677   0.95148   10.204
 4027.00    0.93428   0.94362   10.978
 4028.00    0.91180   0.93309   11.146
 4029.00    0.90974   0.92280    9.864
 4030.00    0.92598   0.91707    8.789
 4031.00    0.95510   0.91869    9.020
 4032.00    0.98621   0.92538   10.001
 4033.00    1.00837   0.93083   10.300
 4034.00    1.01835   0.92937    9.859
 4035.00    1.01734   0.91983    9.645
 4036.00    1.00593   0.90695    9.919
 4037.00    0.98985   0.89809   10.365
 4038.00    0.98651   0.89770   10.166
 4039.00    1.00682   0.90698    9.123
 4040.00    1.03547   0.92444    8.302
 4041.00    1.05274   0.94580    8.217
 4042.00    1.05852   0.96541    8.412
 4043.00    1.05688   0.97794    8.329
 4044.00    1.03963   0.98140    8.142
 4045.00    1.00000   0.97731    8.190
 4046.00    0.94548   0.96789    8.447
 4047.00    0.88363   0.95408    8.698
 4048.00    0.81221   0.93530    8.709
 4049.00    0.75016   0.91347    8.379
 4050.00    0.75335   0.89574    7.837
 4051.00    0.82981   0.89047    7.301
 4052.00    0.89106   0.90136    6.940
 4053.00    0.88721   0.92288    6.739
 4054.00    0.88551   0.94434    6.527
 4055.00    0.91547   0.95890    6.381
 4056.00    0.88721   0.96464    6.727
 4057.00    0.76924   0.96209    7.828
 4058.00    0.67477   0.95430    9.131
 4059.00    0.67701   0.94497    9.589
 4060.00    0.71864   0.93630    9.418
 4061.00    0.74270   0.93012    9.253
 4062.00    0.75748   0.92756    9.153
 4063.00    0.77610   0.92840    9.055
 4064.00    0.78759   0.93164    9.004
 4065.00    0.77948   0.93354    9.046
 4066.00    0.75077   0.92920    9.180
 4067.00    0.71698   0.91805    9.331
 4068.00    0.70569   0.90469    9.363
 4069.00    0.72967   0.89585    9.260
 4070.00    0.77879   0.89666    9.159
 4071.00    0.83396   0.90540    9.165
 4072.00    0.87563   0.91593    9.281
 4073.00    0.89278   0.92417    9.348
 4074.00    0.88635   0.92791    9.153
 4075.00    0.86915   0.92641    8.887
 4076.00    0.86121   0.92152    8.971
 4077.00    0.87552   0.91697    9.339
 4078.00    0.91233   0.91514    9.447
 4079.00    0.95680   0.91295    9.216
 4080.00    0.98587   0.90514    9.127
 4081.00    0.98926   0.89271    9.373
 4082.00    0.97246   0.88289    9.797
 4083.00    0.94866   0.88295   10.093
 4084.00    0.93221   0.89511   10.003
 4085.00    0.92855   0.91400    9.746
 4086.00    0.93675   0.93083    9.723
 4087.00    0.96054   0.93949    9.816
 4088.00    1.00277   0.93947    9.644
 4089.00    1.04829   0.93578    9.398
 4090.00    1.07358   0.93479    9.527
 4091.00    1.07336   0.93937    9.968
 4092.00    1.05780   0.94795    0.000
 4093.00    1.03697   0.95645    0.000
 4094.00    1.01597   0.96051    0.000
 4095.00    0.99191   0.95842    0.000
 4096.00    0.95948   0.95171    0.000
 4097.00    0.92083   0.94148    0.000
 4098.00    0.88420   0.92739    0.000
 4099.00    0.85896   0.90955    0.000
 4100.00    0.84880   0.88694    0.000
 4101.00    0.84385   0.85866    0.000
 4102.00    0.83275   0.82619    0.000
 4103.00    0.82000   0.78973    0.000
 4104.00    0.81733   0.74884    0.000
 4105.00    0.82993   0.70806    0.000
 4106.00    0.85601   0.67662    0.000
 4107.00    0.88864   0.66486    0.000
 4108.00    0.92053   0.67981    0.000
 4109.00    0.94885   0.71704    0.000
 4110.00    0.97253   0.76297    0.000
 4111.00    0.98903   0.80603    0.000
 4112.00    0.99551   0.83951    0.000
 4113.00    0.99048   0.86165    9.710
 4114.00    0.97690   0.87545    9.573
 4115.00    0.96388   0.88524    9.510
 4116.00    0.95884   0.89487    9.646
 4117.00    0.96108   0.90624    9.911
 4118.00    0.96663   0.91852   10.138
 4119.00    0.97240   0.92987   10.179
 4120.00    0.97451   0.93770   10.037
 4121.00    0.96771   0.93981    9.906
 4122.00    0.95179   0.93699    9.916
 4123.00    0.93487   0.93128   10.012
 4124.00    0.92419   0.92457   10.169
 4125.00    0.92061   0.92078   10.501
 4126.00    0.92370   0.92241   10.890
 4127.00    0.93453   0.92815   10.787
 4128.00    0.95131   0.93604   10.174
 4129.00    0.96792   0.94384    9.777
 4130.00    0.97958   0.94897    9.898
 4131.00    0.98536   0.94947   10.242
 4132.00    0.98461   0.94503   10.454
 4133.00    0.97574   0.93753   10.433
 4134.00    0.95968   0.92884   10.288
 4135.00    0.94132   0.91975   10.225
 4136.00    0.92842   0.91105   10.353
 4137.00    0.92921   0.90423   10.627
 4138.00    0.94490   0.90242   10.867
 4139.00    0.96819   0.90877   10.831
 4140.00    0.98974   0.92181   10.578
 4141.00    1.00187   0.93838   10.429
 4142.00    1.00205   0.95399   10.465
 4143.00    0.99293   0.96404   10.503
 4144.00    0.97807   0.96684   10.474
 4145.00    0.95997   0.95980   10.483
 4146.00    0.93866   0.94216   10.543
 4147.00    0.91279   0.91917   10.574
 4148.00    0.88416   0.89889   10.623
 4149.00    0.85799   0.88908   10.819
 4150.00    0.84007   0.89439   11.017
 4151.00    0.83374   0.91057   10.910
 4152.00    0.83462   0.92699   10.698
 4153.00    0.83397   0.93715   10.833
 4154.00    0.82994   0.94073   11.166
 4155.00    0.82598   0.93951   11.127
 4156.00    0.82115   0.93618   10.800
 4157.00    0.81376   0.93250   10.714
 4158.00    0.81344   0.92857   10.914
 4159.00    0.83382   0.92491   11.096
 4160.00    0.87323   0.92329   11.127
 4161.00    0.91904   0.92566   11.051
 4162.00    0.96278   0.93197   10.842
 4163.00    0.99919   0.94079   10.536
 4164.00    1.01991   0.95044   10.480
 4165.00    1.01802   0.95915   10.968
 4166.00    0.99689   0.96546   11.623
 4167.00    0.96599   0.96874   11.685
 4168.00    0.93234   0.96971   11.286
 4169.00    0.90113   0.96808   11.019
 4170.00    0.87807   0.96322   10.952
 4171.00    0.86492   0.95685   10.931
 4172.00    0.85362   0.95085   10.992
 4173.00    0.83586   0.94522   11.205
 4174.00    0.81535   0.93907   11.423
 4175.00    0.79986   0.93060   11.445
 4176.00    0.79035   0.91855   11.298
 4177.00    0.78434   0.90485   11.127
 4178.00    0.78080   0.89405   11.025
 4179.00    0.77997   0.89042   11.030
 4180.00    0.78252   0.89403   11.146
 4181.00    0.79065   0.90127   11.335
 4182.00    0.80870   0.90914   11.497
 4183.00    0.84028   0.91628   11.499
 4184.00    0.88507   0.92228   11.241
 4185.00    0.93534   0.92736   10.865
 4186.00    0.97495   0.93100   10.776
 4187.00    0.99461   0.93236   11.136
 4188.00    1.00230   0.93260   11.577
 4189.00    1.00962   0.93258   11.671
 4190.00    1.02076   0.93103   11.480
 4191.00    1.03217   0.92783   11.229
 4192.00    1.03430   0.92420   10.997
 4193.00    1.02195   0.92194   10.817
 4194.00    0.99965   0.92363   10.741
 4195.00    0.97275   0.92998   10.833
 4196.00    0.94291   0.93851   11.150
 4197.00    0.91511   0.94582   11.597
 4198.00    0.89914   0.94969   11.835
 4199.00    0.89554   0.94850   11.674
 4200.00    0.89182   0.94037   11.314
 4201.00    0.88209   0.92578   11.025
 4202.00    0.87408   0.90947   10.965
 4203.00    0.87433   0.89631   11.160
 4204.00    0.88231   0.88766   11.496
 4205.00    0.89600   0.88418   11.694
 4206.00    0.91346   0.88634   11.451
 4207.00    0.92845   0.89226   11.000
 4208.00    0.93274   0.90031   10.939
 4209.00    0.93147   0.91074   11.379
 4210.00    0.94294   0.92270   11.868
 4211.00    0.97642   0.93447   12.029
 4212.00    1.02593   0.94487   11.898
 4213.00    1.07697   0.95279   11.665
 4214.00    1.11283   0.95769   11.487
 4215.00    1.12662   0.95981   11.404
 4216.00    1.12249   0.95957   11.372
 4217.00    1.10835   0.95706   11.378
 4218.00    1.09179   0.95129   11.455
 4219.00    1.07570   0.94235   11.629
 4220.00    1.05888   0.93361   11.874
 4221.00    1.04105   0.92929   12.038
 4222.00    1.02422   0.93232   11.925
 4223.00    1.01275   0.94275   11.597
 4224.00    1.01042   0.95569   11.318
 4225.00    1.01421   0.96392   11.314
 4226.00    1.01697   0.96302   11.672
 4227.00    1.01588   0.95119   12.140
 4228.00    1.01154   0.92784   12.263
 4229.00    1.00288   0.89537   12.075
 4230.00    0.98982   0.86155   11.932
 4231.00    0.97964   0.83729   11.890
 4232.00    0.98169   0.83060   11.831
 4233.00    0.99662   0.84372   11.829
 4234.00    1.01786   0.87219   12.014
 4235.00    1.03708   0.90403   12.290
 4236.00    1.04609   0.92657   12.452
 4237.00    1.03862   0.93617   12.487
 4238.00    1.01366   0.93555   12.505
 4239.00    0.97920   0.92852   12.541
 4240.00    0.94550   0.92037   12.577
 4241.00    0.91569   0.91491   12.622
 4242.00    0.88903   0.91247   12.710
 4243.00    0.86639   0.91375   12.881
 4244.00    0.84915   0.91976   13.062
 4245.00    0.83731   0.92835   12.959
 4246.00    0.83085   0.93724   12.522
 4247.00    0.83148   0.94625   12.302
 4248.00    0.84161   0.95407   12.622
 4249.00    0.86296   0.95790   12.955
 4250.00    0.89387   0.95648   12.728
 4251.00    0.92720   0.94979   12.325
 4252.00    0.95357   0.93808   12.174
 4253.00    0.96464   0.92403   12.064
 4254.00    0.95545   0.91279   11.787
 4255.00    0.92644   0.90808   11.583
 4256.00    0.88523   0.90890   11.664
 4257.00    0.84686   0.91200   11.941
 4258.00    0.82540   0.91575   12.263
 4259.00    0.82726   0.91944   12.589
 4260.00    0.84830   0.92260   12.853
 4261.00    0.87364   0.92550   12.877
 4262.00    0.88809   0.92718   12.660
 4263.00    0.88345   0.92502   12.493
 4264.00    0.86166   0.91817   12.560
 4265.00    0.83462   0.91068   12.769
 4266.00    0.81390   0.90948   12.859
 4267.00    0.80584   0.91769   12.530
 4268.00    0.81707   0.93324   11.822
 4269.00    0.85291   0.95026   11.124
 4270.00    0.89509   0.96134   10.771
 4271.00    0.90295   0.96288   10.959
 4272.00    0.86953   0.95599   11.596
 4273.00    0.83345   0.94195   12.199
 4274.00    0.81678   0.92166   12.530
 4275.00    0.80766   0.89904   12.941
 4276.00    0.80122   0.87881   13.434
 4277.00    0.81008   0.86375   13.363
 4278.00    0.83928   0.85664   12.696
 4279.00    0.87928   0.86082   12.136
 4280.00    0.91617   0.87504   12.006
 4281.00    0.93715   0.89375   12.192
 4282.00    0.93597   0.91243   12.403
 4283.00    0.91457   0.92665   12.320
 4284.00    0.88246   0.93267   12.037
 4285.00    0.85230   0.93117   11.954
 4286.00    0.82820   0.92579   12.227
 4287.00    0.80738   0.92065   12.707
 4288.00    0.79337   0.91742   -2.000
 4289.00    0.79242   0.91405   -2.000
 4290.00    0.79569   0.90880   -2.000
 4291.00    0.78575   0.90088   -2.000
 4292.00    0.76176   0.88949   -2.000
 4293.00    0.73471   0.87641   -2.000
 4294.00    0.70438   0.86532   -2.000
 4295.00    0.66854   0.85949   -2.000
 4296.00    0.65132   0.86094   -2.000
 4297.00    0.68359   0.86922   -2.000
 4298.00    0.75537   0.88025   -2.000
 4299.00    0.83119   0.88802   -2.000
 4300.00    0.89380   0.88753   -2.000
 4301.00    0.94026   0.87721   -2.000
 4302.00    0.96238   0.85900   -2.000
 4303.00    0.95166   0.83578   -2.000
 4304.00    0.91205   0.81186   12.400
 4305.00    0.85818   0.79216   12.548
 4306.00    0.80933   0.77963   12.467
 4307.00    0.77941   0.77567   12.123
 4308.00    0.76537   0.77845   12.005
 4309.00    0.75868   0.78277   12.506
 4310.00    0.76149   0.78463   13.205
 4311.00    0.77684   0.78226   13.332
 4312.00    0.79533   0.77614   12.984
 4313.00    0.80777   0.77002   12.693
 4314.00    0.82037   0.76836   12.598
 4315.00    0.84327   0.77423   12.599
 4316.00    0.87675   0.78869   12.548
 4317.00    0.91340   0.80999   12.480
 4318.00    0.94258   0.83604   12.759
 4319.00    0.96056   0.86682   13.562
 4320.00    0.97776   0.90160   14.248
 4321.00    1.00152   0.93647   14.096
 4322.00    1.02200   0.96648   13.524
 4323.00    1.02704   0.98700   13.172
 4324.00    1.01474   0.99450   13.168
 4325.00    0.98807   0.98901   13.413
 4326.00    0.95049   0.97307   13.736
 4327.00    0.90915   0.94853   13.969
 4328.00    0.87607   0.91830   14.029
 4329.00    0.85819   0.88850   13.932
 4330.00    0.85156   0.86736    0.000
 4331.00    0.84785   0.86201    0.000
 4332.00    0.83980   0.87349    0.000
 4333.00    0.82707   0.89585    0.000
 4334.00    0.81727   0.91994    0.000
 4335.00    0.81262   0.93808    0.000
 4336.00    0.80559   0.94711    0.000
 4337.00    0.79532   0.94828    0.000
 4338.00    0.79227   0.94417    0.000
 4339.00    0.79865   0.93444    0.000
 4340.00    0.80334   0.91480    0.000
 4341.00    0.80255   0.88160    0.000
 4342.00    0.80585   0.83585    0.000
 4343.00    0.82057   0.78258    0.000
 4344.00    0.84576   0.73173    0.000
 4345.00    0.87590   0.69765    0.000
 4346.00    0.90301   0.68983    0.000
 4347.00    0.91840   0.70730    0.000
 4348.00    0.91567   0.74361    0.000
 4349.00    0.89802   0.78918    0.000
 4350.00    0.87730   0.83277    0.000
 4351.00    0.86258   0.86807   13.164
 4352.00    0.85691   0.89496   13.069
 4353.00    0.85903   0.91331   13.072
 4354.00    0.86513   0.92090   12.890
 4355.00    0.87205   0.91766   12.520
 4356.00    0.87711   0.90857   12.240
 4357.00    0.87543   0.90066   12.284
 4358.00    0.86351   0.89888   12.745
 4359.00    0.84937   0.90586   13.367
 4360.00    0.84564   0.92081   13.610
 4361.00    0.84829   0.93792   13.401
 4362.00    0.84367   0.95071   13.167
 4363.00    0.83399   0.95808   13.235
 4364.00    0.83281   0.96325   13.689
 4365.00    0.84501   0.96879   14.215
 4366.00    0.86683   0.97556   14.303
 4367.00    0.89379   0.98380   14.052
 4368.00    0.92215   0.99261   13.912
 4369.00    0.94874   0.99901   13.915
 4370.00    0.97067   0.99988   13.849
 4371.00    0.98505   0.99510   13.685
 4372.00    0.99207   0.98724   13.540
 4373.00    0.99927   0.97869   13.501
 4374.00    1.01338   0.97102   13.586
 4375.00    1.02801   0.96568   13.712
 4376.00    1.03166   0.96193   13.802
 4377.00    1.02093   0.95651   13.938
 4378.00    1.00118   0.94780   14.158
 4379.00    0.98425   0.93874   14.173
 4380.00    0.97889   0.93425   13.776
 4381.00    0.98020   0.93711   13.328
 4382.00    0.97908   0.94647   13.232
 4383.00    0.97373   0.95818   13.515
 4384.00    0.96589   0.96624   13.992
 4385.00    0.95569   0.96461   14.384
 4386.00    0.94208   0.94920   14.524
 4387.00    0.92400   0.92160   14.595
 4388.00    0.90246   0.89110   14.751
 4389.00    0.88198   0.86880   14.768
 4390.00    0.86654   0.86072   14.508
 4391.00    0.85638   0.86647   14.297
 4392.00    0.85125   0.88185   14.409
 4393.00    0.85289   0.90007   14.746
 4394.00    0.86151   0.91498   15.074
 4395.00    0.87334   0.92566   15.236
 4396.00    0.88332   0.93473   15.210
 4397.00    0.88766   0.94282   15.112
 4398.00    0.88683   0.94840   15.041
 4399.00    0.88657   0.95219   14.981
 4400.00    0.89173   0.95686   14.852
 4401.00    0.90254   0.96309   14.578
 4402.00    0.91538   0.96908   14.264
 4403.00    0.92418   0.97255   14.201
 4404.00    0.92445   0.97186   14.542
 4405.00    0.91555   0.96770   15.171
 4406.00    0.90071   0.96226   15.713
 4407.00    0.88587   0.95557   15.655
 4408.00    0.87456   0.94655   15.120
 4409.00    0.86664   0.93742   14.836
 4410.00    0.86395   0.93130   14.946
 4411.00    0.87092   0.92845   14.909
 4412.00    0.88658   0.92990   14.613
 4413.00    0.90375   0.93843   14.592
 4414.00    0.91933   0.95340   15.081
 4415.00    0.93585   0.97032   15.796
 4416.00    0.95258   0.98562   16.225
 4417.00    0.96344   0.99586   15.951
 4418.00    0.96171   0.99636   15.270
 4419.00    0.94384   0.98684   14.858
 4420.00    0.91616   0.97381   14.822
 4421.00    0.89268   0.96435   14.820
 4422.00    0.88238   0.96297   14.766
 4423.00    0.88653   0.97105   14.851
 4424.00    0.90184   0.98442   15.020
 4425.00    0.92161   0.99586   15.032
 4426.00    0.93610   1.00101   15.033
 4427.00    0.93691   1.00058   15.371
 4428.00    0.92693   0.99719   15.797
 4429.00    0.91687   0.99303   15.669
 4430.00    0.91198   0.98974   15.228
 4431.00    0.91142   0.98815   15.158
 4432.00    0.91337   0.98817   15.294
 4433.00    0.91583   0.98855   15.055
 4434.00    0.91596   0.98808   14.723
 4435.00    0.91081   0.98746   14.934
 4436.00    0.89887   0.98669   15.540
 4437.00    0.88162   0.98363   15.854
 4438.00    0.86554   0.97706   15.680
 4439.00    0.85923   0.96911   15.346
 4440.00    0.86805   0.96423   15.143
 4441.00    0.89271   0.96626   15.067
 4442.00    0.92844   0.97592   14.634
 4443.00    0.96777   0.99002   13.654
 4444.00    1.00450   1.00226   12.936
 4445.00    1.03329   1.00666   13.086
 4446.00    1.04850   1.00153   13.701
 4447.00    1.04702   0.99091   14.004
 4448.00    1.03175   0.98203   13.981
 4449.00    1.00990   0.98051   14.014
 4450.00    0.99012   0.98663   14.076
 4451.00    0.97876   0.99668   14.005
 4452.00    0.97639   1.00673   13.909
 4453.00    0.98175   1.01361   13.917
 4454.00    0.99573   1.01542   13.929
 4455.00    1.01605   1.01317   13.845
 4456.00    1.03291   1.00859   13.791
 4457.00    1.03981   1.00123   13.946
 4458.00    1.04222   0.98989   14.380
 4459.00    1.04422   0.97585   14.948
 4460.00    1.03848   0.96287   15.181
 4461.00    1.02204   0.95377    0.000
 4462.00    1.00741   0.94907    0.000
 4463.00    1.00527   0.94793    0.000
 4464.00    1.01230   0.94893    0.000
 4465.00    1.02168   0.95030    0.000
 4466.00    1.03057   0.95215    0.000
 4467.00    1.03645   0.95682    0.000
 4468.00    1.03532   0.96488    0.000
 4469.00    1.02706   0.97417    0.000
 4470.00    1.01762   0.98206    0.000
 4471.00    1.01223   0.98644    0.000
 4472.00    1.01197   0.98592    0.000
 4473.00    1.01720   0.98098    0.000
 4474.00    1.02893   0.97481    0.000
 4475.00    1.04546   0.97141    0.000
 4476.00    1.06204   0.97395    0.000
 4477.00    1.07690   0.98379    0.000
 4478.00    1.09257   0.99923    0.000
 4479.00    1.10885   1.01620    0.000
 4480.00    1.12109   1.03111    0.000
 4481.00    1.12632   1.04202    0.000
 4482.00    1.12460   1.04720   15.591
 4483.00    1.11440   1.04475   15.899
 4484.00    1.09335   1.03446   16.167
 4485.00    1.06738   1.01927   16.254
 4486.00    1.04956   1.00493   15.974
 4487.00    1.04561   0.99759   15.537
 4488.00    1.05224   1.00038   15.388
 4489.00    1.06776   1.01152   15.552
 4490.00    1.09208   1.02573   15.696
 4491.00    1.11700   1.03681   15.730
 4492.00    1.12989   1.04029   15.852
 4493.00    1.13116   1.03576   16.100
 4494.00    1.13174   1.02729   16.326
 4495.00    1.13447   1.02038   16.484
 4496.00    1.13433   1.01783   16.625
 4497.00    1.13049   1.01840   16.653
 4498.00    1.12504   1.01888   16.425
 4499.00    1.11391   1.01750   16.101
 4500.00    1.09119   1.01524   15.963
 4501.00    1.06212   1.01458   15.988
 4502.00    1.03750   1.01764   16.015
 4503.00    1.01788   1.02425   16.184
 4504.00    0.99940   1.03200   16.702
 4505.00    0.98962   1.03848   17.208
 4506.00    1.00004   1.04400   17.190
 4507.00    1.02866   1.05089   17.176
 4508.00    1.06263   1.05997   17.727
 4509.00    1.08754   1.06959   17.521
 4510.00    1.09561   1.07727   15.522
 4511.00    1.09477   1.08126   13.839
 4512.00    1.09714   1.08140   13.749
 4513.00    1.10144   1.07918   14.258
 4514.00    1.09981   1.07659   13.980
 4515.00    1.09001   1.07420   13.773
 4516.00    1.07585   1.07095   14.917
 4517.00    1.06522   1.06590   16.779
 4518.00    1.06203   1.05925   17.425
 4519.00    1.05799   1.05216   17.079
 4520.00    1.04351   1.04614   17.091
 4521.00    1.01996   1.04196   17.313
 4522.00    0.99478   1.03949   17.212
 4523.00    0.97509   1.03887   17.153
 4524.00    0.96579   1.04020   17.374
 4525.00    0.96834   1.04217   17.066
 4526.00    0.98044   1.04238   16.094
 4527.00    0.99618   1.03906   15.924
 4528.00    1.00885   1.03254   17.059
 4529.00    1.01361   1.02364   17.433
 4530.00    1.01007   1.01247   16.488
 4531.00    1.00304   0.99963   18.095
 4532.00    0.99348   0.98663   18.606
 4533.00    0.97398   0.97554   15.539
 4534.00    0.94427   0.96837    8.205
 4535.00    0.92010   0.96608    6.000
 4536.00    0.91976   0.96765    5.972
 4537.00    0.95222   0.97024    6.499
 4538.00    1.00177   0.97102    6.509
 4539.00    1.02748   0.97057    6.296
 4540.00    1.01115   0.97287    6.281
 4541.00    0.97830   0.98181    6.285
 4542.00    0.96402   0.99708    6.174
 4543.00    0.98980   1.01378    6.117
 4544.00    1.04356   1.02663    6.180
 4545.00    1.08441   1.03316    6.205
 4546.00    1.10735   1.03444    6.133
 4547.00    1.15166   1.03321    6.102
 4548.00    1.20782   1.03101    6.176
 4549.00    1.20797   1.02806    6.277
 4550.00    1.15105   1.02482    0.000
 4551.00    1.11666   1.02154    0.000
 4552.00    1.12457   1.01735    0.000
 4553.00    1.11468   1.01156    0.000
 4554.00    1.06677   1.00533    0.000
 4555.00    1.02115   1.00131    0.000
 4556.00    1.00391   1.00015    0.000
 4557.00    1.00822   0.99983    0.000
 4558.00    1.01593   0.99932    0.000
 4559.00    1.01109   0.99931    0.000
 4560.00    0.99771   1.00185    0.000
 4561.00    0.99281   1.00908    0.000
 4562.00    0.99482   1.02101    0.000
 4563.00    0.98819   1.03500    0.000
 4564.00    0.97601   1.04770    0.000
 4565.00    0.97761   1.05660    0.000
 4566.00    1.00339   1.06035    0.000
 4567.00    1.04920   1.05847    0.000
 4568.00    1.09780   1.05188    0.000
 4569.00    1.12706   1.04390    0.000
 4570.00    1.12596   1.03861    0.000
 4571.00    1.09666   1.03849    0.000
 4572.00    1.05179   1.04311    0.000
 4573.00    1.00702   1.04917    0.000
 4574.00    0.96926   1.05309    0.000
 4575.00    0.94420   1.05269    0.000
 4576.00    0.95157   1.04856    0.000
 4577.00    1.00826   1.04513    0.000
 4578.00    1.09871   1.04589    0.000
 4579.00    1.18510   1.04977    0.000
 4580.00    1.23038   1.05424    0.000
 4581.00    1.21812   1.05723    0.000
 4582.00    1.17358   1.05682    0.000
 4583.00    1.13925   1.05196    0.000
 4584.00    1.13890   1.04309    0.000
 4585.00    1.16596   1.03264    0.000
 4586.00    1.17829   1.02375    0.000
 4587.00    1.14211   1.01840    0.000
 4588.00    1.07950   1.01643    0.000
 4589.00    1.03284   1.01708    0.000
 4590.00    1.02149   1.01994    0.000
 4591.00    1.04237   1.02473    0.000
 4592.00    1.07652   1.03152    0.000
 4593.00    1.10716   1.03903    0.000
 4594.00    1.13364   1.04484    0.000
 4595.00    1.14972   1.04692    0.000
 4596.00    1.12819   1.04485    0.000
 4597.00    1.06355   1.04019    0.000
 4598.00    1.00142   1.03557    0.000
 4599.00    0.98336   1.03260    0.000
 4600.00    1.00577   1.03165    0.000
 4601.00    1.04485   1.03269    0.000
 4602.00    1.07870   1.03491    0.000
 4603.00    1.10061   1.03711    0.000
 4604.00    1.12305   1.03824    0.000
 4605.00    1.15163   1.03751    0.000
 4606.00    1.17149   1.03600    0.000
 4607.00    1.16717   1.03544    0.000
 4608.00    1.13684   1.03643    0.000
 4609.00    1.10205   1.03901    0.000
 4610.00    1.10216   1.04283    0.000
 4611.00    1.13995   1.04794    0.000
 4612.00    1.16864   1.05449    0.000
 4613.00    1.16708   1.06221    0.000
 4614.00    1.16287   1.06957    0.000
 4615.00    1.16816   1.07433    0.000
 4616.00    1.15991   1.07549    0.000
 4617.00    1.12406   1.07386    0.000
 4618.00    1.07247   1.07099    0.000
 4619.00    1.03256   1.06862    0.000
 4620.00    1.03535   1.06738    0.000
 4621.00    1.08886   1.06650    0.000
 4622.00    1.17093   1.06582    0.000
 4623.00    1.23933   1.06516    0.000
 4624.00    1.25091   1.06463    0.000
 4625.00    1.20938   1.06552    0.000
 4626.00    1.16084   1.06838    0.000
 4627.00    1.13370   1.07191    0.000
 4628.00    1.12851   1.07473    0.000
 4629.00    1.14211   1.07604    0.000
 4630.00    1.17131   1.07550    0.000
 4631.00    1.20426   1.07363    0.000
 4632.00    1.22369   1.07131    0.000
 4633.00    1.22096   1.06873    0.000
 4634.00    1.19819   1.06600    0.000
 4635.00    1.16532   1.06410    0.000
 4636.00    1.13705   1.06355    0.000
 4637.00    1.12792   1.06311    0.000
 4638.00    1.14157   1.06142    0.000
 4639.00    1.15276   1.05855    0.000
 4640.00    1.13476   1.05506    0.000
 4641.00    1.11531   1.05104    0.000
 4642.00    1.13906   1.04648    0.000
 4643.00    1.18489   1.04210    0.000
 4644.00    1.19479   1.03929    0.000
 4645.00    1.14554   1.03926    0.000
 4646.00    1.05362   1.04222    0.000
 4647.00    0.96304   1.04654    0.000
 4648.00    0.91848   1.04926    0.000
 4649.00    0.93004   1.04799    0.000
 4650.00    0.98110   1.04190    0.000
 4651.00    1.04617   1.03200    0.000
 4652.00    1.09843   1.02165    0.000
 4653.00    1.11675   1.01497    0.000
 4654.00    1.09224   1.01412    0.000
 4655.00    1.03493   1.01837    0.000
 4656.00    0.97248   1.02514    0.000
 4657.00    0.94500   1.03162    0.000
 4658.00    0.97252   1.03584    0.000
 4659.00    1.02504   1.03691    0.000
 4660.00    1.06200   1.03622    0.000
 4661.00    1.07298   1.03708    0.000
 4662.00    1.06664   1.04226    0.000
 4663.00    1.05656   1.05217    0.000
 4664.00    1.05562   1.06435    0.000
 4665.00    1.07064   1.07442    0.000
 4666.00    1.08997   1.07874    0.000
 4667.00    1.07983   1.07627    0.000
 4668.00    1.03178   1.06834    0.000
 4669.00    0.98996   1.05699    0.000
 4670.00    0.98319   1.04352    0.000
 4671.00    0.98451   1.02841    0.000
 4672.00    0.97564   1.01319    0.000
 4673.00    0.98303   1.00187    0.000
 4674.00    1.02235   0.99874    0.000
 4675.00    1.06844   1.00446    0.000
 4676.00    1.09259   1.01593    0.000
 4677.00    1.08585   1.02863    0.000
 4678.00    1.06001   1.03909    0.000
 4679.00    1.04215   1.04638    0.000
 4680.00    1.04684   1.05141    0.000
 4681.00    1.06487   1.05490    0.000
 4682.00    1.07750   1.05634    0.000
 4683.00    1.06875   1.05449    0.000
 4684.00    1.04718   1.04924    0.000
 4685.00    1.04462   1.04241    0.000
 4686.00    1.07165   1.03646    0.000
 4687.00    1.10763   1.03322    0.000
 4688.00    1.13537   1.03334    0.000
 4689.00    1.15308   1.03594    0.000
 4690.00    1.16646   1.03903    0.000
 4691.00    1.18154   1.04137    0.000
 4692.00    1.19160   1.04307    0.000
 4693.00    1.18221   1.04458    0.000
 4694.00    1.16080   1.04613    0.000
 4695.00    1.15225   1.04772    0.000
 4696.00    1.15834   1.04943    0.000
 4697.00    1.15892   1.05207    0.000
 4698.00    1.14904   1.05647    0.000
 4699.00    1.13887   1.06203    0.000
 4700.00    1.12658   1.06700    0.000
 4701.00    1.10396   1.06948    0.000
 4702.00    1.08672   1.06778    0.000
 4703.00    1.09973   1.06142    0.000
 4704.00    1.12820   1.05193    0.000
 4705.00    1.13315   1.04230    0.000
 4706.00    1.10733   1.03448    0.000
 4707.00    1.07329   1.02844    0.000
 4708.00    1.05514   1.02410    0.000
 4709.00    1.06291   1.02227    0.000
 4710.00    1.07550   1.02319    0.000
 4711.00    1.06639   1.02503    0.000
 4712.00    1.05166   1.02551    0.000
 4713.00    1.06268   1.02456    0.000
 4714.00    1.08962   1.02408    0.000
 4715.00    1.09999   1.02595    0.000
 4716.00    1.08089   1.03062    0.000
 4717.00    1.04356   1.03658    0.000
 4718.00    1.01916   1.04110    0.000
 4719.00    1.03291   1.04346    0.000
 4720.00    1.07207   1.04549    0.000
 4721.00    1.10947   1.04968    0.000
 4722.00    1.13717   1.05692    0.000
 4723.00    1.15635   1.06558    0.000
 4724.00    1.16134   1.07336    0.000
 4725.00    1.14760   1.07910    0.000
 4726.00    1.12158   1.08238    0.000
 4727.00    1.09099   1.08341    0.000
 4728.00    1.05469   1.08304    0.000
 4729.00    1.01376   1.08208    0.000
 4730.00    0.98182   1.08001    0.000
 4731.00    0.97214   1.07507    0.000
 4732.00    0.98542   1.06626    0.000
 4733.00    1.01293   1.05477    0.000
 4734.00    1.04089   1.04411    0.000
 4735.00    1.05735   1.03751    0.000
 4736.00    1.05799   1.03570    0.000
 4737.00    1.04987   1.03771    0.000
 4738.00    1.05070   1.04214    0.000
 4739.00    1.06590   1.04713    0.000
 4740.00    1.07697   1.05114    0.000
 4741.00    1.07227   1.05362    0.000
 4742.00    1.06462   1.05466    0.000
 4743.00    1.07152   1.05558    0.000
 4744.00    1.10024   1.05763    0.000
 4745.00    1.13626   1.06009    0.000
 4746.00    1.14559   1.06205    0.000
 4747.00    1.12077   1.06387    0.000
 4748.00    1.09494   1.06630    0.000
 4749.00    1.08769   1.06942    0.000
 4750.00    1.08418   1.07257    0.000
 4751.00    1.06865   1.07535    0.000
 4752.00    1.04159   1.07795    0.000
 4753.00    1.02224   1.08017    0.000
 4754.00    1.03835   1.08134    0.000
 4755.00    1.08247   1.08121    0.000
 4756.00    1.10969   1.07972    0.000
 4757.00    1.09772   1.07660    0.000
 4758.00    1.06208   1.07186    0.000
 4759.00    1.02589   1.06632    0.000
 4760.00    1.00609   1.06119    0.000
 4761.00    1.00617   1.05749    8.318
 4762.00    1.01851   1.05560    8.423
 4763.00    1.03910   1.05525    8.420
 4764.00    1.06603   1.05547    8.246
 4765.00    1.08210   1.05475    8.034
 4766.00    1.06444   1.05159    7.998
 4767.00    1.02383   1.04519    8.150
 4768.00    0.99801   1.03645    8.328
 4769.00    1.00744   1.02799    8.405
 4770.00    1.04574   1.02242    8.369
 4771.00    1.08544   1.02089    8.297
 4772.00    1.09627   1.02348    8.283
 4773.00    1.08126   1.02949    8.330
 4774.00    1.06448   1.03723    8.373
 4775.00    1.04911   1.04457    8.392
 4776.00    1.02425   1.05002    8.407
 4777.00    0.99496   1.05335    8.421
 4778.00    0.98059   1.05586    8.420
 4779.00    1.00052   1.05932    8.401
 4780.00    1.06017   1.06409    8.381
 4781.00    1.13306   1.06873    8.393
 4782.00    1.17982   1.07152    8.456
 4783.00    1.18307   1.07190    8.519
 4784.00    1.15017   1.07020    8.531
 4785.00    1.10760   1.06682    8.550
 4786.00    1.08106   1.06251    8.646
 4787.00    1.06958   1.05819    8.735
 4788.00    1.05884   1.05411    8.705
 4789.00    1.04301   1.05010    8.623
 4790.00    1.02299   1.04640    8.611
 4791.00    1.00087   1.04334    8.665
 4792.00    0.98091   1.04069    8.717
 4793.00    0.97104   1.03872    8.709
 4794.00    0.97819   1.03871    8.645
 4795.00    1.00312   1.04118    8.610
 4796.00    1.04003   1.04601    8.662
 4797.00    1.07708   1.05329    8.721
 4798.00    1.10090   1.06218    8.699
 4799.00    1.10154   1.07113    8.626
 4800.00    1.07976   1.07846    8.575
 4801.00    1.05160   1.08232    8.584
 4802.00    1.03440   1.08158    8.657
 4803.00    1.03497   1.07696    8.750
 4804.00    1.05140   1.07080    8.795
 4805.00    1.07478   1.06583    8.726
 4806.00    1.08643   1.06392    8.567
 4807.00    1.06054   1.06512    8.454
 4808.00    0.99766   1.06755    8.440
 4809.00    0.94044   1.06872    8.420
 4810.00    0.92599   1.06723    8.326
 4811.00    0.95591   1.06362    8.235
 4812.00    1.00726   1.05975    8.207
 4813.00    1.04551   1.05742    8.219
 4814.00    1.05380   1.05698    8.259
 4815.00    1.04442   1.05814    8.367
 4816.00    1.03216   1.06054    8.516
 4817.00    1.02172   1.06340    8.576
 4818.00    1.01747   1.06629    8.542
 4819.00    1.02631   1.06936    8.571
 4820.00    1.04753   1.07278    8.627
 4821.00    1.06999   1.07652    8.442
 4822.00    1.08102   1.08019    8.097
 4823.00    1.07308   1.08308    7.996
 4824.00    1.05383   1.08444    8.194
 4825.00    1.04269   1.08347    8.349
 4826.00    1.04332   1.07978    8.305
 4827.00    1.04219   1.07354    8.266
 4828.00    1.03982   1.06595    8.335
 4829.00    1.05153   1.05883    8.426
 4830.00    1.07329   1.05396    8.469
 4831.00    1.08280   1.05266    8.471
 4832.00    1.07764   1.05421    8.460
 4833.00    1.07601   1.05593    8.457
 4834.00    1.08480   1.05594    8.436
 4835.00    1.09592   1.05424    8.362
 4836.00    1.10191   1.05208    8.286
 4837.00    1.10030   1.05066    8.298
 4838.00    1.09360   1.05049    8.370
 4839.00    1.08862   1.05168    8.384
 4840.00    1.09478   1.05400    8.311
 4841.00    1.11740   1.05613    8.213
 4842.00    1.14458   1.05638    8.127
 4843.00    1.15274   1.05411    8.072
 4844.00    1.12434   1.04988    8.090
 4845.00    1.05978   1.04475    8.220
 4846.00    0.99200   1.04013    8.421
 4847.00    0.96535   1.03742    8.590
 4848.00    0.99320   1.03728    0.000
 4849.00    1.05702   1.03909    0.000
 4850.00    1.11882   1.04154    0.000
 4851.00    1.14408   1.04352    0.000
 4852.00    1.13324   1.04399    0.000
 4853.00    1.10859   1.04210    0.000
 4854.00    1.08737   1.03812    0.000
 4855.00    1.07516   1.03326    0.000
 4856.00    1.06307   1.02844    0.000
 4857.00    1.04172   1.02312    0.000
 4858.00    1.01886   1.01543    0.000
 4859.00    1.00747   1.00387    0.000
 4860.00    1.00899   0.98834    0.000
 4861.00    1.01740   0.96915    0.000
 4862.00    1.02660   0.94607    0.000
 4863.00    1.03876   0.91837    0.000
 4864.00    1.07015   0.88539    0.000
 4865.00    1.12768   0.84845    0.000
 4866.00    1.18715   0.81351    0.000
 4867.00    1.21593   0.79018    0.000
 4868.00    1.19676   0.78673    0.000
 4869.00    1.13364   0.80533    0.000
 4870.00    1.05357   0.84016    0.000
 4871.00    0.99167   0.88012    0.000
 4872.00    0.97522   0.91562    0.000
 4873.00    0.99604   0.94227    0.000
 4874.00    0.99979   0.95920    0.000
 4875.00    0.95807   0.96747    8.933
 4876.00    0.91178   0.97002    9.126
 4877.00    0.90322   0.97070    9.067
 4878.00    0.93145   0.97296    8.934
 4879.00    0.97584   0.97904    8.883
 4880.00    1.01449   0.98914    8.838
 4881.00    1.03497   1.00107    8.739
 4882.00    1.03946   1.01224    8.670
 4883.00    1.04070   1.02171    8.693
 4884.00    1.05594   1.02961    8.779
 4885.00    1.08894   1.03560    8.877
 4886.00    1.12403   1.03901    8.949
 4887.00    1.14226   1.03980    8.972
 4888.00    1.13215   1.03792    8.951
 4889.00    1.10040   1.03399    8.924
 4890.00    1.07015   1.02953    8.948
 4891.00    1.05354   1.02517    8.982
 4892.00    1.04469   1.02067    8.903
 4893.00    1.03859   1.01614    8.771
 4894.00    1.03669   1.01204    8.805
 4895.00    1.03891   1.00909    8.993
 4896.00    1.04212   1.00871    9.069
 4897.00    1.04559   1.01316    8.965
 4898.00    1.05293   1.02416    8.883
 4899.00    1.07172   1.04116    8.885
 4900.00    1.10719   1.06114    8.867
 4901.00    1.14423   1.07909    8.815
 4902.00    1.15679   1.09087    8.805
 4903.00    1.14873   1.09530    8.779
 4904.00    1.14797   1.09343    8.606
 4905.00    1.16103   1.08747    8.375
 4906.00    1.16879   1.08001    8.297
 4907.00    1.14708   1.07317    8.392
 4908.00    1.08556   1.06861    8.516
 4909.00    1.01748   1.06715    8.539
 4910.00    0.99488   1.06825    8.427
 4911.00    1.02193   1.07050    8.295
 4912.00    1.06251   1.07213    8.281
 4913.00    1.08507   1.07122    8.334
 4914.00    1.07467   1.06678    8.341
 4915.00    1.03773   1.05995    8.417
 4916.00    0.99873   1.05374    8.734
 4917.00    0.99175   1.05102    9.073
 4918.00    1.03645   1.05284    9.042
 4919.00    1.10278   1.05800    8.827
 4920.00    1.14197   1.06326    8.829
 4921.00    1.14228   1.06454    8.995
 4922.00    1.12052   1.05879    9.054
 4923.00    1.09697   1.04528    8.989
 4924.00    1.08643   1.02606    8.948
 4925.00    1.09118   1.00572    9.008
 4926.00    1.10318   0.98990    9.162
 4927.00    1.10855   0.98282    9.333
 4928.00    1.09629   0.98555    9.405
 4929.00    1.06769   0.99617    9.303
 4930.00    1.03411   1.01146    9.038
 4931.00    1.01257   1.02847    8.728
 4932.00    1.01685   1.04521    8.500
 4933.00    1.04857   1.06050    8.425
 4934.00    1.09630   1.07312    8.464
 4935.00    1.13729   1.08137    8.424
 4936.00    1.15509   1.08384    8.257
 4937.00    1.15402   1.08041    8.266
 4938.00    1.14405   1.07237    8.627
 4939.00    1.12723   1.06197    9.011
 4940.00    1.10270   1.05183    0.000
 4941.00    1.07176   1.04355    0.000
 4942.00    1.03944   1.03737    0.000
 4943.00    1.01454   1.03329    0.000
 4944.00    1.00311   1.03171    0.000
 4945.00    1.00430   1.03352    0.000
 4946.00    1.01426   1.03976    0.000
 4947.00    1.02844   1.05013    0.000
 4948.00    1.03921   1.06237    0.000
 4949.00    1.03604   1.07347    0.000
 4950.00    1.01606   1.08131    0.000
 4951.00    0.98974   1.08582    0.000
 4952.00    0.97746   1.08861    0.000
 4953.00    1.00078   1.09117    0.000
 4954.00    1.04905   1.09402    0.000
 4955.00    1.07637   1.09686    0.000
 4956.00    1.06749   1.09872    0.000
 4957.00    1.05646   1.09819    0.000
 4958.00    1.06714   1.09420    0.000
 4959.00    1.09092   1.08612    0.000
 4960.00    1.10879   1.07376    0.000
 4961.00    1.10593   1.05796    0.000
 4962.00    1.08917   1.04149    0.000
 4963.00    1.08396   1.02866    0.000
 4964.00    1.09914   1.02345    0.000
 4965.00    1.12049   1.02718    0.000
 4966.00    1.13339   1.03757    0.000
 4967.00    1.13257   1.05003    0.000
 4968.00    1.12686   1.05970    0.000
 4969.00    1.13158   1.06356    0.000
 4970.00    1.14222   1.06179    0.000
 4971.00    1.13781   1.05665    0.000
 4972.00    1.11146   1.05079    0.000
 4973.00    1.07346   1.04624    0.000
 4974.00    1.03639   1.04426    0.000
 4975.00    1.00945   1.04534    0.000
 4976.00    0.99470   1.04919    0.000
 4977.00    0.98888   1.05493    0.000
 4978.00    0.98951   1.06141    0.000
 4979.00    0.99702   1.06732    0.000
 4980.00    1.01601   1.07131    0.000
 4981.00    1.04925   1.07228    0.000
 4982.00    1.08602   1.06961    0.000
 4983.00    1.11019   1.06327    0.000
 4984.00    1.11911   1.05364    0.000
 4985.00    1.12049   1.04130    0.000
 4986.00    1.12072   1.02714    0.000
 4987.00    1.12179   1.01269    0.000
 4988.00    1.12001   1.00030    0.000
 4989.00    1.10961   0.99279    0.000
 4990.00    1.08851   0.99221    0.000
 4991.00    1.05901   0.99857    0.000
 4992.00    1.02736   1.00973    0.000
 4993.00    1.00233   1.02210    0.000
 4994.00    0.99303   1.03223    0.000
 4995.00    1.00376   1.03831    0.000
 4996.00    1.02817   1.04074    0.000
 4997.00    1.05335   1.04126    0.000
 4998.00    1.06597   1.04169    0.000
 4999.00    1.06002   1.04306    0.000
 5000.00    1.04357   1.04529    0.000
 5001.00    1.02859   1.04737    0.000
 5002.00    1.01991   1.04792    0.000
 5003.00    1.01769   1.04565    0.000
 5004.00    1.02105   1.04022    0.000
 5005.00    1.03099   1.03253    0.000
 5006.00    1.05167   1.02418    0.000
 5007.00    1.08150   1.01684    0.000
 5008.00    1.10691   1.01128    0.000
 5009.00    1.11463   1.00714    0.000
 5010.00    1.10224   1.00380    0.000
 5011.00    1.08076   1.00132    0.000
 5012.00    1.07282   1.00067    0.000
 5013.00    1.09061   1.00271    0.000
 5014.00    1.12266   1.00684    0.000
 5015.00    1.14929   1.01066    0.000
 5016.00    1.15445   1.01120    0.000
 5017.00    1.13187   1.00675    0.000
 5018.00    1.08779   0.99801    0.000
 5019.00    1.03629   0.98774    0.000
 5020.00    0.99411   0.97937    0.000
 5021.00    0.96799   0.97524    0.000
 5022.00    0.95146   0.97585    0.000
 5023.00    0.94244   0.98015    0.000
 5024.00    0.94847   0.98658    0.000
 5025.00    0.96900   0.99370    0.000
 5026.00    0.99043   1.00051    0.000
 5027.00    1.00199   1.00646    0.000
 5028.00    1.00201   1.01147    0.000
 5029.00    0.99400   1.01574   10.367
 5030.00    0.98542   1.01940   10.395
 5031.00    0.98929   1.02236   10.415
 5032.00    1.01950   1.02472   10.431
 5033.00    1.07236   1.02709   10.450
 5034.00    1.12456   1.03049   10.478
 5035.00    1.14880   1.03556   10.519
 5036.00    1.12783   1.04201   10.553
 5037.00    1.07985   1.04847   10.481
 5038.00    1.04788   1.05286   10.224
 5039.00    1.04684   1.05327    9.985
 5040.00    1.05986   1.04870   10.057
 5041.00    1.07132   1.03953   10.292
 5042.00    1.07411   1.02718   10.232
 5043.00    1.06427   1.01323    9.955
 5044.00    1.04261   0.99894    9.909
 5045.00    1.02159   0.98573   10.114
 5046.00    1.01776   0.97595   10.244
 5047.00    1.03147   0.97274   10.175
 5048.00    1.05006   0.97832   10.040
 5049.00    1.06372   0.99212    9.972
 5050.00    1.06833   1.01046   10.026
 5051.00    1.06429   1.02786   10.132
 5052.00    1.05528   1.03950   10.176
 5053.00    1.04648   1.04318   10.174
 5054.00    1.04142   1.03983   10.201
 5055.00    1.03764   1.03284   10.226
 5056.00    1.03131   1.02638   10.172
 5057.00    1.02569   1.02367   10.074
 5058.00    1.02808   1.02597   10.013
 5059.00    1.04330   1.03254    9.991
 5060.00    1.07003   1.04143    9.979
 5061.00    1.09766   1.05045   10.001
 5062.00    1.11264   1.05806   10.072
 5063.00    1.10764   1.06364   10.117
 5064.00    1.08311   1.06733   10.087
 5065.00    1.04773   1.06936   10.103
 5066.00    1.01667   1.06958   10.247
 5067.00    1.00810   1.06736   10.321
 5068.00    1.02690   1.06200   10.174
 5069.00    1.05020   1.05354   10.066
 5070.00    1.05782   1.04330   10.211
 5071.00    1.06193   1.03361   10.373
 5072.00    1.07785   1.02669   10.284
 5073.00    1.09564   1.02355   10.115
 5074.00    1.09895   1.02366   10.091
 5075.00    1.08364   1.02551   10.179
 5076.00    1.05394   1.02754   10.252
 5077.00    1.01772   1.02885   10.257
 5078.00    0.98441   1.02931   10.233
 5079.00    0.96311   1.02924   10.300
 5080.00    0.95821   1.02880   10.491
 5081.00    0.96662   1.02754   10.651
 5082.00    0.98060   1.02440   10.667
 5083.00    0.99089   1.01845   10.641
 5084.00    0.99345   1.00978   10.681
 5085.00    0.99310   1.00001   10.772
 5086.00    0.99965   0.99187   10.865
 5087.00    1.02285   0.98795   10.937
 5088.00    1.05817   0.98942   11.022
 5089.00    1.08384   0.99573   11.196
 5090.00    1.08712   1.00509   11.420
 5091.00    1.07528   1.01539   11.497
 5092.00    1.05991   1.02492   11.420
 5093.00    1.04858   1.03271   11.452
 5094.00    1.04422   1.03861   11.639
 5095.00    1.04537   1.04313   11.700
 5096.00    1.04828   1.04698   11.626
 5097.00    1.04922   1.05054   11.760
 5098.00    1.04973   1.05345   12.058
 5099.00    1.05673   1.05465   11.979
 5100.00    1.07517   1.05282   11.489
 5101.00    1.10304   1.04715   11.142
 5102.00    1.12455   1.03806   11.104
 5103.00    1.11808   1.02737   11.143
 5104.00    1.08911   1.01785   11.144
 5105.00    1.06766   1.01209   11.187
 5106.00    1.06754   1.01125   11.281
 5107.00    1.07969   1.01452   11.331
 5108.00    1.09021   1.01944   11.300
 5109.00    1.08849   1.02321   11.223
 5110.00    1.07414   1.02393   11.097
 5111.00    1.05575   1.02128   10.899
 5112.00    1.04310   1.01634   10.714
 5113.00    1.04233   1.01094   10.639
 5114.00    1.04958   1.00696   10.572
 5115.00    1.05362   1.00580   10.370
 5116.00    1.04492   1.00805   10.257
 5117.00    1.02248   1.01341   10.544
 5118.00    1.00275   1.02090   10.982
 5119.00    1.00634   1.02926   10.936
 5120.00    1.02976   1.03740   10.374
 5121.00    1.05186   1.04459    9.786
 5122.00    1.05539   1.05034    9.503
 5123.00    1.03655   1.05408    9.592
 5124.00    1.01333   1.05502    9.756
 5125.00    1.00598   1.05238    9.661
 5126.00    1.00563   1.04583    9.599
 5127.00    0.99286   1.03586    9.978
 5128.00    0.97127   1.02383   10.493
 5129.00    0.95420   1.01169   10.558
 5130.00    0.94069   1.00139   10.484
 5131.00    0.92941   0.99424   10.781
 5132.00    0.93903   0.99051   11.009
 5133.00    0.98293   0.98968   10.590
 5134.00    1.03781   0.99095   10.116
 5135.00    1.07134   0.99379   10.201
 5136.00    1.07699   0.99801   10.573
 5137.00    1.06597   1.00344   10.706
 5138.00    1.05367   1.00959   10.621
 5139.00    1.04932   1.01552   10.572
 5140.00    1.04818   1.01998   10.578
 5141.00    1.04311   1.02174   10.589
 5142.00    1.03556   1.02007   10.662
 5143.00    1.03015   1.01520   10.804
 5144.00    1.02879   1.00841   10.830
 5145.00    1.02863   1.00151   10.665
 5146.00    1.02223   0.99598   10.544
 5147.00    1.00888   0.99248   10.634
 5148.00    1.00114   0.99089   10.806
 5149.00    1.00778   0.99074   10.916
 5150.00    1.02275   0.99147   11.013
 5151.00    1.03679   0.99259   11.149
 5152.00    1.04564   0.99369   11.250
 5153.00    1.04799   0.99451   11.261
 5154.00    1.04432   0.99492   11.244
 5155.00    1.03871   0.99470   11.258
 5156.00    1.03859   0.99369   11.299
 5157.00    1.04751   0.99212   11.338
 5158.00    1.06138   0.99092   11.353
 5159.00    1.07020   0.99156   11.326
 5160.00    1.06194   0.99533   11.254
 5161.00    1.03584   1.00263   11.175
 5162.00    1.00604   1.01265   11.162
 5163.00    0.98830   1.02359   11.252
 5164.00    0.99218   1.03331   11.426
 5165.00    1.01455   1.03993   11.601
 5166.00    1.04067   1.04220   11.663
 5167.00    1.05873   1.03933   11.640
 5168.00    1.06447   1.03068   11.690
 5169.00    1.05629   1.01557   11.806
 5170.00    1.03314   0.99367   11.804
 5171.00    0.99414   0.96595   11.699
 5172.00    0.94265   0.93550   11.702
 5173.00    0.89947   0.90700   11.825
 5174.00    0.89347   0.88481   11.858
 5175.00    0.92185   0.87080   11.715
 5176.00    0.95205   0.86384   11.510
 5177.00    0.96129   0.86197   11.413
 5178.00    0.94829   0.86485   11.522
 5179.00    0.93311   0.87428   11.641
 5180.00    0.94208   0.89198   11.445
 5181.00    0.97247   0.91684   11.100
 5182.00    1.00173   0.94427   11.023
 5183.00    1.02836   0.96804   11.208
 5184.00    1.06311   0.98275   11.341
 5185.00    1.09033   0.98532   11.309
 5186.00    1.08060   0.97539   11.239
 5187.00    1.03256   0.95541   11.291
 5188.00    0.97056   0.93086   11.529
 5189.00    0.92375   0.90952   11.760
 5190.00    0.91257   0.89898    0.000
 5191.00    0.93289   0.90320    0.000
 5192.00    0.96580   0.92045    0.000
 5193.00    0.99813   0.94433    0.000
 5194.00    1.02141   0.96710    0.000
 5195.00    1.02554   0.98311    0.000
 5196.00    1.00810   0.99045    0.000
 5197.00    0.98780   0.99059    0.000
 5198.00    0.98486   0.98705    0.000
 5199.00    0.99314   0.98367    0.000
 5200.00    0.99822   0.98328    0.000
 5201.00    1.00404   0.98701    0.000
 5202.00    1.01787   0.99430    0.000
 5203.00    1.02979   1.00368    0.000
 5204.00    1.02556   1.01328    0.000
 5205.00    1.00382   1.02124    0.000
 5206.00    0.97863   1.02583    0.000
 5207.00    0.97763   1.02575    0.000
 5208.00    1.01417   1.02034    0.000
 5209.00    1.06304   1.00997    0.000
 5210.00    1.09162   0.99612    0.000
 5211.00    1.09002   0.98115   11.502
 5212.00    1.06710   0.96784   11.494
 5213.00    1.04256   0.95874   11.332
 5214.00    1.02812   0.95570   11.139
 5215.00    1.01564   0.95955   11.091
 5216.00    0.99935   0.96992   11.254
 5217.00    0.99142   0.98491   11.486
 5218.00    1.00599   1.00135   11.620
 5219.00    1.04656   1.01569   11.622
 5220.00    1.10243   1.02543   11.554
 5221.00    1.14977   1.03027   11.512
 5222.00    1.16929   1.03208   11.542
 5223.00    1.15751   1.03367   11.608
 5224.00    1.12690   1.03709   11.676
 5225.00    1.10164   1.04242   11.765
 5226.00    1.09622   1.04783   11.882
 5227.00    1.10568   1.05045   11.993
 5228.00    1.11569   1.04771   12.013
 5229.00    1.10999   1.03843   11.852
 5230.00    1.07868   1.02357   11.633
 5231.00    1.02367   1.00633   11.655
 5232.00    0.96492   0.99143   11.955
 5233.00    0.93517   0.98331   12.208
 5234.00    0.94775   0.98412   12.186
 5235.00    0.98743   0.99255   11.984
 5236.00    1.02829   1.00453   11.814
 5237.00    1.04727   1.01546   11.840
 5238.00    1.04613   1.02257   12.002
 5239.00    1.04881   1.02604   12.053
 5240.00    1.06609   1.02821   11.937
 5241.00    1.08898   1.03174   11.820
 5242.00    1.10713   1.03792   11.702
 5243.00    1.11436   1.04613   11.506
 5244.00    1.10670   1.05459   11.572
 5245.00    1.07850   1.06160   12.248
 5246.00    1.01380   1.06629   12.092
 5247.00    0.90152   1.06875    9.495
 5248.00    0.77920   1.06944    6.887
 5249.00    0.70690   1.06861    5.551
 5250.00    0.67903   1.06603    5.213
 5251.00    0.65016   1.06121    5.619
 5252.00    0.63977   1.05403    6.007
 5253.00    0.70380   1.04523    5.347
 5254.00    0.82576   1.03629    4.835
 5255.00    0.93861   1.02886    5.855
 5256.00    1.01348   1.02408    9.502
 5257.00    1.05817   1.02234   12.787
 5258.00    1.08148   1.02338   11.120
 5259.00    1.08862   1.02668   10.250
 5260.00    1.08519   1.03181   10.827
 5261.00    1.07875   1.03854   11.124
 5262.00    1.07985   1.04641   10.782
 5263.00    1.09363   1.05421   10.584
 5264.00    1.10786   1.05965   10.562
 5265.00    1.10896   1.06000   10.398
 5266.00    1.10603   1.05324   10.196
 5267.00    1.11133   1.03908   10.162
 5268.00    1.11111   1.01937   10.141
 5269.00    1.08292   0.99745    9.907
 5270.00    1.02193   0.97706    9.562
 5271.00    0.94281   0.96092    9.327
 5272.00    0.87650   0.94997    9.308
 5273.00    0.84918   0.94347    9.440
 5274.00    0.86011   0.94013    9.429
 5275.00    0.88831   0.93948    9.133
 5276.00    0.90408   0.94237    8.899
 5277.00    0.89274   0.94994    8.986
 5278.00    0.87375   0.96215    9.180
 5279.00    0.87348   0.97736    9.227
 5280.00    0.89890   0.99331    9.277
 5281.00    0.93822   1.00854    9.526
 5282.00    0.96609   1.02265    9.877
 5283.00    0.96831   1.03544   10.148
 5284.00    0.95855   1.04597   10.288
 5285.00    0.95767   1.05260   10.345
 5286.00    0.97616   1.05419   10.383
 5287.00    1.00583   1.05127   10.455
 5288.00    1.01986   1.04632   10.575
 5289.00    1.00666   1.04278   10.731
 5290.00    0.98753   1.04350   10.876
 5291.00    0.98727   1.04943   10.958
 5292.00    1.01471   1.05931   10.938
 5293.00    1.05928   1.07051   10.824
 5294.00    1.09494   1.08042   10.682
 5295.00    1.10817   1.08747   10.604
 5296.00    1.10945   1.09128   10.673
 5297.00    1.11452   1.09208   10.834
 5298.00    1.13149   1.09009   10.874
 5299.00    1.14725   1.08519   10.750
 5300.00    1.13126   1.07716   10.663
 5301.00    1.07823   1.06611   10.696
 5302.00    1.01852   1.05310   10.727
 5303.00    0.98322   1.04027   10.682
 5304.00    0.98655   1.03034   10.613
 5305.00    1.01653   1.02551   10.572
 5306.00    1.04234   1.02648   10.560
 5307.00    1.05190   1.03246   10.531
 5308.00    1.05739   1.04173   10.429
 5309.00    1.06796   1.05246   10.318
 5310.00    1.08249   1.06296   10.336
 5311.00    1.09669   1.07189   10.470
 5312.00    1.10722   1.07847   10.565
 5313.00    1.11683   1.08270   10.557
 5314.00    1.13119   1.08528   10.509
 5315.00    1.14667   1.08702   10.473
 5316.00    1.15328   1.08828   10.459
 5317.00    1.15021   1.08883   10.442
 5318.00    1.14283   1.08815   10.418
 5319.00    1.12631   1.08592   10.510
 5320.00    1.09202   1.08225   10.848
 5321.00    1.04994   1.07773   11.196
 5322.00    1.02059   1.07324   11.118
 5323.00    1.00823   1.06963   10.758
 5324.00    1.00659   1.06728   10.562
 5325.00    1.02021   1.06582   10.543
 5326.00    1.05278   1.06426   10.502
 5327.00    1.07961   1.06140   10.529
 5328.00    1.07027   1.05632   10.813
 5329.00    1.03455   1.04865   11.162
 5330.00    1.00364   1.03843   11.230
 5331.00    0.98820   1.02596   11.176
 5332.00    0.98029   1.01206   11.332
 5333.00    0.96694   0.99857   11.529
 5334.00    0.94107   0.98854   11.460
 5335.00    0.91339   0.98519   11.376
 5336.00    0.90325   0.99025   11.583
 5337.00    0.92378   1.00258   11.724
 5338.00    0.97174   1.01870   11.399
 5339.00    1.01926   1.03460   11.084
 5340.00    1.03970   1.04733   11.276
 5341.00    1.03710   1.05557   11.731
 5342.00    1.02876   1.05915   11.946
 5343.00    1.02310   1.05846   11.892
 5344.00    1.02215   1.05439   11.825
 5345.00    1.02604   1.04835   11.887
 5346.00    1.03062   1.04235   12.060
 5347.00    1.02622   1.03845   12.154
 5348.00    1.01072   1.03786   12.065
 5349.00    0.99930   1.04033   11.983
 5350.00    1.00559   1.04432   12.064
 5351.00    1.02638   1.04792   12.197
 5352.00    1.05062   1.04994   12.232
 5353.00    1.06795   1.05038   12.171
 5354.00    1.07236   1.05029   12.083
 5355.00    1.06464   1.05113   12.011
 5356.00    1.05286   1.05405   11.925
 5357.00    1.05057   1.05947   11.720
 5358.00    1.06346   1.06695   11.404
 5359.00    1.08241   1.07551   11.149
 5360.00    1.09405   1.08413   11.098
 5361.00    1.08936   1.09195   11.286
 5362.00    1.07426   1.09833   11.534
 5363.00    1.06980   1.10274   11.458
 5364.00    1.08257   1.10466   11.082
 5365.00    1.09462   1.10374   10.930
 5366.00    1.09148   1.09987   11.151
 5367.00    1.07486   1.09340   11.344
 5368.00    1.05514   1.08516   11.241
 5369.00    1.04490   1.07627   11.028
 5370.00    1.04800   1.06780   10.886
 5371.00    1.05827   1.06031   10.827
 5372.00    1.07279   1.05368   10.793
 5373.00    1.09442   1.04721   10.724
 5374.00    1.12041   1.04015   10.658
 5375.00    1.13964   1.03252   -2.000
 5376.00    1.13848   1.02562   -2.000
 5377.00    1.10701   1.02185   -2.000
 5378.00    1.05135   1.02344   -2.000
 5379.00    0.98778   1.03111   -2.000
 5380.00    0.91262   1.04337   -2.000
 5381.00    0.80999   1.05709   -2.000
 5382.00    0.69949   1.06903   -2.000
 5383.00    0.63173   1.07711   -2.000
 5384.00    0.63938   1.08080   -2.000
 5385.00    0.72192   1.08078   -2.000
 5386.00    0.84239   1.07828   -2.000
 5387.00    0.94579   1.07466   -2.000
 5388.00    1.00296   1.07119   -2.000
 5389.00    1.01558   1.06886   -2.000
 5390.00    1.00367   1.06814   11.070
 5391.00    0.99406   1.06880   11.248
 5392.00    1.00292   1.06995   11.274
 5393.00    1.03197   1.07035   11.402
 5394.00    1.06869   1.06903   11.650
 5395.00    1.09548   1.06563   11.861
 5396.00    1.10572   1.06051   11.986
 5397.00    1.10223   1.05442   12.066
 5398.00    1.08988   1.04805   12.078
 5399.00    1.07519   1.04176   12.044
 5400.00    1.06727   1.03565   12.199
 5401.00    1.07197   1.02989   12.543
 5402.00    1.08354   1.02503   12.101
 5403.00    1.09319   1.02213   10.495
 5404.00    1.10187   1.02208    9.148
 5405.00    1.11148   1.02491    8.768
 5406.00    1.11234   1.02921    8.975
 5407.00    1.09391   1.03259    9.225
 5408.00    1.05932   1.03272    9.443
 5409.00    1.01926   1.02849    9.784
 5410.00    0.98325   1.02073   10.170
 5411.00    0.95949   1.01181   10.413
 5412.00    0.95534   1.00456   10.468
 5413.00    0.97300   1.00084   10.337
 5414.00    1.00548   1.00097    9.939
 5415.00    1.04122   1.00420    9.449
 5416.00    1.06903   1.00960    9.387
 5417.00    1.08132   1.01669    9.981
 5418.00    1.07683   1.02520   10.698
 5419.00    1.06210   1.03458   10.858
 5420.00    1.05060   1.04393   10.766
 5421.00    1.04659   1.05236   10.946
 5422.00    1.03648   1.05928   11.408
 5423.00    1.01617   1.06443   11.909
 5424.00    1.00636   1.06769   12.171
 5425.00    1.01862   1.06905   12.114
 5426.00    1.03609   1.06872   11.975
 5427.00    1.04288   1.06710   11.941
 5428.00    1.04120   1.06478   11.972
 5429.00    1.03734   1.06239   12.040
 5430.00    1.03400   1.06046   12.225
 5431.00    1.03793   1.05919   12.413
 5432.00    1.06032   1.05811   12.237
 5433.00    1.09654   1.05614   11.821
 5434.00    1.12149   1.05225   11.816
 5435.00    1.11872   1.04625   12.320
 5436.00    1.09294   1.03918   12.622
 5437.00    1.06115   1.03258   12.425
 5438.00    1.04402   1.02759   12.354
 5439.00    1.04870   1.02468   12.641
 5440.00    1.06506   1.02402   12.838
 5441.00    1.07981   1.02608   12.743
 5442.00    1.08513   1.03150   12.676
 5443.00    1.08793   1.04042   12.741
 5444.00    1.10492   1.05196   12.719
 5445.00    1.13404   1.06423   12.607
 5446.00    1.15470   1.07495   12.655
 5447.00    1.16003   1.08210   12.919
 5448.00    1.15966   1.08431   13.194
 5449.00    1.15592   1.08104   13.302
 5450.00    1.14201   1.07272   13.210
 5451.00    1.11739   1.06104   13.042
 5452.00    1.08981   1.04887   12.963
 5453.00    1.06882   1.03956   12.949
 5454.00    1.06098   1.03549   12.864
 5455.00    1.06309   1.03693   12.770
 5456.00    1.06500   1.04177   12.840
 5457.00    1.06008   1.04666   13.009
 5458.00    1.04869   1.04861   13.023
 5459.00    1.03989   1.04639   12.761
 5460.00    1.04386   1.04093   12.316
 5461.00    1.05641   1.03486   11.926
 5462.00    1.06327   1.03114   11.790
 5463.00    1.05436   1.03155   11.892
 5464.00    1.03020   1.03570   12.061
 5465.00    1.00765   1.04135   12.086
 5466.00    1.00682   1.04577   11.885
 5467.00    1.02827   1.04730   11.703
 5468.00    1.05814   1.04611   11.797
 5469.00    1.08210   1.04380   12.022
 5470.00    1.09168   1.04235   12.064
 5471.00    1.08990   1.04292   11.920
 5472.00    1.08678   1.04549   11.785
 5473.00    1.09164   1.04905   11.767
 5474.00    1.10621   1.05225   11.861
 5475.00    1.11818   1.05399   11.961
 5476.00    1.11396   1.05369   11.985
 5477.00    1.09447   1.05123   12.015
 5478.00    1.06949   1.04679   12.126
 5479.00    1.04894   1.04066   12.188
 5480.00    1.03688   1.03333   12.076
 5481.00    1.02705   1.02567   11.920
 5482.00    1.01285   1.01900   11.899
 5483.00    0.99691   1.01479   12.050
 5484.00    0.98496   1.01394   12.275
 5485.00    0.97944   1.01624   -2.000
 5486.00    0.97940   1.02053   -2.000
 5487.00    0.98177   1.02552   -2.000
 5488.00    0.98893   1.03054   -2.000
 5489.00    1.01243   1.03561   -2.000
 5490.00    1.05510   1.04076   -2.000
 5491.00    1.09678   1.04560   -2.000
 5492.00    1.09171   1.04937   -2.000
 5493.00    0.97817   1.05161   -2.000
 5494.00    0.75112   1.05258   -2.000
 5495.00    0.49305   1.05305   -2.000
 5496.00    0.26438   1.05374   -2.000
 5497.00    0.05631   1.05485   -2.000
 5498.00   -0.07577   1.05608   -2.000
 5499.00    0.02212   1.05688   -2.000
 5500.00    0.35666   1.05690   -2.000
 5501.00    0.70756   1.05605   -2.000
 5502.00    0.91605   1.05455   -2.000
 5503.00    1.00716   1.05278   -2.000
 5504.00    1.04971   1.05108   -2.000
 5505.00    1.08500   1.04958   -2.000
 5506.00    1.12488   1.04816   -2.000
 5507.00    1.15683   1.04649   -2.000
 5508.00    1.16393   1.04445   -2.000
 5509.00    1.13638   1.04228   11.758
 5510.00    1.08245   1.04021   11.748
 5511.00    1.02699   1.03839   11.762
 5512.00    0.99110   1.03701   11.855
 5513.00    0.98304   1.03631   11.938
 5514.00    0.99421   1.03636   11.960
 5515.00    1.00531   1.03662   11.972
 5516.00    1.00946   1.03621   12.071
 5517.00    1.01401   1.03451   12.309
 5518.00    1.02402   1.03175   12.444
 5519.00    1.03837   1.02918   12.145
 5520.00    1.05317   1.02844   11.826
 5521.00    1.06464   1.03070   12.101
 5522.00    1.07351   1.03611   12.257
 5523.00    1.08204   1.04377   11.021
 5524.00    1.08439   1.05219    9.528
 5525.00    1.07240   1.05982    9.072
 5526.00    1.05343   1.06552    9.408
 5527.00    1.04422   1.06876    9.674
 5528.00    1.04968   1.06945    9.555
 5529.00    1.06303   1.06769    9.373
 5530.00    1.07551   1.06358    9.289
 5531.00    1.08074   1.05736    9.265
 5532.00    1.07904   1.04967    9.270
 5533.00    1.07487   1.04192    9.299
 5534.00    1.07127   1.03599    9.334
 5535.00    1.07036   1.03341    9.344
 5536.00    1.07569   1.03458    9.297
 5537.00    1.09021   1.03852    9.172
 5538.00    1.11250   1.04332    8.989
 5539.00    1.13637   1.04730    8.800
 5540.00    1.15154   1.04973    8.684
 5541.00    1.15128   1.05100    8.686
 5542.00    1.14164   1.05206    8.759
 5543.00    1.13103   1.05381    8.842
 5544.00    1.11651   1.05657    8.956
 5545.00    1.09443   1.05997    9.137
 5546.00    1.07389   1.06325    9.312
 5547.00    1.06661   1.06557    9.376
 5548.00    1.07429   1.06645    9.309
 5549.00    1.09116   1.06595    9.164
 5550.00    1.10832   1.06473    9.023
 5551.00    1.11668   1.06376    8.957
 5552.00    1.11005   1.06390    9.008
 5553.00    1.09020   1.06548    9.168
 5554.00    1.07005   1.06819    9.346
 5555.00    1.06322   1.07121    9.419
 5556.00    1.07443   1.07352    9.303
 5557.00    1.09612   1.07426    9.089
 5558.00    1.10908   1.07314    9.029
 5559.00    1.10334   1.07050    9.159
 5560.00    1.09094   1.06718    9.121
 5561.00    1.08441   1.06415    8.950
 5562.00    1.08278   1.06211    9.415
 5563.00    1.08253   1.06120   10.957
 5564.00    1.08466   1.06105   12.479
 5565.00    1.09092   1.06100   12.461
 5566.00    1.10137   1.06038   12.041
 5567.00    1.11580   1.05877   12.297
 5568.00    1.13396   1.05607   12.837
 5569.00    1.15239   1.05258   13.014
 5570.00    1.16308   1.04883   12.734
 5571.00    1.15556   1.04538   12.375
 5572.00    1.12162   1.04258   12.421
 5573.00    1.07123   1.04052   12.896
 5574.00    1.03305   1.03910   13.244
 5575.00    1.02394   1.03808   13.171
 5576.00    1.03901   1.03736   13.037
 5577.00    1.06687   1.03699   13.083
 5578.00    1.09656   1.03711   13.202
 5579.00    1.11904   1.03791   13.217
 5580.00    1.12894   1.03960   13.041
 5581.00    1.12912   1.04215   12.820
 5582.00    1.12812   1.04530   12.820
 5583.00    1.12675   1.04859   13.043
 5584.00    1.11756   1.05152   13.215
 5585.00    1.09722   1.05366   13.163
 5586.00    1.07001   1.05471   12.926
 5587.00    1.04614   1.05447   12.612
 5588.00    1.03618   1.05275   12.325
 5589.00    1.03791   1.04934   12.146
 5590.00    1.04013   1.04392   12.113
 5591.00    1.04128   1.03637   12.186
 5592.00    1.04751   1.02704   12.246
 5593.00    1.05690   1.01712   12.138
 5594.00    1.05953   1.00843   11.820
 5595.00    1.04616   1.00274   11.570
 5596.00    1.01728   1.00101   11.668
 5597.00    0.99640   1.00300   11.797
 5598.00    1.01153   1.00755   11.396
 5599.00    1.05468   1.01317   10.677
 5600.00    1.09098   1.01866   10.169
 5601.00    1.09025   1.02325    9.953
 5602.00    1.04390   1.02640    9.882
 5603.00    0.98205   1.02760    9.866
 5604.00    0.94579   1.02655    9.856
 5605.00    0.93948   1.02355    9.793
 5606.00    0.94345   1.01960    9.668
 5607.00    0.94438   1.01625    9.599
 5608.00    0.94075   1.01518    9.711
 5609.00    0.94322   1.01764    9.973
 5610.00    0.95992   1.02401   10.276
 5611.00    0.97857   1.03357   10.573
 5612.00    0.98515   1.04463   10.878
 5613.00    0.98844   1.05522   11.233
 5614.00    1.00346   1.06373   11.626
 5615.00    1.02968   1.06933   11.912
 5616.00    1.05734   1.07181   11.968
 5617.00    1.07728   1.07116   11.928
 5618.00    1.08565   1.06736   12.002
 5619.00    1.08695   1.06054   12.274
 5620.00    1.08643   1.05146   12.658
 5621.00    1.08321   1.04175   12.861
 5622.00    1.07545   1.03365   12.786
 5623.00    1.06547   1.02905   12.867
 5624.00    1.05860   1.02859   13.332
 5625.00    1.06088   1.03143   13.629
 5626.00    1.07085   1.03574   13.361
 5627.00    1.07565   1.03961   13.113
 5628.00    1.06897   1.04170   13.255
 5629.00    1.06147   1.04167   13.318
 5630.00    1.05849   1.04020   13.016
 5631.00    1.04827   1.03867   12.848
 5632.00    1.02828   1.03851   13.057
 5633.00    1.01788   1.04056   13.176
 5634.00    1.02912   1.04469   12.920
 5635.00    1.05198   1.04998   12.660
 5636.00    1.07348   1.05517   12.628
 5637.00    1.08848   1.05915   12.628
 5638.00    1.09678   1.06123   12.507
 5639.00    1.10008   1.06122   12.366
 5640.00    1.09613   1.05935   12.300
 5641.00    1.07974   1.05610   12.299
 5642.00    1.05965   1.05211   12.325
 5643.00    1.05850   1.04804   12.356
 5644.00    1.07892   1.04445   12.394
 5645.00    1.09729   1.04171   12.470
 5646.00    1.09783   1.03997   12.574
 5647.00    1.08370   1.03921   12.653
 5648.00    1.06565   1.03941   12.667
 5649.00    1.05504   1.04049   12.619
 5650.00    1.05582   1.04230   12.553
 5651.00    1.06419   1.04461   12.541
 5652.00    1.07643   1.04711   12.631
 5653.00    1.08992   1.04949   12.825
 5654.00    1.09836   1.05156   13.046
 5655.00    1.09359   1.05325   13.167
 5656.00    1.07504   1.05458   13.202
 5657.00    1.05039   1.05549   13.270
 5658.00    1.02998   1.05575   13.366
 5659.00    1.02127   1.05490   13.391
 5660.00    1.01933   1.05236   13.433
 5661.00    1.01335   1.04782   13.654
 5662.00    1.00683   1.04143   13.886
 5663.00    1.01205   1.03391   13.788
 5664.00    1.02777   1.02653   13.521
 5665.00    1.04190   1.02077   13.500
 5666.00    1.04691   1.01772   13.692
 5667.00    1.04254   1.01763   13.765
 5668.00    1.03468   1.02004   13.618
 5669.00    1.02931   1.02402   13.396
 5670.00    1.02282   1.02862   13.266
 5671.00    1.01159   1.03304   13.293
 5672.00    1.01000   1.03670   13.308
 5673.00    1.03316   1.03934   13.114
 5674.00    1.06660   1.04116   12.819
 5675.00    1.08351   1.04272   12.648
 5676.00    1.07690   1.04466   12.645
 5677.00    1.05757   1.04741   12.701
 5678.00    1.04411   1.05093   12.612
 5679.00    1.04876   1.05480   12.265
 5680.00    1.06223   1.05839   11.821
 5681.00    1.07215   1.06120   11.452
 5682.00    1.08602   1.06297   11.114
 5683.00    1.11344   1.06361   10.703
 5684.00    1.14381   1.06314   10.218
 5685.00    1.15671   1.06153    9.794
 5686.00    1.13680   1.05881    9.674
 5687.00    1.08740   1.05513    9.949
 5688.00    1.03934   1.05084   10.329
 5689.00    1.01692   1.04645   10.601
 5690.00    1.00813   1.04249   11.193
 5691.00    0.98994   1.03933   12.212
 5692.00    0.95340   1.03711   12.108
 5693.00    0.90885   1.03594   10.321
 5694.00    0.88448   1.03601    8.805
 5695.00    0.89291   1.03758    8.265
 5696.00    0.91066   1.04077    8.378
 5697.00    0.91734   1.04526    8.689
 5698.00    0.92138   1.05032    8.710
 5699.00    0.93451   1.05496    8.536
 5700.00    0.95508   1.05831    9.051
 5701.00    0.97979   1.05985   10.789
 5702.00    1.01020   1.05942   12.535
 5703.00    1.04311   1.05722   12.322
 5704.00    1.06626   1.05362   11.381
 5705.00    1.06755   1.04915   10.955
 5706.00    1.04173   1.04445   10.841
 5707.00    0.99781   1.04017   10.810
 5708.00    0.95839   1.03676   11.006
 5709.00    0.93871   1.03430   11.477
 5710.00    0.93871   1.03234   11.968
 5711.00    0.95358   1.03008   12.227
 5712.00    0.97903   1.02679   12.246
 5713.00    1.01198   1.02216   12.150
 5714.00    1.04902   1.01669   12.079
 5715.00    1.07980   1.01150   12.064
 5716.00    1.08936   1.00801   12.034
 5717.00    1.07628   1.00744   11.984
 5718.00    1.05480   1.01037   11.987
 5719.00    1.03908   1.01645   12.020
 5720.00    1.03577   1.02466   11.978
 5721.00    1.03911   1.03360   11.896
 5722.00    1.03583   1.04202   11.926
 5723.00    1.02422   1.04918   12.054
 5724.00    1.01470   1.05496   12.131
 5725.00    1.01491   1.05961   12.215
 5726.00    1.02552   1.06349   12.482
 5727.00    1.04081   1.06678   12.690
 5728.00    1.05353   1.06935   12.435
 5729.00    1.06578   1.07088   12.242
 5730.00    1.08577   1.07104   12.803
 5731.00    1.11422   1.06976   12.894
 5732.00    1.14291   1.06731   10.898
 5733.00    1.15866   1.06429    8.930
 5734.00    1.15112   1.06145    8.397
 5735.00    1.12628   1.05933    8.804
 5736.00    1.09998   1.05821    9.176
 5737.00    1.08104   1.05811    9.255
 5738.00    1.07170   1.05890    9.391
 5739.00    1.07410   1.06040    9.362
 5740.00    1.08826   1.06233    0.000
 5741.00    1.10735   1.06429    0.000
 5742.00    1.12315   1.06587    0.000
 5743.00    1.13545   1.06678    0.000
 5744.00    1.14859   1.06697    0.000
 5745.00    1.16424   1.06661    0.000
 5746.00    1.17999   1.06601    0.000
 5747.00    1.18913   1.06547    0.000
 5748.00    1.18626   1.06519    0.000
 5749.00    1.17394   1.06526    0.000
 5750.00    1.15766   1.06556    0.000
 5751.00    1.13928   1.06589    0.000
 5752.00    1.12085   1.06593    0.000
 5753.00    1.10901   1.06551    0.000
 5754.00    1.10665   1.06457    0.000
 5755.00    1.10461   1.06316    0.000
 5756.00    1.09163   1.06127    0.000
 5757.00    1.06513   1.05885    0.000
 5758.00    1.03310   1.05593    0.000
 5759.00    1.01321   1.05296    0.000
 5760.00    1.01666   1.05074    0.000
 5761.00    1.03598   1.05013    0.000
 5762.00    1.05989   1.05146    0.000
 5763.00    1.08509   1.05424    0.000
 5764.00    1.10898   1.05725    0.000
 5765.00    1.12465   1.05917    0.000
 5766.00    1.12962   1.05916    0.000
 5767.00    1.13030   1.05732    0.000
 5768.00    1.12862   1.05465    0.000
 5769.00    1.11567   1.05251    0.000
 5770.00    1.08837   1.05204    0.000
 5771.00    1.05851   1.05363    0.000
 5772.00    1.04293   1.05681    0.000
 5773.00    1.05479   1.06058    0.000
 5774.00    1.09050   1.06387    0.000
 5775.00    1.12760   1.06597    0.000
 5776.00    1.14985   1.06663    0.000
 5777.00    1.15732   1.06602    0.000
 5778.00    1.15220   1.06459    0.000
 5779.00    1.13285   1.06281    0.000
 5780.00    1.09922   1.06109    0.000
 5781.00    1.05630   1.05957    0.000
 5782.00    1.01749   1.05809    0.000
 5783.00    1.00063   1.05618    0.000
 5784.00    1.00781   1.05326    0.000
 5785.00    1.02278   1.04888    0.000
 5786.00    1.03038   1.04308    0.000
 5787.00    1.02528   1.03648    0.000
 5788.00    1.01644   1.03016    0.000
 5789.00    1.02004   1.02526    0.000
 5790.00    1.03348   1.02265    0.000
 5791.00    1.03868   1.02264    0.000
 5792.00    1.03574   1.02500    0.000
 5793.00    1.04267   1.02906    0.000
 5794.00    1.06650   1.03391    0.000
 5795.00    1.09895   1.03867    0.000
 5796.00    1.12684   1.04276    0.000
 5797.00    1.13873   1.04607    0.000
 5798.00    1.13392   1.04880    0.000
 5799.00    1.11987   1.05129   -2.000
 5800.00    1.10133   1.05367   -2.000
 5801.00    1.07920   1.05585   -2.000
 5802.00    1.05306   1.05764   -2.000
 5803.00    1.01928   1.05906   -2.000
 5804.00    0.96663   1.06041   -2.000
 5805.00    0.89386   1.06210   -2.000
 5806.00    0.84141   1.06434   -2.000
 5807.00    0.85497   1.06691   -2.000
 5808.00    0.91449   1.06922   -2.000
 5809.00    0.96198   1.07060   -2.000
 5810.00    0.96651   1.07072   -2.000
 5811.00    0.93460   1.06976   -2.000
 5812.00    0.90779   1.06832   -2.000
 5813.00    0.92542   1.06710   -2.000
 5814.00    0.97458   1.06657   -2.000
 5815.00    1.01989   1.06685   -2.000
 5816.00    1.05145   1.06766   -2.000
 5817.00    1.07304   1.06851   -2.000
 5818.00    1.08059   1.06892   -2.000
 5819.00    1.07224   1.06856    0.000
 5820.00    1.06193   1.06744    0.000
 5821.00    1.06239   1.06590    0.000
 5822.00    1.06626   1.06455    0.000
 5823.00    1.06116   1.06402    0.000
 5824.00    1.04695   1.06470    0.000
 5825.00    1.03277   1.06652    0.000
 5826.00    1.03141   1.06904    0.000
 5827.00    1.04780   1.07164    0.000
 5828.00    1.07043   1.07381    0.000
 5829.00    1.08386   1.07531    0.000
 5830.00    1.08048   1.07621    0.000
 5831.00    1.06475   1.07674    0.000
 5832.00    1.05322   1.07712    0.000
 5833.00    1.05379   1.07749    0.000
 5834.00    1.05376   1.07785    0.000
 5835.00    1.04551   1.07814    0.000
 5836.00    1.04154   1.07827    0.000
 5837.00    1.05157   1.07820    0.000
 5838.00    1.06857   1.07790    0.000
 5839.00    1.07963   1.07739    0.000
 5840.00    1.07487   1.07674    0.000
 5841.00    1.05686   1.07606    0.000
 5842.00    1.04231   1.07543    0.000
 5843.00    1.04311   1.07496    0.000
 5844.00    1.05782   1.07478    0.000
 5845.00    1.08087   1.07497    0.000
 5846.00    1.10631   1.07555    0.000
 5847.00    1.12305   1.07639    0.000
 5848.00    1.11670   1.07716    0.000
 5849.00    1.08769   1.07747    0.000
 5850.00    1.05399   1.07697    0.000
 5851.00    1.02972   1.07547    0.000
 5852.00    1.01744   1.07307    0.000
 5853.00    1.01363   1.07008    0.000
 5854.00    1.01301   1.06682    0.000
 5855.00    1.01621   1.06352    0.000
 5856.00    1.02731   1.06016    0.000
 5857.00    1.03763   1.05652    0.000
 5858.00    1.02974   1.05243    0.000
 5859.00    1.00639   1.04785    0.000
 5860.00    0.98990   1.04295    0.000
 5861.00    0.99379   1.03803    0.000
 5862.00    1.01640   1.03348    0.000
 5863.00    1.04687   1.02976    0.000
 5864.00    1.07105   1.02735    0.000
 5865.00    1.08157   1.02661    0.000
 5866.00    1.07925   1.02763    0.000
 5867.00    1.07000   1.03015    0.000
 5868.00    1.05963   1.03356    0.000
 5869.00    1.04467   1.03713    0.000
 5870.00    1.01859   1.04025    0.000
 5871.00    0.98869   1.04263    0.000
 5872.00    0.97036   1.04438    0.000
 5873.00    0.96930   1.04589    0.000
 5874.00    0.98155   1.04755    0.000
 5875.00    1.00002   1.04956    0.000
 5876.00    1.01843   1.05176    0.000
 5877.00    1.03583   1.05369    0.000
 5878.00    1.05389   1.05482    0.000
 5879.00    1.07156   1.05471    0.000
 5880.00    1.08566   1.05329    0.000
 5881.00    1.09329   1.05084    0.000
 5882.00    1.09470   1.04785    0.000
 5883.00    1.09634   1.04486    0.000
 5884.00    1.10357   1.04221    0.000
 5885.00    1.11107   1.04006    0.000
 5886.00    1.10991   1.03836    0.000
 5887.00    1.09747   1.03694    0.000
 5888.00    1.07548   1.03550    0.000
 5889.00    1.04641   1.03356    0.000
 5890.00    1.01457   1.03031    0.000
 5891.00    0.98739   1.02459    0.000
 5892.00    0.97298   1.01511    0.000
 5893.00    0.97656   1.00091    0.000
 5894.00    0.99040   0.98216    0.000
 5895.00    0.98759   0.96071    0.000
 5896.00    0.95091   0.93975    0.000
 5897.00    0.89626   0.92269    0.000
 5898.00    0.84789   0.91177    0.000
 5899.00    0.81651   0.90709    0.000
 5900.00    0.80307   0.90702    0.000
 5901.00    0.80355   0.90957   12.765
 5902.00    0.81387   0.91368   12.815
 5903.00    0.83304   0.91973   12.872
 5904.00    0.86177   0.92886   12.926
 5905.00    0.90054   0.94171   12.968
 5906.00    0.94494   0.95766   13.008
 5907.00    0.98418   0.97489   13.078
 5908.00    1.01066   0.99120   13.182
 5909.00    1.02519   1.00488   13.273
 5910.00    1.03336   1.01521   13.308
 5911.00    1.04191   1.02236   13.279
 5912.00    1.05171   1.02700   13.201
 5913.00    1.05612   1.02998   13.106
 5914.00    1.05144   1.03198   13.042
 5915.00    1.04047   1.03331   13.062
 5916.00    1.02500   1.03400   13.181
 5917.00    1.00447   1.03386   13.348
 5918.00    0.98511   1.03271   13.445
 5919.00    0.97902   1.03056   13.339
 5920.00    0.98457   1.02780   13.113
 5921.00    0.98560   1.02511   13.021
 5922.00    0.97788   1.02323   13.095
 5923.00    0.97445   1.02271   13.133
 5924.00    0.98822   1.02368   13.060
 5925.00    1.02306   1.02577   12.981
 5926.00    1.06610   1.02838   12.895
 5927.00    1.09359   1.03092   12.692
 5928.00    1.09592   1.03306   12.447
 5929.00    1.08087   1.03472   12.355
 5930.00    1.06042   1.03598   12.416
 5931.00    1.04518   1.03690   12.479
 5932.00    1.04005   1.03740   12.554
 5933.00    1.04249   1.03735   12.778
 5934.00    1.04142   1.03669   13.106
 5935.00    1.02580   1.03556   13.321
 5936.00    1.00468   1.03432   13.344
 5937.00    0.99805   1.03337   13.278
 5938.00    1.00739   1.03297   13.261
 5939.00    1.01842   1.03318   13.386
 5940.00    1.02016   1.03387   13.607
 5941.00    1.01090   1.03487   13.795
 5942.00    1.00152   1.03599   13.903
 5943.00    1.00552   1.03707   13.956
 5944.00    1.02054   1.03792   13.940
 5945.00    1.03353   1.03832   13.853
 5946.00    1.03472   1.03813   13.794
 5947.00    1.02171   1.03744   13.865
 5948.00    1.00164   1.03660   13.999
 5949.00    0.98567   1.03598   14.045
 5950.00    0.98036   1.03580   13.951
 5951.00    0.98610   1.03603   13.774
 5952.00    0.99717   1.03630   13.623
 5953.00    1.00818   1.03612   13.593
 5954.00    1.02164   1.03522   13.700
 5955.00    1.03890   1.03367   13.838
 5956.00    1.04926   1.03179   13.740
 5957.00    1.04486   1.03003   13.348
 5958.00    1.03745   1.02871   13.105
 5959.00    1.04244   1.02796   13.261
 5960.00    1.06037   1.02769   13.313
 5961.00    1.08087   1.02778   12.901
 5962.00    1.08971   1.02818   12.652
 5963.00    1.08028   1.02897   13.033
 5964.00    1.06225   1.03029   13.535
 5965.00    1.04563   1.03230   13.521
 5966.00    1.02800   1.03498   13.281
 5967.00    1.00932   1.03802   13.293
 5968.00    1.00268   1.04096   13.573
 5969.00    1.01588   1.04333   13.903
 5970.00    1.03842   1.04484   14.021
 5971.00    1.05507   1.04546   13.905
 5972.00    1.05685   1.04547   13.899
 5973.00    1.04461   1.04535   14.160
 5974.00    1.02932   1.04553   14.376
 5975.00    1.02028   1.04621   14.351
 5976.00    1.01853   1.04723   14.362
 5977.00    1.02185   1.04823   14.548
 5978.00    1.02807   1.04869   14.626
 5979.00    1.03553   1.04818   14.416
 5980.00    1.04309   1.04644   14.112
 5981.00    1.04876   1.04359   13.974
 5982.00    1.05020   1.04011   14.133
 5983.00    1.04994   1.03668   14.399
 5984.00    1.05483   1.03394   14.277
 5985.00    1.06221   1.03231   13.809
 5986.00    1.05897   1.03174   13.614
 5987.00    1.04378   1.03176   13.808
 5988.00    1.03131   1.03174   13.887
 5989.00    1.03093   1.03119   13.696
 5990.00    1.04010   1.03004   13.611
 5991.00    1.05227   1.02866   13.676
 5992.00    1.06014   1.02766   13.550
 5993.00    1.05647   1.02758   13.328
 5994.00    1.03627   1.02865   13.477
 5995.00    1.00315   1.03069   13.852
 5996.00    0.96884   1.03331   13.799
 5997.00    0.94582   1.03609   13.691
 5998.00    0.94317   1.03867   14.467
 5999.00    0.96200   1.04084   14.947
 6000.00    0.99428   1.04252   12.764
 6001.00    1.02368   1.04358   10.235
 6002.00    1.03283   1.04385    9.359
 6003.00    1.01983   1.04333    9.681
 6004.00    0.99697   1.04219   10.167
 6005.00    0.97797   1.04065   10.279
 6006.00    0.97166   1.03895   10.215
 6007.00    0.97520   1.03731   10.215
 6008.00    0.97905   1.03578   10.315
 6009.00    0.97967   1.03426   10.276
 6010.00    0.97821   1.03260    9.980
 6011.00    0.97341   1.03074   10.098
 6012.00    0.96383   1.02873   11.492
 6013.00    0.95392   1.02681   13.873
 6014.00    0.95082   1.02531   14.901
 6015.00    0.95721   1.02455   14.215
 6016.00    0.97110   1.02464   13.761
 6017.00    0.98730   1.02545   13.621
 6018.00    0.99882   1.02675   13.145
 6019.00    0.99894   1.02816   12.689
 6020.00    0.98625   1.02926   12.764
 6021.00    0.97057   1.02972   13.027
 6022.00    0.96538   1.02945   12.890
 6023.00    0.97707   1.02864   12.512
 6024.00    1.00257   1.02754   12.286
 6025.00    1.02870   1.02628   12.182
 6026.00    1.04166   1.02492   12.082
 6027.00    1.03757   1.02360   12.146
 6028.00    1.02299   1.02277   12.524
 6029.00    1.01284   1.02278   13.049
 6030.00    1.01520   1.02373   13.434
 6031.00    1.01850   1.02569   13.612
 6032.00    1.01024   1.02860   13.693
 6033.00    0.99419   1.03214   13.812
 6034.00    0.98107   1.03587   14.015
 6035.00    0.97892   1.03951   14.198
 6036.00    0.99063   1.04296   14.318
 6037.00    1.01277   1.04600   14.548
 6038.00    1.03745   1.04853   14.923
 6039.00    1.05479   1.05063   15.067
 6040.00    1.05963   1.05217   14.786
 6041.00    1.05527   1.05310   14.458
 6042.00    1.04750   1.05347   14.361
 6043.00    1.04097   1.05336   14.367
 6044.00    1.04277   1.05277   14.302
 6045.00    1.06185   1.05186   14.151
 6046.00    1.09272   1.05086   13.950
 6047.00    1.11158   1.05006   13.726
 6048.00    1.10768   1.04968   13.513
 6049.00    1.09540   1.04988   13.351
 6050.00    1.08734   1.05066   13.257
 6051.00    1.08216   1.05192   13.207
 6052.00    1.07421   1.05341   13.159
 6053.00    1.05919   1.05483   13.079
 6054.00    1.03719   1.05597   13.054
 6055.00    1.01362   1.05668   13.255
 6056.00    0.99749   1.05689   13.601
 6057.00    0.99745   1.05661   13.718
 6058.00    1.01018   1.05579   13.546
 6059.00    1.02081   1.05440   13.459
 6060.00    1.02108   1.05255   13.691
 6061.00    1.01396   1.05045   14.180
 6062.00    1.00640   1.04838   14.607
 6063.00    1.00386   1.04672   14.543
 6064.00    1.00187   1.04577   14.149
 6065.00    0.98971   1.04551   13.995
 6066.00    0.96896   1.04562   14.128
 6067.00    0.95352   1.04560   14.154
 6068.00    0.95414   1.04489   14.024
 6069.00    0.97234   1.04317   14.035
 6070.00    0.99650   1.04064   14.228
 6071.00    1.00830   1.03802   14.381
 6072.00    1.00016   1.03623   14.342
 6073.00    0.97888   1.03607   14.130
 6074.00    0.96360   1.03790   13.877
 6075.00    0.97424   1.04155   13.734
 6076.00    1.00895   1.04640   13.753
 6077.00    1.04904   1.05140   13.875
 6078.00    1.07834   1.05540   13.916
 6079.00    1.08783   1.05784   13.728
 6080.00    1.07714   1.05876   13.475
 6081.00    1.05555   1.05832   13.394
 6082.00    1.04272   1.05661   13.398
 6083.00    1.05345   1.05381   13.297
 6084.00    1.07417   1.05019   13.234
 6085.00    1.07934   1.04617   13.448
 6086.00    1.06189   1.04217   13.858
 6087.00    1.03111   1.03860   14.192
 6088.00    1.00272   1.03580   14.320
 6089.00    0.98965   1.03402   14.314
 6090.00    0.99217   1.03316   14.377
 6091.00    1.00442   1.03287   14.635
 6092.00    1.02376   1.03305   14.908
 6093.00    1.04641   1.03361   14.970
 6094.00    1.06155   1.03419   14.944
 6095.00    1.05854   1.03448   15.031
 6096.00    1.03574   1.03455   15.172
 6097.00    1.00266   1.03451   15.217
 6098.00    0.97949   1.03454   15.148
 6099.00    0.97874   1.03491   15.023
 6100.00    0.98955   1.03603   14.892
 6101.00    0.99622   1.03802   14.805
 6102.00    0.99577   1.04035   14.809
 6103.00    0.99464   1.04225   14.839
 6104.00    1.00307   1.04316   14.655
 6105.00    1.02286   1.04248   14.236
 6106.00    1.04027   1.03980   13.962
 6107.00    1.04505   1.03548   14.027
 6108.00    1.04285   1.03029   14.166
 6109.00    1.04100   1.02515   14.077
 6110.00    1.03898   1.02115   13.758
 6111.00    1.03543   1.01913   13.413
 6112.00    1.03267   1.01963   13.290
 6113.00    1.03334   1.02297   13.403
 6114.00    1.03763   1.02795   13.462
 6115.00    1.04014   1.03255   13.400
 6116.00    1.03066   1.03596   13.581
 6117.00    1.00745   1.03849   14.152
 6118.00    0.98207   1.04062   14.756
 6119.00    0.96707   1.04248   15.063
 6120.00    0.96924   1.04377   15.147
 6121.00    0.98750   1.04437   15.122
 6122.00    1.01290   1.04436   14.973
 6123.00    1.03261   1.04341   14.855
 6124.00    1.03494   1.04110   15.083
 6125.00    1.02253   1.03737   15.586
 6126.00    1.01208   1.03255   15.809
 6127.00    1.01344   1.02723   15.549
 6128.00    1.02432   1.02199   15.200
 6129.00    1.04077   1.01757   14.984
 6130.00    1.05990   1.01496   14.820
 6131.00    1.07601   1.01474   14.613
 6132.00    1.08145   1.01698   14.363
 6133.00    1.07363   1.02103   14.193
 6134.00    1.05558   1.02534   14.266
 6135.00    1.03149   1.02900   14.562
 6136.00    1.00651   1.03200   14.875
 6137.00    0.98998   1.03419   15.006
 6138.00    0.99127   1.03502   14.871
 6139.00    1.00755   1.03387   14.565
 6140.00    1.02589   1.03021   14.249
 6141.00    1.03571   1.02400   13.941
 6142.00    1.03150   1.01611   13.561
 6143.00    1.01185   1.00796   13.079
 6144.00    0.98108   1.00104   12.559
 6145.00    0.95260   0.99679   12.178
 6146.00    0.94228   0.99638   12.098
 6147.00    0.95447   1.00016   12.321
 6148.00    0.98179   1.00671   12.741
 6149.00    1.01030   1.01359   13.271
 6150.00    1.02824   1.01958   13.816
 6151.00    1.03887   1.02496   14.212
 6152.00    1.05201   1.02999   14.334
 6153.00    1.06761   1.03385   14.297
 6154.00    1.07902   1.03574   14.347
 6155.00    1.08197   1.03579   14.644
 6156.00    1.07614   1.03465   15.168
 6157.00    1.06544   1.03300   15.568
 6158.00    1.05579   1.03150   15.520
 6159.00    1.05216   1.03049   15.350
 6160.00    1.05709   1.02991   15.458
 6161.00    1.06933   1.02933   15.618
 6162.00    1.08250   1.02799   15.398
 6163.00    1.08473   1.02505   14.789
 6164.00    1.06869   1.02026   14.030
 6165.00    1.04173   1.01354   13.306
 6166.00    1.01622   1.00462   12.716
 6167.00    0.99854   0.99386   12.318
 6168.00    0.98683   0.98245   12.163
 6169.00    0.97124   0.97178   12.329
 6170.00    0.94858   0.96346   12.803
 6171.00    0.93283   0.95928   13.335
 6172.00    0.93300   0.95968   13.689
 6173.00    0.93680   0.96304   13.963
 6174.00    0.93313   0.96698   14.251
 6175.00    0.92857   0.97019   14.336
 6176.00    0.93022   0.97260   14.229
 6177.00    0.93384   0.97450   14.468
 6178.00    0.93491   0.97660   15.277
 6179.00    0.93567   0.98026   15.988
 6180.00    0.93844   0.98557   16.023
 6181.00    0.94149   0.99092   15.856
 6182.00    0.94187   0.99533   15.895
 6183.00    0.93771   0.99917   15.883
 6184.00    0.93036   1.00261   15.699
 6185.00    0.92468   1.00561   15.663
 6186.00    0.92424   1.00842   15.832
 6187.00    0.92903   1.01114   15.784
 6188.00    0.93689   1.01325   15.424
 6189.00    0.94454   1.01456   15.195
 6190.00    0.94879   1.01525   15.242
 6191.00    0.94764   1.01478   15.231
 6192.00    0.94245   1.01274   14.900
 6193.00    0.93762   1.00919   14.310
 6194.00    0.93584   1.00432   13.704
 6195.00    0.93637   0.99854   13.310
 6196.00    0.93614   0.99275   13.052
 6197.00    0.93161   0.98784   12.710
 6198.00    0.92370   0.98444   12.530
 6199.00    0.91842   0.98293   13.064
 6200.00    0.92352   0.98382   14.221
 6201.00    0.94387   0.98768   14.965
 6202.00    0.97132   0.99315   14.909
 6203.00    0.98774   0.99790   14.782
 6204.00    0.98196   1.00104   -2.000
 6205.00    0.95433   1.00270   -2.000
 6206.00    0.91506   1.00317   -2.000
 6207.00    0.87795   1.00297   -2.000
 6208.00    0.84649   1.00294   -2.000
 6209.00    0.81709   1.00414   -2.000
 6210.00    0.79451   1.00671   -2.000
 6211.00    0.78970   1.00984   -2.000
 6212.00    0.80692   1.01270   -2.000
 6213.00    0.84174   1.01494   -2.000
 6214.00    0.88282   1.01638   -2.000
 6215.00    0.91726   1.01666   -2.000
 6216.00    0.93980   1.01541   13.178
 6217.00    0.95320   1.01253   12.981
 6218.00    0.96529   1.00810   12.947
 6219.00    0.98136   1.00242   13.562
 6220.00    0.99306   0.99609   14.587
 6221.00    0.99042   0.98982   15.216
 6222.00    0.98254   0.98444   15.179
 6223.00    0.98386   0.98088   14.882
 6224.00    0.99026   0.97930   14.732
 6225.00    0.99021   0.97928   14.875
 6226.00    0.98440   0.98009   15.062
 6227.00    0.97942   0.98098   14.953
 6228.00    0.97665   0.98204   14.612
 6229.00    0.97564   0.98379   14.422
 6230.00    0.97938   0.98592   14.881
 6231.00    0.98759   0.98767   15.774
 6232.00    0.98948   0.98844   14.969
 6233.00    0.97540   0.98804   12.263
 6234.00    0.94939   0.98642   10.514
 6235.00    0.92166   0.98353   10.439
 6236.00    0.89972   0.97971   11.134
 6237.00    0.88653   0.97563   11.463
 6238.00    0.88029   0.97227   11.344
 6239.00    0.88088   0.97107   11.234
 6240.00    0.89430   0.97287   11.204
 6241.00    0.92172   0.97692   11.030
 6242.00    0.95163   0.98179   10.454
 6243.00    0.97084   0.98599    9.899
 6244.00    0.97364   0.98831   10.475
 6245.00    0.96277   0.98840   13.000
 6246.00    0.94853   0.98668   16.201
 6247.00    0.94009   0.98378   16.492
 6248.00    0.94012   0.98037   15.351
 6249.00    0.94834   0.97716   15.116
 6250.00    0.96370   0.97444   15.389
 6251.00    0.98284   0.97237   15.434
 6252.00    0.99923   0.97164   15.246
 6253.00    1.00360   0.97241   15.024
 6254.00    0.98710   0.97416   14.845
 6255.00    0.95608   0.97652   14.823
 6256.00    0.93388   0.97876   15.136
 6257.00    0.93290   0.97966   15.676
 6258.00    0.94405   0.97838   15.946
 6259.00    0.95129   0.97479   15.866
 6260.00    0.94181   0.96957   15.970
 6261.00    0.91856   0.96418   16.266
 6262.00    0.89979   0.95979   16.049
 6263.00    0.89650   0.95674   15.336
 6264.00    0.90626   0.95505   14.933
 6265.00    0.92385   0.95496   15.092
 6266.00    0.94585   0.95686   15.387
 6267.00    0.97219   0.96102   15.112
 6268.00    1.00274   0.96688   13.860
 6269.00    1.02559   0.97314   12.254
 6270.00    1.02209   0.97909   11.086
 6271.00    0.99280   0.98417   10.464
 6272.00    0.95720   0.98759   10.239
 6273.00    0.93093   0.98956   10.450
 6274.00    0.92011   0.99113   11.284
 6275.00    0.92443   0.99257   12.696
 6276.00    0.93925   0.99359   14.140
 6277.00    0.95883   0.99430   15.058
 6278.00    0.97808   0.99515   15.418
 6279.00    0.99455   0.99638   15.491
 6280.00    1.00811   0.99777    0.000
 6281.00    1.01937   0.99881    0.000
 6282.00    1.02812   0.99904    0.000
 6283.00    1.03131   0.99848    0.000
 6284.00    1.02529   0.99721    0.000
 6285.00    1.01082   0.99524    0.000
 6286.00    0.99223   0.99280    0.000
 6287.00    0.97429   0.99031    0.000
 6288.00    0.96071   0.98847    0.000
 6289.00    0.95277   0.98819    0.000
 6290.00    0.94930   0.98967    0.000
 6291.00    0.94732   0.99241    0.000
 6292.00    0.94442   0.99576    0.000
 6293.00    0.94193   0.99922    0.000
 6294.00    0.94394   1.00269    0.000
 6295.00    0.95503   1.00573    0.000
 6296.00    0.97538   1.00770    0.000
 6297.00    0.99577   1.00831    0.000
 6298.00    1.00658   1.00751    0.000
 6299.00    1.00880   1.00577    0.000
 6300.00    1.00904   1.00363    0.000
 6301.00    1.01233   1.00129    0.000
 6302.00    1.01935   0.99870    0.000
 6303.00    1.02496   0.99561    0.000
 6304.00    1.02507   0.99204    0.000
 6305.00    1.02272   0.98873    0.000
 6306.00    1.02122   0.98635    0.000
 6307.00    1.01796   0.98481    0.000
 6308.00    1.01008   0.98376    0.000
 6309.00    0.99952   0.98351    0.000
 6310.00    0.98981   0.98499    0.000
 6311.00    0.98332   0.98839    0.000
 6312.00    0.98220   0.99287    0.000
 6313.00    0.98867   0.99744    0.000
 6314.00    1.00090   1.00169    0.000
 6315.00    1.01131   1.00525    0.000
 6316.00    1.01523   1.00736    0.000
 6317.00    1.01566   1.00765    0.000
 6318.00    1.01624   1.00640    0.000
 6319.00    1.01721   1.00412    0.000
 6320.00    1.01819   1.00133    0.000
 6321.00    1.02006   0.99821   16.322
 6322.00    1.02504   0.99474   16.157
 6323.00    1.03560   0.99166   15.975
 6324.00    1.04866   0.98968   15.783
 6325.00    1.05501   0.98852   15.559
 6326.00    1.05021   0.98838   15.354
 6327.00    1.03915   0.99011   15.284
 6328.00    1.03263   0.99329   15.346
 6329.00    1.04225   0.99686   15.389
 6330.00    1.06673   1.00050   15.361
 6331.00    1.09005   1.00425   15.369
 6332.00    1.09633   1.00774   15.488
 6333.00    1.07808   1.01050   15.711
 6334.00    1.04376   1.01241   16.001
 6335.00    1.01380   1.01359   16.317
 6336.00    0.99857   1.01427   16.642
 6337.00    0.99460   1.01436   16.971
 6338.00    0.99687   1.01380   17.232
 6339.00    1.00248   1.01276   17.310
 6340.00    1.00941   1.01105   17.238
 6341.00    1.01591   1.00827   17.181
 6342.00    1.01998   1.00440   17.216
 6343.00    1.02060   1.00048   17.298
 6344.00    1.02104   0.99808   17.319
 6345.00    1.02650   0.99770   17.167
 6346.00    1.03637   0.99878   16.846
 6347.00    1.04433   1.00067   16.463
 6348.00    1.04310   1.00280   16.142
 6349.00    1.02902   1.00435   15.958
 6350.00    1.00917   1.00484   15.855
 6351.00    0.99608   1.00446   15.735
 6352.00    0.99455   1.00410   15.643
 6353.00    1.00280   1.00444   15.679
 6354.00    1.01946   1.00547   15.791
 6355.00    1.04215   1.00714   15.836
 6356.00    1.06322   1.00926   15.761
 6357.00    1.07355   1.01120   15.612
 6358.00    1.07005   1.01230   15.499
 6359.00    1.05584   1.01218   15.551
 6360.00    1.03850   1.01059   15.886
 6361.00    1.02615   1.00751   16.482
 6362.00    1.02222   1.00349   16.933
 6363.00    1.02466   0.99934   16.871
 6364.00    1.02622   0.99531   16.725
 6365.00    1.01907   0.99115   17.005
 6366.00    1.00059   0.98723   17.395
 6367.00    0.97625   0.98436   17.291
 6368.00    0.96098   0.98262   16.724
 6369.00    0.96554   0.98174   16.044
 6370.00    0.98240   0.98204   15.408
 6371.00    0.99722   0.98383   14.867
 6372.00    1.00241   0.98690   14.472
 6373.00    1.00031   0.99079   14.217
 6374.00    1.00361   0.99514   14.007
 6375.00    1.02150   0.99955   13.811
 6376.00    1.04802   1.00350   13.758
 6377.00    1.06994   1.00678   13.913
 6378.00    1.07532   1.00958   14.123
 6379.00    1.06214   1.01212   14.285
 6380.00    1.04301   1.01429   14.571
 6381.00    1.03141   1.01578   15.079
 6382.00    1.03170   1.01641   15.559
 6383.00    1.04232   1.01620   15.767
 6384.00    1.05868   1.01517   15.814
 6385.00    1.07410   1.01336   15.923
 6386.00    1.08120   1.01112   16.215
 6387.00    1.07706   1.00905   16.671
 6388.00    1.06555   1.00761   17.115
 6389.00    1.05252   1.00702   17.402
 6390.00    1.04257   1.00710   17.546
 6391.00    1.03696   1.00745   17.600
 6392.00    1.03379   1.00799   17.567
 6393.00    1.03443   1.00869   17.406
 6394.00    1.04421   1.00919   17.072
 6395.00    1.06127   1.00902   16.658
 6396.00    1.07423   1.00802   16.372
 6397.00    1.07510   1.00629   16.311
 6398.00    1.06477   1.00396   16.401
 6399.00    1.05132   1.00102   16.441
 6400.00    1.04622   0.99785   16.161
 6401.00    1.05339   0.99579   15.469
 6402.00    1.06612   0.99556   14.537
 6403.00    1.07170   0.99641   13.706
 6404.00    1.05748   0.99737   13.272
 6405.00    1.02466   0.99774   13.235
 6406.00    0.98786   0.99703   13.401
 6407.00    0.95968   0.99622   13.724
 6408.00    0.94647   0.99729   14.309
 6409.00    0.95063   1.00019   15.051
 6410.00    0.96975   1.00360   15.596
 6411.00    0.99217   1.00681   15.853
 6412.00    1.00206   1.00933   16.086
 6413.00    0.99462   1.01062   16.483
 6414.00    0.97675   1.01046   17.012
 6415.00    0.95909   1.00937   17.398
 6416.00    0.95117   1.00820   17.338
 6417.00    0.95512   1.00687   17.069
 6418.00    0.96651   1.00519   17.043
 6419.00    0.97906   1.00411   17.116
 6420.00    0.98752   1.00429   16.868
 6421.00    0.99108   1.00512   16.507
 6422.00    0.99276   1.00601   16.459
 6423.00    0.99685   1.00673   16.514
 6424.00    1.00573   1.00689   16.204
 6425.00    1.01543   1.00636   15.661
 6426.00    1.01936   1.00510   15.284
 6427.00    1.01540   1.00330   15.136
 6428.00    1.00607   1.00213   15.101
 6429.00    0.99688   1.00298   15.124
 6430.00    0.99235   1.00565   15.209
 6431.00    0.99110   1.00887   15.378
 6432.00    0.98900   1.01192   15.654
 6433.00    0.98421   1.01453   16.055
 6434.00    0.97950   1.01628   16.467
 6435.00    0.98343   1.01663   16.491
 6436.00    0.99892   1.01514   15.930
 6437.00    1.01126   1.01213   15.267
 6438.00    1.00357   1.00912   14.994
 6439.00    0.97462   1.00754   15.153
 6440.00    0.93819   1.00730   15.592
 6441.00    0.91824   1.00785   16.119
 6442.00    0.92677   1.00872   16.539
 6443.00    0.94614   1.00938   16.740
 6444.00    0.95707   1.00921   16.716
 6445.00    0.96289   1.00800   16.552
 6446.00    0.97202   1.00703   16.258
 6447.00    0.98296   1.00801   15.711
 6448.00    0.99362   1.01078   15.009
 6449.00    1.00825   1.01436   14.563
 6450.00    1.02761   1.01816   14.577
 6451.00    1.04315   1.02144   14.868
 6452.00    1.04924   1.02354   15.137
 6453.00    1.05039   1.02385   15.177
 6454.00    1.05147   1.02167   15.024
 6455.00    1.05152   1.01683   14.939
 6456.00    1.04619   1.01012   14.927
 6457.00    1.03011   1.00396   14.615
 6458.00    1.00107   1.00061   14.075
 6459.00    0.96228   0.99984   13.950
 6460.00    0.92214   1.00062   14.484
 6461.00    0.89241   1.00215   15.282
 6462.00    0.88034   1.00395   16.000
 6463.00    0.88542   1.00619   16.754
 6464.00    0.90214   1.00889   17.342
 6465.00    0.92228   1.01102   16.969
 6466.00    0.93880   1.01173   15.703
 6467.00    0.94801   1.01073   14.524
 6468.00    0.95165   1.00787   13.964
 6469.00    0.95549   1.00388   14.095
 6470.00    0.96111   1.00111   14.682
 6471.00    0.96481   1.00065   15.187
 6472.00    0.96434   1.00184   15.329
 6473.00    0.96073   1.00419   15.326
 6474.00    0.95588   1.00715   15.399
 6475.00    0.95157   1.00989   15.596
 6476.00    0.94878   1.01185   15.821
 6477.00    0.94867   1.01255   15.901
 6478.00    0.95583   1.01179   15.746
 6479.00    0.97425   1.01043   15.407
 6480.00    0.99443   1.00915   15.026
 6481.00    0.99979   1.00777   14.752
 6482.00    0.99085   1.00657   14.647
 6483.00    0.98270   1.00618   14.718
 6484.00    0.98531   1.00640   15.022
 6485.00    0.99945   1.00652   15.615
 6486.00    1.01857   1.00601   16.345
 6487.00    1.03301   1.00443   16.868
 6488.00    1.03766   1.00186   16.982
 6489.00    1.03232   0.99921   16.776
 6490.00    1.01939   0.99750   16.550
 6491.00    1.00440   0.99694   16.566
 6492.00    0.99754   0.99725   16.765
 6493.00    1.00711   0.99805   16.902
 6494.00    1.02869   0.99888   16.860
 6495.00    1.04931   0.99905   16.669
 6496.00    1.05714   0.99770   16.426
 6497.00    1.04747   0.99401   16.213
 6498.00    1.02864   0.98770   16.032
 6499.00    1.01132   0.97880   15.842
 6500.00    0.99337   0.96761   15.629
 6501.00    0.96756   0.95563   15.468
 6502.00    0.93409   0.94517   15.582
 6503.00    0.90041   0.93786   16.078
 6504.00    0.87851   0.93454   16.596
 6505.00    0.87729   0.93525   16.685
 6506.00    0.89472   0.93960   16.469
 6507.00    0.92292   0.94725   16.279
 6508.00    0.95449   0.95709   16.153
 6509.00    0.98462   0.96747   16.068
 6510.00    1.01185   0.97722   16.170
 6511.00    1.03317   0.98564   16.541
 6512.00    1.04024   0.99242   16.979
 6513.00    1.02920   0.99744   17.294
 6514.00    1.00852   1.00069   17.619
 6515.00    0.99035   1.00249   17.946
 6516.00    0.98240   1.00342   17.773
 6517.00    0.98349   1.00374   17.039
 6518.00    0.98280   1.00344   16.564
 6519.00    0.97662   1.00253   16.723
 6520.00    0.97729   1.00098   16.962
 6521.00    0.99165   0.99878   16.861
 6522.00    1.00879   0.99611   16.803
 6523.00    1.01797   0.99333   16.983
 6524.00    1.01937   0.99087   16.922
 6525.00    1.01743   0.98923   16.520
 6526.00    1.01607   0.98890   16.438
 6527.00    1.01638   0.98991   16.876
 6528.00    1.01661   0.99179    0.000
 6529.00    1.01781   0.99402    0.000
 6530.00    1.02498   0.99619    0.000
 6531.00    1.03823   0.99802    0.000
 6532.00    1.05056   0.99910    0.000
 6533.00    1.05731   0.99931    0.000
 6534.00    1.05899   0.99906    0.000
 6535.00    1.05497   0.99888    0.000
 6536.00    1.04206   0.99882    0.000
 6537.00    1.01953   0.99868    0.000
 6538.00    0.99128   0.99836    0.000
 6539.00    0.96586   0.99810    0.000
 6540.00    0.95423   0.99819    0.000
 6541.00    0.96227   0.99869    0.000
 6542.00    0.98820   0.99937    0.000
 6543.00    1.02310   1.00011    0.000
 6544.00    1.05442   1.00096    0.000
 6545.00    1.07585   1.00188    0.000
 6546.00    1.08797   1.00260    0.000
 6547.00    1.09161   1.00257    0.000
 6548.00    1.08738   1.00139    0.000
 6549.00    1.07929   0.99905    0.000
 6550.00    1.07290   0.99577    0.000
 6551.00    1.06878   0.99154    0.000
 6552.00    1.06579   0.98659    0.000
 6553.00    1.07180   0.98187    0.000
 6554.00    1.09730   0.97821    0.000
 6555.00    1.13675   0.97553    0.000
 6556.00    1.17235   0.97326    0.000
 6557.00    1.18960   0.97100    0.000
 6558.00    1.18112   0.96860    0.000
 6559.00    1.14753   0.96577    0.000
 6560.00    1.09689   0.96181    0.000
 6561.00    1.04329   0.95626    0.000
 6562.00    1.00221   0.94916    0.000
 6563.00    0.98335   0.94047    0.000
 6564.00    0.98824   0.92954    0.000
 6565.00    1.00934   0.91548    0.000
 6566.00    1.04919   0.89772    0.000
 6567.00    1.14565   0.87566    0.000
 6568.00    1.33576   0.84972    0.000
 6569.00    1.60282   0.82499    0.000
 6570.00    1.88370   0.80894    0.000
 6571.00    2.08982   0.80447    0.000
 6572.00    2.14857   0.80989    0.000
 6573.00    2.04854   0.82317    0.000
 6574.00    1.82938   0.84253    0.000
 6575.00    1.56226   0.86609    0.000
 6576.00    1.31962   0.89040    0.000
 6577.00    1.14539   0.91054    0.000
 6578.00    1.05032   0.92439    0.000
 6579.00    1.01254   0.93329    0.000
 6580.00    1.00046   0.93922    0.000
 6581.00    0.99381   0.94391    0.000
 6582.00    0.98429   0.94871    0.000
 6583.00    0.97383   0.95380    0.000
 6584.00    0.96819   0.95895    0.000
 6585.00    0.97241   0.96400    0.000
 6586.00    0.99508   0.96870    0.000
 6587.00    1.05047   0.97274    0.000
 6588.00    1.14827   0.97617    0.000
 6589.00    1.28606   0.97880    0.000
 6590.00    1.44803   0.98057    0.000
 6591.00    1.60477   0.98168    0.000
 6592.00    1.71571   0.98246    0.000
 6593.00    1.73674   0.98334    0.000
 6594.00    1.65491   0.98442    0.000
 6595.00    1.50353   0.98507    0.000
 6596.00    1.33445   0.98480    0.000
 6597.00    1.19672   0.98330    0.000
 6598.00    1.10931   0.98028    0.000
 6599.00    1.05546   0.97634    0.000
 6600.00    1.02051   0.97295    0.000
 6601.00    1.00557   0.97098    0.000
 6602.00    1.00664   0.97027    0.000
 6603.00    1.00883   0.97054    0.000
 6604.00    1.00246   0.97190    0.000
 6605.00    0.98846   0.97476    0.000
 6606.00    0.97231   0.97899    0.000
 6607.00    0.96069   0.98320    0.000
 6608.00    0.95850   0.98620    0.000
 6609.00    0.96740   0.98799   16.394
 6610.00    0.98430   0.98878   16.128
 6611.00    1.00173   0.98883   15.888
 6612.00    1.01027   0.98818   15.763
 6613.00    1.00343   0.98668   15.845
 6614.00    0.98907   0.98451   16.036
 6615.00    0.98358   0.98245   16.097
 6616.00    0.98716   0.98152   15.981
 6617.00    0.98717   0.98196   15.845
 6618.00    0.98403   0.98319   15.801
 6619.00    0.98786   0.98472   15.880
 6620.00    0.99445   0.98668   16.069
 6621.00    0.99108   0.98924   16.346
 6622.00    0.98235   0.99191   16.719
 6623.00    0.98579   0.99400   17.189
 6624.00    1.01021   0.99536   17.642
 6625.00    1.05047   0.99637   17.904
 6626.00    1.08721   0.99722   17.959
 6627.00    1.09971   0.99764   17.901
 6628.00    1.08904   0.99731   17.716
 6629.00    1.06986   0.99617   17.349
 6630.00    1.04908   0.99436   16.880
 6631.00    1.02622   0.99230   16.458
 6632.00    1.00035   0.99040   16.195
 6633.00    0.97394   0.98868   16.108
 6634.00    0.95665   0.98712   16.069
 6635.00    0.95826   0.98582   15.950
 6636.00    0.97795   0.98478   15.832
 6637.00    1.00638   0.98386   15.870
 6638.00    1.03080   0.98269   16.091
 6639.00    1.04200   0.98103   16.397
 6640.00    1.04163   0.97938   16.591
 6641.00    1.03468   0.97844   16.579
 6642.00    1.02034   0.97831   16.608
 6643.00    0.99911   0.97880   16.921
 6644.00    0.98070   0.97969   17.381
 6645.00    0.97449   0.98088   17.724
 6646.00    0.97920   0.98230   17.914
 6647.00    0.98791   0.98356   18.048
 6648.00    0.99402   0.98385   18.183
 6649.00    0.99410   0.98274   18.303
 6650.00    0.98960   0.98127   18.327
 6651.00    0.98437   0.98040   18.211
 6652.00    0.98214   0.98004   18.028
 6653.00    0.98485   0.97984   17.812
 6654.00    0.99129   0.97987   17.472
 6655.00    0.99597   0.98061   17.017
 6656.00    0.99003   0.98193   16.655
 6657.00    0.97347   0.98299   16.535
 6658.00    0.96096   0.98343   16.628
 6659.00    0.96404   0.98351   16.779
 6660.00    0.98025   0.98341   16.762
 6661.00    1.00033   0.98315   16.544
 6662.00    1.01408   0.98267   16.380
 6663.00    1.01718   0.98216   16.462
 6664.00    1.01357   0.98164   16.771
 6665.00    1.00825   0.98089   17.202
 6666.00    1.00371   0.97976   17.618
 6667.00    1.00149   0.97815   17.945
 6668.00    1.00242   0.97593   18.209
 6669.00    1.00387   0.97325   18.414
 6670.00    1.00023   0.97094   18.502
 6671.00    0.99090   0.96942   18.466
 6672.00    0.98209   0.96860   18.365
 6673.00    0.97996   0.96849   18.166
 6674.00    0.98653   0.96928   17.778
 6675.00    0.99588   0.97131   17.389
 6676.00    0.99707   0.97409   17.338
 6677.00    0.98923   0.97662   17.471
 6678.00    0.98190   0.97850   17.240
 6679.00    0.97805   0.97972   16.804
 6680.00    0.97282   0.98015   16.845
 6681.00    0.96748   0.97949   17.218
 6682.00    0.96858   0.97724   17.061
 6683.00    0.97318   0.97329   16.464
 6684.00    0.97139   0.96881   16.294
 6685.00    0.96473   0.96525   16.687
 6686.00    0.96465   0.96290   17.133
 6687.00    0.97598   0.96140   17.362
 6688.00    0.99397   0.96091   17.503
 6689.00    1.00758   0.96217   17.688
 6690.00    1.00677   0.96513   17.932
 6691.00    0.99591   0.96846   18.105
 6692.00    0.98720   0.97102   18.057
 6693.00    0.98119   0.97288   17.872
 6694.00    0.97213   0.97431   17.766
 6695.00    0.96585   0.97539   17.779
 6696.00    0.97238   0.97600    0.000
 6697.00    0.98688   0.97620    0.000
 6698.00    0.99682   0.97614    0.000
 6699.00    0.99974   0.97586    0.000
 6700.00    0.99943   0.97530    0.000
 6701.00    0.99534   0.97428    0.000
 6702.00    0.98377   0.97293    0.000
 6703.00    0.96261   0.97171    0.000
 6704.00    0.93635   0.97088    0.000
 6705.00    0.92124   0.97043    0.000
 6706.00    0.93150   0.97040    0.000
 6707.00    0.96099   0.97074    0.000
 6708.00    0.99182   0.97132    0.000
 6709.00    1.00809   0.97178    0.000
 6710.00    1.00373   0.97201    0.000
 6711.00    0.98856   0.97214    0.000
 6712.00    0.97534   0.97209    0.000
 6713.00    0.96595   0.97186    0.000
 6714.00    0.96048   0.97164    0.000
 6715.00    0.96670   0.97160    0.000
 6716.00    0.98970   0.97164    0.000
 6717.00    1.02187   0.97150    0.000
 6718.00    1.04914   0.97084    0.000
 6719.00    1.05883   0.96938    0.000
 6720.00    1.05349   0.96719    0.000
 6721.00    1.05846   0.96424    0.000
 6722.00    1.09432   0.96066    0.000
 6723.00    1.15619   0.95672    0.000
 6724.00    1.22431   0.95314    0.000
 6725.00    1.27460   0.95075    0.000
 6726.00    1.29070   0.94947    0.000
 6727.00    1.27106   0.94903    0.000
 6728.00    1.22340   0.94973    0.000
 6729.00    1.16038   0.95193    0.000
 6730.00    1.09658   0.95488    0.000
 6731.00    1.04632   0.95725    0.000
 6732.00    1.02121   0.95890    0.000
 6733.00    1.02680   0.96047    0.000
 6734.00    1.05244   0.96203    0.000
 6735.00    1.07244   0.96322    0.000
 6736.00    1.07701   0.96400    0.000
 6737.00    1.08084   0.96468    0.000
 6738.00    1.09206   0.96547    0.000
 6739.00    1.10149   0.96610    0.000
 6740.00    1.09997   0.96642    0.000
 6741.00    1.08530   0.96648    0.000
 6742.00    1.05873   0.96626    0.000
 6743.00    1.02450   0.96567    0.000
 6744.00    0.99346   0.96476    0.000
 6745.00    0.97941   0.96374    0.000
 6746.00    0.98230   0.96273    0.000
 6747.00    0.98854   0.96162    0.000
 6748.00    0.99128   0.96025    0.000
 6749.00    0.99336   0.95895    0.000
 6750.00    0.99551   0.95820    0.000
 6751.00    0.99493   0.95786    0.000
 6752.00    0.99189   0.95743    0.000
 6753.00    0.98931   0.95672   17.223
 6754.00    0.98670   0.95594   17.839
 6755.00    0.98062   0.95514   18.098
 6756.00    0.96988   0.95423   18.032
 6757.00    0.95604   0.95335   18.135
 6758.00    0.94169   0.95265   18.255
 6759.00    0.93018   0.95236   17.736
 6760.00    0.92603   0.95285   16.435
 6761.00    0.93037   0.95429   14.773
 6762.00    0.93208   0.95651   13.195
 6763.00    0.91659   0.95897   11.948
 6764.00    0.88555   0.96152   11.103
 6765.00    0.85387   0.96410   10.649
 6766.00    0.83768   0.96634   10.538
 6767.00    0.84907   0.96795   10.687
 6768.00    0.89106   0.96892   10.945
 6769.00    0.95429   0.96936   11.133
 6770.00    1.01444   0.96923   11.192
 6771.00    1.05076   0.96838   11.182
 6772.00    1.07213   0.96676   11.218
 6773.00    1.09198   0.96471   11.413
 6774.00    1.09136   0.96278   11.841
 6775.00    1.05496   0.96098   12.516
 6776.00    1.02002   0.95921   13.329
 6777.00    1.02681   0.95784   14.071
 6778.00    1.05518   0.95752   14.547
 6779.00    1.06585   0.95846   14.682
 6780.00    1.05394   0.96019   14.566
 6781.00    1.03442   0.96220   14.406
 6782.00    1.02020   0.96454   14.440
 6783.00    1.01722   0.96710   14.736
 6784.00    1.02246   0.96943   15.007
 6785.00    1.03058   0.97105   14.920
 6786.00    1.03975   0.97168   14.490
 6787.00    1.04558   0.97129   13.912
 6788.00    1.03720   0.96991   13.335
 6789.00    1.01323   0.96771   12.885
 6790.00    0.99171   0.96504   12.681
 6791.00    0.98448   0.96229   12.789
 6792.00    0.97974   0.95980   13.184
 6793.00    0.96476   0.95787   13.783
 6794.00    0.94266   0.95678   14.437
 6795.00    0.92969   0.95653   14.981
 6796.00    0.94812   0.95687   15.310
 6797.00    0.99810   0.95754   15.343
 6798.00    1.04636   0.95823   15.038
 6799.00    1.06418   0.95869   14.588
 6800.00    1.04985   0.95892   14.363
 6801.00    1.02540   0.95909   14.406
 6802.00    1.02496   0.95926   14.350
 6803.00    1.04896   0.95939   14.150
 6804.00    1.05568   0.95963   14.267
 6805.00    1.03423   0.96017   14.800
 6806.00    1.02342   0.96088   15.195
 6807.00    1.03572   0.96166   15.080
 6808.00    1.03729   0.96232   14.706
 6809.00    1.01252   0.96275   14.299
 6810.00    0.98097   0.96301   13.853
 6811.00    0.95428   0.96304   13.429
 6812.00    0.92613   0.96275   13.186
 6813.00    0.89972   0.96223   13.198
 6814.00    0.89096   0.96165   13.458
 6815.00    0.90374   0.96113   14.010
 6816.00    0.92723   0.96073   14.919
 6817.00    0.95493   0.96054   15.903
 6818.00    0.98607   0.96066   16.267
 6819.00    1.01075   0.96072   15.851
 6820.00    1.01465   0.96055   15.171
 6821.00    1.00388   0.96059   14.441
 6822.00    0.99815   0.96091   13.616
 6823.00    0.99508   0.96116   12.910
 6824.00    0.97817   0.96111   12.641
 6825.00    0.95865   0.96104   12.933
 6826.00    0.96532   0.96140   13.740
 6827.00    0.99810   0.96211   14.695
 6828.00    1.03196   0.96276   15.163
 6829.00    1.04848   0.96319   15.114
 6830.00    1.04326   0.96366   15.066
 6831.00    1.02646   0.96434   15.160
 6832.00    1.01412   0.96485   15.241
 6833.00    1.01212   0.96472   15.328
 6834.00    1.01623   0.96415   15.527
 6835.00    1.01779   0.96365   15.689
 6836.00    1.01012   0.96333   15.551
 6837.00    0.99680   0.96291   15.119
 6838.00    0.98519   0.96255   14.623
 6839.00    0.97472   0.96283   14.317
 6840.00    0.96161   0.96370   14.384
 6841.00    0.94800   0.96444   14.871
 6842.00    0.93896   0.96448   15.592
 6843.00    0.93676   0.96384   15.897
 6844.00    0.94107   0.96269   15.283
 6845.00    0.94974   0.96086   14.313
 6846.00    0.95543   0.95823   13.550
 6847.00    0.94234   0.95521   12.799
 6848.00    0.89969   0.95243   11.971
 6849.00    0.83692   0.95045   11.563
 6850.00    0.78275   0.94951   11.928
 6851.00    0.77886   0.94949   12.855
 6852.00    0.83913   0.95050   13.844
 6853.00    0.91696   0.95250   14.536
 6854.00    0.96893   0.95492   14.867
 6855.00    1.00985   0.95709   15.053
 6856.00    1.05675   0.95853   15.336
 6857.00    1.08304   0.95934   15.748
 6858.00    1.07092   0.95965   16.139
 6859.00    1.04993   0.95913   16.245
 6860.00    1.04500   0.95776   16.060
 6861.00    1.04051   0.95599   16.013
 6862.00    1.01996   0.95418   16.360
 6863.00    0.99272   0.95233   16.834
 6864.00    0.97251   0.95040   17.017
 6865.00    0.96240   0.94888   16.715
 6866.00    0.95779   0.94816   16.075
 6867.00    0.95063   0.94809   15.458
 6868.00    0.94004   0.94854   15.043
 6869.00    0.93583   0.94954   14.765
 6870.00    0.94419   0.95063   14.562
 6871.00    0.96013   0.95152   14.466
 6872.00    0.96926   0.95253   14.542
 6873.00    0.95467   0.95359   14.818
 6874.00    0.92297   0.95427   15.015
 6875.00    0.90583   0.95424   14.605
 6876.00    0.91234   0.95359   13.781
 6877.00    0.91900   0.95271   13.333
 6878.00    0.91676   0.95202   13.526
 6879.00    0.92192   0.95199   14.103
 6880.00    0.94075   0.95235   14.864
 6881.00    0.96058   0.95271   15.802
 6882.00    0.96866   0.95347   16.736
 6883.00    0.96048   0.95500   17.206
 6884.00    0.94305   0.95671   17.128
 6885.00    0.93133   0.95803   16.919
 6886.00    0.93360   0.95900   16.737
 6887.00    0.94712   0.95945   16.457
 6888.00    0.95942   0.95933   16.208
 6889.00    0.95575   0.95869   16.260
 6890.00    0.93784   0.95781   16.412
 6891.00    0.92062   0.95673   16.185
 6892.00    0.91065   0.95591   15.798
 6893.00    0.90567   0.95615   15.868
 6894.00    0.90698   0.95723   16.364
 6895.00    0.91822   0.95856   16.733
 6896.00    0.93600   0.96000   16.781
 6897.00    0.95214   0.96183   16.733
 6898.00    0.96302   0.96376   16.662
 6899.00    0.97088   0.96514   16.511
 6900.00    0.98232   0.96589   16.388
 6901.00    1.00186   0.96632   16.444
 6902.00    1.02116   0.96630   16.582
 6903.00    1.02575   0.96589   16.607
 6904.00    1.01000   0.96539   16.587
 6905.00    0.98142   0.96479   16.654
 6906.00    0.96226   0.96426   16.604
 6907.00    0.97117   0.96411   16.176
 6908.00    0.99640   0.96438   15.560
 6909.00    1.01192   0.96472   15.076
 6910.00    1.00586   0.96504   14.784
 6911.00    0.98297   0.96589   14.655
 6912.00    0.96164   0.96733   14.763
 6913.00    0.95960   0.96867   15.105
 6914.00    0.97698   0.96958   15.338
 6915.00    0.99944   0.97023   15.231
 6916.00    1.00576   0.97074   15.254
 6917.00    0.98734   0.97086   15.844
 6918.00    0.96596   0.97001   16.576
 6919.00    0.96386   0.96822   16.796
 6920.00    0.97331   0.96616   16.722
 6921.00    0.97844   0.96414   16.814
 6922.00    0.97791   0.96217   16.999
 6923.00    0.97459   0.96038   17.079
 6924.00    0.96547   0.95922   17.153
 6925.00    0.95110   0.95919   17.337
 6926.00    0.94243   0.95984   17.503
 6927.00    0.94548   0.96075   17.449
 6928.00    0.95094   0.96170   17.098
 6929.00    0.95122   0.96227   16.563
 6930.00    0.95146   0.96257   16.094
 6931.00    0.95389   0.96270   15.861
 6932.00    0.94960   0.96264   15.873
 6933.00    0.93926   0.96237   16.009
 6934.00    0.94199   0.96221   16.054
 6935.00    0.96385   0.96263   15.931
 6936.00    0.98351   0.96354   15.800
 6937.00    0.98194   0.96451   15.763
 6938.00    0.95922   0.96514   15.742
 6939.00    0.92948   0.96553   15.683
 6940.00    0.91330   0.96584   15.639
 6941.00    0.91649   0.96595   15.677
 6942.00    0.92374   0.96586   15.821
 6943.00    0.91883   0.96585   16.064
 6944.00    0.89689   0.96628   16.334
 6945.00    0.87486   0.96684   16.371
 6946.00    0.88374   0.96719   15.872
 6947.00    0.92020   0.96734   15.170
 6948.00    0.94272   0.96731   14.973
 6949.00    0.93203   0.96687   15.303
 6950.00    0.90626   0.96595   15.507
 6951.00    0.89092   0.96503   15.387
 6952.00    0.90235   0.96426   15.403
 6953.00    0.93128   0.96349   15.686
 6954.00    0.94866   0.96293   15.908
 6955.00    0.94004   0.96309   15.917
 6956.00    0.91278   0.96396   15.882
 6957.00    0.88482   0.96490   15.957
 6958.00    0.87460   0.96549   16.168
 6959.00    0.88359   0.96571   16.357
 6960.00    0.89825   0.96571   16.315
 6961.00    0.90693   0.96576   16.171
 6962.00    0.90450   0.96599   16.247
 6963.00    0.89274   0.96635   16.518
 6964.00    0.88005   0.96691   16.695
 6965.00    0.88028   0.96790   16.718
 6966.00    0.90326   0.96922   16.706
 6967.00    0.93653   0.97048   16.545
 6968.00    0.95582   0.97157   16.124
 6969.00    0.95226   0.97250   15.847
 6970.00    0.93580   0.97324   16.095
 6971.00    0.93033   0.97380   16.304
 6972.00    0.94988   0.97425   15.719
 6973.00    0.96220   0.97461   15.083
 6974.00    0.93263   0.97478   15.289
 6975.00    0.89944   0.97481   15.676
 6976.00    0.91677   0.97488   15.152
 6977.00    0.95627   0.97501   14.483
 6978.00    0.96233   0.97490   14.724
 6979.00    0.94608   0.97418   15.468
 6980.00    0.94468   0.97280   15.699
 6981.00    0.95384   0.97090   15.532
 6982.00    0.95438   0.96843   15.584
 6983.00    0.95326   0.96504   15.726
 6984.00    0.95917   0.96121   15.637
 6985.00    0.95217   0.95793   15.566
 6986.00    0.92058   0.95562   15.794
 6987.00    0.89953   0.95426   16.033
 6988.00    0.91979   0.95453   15.949
 6989.00    0.95679   0.95703   15.787
 6990.00    0.97759   0.96096   15.803
 6991.00    0.98677   0.96503   15.758
 6992.00    0.99779   0.96857   15.467
 6993.00    1.00576   0.97144   15.236
 6994.00    1.00258   0.97338   15.314
 6995.00    0.99062   0.97438   15.519
 6996.00    0.97705   0.97467   15.603
 6997.00    0.96779   0.97441   15.567
 6998.00    0.96078   0.97385   15.566
 6999.00    0.94419   0.97348   15.785
 7000.00    0.91607   0.97359   16.182
 7001.00    0.89400   0.97390   -2.000
 7002.00    0.88871   0.97401   -2.000
 7003.00    0.89056   0.97367   -2.000
 7004.00    0.89250   0.97302   -2.000
 7005.00    0.90103   0.97228   -2.000
 7006.00    0.91652   0.97150   -2.000
 7007.00    0.92601   0.97040   -2.000
 7008.00    0.92497   0.96881   -2.000
 7009.00    0.92409   0.96721   -2.000
 7010.00    0.92513   0.96628   -2.000
 7011.00    0.91525   0.96591   -2.000
 7012.00    0.89622   0.96550   -2.000
 7013.00    0.88894   0.96499   -2.000
 7014.00    0.89475   0.96501   -2.000
 7015.00    0.89082   0.96565   -2.000
 7016.00    0.87886   0.96644   -2.000
 7017.00    0.88960   0.96713   -2.000
 7018.00    0.92573   0.96772   -2.000
 7019.00    0.95477   0.96788   -2.000
 7020.00    0.95970   0.96698   -2.000
 7021.00    0.95011   0.96526   -2.000
 7022.00    0.93868   0.96368   -2.000
 7023.00    0.93189   0.96247   -2.000
 7024.00    0.92673   0.96103   -2.000
 7025.00    0.91483   0.95972   -2.000
 7026.00    0.89659   0.96002   -2.000
 7027.00    0.88152   0.96203   -2.000
 7028.00    0.87803   0.96406   -2.000
 7029.00    0.89089   0.96546   -2.000
 7030.00    0.92162   0.96671   -2.000
 7031.00    0.96368   0.96782   -2.000
 7032.00    0.99164   0.96827   -2.000
 7033.00    0.97902   0.96838   -2.000
 7034.00    0.94086   0.96908   -2.000
 7035.00    0.91535   0.97041   -2.000
 7036.00    0.90850   0.97175   -2.000
 7037.00    0.90631   0.97297   -2.000
 7038.00    0.91831   0.97426   -2.000
 7039.00    0.95821   0.97546   -2.000
 7040.00    0.99642   0.97626   -2.000
 7041.00    0.99021   0.97649   -2.000
 7042.00    0.94642   0.97614   -2.000
 7043.00    0.90208   0.97544   -2.000
 7044.00    0.87788   0.97524   -2.000
 7045.00    0.87669   0.97588   -2.000
 7046.00    0.89215   0.97674   -2.000
 7047.00    0.91274   0.97784   -2.000
 7048.00    0.92602   0.98035   -2.000
 7049.00    0.92665   0.98428   -2.000
 7050.00    0.92471   0.98820   -2.000
 7051.00    0.93172   0.99154   -2.000
 7052.00    0.94326   0.99447   -2.000
 7053.00    0.94842   0.99667   -2.000
 7054.00    0.94290   0.99785   -2.000
 7055.00    0.93093   0.99827   -2.000
 7056.00    0.92446   0.99796   -2.000
 7057.00    0.92667   0.99638   -2.000
 7058.00    0.91915   0.99343   -2.000
 7059.00    0.89548   0.98972   -2.000
 7060.00    0.88862   0.98551   -2.000
 7061.00    0.92426   0.98066   -2.000
 7062.00    0.98191   0.97567   -2.000
 7063.00    1.02831   0.97126   -2.000
 7064.00    1.04723   0.96745   -2.000
 7065.00    1.03883   0.96440   -2.000
 7066.00    1.01620   0.96221   -2.000
 7067.00    0.99606   0.96046   -2.000
 7068.00    0.99146   0.95875   -2.000
 7069.00    1.00727   0.95742   -2.000
 7070.00    1.03796   0.95675   -2.000
 7071.00    1.07146   0.95637   -2.000
 7072.00    1.09252   0.95587   -2.000
 7073.00    1.08701   0.95549   -2.000
 7074.00    1.04794   0.95528   -2.000
 7075.00    0.99379   0.95516   -2.000
 7076.00    0.96674   0.95529   -2.000
 7077.00    0.97265   0.95566   -2.000
 7078.00    0.96771   0.95691   -2.000
 7079.00    0.94443   0.95905   -2.000
 7080.00    0.95373   0.96130   -2.000
 7081.00    1.01450   0.96328   -2.000
 7082.00    1.08546   0.96523   -2.000
 7083.00    1.12303   0.96693   -2.000
 7084.00    1.11067   0.96781   -2.000
 7085.00    1.07212   0.96793   -2.000
 7086.00    1.05670   0.96753   -2.000
 7087.00    1.06876   0.96650   -2.000
 7088.00    1.06600   0.96448   -2.000
 7089.00    1.04243   0.96148   -2.000
 7090.00    1.03267   0.95777   -2.000
 7091.00    1.03356   0.95335   -2.000
 7092.00    1.00635   0.94796   -2.000
 7093.00    0.95920   0.94190   -2.000
 7094.00    0.94242   0.93631   -2.000
 7095.00    0.96556   0.93160   -2.000
 7096.00    0.99637   0.92711   -2.000
 7097.00    1.01932   0.92300   -2.000
 7098.00    1.03872   0.91976   -2.000
 7099.00    1.04793   0.91751   -2.000
 7100.00    1.03484   0.91609   -2.000
 7101.00    1.01109   0.91549   -2.000
 7102.00    0.99787   0.91533   -2.000
 7103.00    0.98251   0.91598   -2.000
 7104.00    0.94210   0.91757   -2.000
 7105.00    0.90708   0.91970   -2.000
 7106.00    0.92449   0.92209   -2.000
 7107.00    0.96811   0.92492   -2.000
 7108.00    0.97857   0.92846   -2.000
 7109.00    0.96083   0.93148   -2.000
 7110.00    0.95497   0.93389   -2.000
 7111.00    0.96176   0.93573   -2.000
 7112.00    0.95840   0.93746   -2.000
 7113.00    0.94113   0.93887   -2.000
 7114.00    0.91997   0.93978   -2.000
 7115.00    0.90178   0.93989   -2.000
 7116.00    0.88585   0.93966   -2.000
 7117.00    0.86227   0.93969   -2.000
 7118.00    0.82644   0.93976   -2.000
 7119.00    0.79615   0.93939   -2.000
 7120.00    0.79258   0.93917   -2.000
 7121.00    0.81598   0.93993   -2.000
 7122.00    0.85277   0.94138   -2.000
 7123.00    0.88693   0.94275   -2.000
 7124.00    0.90638   0.94404   -2.000
 7125.00    0.90847   0.94553   -2.000
 7126.00    0.90075   0.94667   -2.000
 7127.00    0.89940   0.94702   -2.000
 7128.00    0.91064   0.94688   -2.000
 7129.00    0.91797   0.94633   -2.000
 7130.00    0.92018   0.94491   -2.000
 7131.00    0.95564   0.94292   -2.000
 7132.00    1.02523   0.94120   -2.000
 7133.00    1.04488   0.93928   -2.000
 7134.00    0.97301   0.93631   -2.000
 7135.00    0.89050   0.93291   -2.000
 7136.00    0.86320   0.93020   -2.000
 7137.00    0.85556   0.92809   -2.000
 7138.00    0.83232   0.92594   -2.000
 7139.00    0.81847   0.92425   -2.000
 7140.00    0.82850   0.92396   -2.000
 7141.00    0.83192   0.92519   -2.000
 7142.00    0.82142   0.92703   -2.000
 7143.00    0.83928   0.92898   -2.000
 7144.00    0.89872   0.93107   -2.000
 7145.00    0.95408   0.93338   -2.000
 7146.00    0.97249   0.93540   -2.000
 7147.00    0.96578   0.93664   -2.000
 7148.00    0.96285   0.93745   -2.000
 7149.00    0.98691   0.93829   -2.000
 7150.00    1.01772   0.93904   -2.000
 7151.00    0.99971   0.93914   -2.000
 7152.00    0.94133   0.93862   -2.000
 7153.00    0.92038   0.93789   -2.000
 7154.00    0.94538   0.93728   -2.000
 7155.00    0.94077   0.93654   -2.000
 7156.00    0.88938   0.93548   -2.000
 7157.00    0.85246   0.93524   -2.000
 7158.00    0.85972   0.93690   -2.000
 7159.00    0.88697   0.93959   -2.000
 7160.00    0.90662   0.94241   -2.000
 7161.00    0.90848   0.94599   -2.000
 7162.00    0.91044   0.95027   -2.000
 7163.00    0.93877   0.95387   -2.000
 7164.00    0.96781   0.95633   -2.000
 7165.00    0.94389   0.95830   -2.000
 7166.00    0.88749   0.95950   -2.000
 7167.00    0.87515   0.95892   -2.000
 7168.00    0.93275   0.95647   -2.000
 7169.00    1.01844   0.95313   -2.000
 7170.00    1.04609   0.94945   -2.000
 7171.00    0.95287   0.94495   -2.000
 7172.00    0.82319   0.93945   -2.000
 7173.00    0.79906   0.93467   -2.000
 7174.00    0.85816   0.93183   -2.000
 7175.00    0.88469   0.93085   -2.000
 7176.00    0.87654   0.93077   -2.000
 7177.00    0.90347   0.93158   -2.000
 7178.00    0.97038   0.93335   -2.000
 7179.00    1.02882   0.93568   -2.000
 7180.00    1.03494   0.93762   -2.000
 7181.00    0.97772   0.93883   -2.000
 7182.00    0.90436   0.93940   -2.000
 7183.00    0.87250   0.93924   -2.000
 7184.00    0.87995   0.93821   -2.000
 7185.00    0.89823   0.93673   -2.000
 7186.00    0.92787   0.93529   -2.000
 7187.00    0.97085   0.93375   -2.000
 7188.00    0.99111   0.93197   -2.000
 7189.00    0.96039   0.93036   -2.000
 7190.00    0.91267   0.92946   -2.000
 7191.00    0.89173   0.92915   -2.000
 7192.00    0.89022   0.92884   -2.000
 7193.00    0.88337   0.92823   -2.000
 7194.00    0.86885   0.92744   -2.000
 7195.00    0.85807   0.92652   -2.000
 7196.00    0.86275   0.92544   -2.000
 7197.00    0.88196   0.92460   -2.000
 7198.00    0.89409   0.92452   -2.000
 7199.00    0.88012   0.92530   -2.000
 7200.00    0.84379   0.92650   -2.000
 7201.00    0.80997   0.92775   -2.000
 7202.00    0.81575   0.92924   -2.000
 7203.00    0.86099   0.93102   -2.000
 7204.00    0.88509   0.93231   -2.000
 7205.00    0.86083   0.93252   -2.000
 7206.00    0.84453   0.93230   -2.000
 7207.00    0.86739   0.93235   -2.000
 7208.00    0.88041   0.93241   -2.000
 7209.00    0.86596   0.93181   -2.000
 7210.00    0.88375   0.93060   -2.000
 7211.00    0.93183   0.92949   -2.000
 7212.00    0.90260   0.92881   -2.000
 7213.00    0.78097   0.92797   -2.000
 7214.00    0.70637   0.92645   -2.000
 7215.00    0.74526   0.92479   -2.000
 7216.00    0.81186   0.92407   -2.000
 7217.00    0.84171   0.92450   -2.000
 7218.00    0.85492   0.92552   -2.000
