###################################################################
## OUTPUT of StarlightChains_v04.for    [Cid@UFSC - 01/Apr/2007] ##
###################################################################

## Some input info
1995L.txt                                [arq_obs]
Base.CB07.vall.4m                        [arq_base]
Masks.EmLines.NEW.gm                     [arq_masks]
StCv04.C11.config                        [arq_config]
   66                                    [N_base]
    0                                    [N_YAV_components = # of components with extra extinction!]
    0                                    [i_FitPowerLaw (1/0 = Yes/No)]
-9.99                                    [alpha_PowerLaw]
CCM                                      [red_law_option]
 1.458241                                [q_norm = A(l_norm)/A(V)]

## (Re)Sampling Parameters
 3741.00                                 [l_ini (A)]
 7218.00                                 [l_fin (A)]
    1.00                                 [dl    (A)]     (OBS: dl_cushion =    50.00 A)

## Normalization info
 4020.00                                 [l_norm (A) - for base]
 4010.00                                 [llow_norm (A) - window for f_obs]
 4060.00                                 [lupp_norm (A) - window for f_obs]
1.630211E-17                             [fobs_norm (in input units)]

## S/N
 3691.00                                 [llow_SN (A) - window for S/N]
 7268.00                                 [lupp_SN (A) - window for S/N]
   5.882                                 [S/N in S/N window]
   4.878                                 [S/N in norm. window]
  11.836                                 [S/N_err in S/N window]
   9.816                                 [S/N_err in norm. window]
  1.0000                                 [fscale_chi2]

## etc...
    -2007224                             [idum_orig]
  2376                                   [NOl_eff]
  2376                                   [Nl_eff]
     0    NSIGMA                         [Ntot_cliped & clip_method]
  1247610                                [Nglobal_steps]
   7                                     [N_chains]
  21                                     [NEX0s_base = N_base in EX0s-fits]
 0   0   1        5   2.0   1.388E+01    [Clip-Bug, RC-Crash & Burn-In warning-flags, n_censored_weights, wei_nsig_threshold & wei_limit]
    11     10.891     10.351      0.540  [idt_all, wdt_TotTime, wdt_UsrTime & wdt_SysTime (sec)]

## Synthesis Results - Best model ##

 4.76054E-01                             [chi2/Nl_eff]
     5.02249                             [adev (%)]

   109.64027                             [sum-of-x (%)]
 1.76734E-17                             [Flux_tot (units of input spectrum!)]
 5.98527E-13                             [Mini_tot (???)]
 3.15243E-13                             [Mcor_tot (???)]

 172.25                                  [v0_min  (km/s)]
 184.56                                  [vd_min  (km/s)]
-0.0084                                  [AV_min  (mag)]
 0.0000                                  [YAV_min (mag)]

# j     x_j(%)      Mini_j(%)     Mcor_j(%)     age_j(yr)     Z_j      (L/M)_j    YAV?  Mstars   component_j        a/Fe...       SSP_chi2r SSP_adev(%)   SSP_AV   SSP_x(%)
  1      2.4058     5.9227E-03    1.1245E-02    1.000000E+06  0.00400  1.094E-02    0   1.0000   age020_m42            0.0000     1.1437E+00     8.2014   3.4664    96.0181
  2      1.2680     8.5223E-04    1.6179E-03    3.160000E+06  0.00400  4.007E-02    0   0.9999   age045_m42            0.0000     1.0822E+00     7.9009   2.7530   102.1114
  3      0.0000     0.0000E+00    0.0000E+00    5.010000E+06  0.00400  2.539E-02    0   0.9488   age055_m42            0.0000     1.1036E+00     8.0291   3.0652    99.9269
  4      0.0000     0.0000E+00    0.0000E+00    6.610000E+06  0.00400  2.620E-02    0   0.9220   age061_m42            0.0000     1.0831E+00     7.9629   2.6748   102.5637
  5      0.0000     0.0000E+00    0.0000E+00    1.000000E+07  0.00400  1.322E-02    0   0.8862   age070_m42            0.0000     1.1904E+00     8.6106   2.3496   106.8500
  6      0.0000     0.0000E+00    0.0000E+00    1.445000E+07  0.00400  7.883E-03    0   0.8571   age078_m42            0.0000     1.1956E+00     8.5631   2.6799   103.9595
  7      0.0000     0.0000E+00    0.0000E+00    2.512000E+07  0.00400  5.251E-03    0   0.8174   age090_m42            0.0000     1.2338E+00     8.8007   2.2135   107.7550
  8      0.0000     0.0000E+00    0.0000E+00    4.000000E+07  0.00400  3.649E-03    0   0.7851   age104_m42            0.0000     1.1835E+00     8.6048   1.9897   108.5060
  9      0.0000     0.0000E+00    0.0000E+00    5.500000E+07  0.00400  3.098E-03    0   0.7629   age110_m42            0.0000     1.1266E+00     8.3157   2.1655   107.4163
 10      0.0000     0.0000E+00    0.0000E+00    1.015200E+08  0.00400  2.228E-03    0   0.7207   age116_m42            0.0000     1.0988E+00     8.2064   2.2003   106.9299
 11      0.0000     0.0000E+00    0.0000E+00    2.861200E+08  0.00400  1.093E-03    0   0.6648   age125_m42            0.0000     1.1636E+00     8.6014   1.6170   110.9765
 12      0.0000     0.0000E+00    0.0000E+00    5.088000E+08  0.00400  6.597E-04    0   0.6365   age130_m42            0.0000     1.0478E+00     8.2014   1.6275   110.8982
 13      0.0000     0.0000E+00    0.0000E+00    1.434000E+09  0.00400  2.132E-04    0   0.5798   age139_m42            0.0000     7.6308E-01     6.8876   0.6625   112.9576
 14      0.0000     0.0000E+00    0.0000E+00    4.250000E+09  0.00400  5.895E-05    0   0.5377   age158_m42            0.0000     5.7268E-01     5.6465   0.2429   107.6890
 15      0.0000     0.0000E+00    0.0000E+00    7.500000E+09  0.00400  3.510E-05    0   0.5212   age171_m42            0.0000     5.3073E-01     5.3900   0.0662   106.5168
 16     15.4972     2.0816E+01    1.9896E+01    1.300000E+10  0.00400  2.005E-05    0   0.5034   age193_m42            0.0000     5.1058E-01     5.2448  -0.0888   105.5552
 17      2.7850     4.9184E+00    4.6383E+00    1.800000E+10  0.00400  1.525E-05    0   0.4967   age213_m42            0.0000     5.1366E-01     5.2655  -0.1152   105.2384
 18      0.0000     0.0000E+00    0.0000E+00    1.000000E+06  0.00800  1.238E-02    0   1.0000   age020_m52            0.0000     1.1418E+00     8.1969   3.4642    96.1473
 19      0.0000     0.0000E+00    0.0000E+00    3.160000E+06  0.00800  3.074E-02    0   0.9966   age045_m52            0.0000     1.1301E+00     8.1337   3.3888    96.9465
 20      0.0000     0.0000E+00    0.0000E+00    5.010000E+06  0.00800  2.668E-02    0   0.9443   age055_m52            0.0000     1.0973E+00     8.0244   3.1438    99.2031
 21      2.5607     3.2287E-03    5.6256E-03    6.610000E+06  0.00800  2.136E-02    0   0.9177   age061_m52            0.0000     1.0107E+00     7.9125   1.8477   108.2349
 22      0.0000     0.0000E+00    0.0000E+00    1.000000E+07  0.00800  1.215E-02    0   0.8827   age070_m52            0.0000     1.2480E+00     8.8672   2.5173   107.1979
 23      0.0000     0.0000E+00    0.0000E+00    1.445000E+07  0.00800  8.717E-03    0   0.8552   age078_m52            0.0000     1.1760E+00     8.5169   2.6438   105.4915
 24      0.0000     0.0000E+00    0.0000E+00    2.512000E+07  0.00800  5.592E-03    0   0.8162   age090_m52            0.0000     1.2255E+00     8.8028   2.2756   109.1582
 25      0.0000     0.0000E+00    0.0000E+00    4.000000E+07  0.00800  3.896E-03    0   0.7841   age104_m52            0.0000     1.1838E+00     8.6128   2.1980   109.5260
 26      0.0000     0.0000E+00    0.0000E+00    1.015200E+08  0.00800  2.148E-03    0   0.7226   age116_m52            0.0000     1.1014E+00     8.2515   2.1573   108.3181
 27      0.0000     0.0000E+00    0.0000E+00    2.861200E+08  0.00800  9.925E-04    0   0.6683   age125_m52            0.0000     1.0178E+00     8.1063   1.6918   111.9569
 28      0.0000     0.0000E+00    0.0000E+00    9.047900E+08  0.00800  3.141E-04    0   0.6138   age135_m52            0.0000     7.6289E-01     6.7644   0.9186   115.5144
 29      0.0000     0.0000E+00    0.0000E+00    1.434000E+09  0.00800  1.719E-04    0   0.5853   age139_m52            0.0000     6.3898E-01     6.0697   0.3381   113.3237
 30      0.0000     0.0000E+00    0.0000E+00    2.500000E+09  0.00800  7.872E-05    0   0.5600   age150_m52            0.0000     5.1599E-01     5.3608   0.0961   109.0670
 31      0.0000     0.0000E+00    0.0000E+00    4.250000E+09  0.00800  4.336E-05    0   0.5426   age158_m52            0.0000     5.1994E-01     5.3466   0.0810   108.0252
 32      0.0000     0.0000E+00    0.0000E+00    6.250000E+09  0.00800  3.159E-05    0   0.5319   age166_m52            0.0000     5.1040E-01     5.3181  -0.1049   107.3320
 33      0.0000     0.0000E+00    0.0000E+00    1.300000E+10  0.00800  1.361E-05    0   0.5073   age193_m52            0.0000     5.2989E-01     5.5602  -0.5518   105.7443
 34      0.0000     0.0000E+00    0.0000E+00    1.800000E+10  0.00800  9.886E-06    0   0.4990   age213_m52            0.0000     5.8314E-01     6.0115  -0.6398   104.3675
 35      1.7020     2.9688E-03    5.6366E-03    1.000000E+06  0.02000  1.544E-02    0   1.0000   age020_m62            0.0000     1.1451E+00     8.2174   3.4596    96.3951
 36      0.0000     0.0000E+00    0.0000E+00    3.160000E+06  0.02000  3.762E-02    0   0.9858   age045_m62            0.0000     1.1399E+00     8.1698   3.3998    97.2007
 37      0.0000     0.0000E+00    0.0000E+00    5.010000E+06  0.02000  3.296E-02    0   0.9342   age055_m62            0.0000     1.0752E+00     7.9042   3.0327   100.8350
 38      0.0000     0.0000E+00    0.0000E+00    8.710000E+06  0.02000  1.154E-02    0   0.8861   age067_m62            0.0000     1.9328E+00    11.7344   1.8869   114.5123
 39      0.0000     0.0000E+00    0.0000E+00    1.445000E+07  0.02000  7.663E-03    0   0.8472   age078_m62            0.0000     1.3852E+00     9.5250   2.1382   111.0271
 40      0.0000     0.0000E+00    0.0000E+00    2.512000E+07  0.02000  4.532E-03    0   0.8099   age090_m62            0.0000     1.4615E+00     9.7744   2.1286   110.8381
 41      0.0000     0.0000E+00    0.0000E+00    5.500000E+07  0.02000  2.733E-03    0   0.7595   age110_m62            0.0000     1.1636E+00     8.5526   2.1788   108.8296
 42      0.0000     0.0000E+00    0.0000E+00    1.609000E+08  0.02000  1.369E-03    0   0.6985   age120_m62            0.0000     1.0926E+00     8.3378   2.0459   110.4358
 43      0.0000     0.0000E+00    0.0000E+00    2.861200E+08  0.02000  9.013E-04    0   0.6714   age125_m62            0.0000     1.0433E+00     8.2657   1.8070   113.0511
 44      0.0000     0.0000E+00    0.0000E+00    5.088000E+08  0.02000  5.028E-04    0   0.6449   age130_m62            0.0000     8.8332E-01     7.4837   1.4580   114.6903
 45      0.0000     0.0000E+00    0.0000E+00    9.047900E+08  0.02000  2.428E-04    0   0.6179   age135_m62            0.0000     6.4839E-01     6.1462   0.8816   113.7171
 46      0.0000     0.0000E+00    0.0000E+00    1.434000E+09  0.02000  1.263E-04    0   0.5908   age139_m62            0.0000     5.5157E-01     5.6108   0.4421   111.9124
 47      0.0012     5.2888E-04    5.6965E-04    2.500000E+09  0.02000  5.985E-05    0   0.5673   age150_m62            0.0000     5.1256E-01     5.3530   0.0976   109.4335
 48      2.8536     2.3495E+00    2.4392E+00    4.250000E+09  0.02000  3.271E-05    0   0.5468   age158_m62            0.0000     5.3179E-01     5.5752  -0.1823   107.4187
 49      0.0000     0.0000E+00    0.0000E+00    1.000000E+10  0.02000  1.360E-05    0   0.5167   age181_m62            0.0000     6.4170E-01     6.4825  -0.4995   105.6584
 50      0.0000     0.0000E+00    0.0000E+00    1.800000E+10  0.02000  7.124E-06    0   0.5013   age213_m62            0.0000     7.6673E-01     7.3148  -0.6826   103.6954
 51      6.1201     6.3590E-03    1.2071E-02    1.000000E+06  0.05000  2.592E-02    0   0.9998   age020_m72            0.0000     1.1580E+00     8.3072   3.4487    96.5262
 52      3.5185     1.9558E-03    3.5563E-03    3.160000E+06  0.05000  4.845E-02    0   0.9577   age045_m72            0.0000     1.1165E+00     8.0462   3.2897    98.1951
 53      0.0000     0.0000E+00    0.0000E+00    5.010000E+06  0.05000  3.072E-02    0   0.9147   age055_m72            0.0000     1.2730E+00     8.9223   2.7561   105.3200
 54      0.0000     0.0000E+00    0.0000E+00    6.610000E+06  0.05000  1.455E-02    0   0.8877   age061_m72            0.0000     2.8884E+00    14.3215   1.9157   117.0061
 55      0.0000     0.0000E+00    0.0000E+00    1.000000E+07  0.05000  9.074E-03    0   0.8524   age070_m72            0.0000     1.4513E+00     9.3844   2.9512   104.7389
 56      0.0000     0.0000E+00    0.0000E+00    2.512000E+07  0.05000  4.250E-03    0   0.7902   age090_m72            0.0000     1.3817E+00     9.2829   2.6438   106.8583
 57      0.0000     0.0000E+00    0.0000E+00    4.000000E+07  0.05000  3.087E-03    0   0.7618   age104_m72            0.0000     1.4413E+00     9.5455   2.4109   108.9028
 58      0.0000     0.0000E+00    0.0000E+00    1.015200E+08  0.05000  1.700E-03    0   0.7096   age116_m72            0.0000     1.1895E+00     8.6998   2.1765   110.5721
 59      0.0000     0.0000E+00    0.0000E+00    2.861200E+08  0.05000  7.384E-04    0   0.6633   age125_m72            0.0000     9.5168E-01     7.8575   1.6896   113.9027
 60      0.0000     0.0000E+00    0.0000E+00    5.088000E+08  0.05000  3.819E-04    0   0.6372   age130_m72            0.0000     7.2511E-01     6.6646   1.2195   114.7303
 61      0.0000     0.0000E+00    0.0000E+00    9.047900E+08  0.05000  1.676E-04    0   0.6110   age135_m72            0.0000     5.6428E-01     5.6626   0.5535   111.4343
 62      0.0000     0.0000E+00    0.0000E+00    1.434000E+09  0.05000  8.837E-05    0   0.5874   age139_m72            0.0000     5.1419E-01     5.4513   0.1002   110.9194
 63     61.2418     3.8964E+01    4.1413E+01    2.500000E+09  0.05000  4.233E-05    0   0.5598   age150_m72            0.0000     5.5328E-01     5.7718  -0.1741   107.9645
 64      6.0643     1.1381E+01    1.1342E+01    6.250000E+09  0.05000  1.435E-05    0   0.5249   age166_m72            0.0000     6.7819E-01     6.7123  -0.5872   104.8534
 65      0.0000     0.0000E+00    0.0000E+00    1.300000E+10  0.05000  6.513E-06    0   0.5036   age193_m72            0.0000     8.6528E-01     7.8408  -0.8321   104.3476
 66      3.6221     2.1548E+01    2.0231E+01    1.800000E+10  0.05000  4.527E-06    0   0.4945   age213_m72            0.0000     1.0074E+00     8.5403  -0.9699   103.1555


## Synthesis Results - Average & Chains ##

# j      x_j: min, <> & last-chain-values for 1 ...  7 chains
  1      2.4058      0.4491      0.0000      1.7061      1.8886      0.0000      0.0000      1.1634      0.0000
  2      1.2680      0.1751      0.0092      0.0000      0.0000      0.0000      0.0000      1.5445      0.9370
  3      0.0000      0.1477      0.0000      0.0000      0.5399      0.0000      0.0000      0.0000      0.5218
  4      0.0000      0.3351      0.0000      0.6166      0.0000      0.0000      0.0000      0.0000      0.5387
  5      0.0000      0.2049      0.0000      0.0000      0.8001      0.0000      0.0000      0.0000      0.0000
  6      0.0000      0.1854      0.0000      0.0000      0.0000      0.0000      0.0000      0.2405      0.0000
  7      0.0000      0.1560      0.2517      0.0000      0.4977      0.0000      0.0000      0.0000      0.0000
  8      0.0000      0.3023      0.0000      0.8353      0.0000      0.1464      0.0000      0.0000      0.0000
  9      0.0000      0.2798      0.0000      0.0000      1.3383      0.0000      0.0000      0.0000      0.2676
 10      0.0000      0.2923      0.0000      0.0000      0.0000      0.2237      1.9546      0.0000      1.8905
 11      0.0000      0.4108      0.0000      0.0000      0.0000      0.0325      0.0000      1.7173      0.0000
 12      0.0000      0.3052      0.0000      1.6283      0.0000      0.0000      0.0000      0.0000      0.0984
 13      0.0000      0.6340      0.0000      0.0000      0.0757      0.9527      0.0000      0.0000      0.0000
 14      0.0000      2.0186      0.0000      0.0000      3.7531      0.5258      0.0000      1.0168      1.2648
 15      0.0000      4.0645      0.6927      2.2564      0.0000      2.5177      1.3991      2.7235      0.0000
 16     15.4972      3.6693      7.5489      0.0000      0.0000      5.3588      2.8484      7.1200      5.0020
 17      2.7850      6.4936      4.2895      7.4683      8.9122      4.3524      8.6994      6.5296      7.2544
 18      0.0000      0.3603      0.3196      1.3746      0.0000      0.0000      1.8566      0.0000      0.0000
 19      0.0000      0.1959      1.7820      0.5715      0.0000      1.2913      0.0000      0.0704      0.0000
 20      0.0000      0.4973      0.4596      0.8934      0.0000      0.0000      0.0000      0.0000      1.7935
 21      2.5607      2.8157      3.2726      5.9555      4.0784      4.0785      3.1950      3.0532      2.1701
 22      0.0000      0.2541      0.0000      0.0000      1.1196      0.7535      0.0000      0.0000      0.3075
 23      0.0000      0.6070      1.7774      0.0000      0.0368      0.3410      0.0368      0.4757      1.8228
 24      0.0000      0.1943      0.0000      2.8298      0.0000      0.0000      0.0000      0.3049      0.0000
 25      0.0000      0.4406      0.0000      0.0000      0.0000      1.2799      1.4058      1.0501      0.0000
 26      0.0000      0.0679      0.0000      0.0000      0.0000      0.0000      0.0000      0.0000      0.0000
 27      0.0000      0.2673      0.0000      0.0000      0.0000      0.0000      1.0115      0.0000      0.0000
 28      0.0000      0.3827      0.0000      0.0000      0.0000      0.8148      0.0000      0.0000      0.0000
 29      0.0000      0.9332      2.5476      1.0358      0.0000      0.6847      0.0000      0.0000      0.0000
 30      0.0000      3.1980      4.4794      0.0000      3.2526      0.0000      0.0000      0.0000      4.8034
 31      0.0000      1.8937      0.0000      0.0000      0.0000      3.8130      0.0000      0.0000      0.0000
 32      0.0000      1.5573      0.7541      0.5941      2.3425      0.4725      2.1919      0.0000      0.0000
 33      0.0000      0.2716      0.0000      0.0000      2.7266      0.0538      0.0000      0.0000      0.0000
 34      0.0000      0.2756      0.0000      0.0000      0.0000      0.0000      0.0000      0.1301      0.0000
 35      1.7020      0.5345      0.0000      0.6527      0.0000      0.0000      3.3123      1.2607      0.4208
 36      0.0000      0.3920      0.0000      0.0000      0.0140      1.1625      0.0000      0.0000      0.2253
 37      0.0000      0.1647      0.0000      0.0000      0.0000      0.0000      0.0000      1.2159      0.0000
 38      0.0000      0.5227      1.0256      0.0000      0.0000      0.2033      3.5414      0.0000      0.0000
 39      0.0000      0.4003      0.0000      0.0000      0.0000      0.0000      1.0366      0.0000      0.0000
 40      0.0000      0.5404      0.0000      1.3035      0.8552      0.0000      0.0000      1.0998      0.0000
 41      0.0000      0.1517      1.2677      0.0000      0.0000      0.9480      0.0000      0.0000      0.0000
 42      0.0000      0.1492      0.0000      0.0000      0.0000      0.0000      0.0000      0.0000      0.0000
 43      0.0000      0.1263      0.0000      0.0000      0.0000      0.0000      0.0000      0.0000      0.6615
 44      0.0000      0.3639      0.0000      0.0000      0.0000      0.0000      0.0000      0.0000      1.8759
 45      0.0000      0.4654      0.0000      0.0000      1.9254      0.0000      0.0000      0.0000      0.0000
 46      0.0000      1.2623      0.0000      0.0000      2.2251      0.9829      0.0000      0.0000      0.0000
 47      0.0012      4.4816      1.2254      1.1538      0.6799      0.0000      3.4527      1.4242      0.0000
 48      2.8536     12.5046     19.4837     13.7288      7.2867     13.1769     17.1878     12.1721     18.5810
 49      0.0000      2.0781      2.6301      1.7083      1.7537      0.0000      0.0000      0.0000      1.2675
 50      0.0000      0.5877      1.4539      0.9177      1.1502      1.8797      0.7504      0.0000      0.0000
 51      6.1201      0.4551      1.0359      0.0000      0.0000      0.0000      0.1335      3.2400      0.5326
 52      3.5185      0.7950      1.4844      2.9539      0.0000      3.8085      0.0000      1.1728      1.2201
 53      0.0000      0.3187      1.5273      0.0000      3.0257      0.0000      0.0000      0.0877      1.2332
 54      0.0000      0.1566      0.5559      0.0000      0.5500      0.0761      0.0000      0.0000      0.0000
 55      0.0000      0.2760      0.0000      0.0000      0.8664      0.0000      0.0000      0.2843      1.4802
 56      0.0000      0.1155      0.0000      0.0000      0.0000      0.5727      0.0000      0.0000      0.0000
 57      0.0000      0.1245      0.0000      0.0000      0.0000      0.4161      0.0000      1.0819      0.0000
 58      0.0000      0.2587      0.6361      0.0000      0.7741      2.0613      0.0493      0.0000      0.0000
 59      0.0000      0.2009      0.0000      0.0000      0.0000      0.0000      0.0000      0.0000      0.6117
 60      0.0000      0.2901      0.0000      0.0000      0.0000      0.0000      0.0000      0.0000      0.0797
 61      0.0000      2.0347      1.2846      0.4410      0.0000      1.6689      2.1654      0.0000      1.4887
 62      0.0000      5.5318      7.9010      5.6671      3.9094      0.8201      5.7998      3.8972      0.0000
 63     61.2418     36.5800     35.7704     50.4598     48.2128     51.3486     45.5968     50.1786     48.2473
 64      6.0643      1.5970      4.0192      1.6346      2.2757      0.8584      0.9165      4.5068      0.9144
 65      0.0000      0.2812      0.0000      0.0000      0.2408      0.0000      0.0000      0.0000      0.3513
 66      3.6221      1.4491      0.0000      1.6801      2.4986      1.9390      1.0655      0.9565      1.7603

# j      m_j: min, <> & last-chain-values for 1 ...  7 chains
  1  1.1245E-02  2.5132E-03  0.0000E+00  9.6670E-03  9.4851E-03  0.0000E+00  0.0000E+00  6.5407E-03  0.0000E+00
  2  1.6179E-03  2.6756E-04  1.4179E-05  0.0000E+00  0.0000E+00  0.0000E+00  0.0000E+00  2.3704E-03  1.4020E-03
  3  0.0000E+00  3.3799E-04  0.0000E+00  0.0000E+00  1.1085E-03  0.0000E+00  0.0000E+00  0.0000E+00  1.1692E-03
  4  0.0000E+00  7.2209E-04  0.0000E+00  1.3451E-03  0.0000E+00  0.0000E+00  0.0000E+00  0.0000E+00  1.1368E-03
  5  0.0000E+00  8.4077E-04  0.0000E+00  0.0000E+00  2.9468E-03  0.0000E+00  0.0000E+00  0.0000E+00  0.0000E+00
  6  0.0000E+00  1.2344E-03  0.0000E+00  0.0000E+00  0.0000E+00  0.0000E+00  0.0000E+00  1.6080E-03  0.0000E+00
  7  0.0000E+00  1.4865E-03  2.4326E-03  0.0000E+00  4.2570E-03  0.0000E+00  0.0000E+00  0.0000E+00  0.0000E+00
  8  0.0000E+00  3.9820E-03  0.0000E+00  1.1140E-02  0.0000E+00  1.8792E-03  0.0000E+00  0.0000E+00  0.0000E+00
  9  0.0000E+00  4.2185E-03  0.0000E+00  0.0000E+00  1.8107E-02  0.0000E+00  0.0000E+00  0.0000E+00  3.9518E-03
 10  0.0000E+00  5.7890E-03  0.0000E+00  0.0000E+00  0.0000E+00  4.3176E-03  3.9834E-02  0.0000E+00  3.6667E-02
 11  0.0000E+00  1.5296E-02  0.0000E+00  0.0000E+00  0.0000E+00  1.1805E-03  0.0000E+00  6.4241E-02  0.0000E+00
 12  0.0000E+00  1.8028E-02  0.0000E+00  9.7386E-02  0.0000E+00  0.0000E+00  0.0000E+00  0.0000E+00  5.6924E-03
 13  0.0000E+00  1.0555E-01  0.0000E+00  0.0000E+00  1.1309E-02  1.5460E-01  0.0000E+00  0.0000E+00  0.0000E+00
 14  0.0000E+00  1.1273E+00  0.0000E+00  0.0000E+00  1.8809E+00  2.8621E-01  0.0000E+00  5.7040E-01  6.9173E-01
 15  0.0000E+00  3.6951E+00  6.3850E-01  2.0769E+00  0.0000E+00  2.2309E+00  1.3089E+00  2.4873E+00  0.0000E+00
 16  1.9896E+01  5.6404E+00  1.1766E+01  0.0000E+00  0.0000E+00  8.0288E+00  4.5056E+00  1.0994E+01  7.5304E+00
 17  4.6383E+00  1.2949E+01  8.6730E+00  1.5078E+01  1.5949E+01  8.4593E+00  1.7851E+01  1.3080E+01  1.4168E+01
 18  0.0000E+00  1.7818E-03  1.6028E-03  6.8828E-03  0.0000E+00  0.0000E+00  9.4481E-03  0.0000E+00  0.0000E+00
 19  0.0000E+00  3.8889E-04  3.5865E-03  1.1485E-03  0.0000E+00  2.4983E-03  0.0000E+00  1.4034E-04  0.0000E+00
 20  0.0000E+00  1.0777E-03  1.0099E-03  1.9600E-03  0.0000E+00  0.0000E+00  0.0000E+00  0.0000E+00  3.8062E-03
 21  5.6256E-03  7.4064E-03  8.7281E-03  1.5861E-02  9.6275E-03  1.0456E-02  8.6482E-03  8.0677E-03  5.5906E-03
 22  0.0000E+00  1.1302E-03  0.0000E+00  0.0000E+00  4.4692E-03  3.2667E-03  0.0000E+00  0.0000E+00  1.3394E-03
 23  0.0000E+00  3.6460E-03  1.0825E-02  0.0000E+00  1.9811E-04  1.9965E-03  2.2756E-04  2.8703E-03  1.0723E-02
 24  0.0000E+00  1.7367E-03  0.0000E+00  2.5603E-02  0.0000E+00  0.0000E+00  0.0000E+00  2.7368E-03  0.0000E+00
 25  0.0000E+00  5.4284E-03  0.0000E+00  0.0000E+00  0.0000E+00  1.5372E-02  1.7825E-02  1.2998E-02  0.0000E+00
 26  0.0000E+00  1.3982E-03  0.0000E+00  0.0000E+00  0.0000E+00  0.0000E+00  0.0000E+00  0.0000E+00  0.0000E+00
 27  0.0000E+00  1.1021E-02  0.0000E+00  0.0000E+00  0.0000E+00  0.0000E+00  4.2909E-02  0.0000E+00  0.0000E+00
 28  0.0000E+00  4.5793E-02  0.0000E+00  0.0000E+00  0.0000E+00  9.5011E-02  0.0000E+00  0.0000E+00  0.0000E+00
 29  0.0000E+00  1.9454E-01  5.3849E-01  2.1863E-01  0.0000E+00  1.3913E-01  0.0000E+00  0.0000E+00  0.0000E+00
 30  0.0000E+00  1.3929E+00  1.9781E+00  0.0000E+00  1.2713E+00  0.0000E+00  0.0000E+00  0.0000E+00  2.0489E+00
 31  0.0000E+00  1.4508E+00  0.0000E+00  0.0000E+00  0.0000E+00  2.8473E+00  0.0000E+00  0.0000E+00  0.0000E+00
 32  0.0000E+00  1.6054E+00  7.8820E-01  6.2004E-01  2.1671E+00  4.7473E-01  2.3251E+00  0.0000E+00  0.0000E+00
 33  0.0000E+00  6.1971E-01  0.0000E+00  0.0000E+00  5.5841E+00  1.1967E-01  0.0000E+00  0.0000E+00  0.0000E+00
 34  0.0000E+00  8.5179E-01  0.0000E+00  0.0000E+00  0.0000E+00  0.0000E+00  0.0000E+00  4.0400E-01  0.0000E+00
 35  5.6366E-03  2.1193E-03  0.0000E+00  2.6206E-03  0.0000E+00  0.0000E+00  1.3516E-02  5.0217E-03  1.6342E-03
 36  0.0000E+00  6.2886E-04  0.0000E+00  0.0000E+00  2.0214E-05  1.8178E-03  0.0000E+00  0.0000E+00  3.5406E-04
 37  0.0000E+00  2.8587E-04  0.0000E+00  0.0000E+00  0.0000E+00  0.0000E+00  0.0000E+00  2.1196E-03  0.0000E+00
 38  0.0000E+00  2.4575E-03  4.8885E-03  0.0000E+00  0.0000E+00  9.3174E-04  1.7132E-02  0.0000E+00  0.0000E+00
 39  0.0000E+00  2.7097E-03  0.0000E+00  0.0000E+00  0.0000E+00  0.0000E+00  7.2203E-03  0.0000E+00  0.0000E+00
 40  0.0000E+00  5.9127E-03  0.0000E+00  1.4440E-02  8.3968E-03  0.0000E+00  0.0000E+00  1.2088E-02  0.0000E+00
 41  0.0000E+00  2.5816E-03  2.1869E-02  0.0000E+00  0.0000E+00  1.5720E-02  0.0000E+00  0.0000E+00  0.0000E+00
 42  0.0000E+00  4.6601E-03  0.0000E+00  0.0000E+00  0.0000E+00  0.0000E+00  0.0000E+00  0.0000E+00  0.0000E+00
 43  0.0000E+00  5.7606E-03  0.0000E+00  0.0000E+00  0.0000E+00  0.0000E+00  0.0000E+00  0.0000E+00  2.9546E-02
 44  0.0000E+00  2.8579E-02  0.0000E+00  0.0000E+00  0.0000E+00  0.0000E+00  0.0000E+00  0.0000E+00  1.4427E-01
 45  0.0000E+00  7.2517E-02  0.0000E+00  0.0000E+00  2.6922E-01  0.0000E+00  0.0000E+00  0.0000E+00  0.0000E+00
 46  0.0000E+00  3.6152E-01  0.0000E+00  0.0000E+00  5.7189E-01  2.7436E-01  0.0000E+00  0.0000E+00  0.0000E+00
 47  5.6965E-04  2.6008E+00  7.2102E-01  6.7794E-01  3.5408E-01  0.0000E+00  2.0618E+00  8.3025E-01  0.0000E+00
 48  2.4392E+00  1.2798E+01  2.0219E+01  1.4226E+01  6.6927E+00  1.3145E+01  1.8102E+01  1.2514E+01  1.8625E+01
 49  0.0000E+00  4.8339E+00  6.2032E+00  4.0232E+00  3.6609E+00  0.0000E+00  0.0000E+00  0.0000E+00  2.8875E+00
 50  0.0000E+00  2.5320E+00  6.3512E+00  4.0030E+00  4.4471E+00  7.8932E+00  3.3269E+00  0.0000E+00  0.0000E+00
 51  1.2071E-02  1.0748E-03  2.4805E-03  0.0000E+00  0.0000E+00  0.0000E+00  3.2444E-04  7.6865E-03  1.2317E-03
 52  3.5563E-03  9.6214E-04  1.8215E-03  3.6195E-03  0.0000E+00  4.4924E-03  0.0000E+00  1.4258E-03  1.4461E-03
 53  0.0000E+00  5.8095E-04  2.8230E-03  0.0000E+00  4.9501E-03  0.0000E+00  0.0000E+00  1.6062E-04  2.2018E-03
 54  0.0000E+00  5.8510E-04  2.1052E-03  0.0000E+00  1.8439E-03  2.7695E-04  0.0000E+00  0.0000E+00  0.0000E+00
 55  0.0000E+00  1.5873E-03  0.0000E+00  0.0000E+00  4.4718E-03  0.0000E+00  0.0000E+00  1.6423E-03  8.3375E-03
 56  0.0000E+00  1.3152E-03  0.0000E+00  0.0000E+00  0.0000E+00  6.3537E-03  0.0000E+00  0.0000E+00  0.0000E+00
 57  0.0000E+00  1.8809E-03  0.0000E+00  0.0000E+00  0.0000E+00  6.1271E-03  0.0000E+00  1.6421E-02  0.0000E+00
 58  0.0000E+00  6.6103E-03  1.6482E-02  0.0000E+00  1.7753E-02  5.1345E-02  1.2956E-03  0.0000E+00  0.0000E+00
 59  0.0000E+00  1.1049E-02  0.0000E+00  0.0000E+00  0.0000E+00  0.0000E+00  0.0000E+00  0.0000E+00  3.2947E-02
 60  0.0000E+00  2.9632E-02  0.0000E+00  0.0000E+00  0.0000E+00  0.0000E+00  0.0000E+00  0.0000E+00  7.9738E-03
 61  0.0000E+00  4.5415E-01  2.9072E-01  9.9667E-02  0.0000E+00  3.6305E-01  4.9734E-01  0.0000E+00  3.2542E-01
 62  0.0000E+00  2.2512E+00  3.2602E+00  2.3351E+00  1.4278E+00  3.2532E-01  2.4288E+00  1.5933E+00  0.0000E+00
 63  4.1413E+01  2.9618E+01  2.9366E+01  4.1366E+01  3.5032E+01  4.0523E+01  3.7990E+01  4.0813E+01  3.8259E+01
 64  1.1342E+01  3.5765E+00  9.1263E+00  3.7064E+00  4.5737E+00  1.8738E+00  2.1120E+00  1.0139E+01  2.0054E+00
 65  0.0000E+00  1.3312E+00  0.0000E+00  0.0000E+00  1.0231E+00  0.0000E+00  0.0000E+00  0.0000E+00  1.6286E+00
 66  2.0231E+01  9.6914E+00  0.0000E+00  1.1376E+01  1.4996E+01  1.2639E+01  7.3323E+00  6.4257E+00  1.1530E+01

# AV, chi2 & Mass for <> & i_chain = 1 ...  7 solutions
AV      -0.0084      0.0594      0.0342      0.0734      0.0180      0.0540      0.0585      0.0549      0.0487
chi2 4.7605E-01  4.8560E-01  4.8238E-01  4.8218E-01  4.8192E-01  4.8249E-01  4.8198E-01  4.8090E-01  4.8228E-01
Mass 3.1524E-13  2.8838E-13  2.7497E-13  2.9024E-13  3.0395E-13  2.9374E-13  2.7990E-13  2.8534E-13  2.9024E-13
 172.25                                  [v0_min (km/s) before EX0s...]
 184.56                                  [vd_min (km/s) before EX0s...]


## Synthetic spectrum (Best Model) ##l_obs f_obs f_syn wei
 3478    [Nl_obs]
 3741.00    0.88368   0.61412    0.000
 3742.00    0.96490   0.64552    0.000
 3743.00    0.98004   0.66193    0.000
 3744.00    0.95717   0.66052    0.000
 3745.00    0.92285   0.64350    4.000
 3746.00    0.88446   0.61640    4.086
 3747.00    0.84502   0.58555    4.473
 3748.00    0.80910   0.55625    4.751
 3749.00    0.78391   0.53249    4.626
 3750.00    0.77416   0.51866    4.323
 3751.00    0.76780   0.51943    4.166
 3752.00    0.74603   0.53716    4.316
 3753.00    0.71746   0.57109    4.575
 3754.00    0.71073   0.61558    4.498
 3755.00    0.73913   0.66021    4.284
 3756.00    0.79645   0.69394    4.407
 3757.00    0.86505   0.70991    4.758
 3758.00    0.92173   0.70732    4.803
 3759.00    0.94543   0.69098    4.536
 3760.00    0.92611   0.66979    4.363
 3761.00    0.87592   0.65309    4.456
 3762.00    0.81715   0.64655    4.785
 3763.00    0.76295   0.64964    5.035
 3764.00    0.72302   0.65699    4.881
 3765.00    0.71291   0.66318    4.650
 3766.00    0.73454   0.66560    4.708
 3767.00    0.75628   0.66413    4.969
 3768.00    0.75956   0.66038    5.097
 3769.00    0.78258   0.65643    4.839
 3770.00    0.84660   0.65422    4.410
 3771.00    0.89301   0.65634    4.322
 3772.00    0.87359   0.66478    4.729
 3773.00    0.82239   0.67910    5.071
 3774.00    0.78745   0.69734    4.828
 3775.00    0.77841   0.71727    4.642
 3776.00    0.79253   0.73628    4.926
 3777.00    0.83252   0.75249    5.318
 3778.00    0.89302   0.76629    5.313
 3779.00    0.95369   0.77964    5.024
 3780.00    0.99034   0.79404    4.827
 3781.00    0.98608   0.80927    4.964
 3782.00    0.95386   0.82366    5.365
 3783.00    0.93513   0.83475    5.499
 3784.00    0.94811   0.83967    5.163
 3785.00    0.97400   0.83572    4.838
 3786.00    0.99328   0.82158    4.794
 3787.00    0.99745   0.79819    5.030
 3788.00    0.97868   0.76883    5.344
 3789.00    0.93062   0.73847    5.375
 3790.00    0.86222   0.71235    5.201
 3791.00    0.79554   0.69385    5.256
 3792.00    0.74794   0.68250    5.596
 3793.00    0.72363   0.67450    5.774
 3794.00    0.70632   0.66547    5.159
 3795.00    0.67087   0.65242    4.082
 3796.00    0.61232   0.63463    3.564
 3797.00    0.54523   0.61402    4.044
 3798.00    0.48908   0.59493    5.469
 3799.00    0.46135   0.58271    6.081
 3800.00    0.47092   0.58213    5.388
 3801.00    0.51798   0.59576    5.173
 3802.00    0.59589   0.62272    5.525
 3803.00    0.69101   0.65852    5.809
 3804.00    0.78234   0.69600    5.706
 3805.00    0.84871   0.72778    5.428
 3806.00    0.87831   0.74927    5.333
 3807.00    0.87287   0.76031    5.572
 3808.00    0.84979   0.76442    5.868
 3809.00    0.82664   0.76632    5.811
 3810.00    0.80567   0.76933    5.506
 3811.00    0.78115   0.77324    5.273
 3812.00    0.74844   0.77435    5.273
 3813.00    0.71013   0.76801    5.464
 3814.00    0.67873   0.75170    5.547
 3815.00    0.66256   0.72722    5.376
 3816.00    0.65602   0.69998    5.263
 3817.00    0.64779   0.67566    5.374
 3818.00    0.62802   0.65727    5.473
 3819.00    0.59585   0.64431    5.375
 3820.00    0.56082   0.63407    5.242
 3821.00    0.52725   0.62451    5.259
 3822.00    0.48951   0.61552    5.501
 3823.00    0.45070   0.60763    5.899
 3824.00    0.42662   0.60054    6.188
 3825.00    0.42262   0.59275    6.235
 3826.00    0.42816   0.58276    6.235
 3827.00    0.43544   0.57067    6.310
 3828.00    0.44506   0.55852    6.395
 3829.00    0.45952   0.54881    6.437
 3830.00    0.47953   0.54220    6.456
 3831.00    0.50041   0.53660    6.456
 3832.00    0.51446   0.52880    6.436
 3833.00    0.52060   0.51693    6.486
 3834.00    0.52413   0.50189    6.711
 3835.00    0.52967   0.48692    6.965
 3836.00    0.53915   0.47567    6.934
 3837.00    0.55168   0.47045    6.703
 3838.00    0.56391   0.47165    6.607
 3839.00    0.57088   0.47846    6.738
 3840.00    0.56789   0.49036    6.965
 3841.00    0.55362   0.50793    6.999
 3842.00    0.53368   0.53203    6.696
 3843.00    0.52471   0.56220    6.450
 3844.00    0.54316   0.59583    6.616
 3845.00    0.58868   0.62868    6.980
 3846.00    0.64589   0.65657    7.008
 3847.00    0.69091   0.67705    0.000
 3848.00    0.70808   0.68964    0.000
 3849.00    0.70642   0.69537    0.000
 3850.00    0.69778   0.69622    0.000
 3851.00    0.67467   0.69450    0.000
 3852.00    0.63240   0.69229    0.000
 3853.00    0.58885   0.69062    0.000
 3854.00    0.55892   0.68885    0.000
 3855.00    0.53429   0.68516    0.000
 3856.00    0.50354   0.67799    0.000
 3857.00    0.46797   0.66692    0.000
 3858.00    0.43708   0.65285    0.000
 3859.00    0.42332   0.63811    0.000
 3860.00    0.43271   0.62620    0.000
 3861.00    0.46138   0.62087    0.000
 3862.00    0.50683   0.62493    0.000
 3863.00    0.57115   0.63852    0.000
 3864.00    0.64581   0.65818    0.000
 3865.00    0.70806   0.67815    0.000
 3866.00    0.73783   0.69304    0.000
 3867.00    0.72829   0.69991    0.000
 3868.00    0.69691   0.69867    0.000
 3869.00    0.67815   0.69096    0.000
 3870.00    0.68499   0.67890    0.000
 3871.00    0.70464   0.66472    0.000
 3872.00    0.72745   0.65125    0.000
 3873.00    0.75183   0.64199    0.000
 3874.00    0.77234   0.63997    0.000
 3875.00    0.78075   0.64580    0.000
 3876.00    0.77649   0.65655    0.000
 3877.00    0.76521   0.66681    0.000
 3878.00    0.74975   0.67164    0.000
 3879.00    0.73060   0.66929    0.000
 3880.00    0.71045   0.66167    0.000
 3881.00    0.69020   0.65249    6.544
 3882.00    0.66084   0.64480    6.634
 3883.00    0.61720   0.63953    7.064
 3884.00    0.58061   0.63566    7.373
 3885.00    0.57541   0.63097    7.112
 3886.00    0.59232   0.62331    6.732
 3887.00    0.61167   0.61185    6.768
 3888.00    0.63787   0.59841    7.153
 3889.00    0.67795   0.58761    7.505
 3890.00    0.71436   0.58502    7.480
 3891.00    0.73079   0.59442    7.117
 3892.00    0.73927   0.61578    6.868
 3893.00    0.75184   0.64516    6.987
 3894.00    0.75500   0.67632    7.269
 3895.00    0.73655   0.70357    7.366
 3896.00    0.70736   0.72401    7.183
 3897.00    0.68197   0.73791    6.924
 3898.00    0.66411   0.74724    6.918
 3899.00    0.65621   0.75399    7.233
 3900.00    0.66438   0.75933    7.488
 3901.00    0.68547   0.76352    7.320
 3902.00    0.70279   0.76620    6.889
 3903.00    0.70571   0.76660    6.609
 3904.00    0.69772   0.76411    6.842
 3905.00    0.68288   0.75923    7.507
 3906.00    0.66311   0.75419    7.758
 3907.00    0.65528   0.75262    7.229
 3908.00    0.68608   0.75780    6.688
 3909.00    0.74448   0.77088    6.536
 3910.00    0.78292   0.79009    6.723
 3911.00    0.78470   0.81150    6.980
 3912.00    0.77064   0.83080    6.911
 3913.00    0.74703   0.84490    6.598
 3914.00    0.70338   0.85243    6.487
 3915.00    0.65125   0.85341    6.753
 3916.00    0.62134   0.84853    7.307
 3917.00    0.62958   0.83862    7.774
 3918.00    0.67187   0.82440    7.665
 3919.00    0.73159   0.80648    7.262
 3920.00    0.78484   0.78579    7.121
 3921.00    0.80774   0.76396    7.122
 3922.00    0.79047   0.74332    6.996
 3923.00    0.75769   0.72598    7.260
 3924.00    0.74418   0.71248    8.888
 3925.00    0.75154   0.70103   12.658
 3926.00    0.75759   0.68779   13.878
 3927.00    0.74037   0.66862   13.878
 3928.00    0.69456   0.64085    9.476
 3929.00    0.64555   0.60443    7.279
 3930.00    0.61629   0.56163    6.868
 3931.00    0.59046   0.51617    7.164
 3932.00    0.54683   0.47209    7.339
 3933.00    0.49650   0.43322    7.437
 3934.00    0.45981   0.40308    7.761
 3935.00    0.44211   0.38482    8.056
 3936.00    0.43783   0.38080    7.961
 3937.00    0.43673   0.39201    7.628
 3938.00    0.43378   0.41739    7.411
 3939.00    0.43501   0.45363    7.538
 3940.00    0.44910   0.49570    7.894
 3941.00    0.48072   0.53803    7.852
 3942.00    0.52618   0.57597    7.326
 3943.00    0.57397   0.60716    7.078
 3944.00    0.62057   0.63214    7.368
 3945.00    0.67498   0.65373    7.745
 3946.00    0.73940   0.67525    7.713
 3947.00    0.80167   0.69871    7.233
 3948.00    0.84464   0.72385    6.345
 3949.00    0.85451   0.74889    5.257
 3950.00    0.83625   0.77183    4.624
 3951.00    0.81209   0.79142    4.940
 3952.00    0.79638   0.80708    6.258
 3953.00    0.79018   0.81864    7.241
 3954.00    0.79190   0.82612    6.831
 3955.00    0.79989   0.82976    6.600
 3956.00    0.80977   0.82990    7.053
 3957.00    0.81222   0.82666    7.587
 3958.00    0.78961   0.81979    7.664
 3959.00    0.72894   0.80852    7.372
 3960.00    0.65052   0.79136    0.000
 3961.00    0.58756   0.76645    0.000
 3962.00    0.53539   0.73266    0.000
 3963.00    0.47399   0.69077    0.000
 3964.00    0.42333   0.64338    0.000
 3965.00    0.41380   0.59355    0.000
 3966.00    0.42632   0.54346    0.000
 3967.00    0.42255   0.49441    0.000
 3968.00    0.39976   0.44830    0.000
 3969.00    0.37598   0.40877    0.000
 3970.00    0.36167   0.38106    0.000
 3971.00    0.36020   0.37023    0.000
 3972.00    0.37242   0.37914    0.000
 3973.00    0.39658   0.40724    0.000
 3974.00    0.42843   0.45091    0.000
 3975.00    0.46621   0.50482    0.000
 3976.00    0.51403   0.56363    0.000
 3977.00    0.57095   0.62304    0.000
 3978.00    0.62351   0.68007    0.000
 3979.00    0.66068   0.73264    0.000
 3980.00    0.68446   0.77896    0.000
 3981.00    0.70296   0.81731    9.466
 3982.00    0.72425   0.84647    7.522
 3983.00    0.75029   0.86654    9.705
 3984.00    0.77539   0.87943   13.878
 3985.00    0.79633   0.88834   13.553
 3986.00    0.81611   0.89654   12.130
 3987.00    0.83500   0.90609   12.422
 3988.00    0.84789   0.91737   10.921
 3989.00    0.85177   0.92948    8.323
 3990.00    0.84991   0.94109    7.223
 3991.00    0.85422   0.95121    7.386
 3992.00    0.87932   0.95947    7.890
 3993.00    0.91962   0.96572    8.102
 3994.00    0.95166   0.96953    8.054
 3995.00    0.96478   0.97016    7.837
 3996.00    0.96529   0.96737    7.476
 3997.00    0.96147   0.96233    7.266
 3998.00    0.96030   0.95793    7.540
 3999.00    0.97018   0.95769    8.116
 4000.00    0.99666   0.96385    8.310
 4001.00    1.03235   0.97587    7.994
 4002.00    1.06390   0.99012    7.649
 4003.00    1.08946   1.00129    7.464
 4004.00    1.11169   1.00480    7.402
 4005.00    1.12018   0.99898    7.440
 4006.00    1.10494   0.98620    7.552
 4007.00    1.08098   0.97209    7.635
 4008.00    1.06751   0.96302    7.567
 4009.00    1.05501   0.96305    7.339
 4010.00    1.02912   0.97219    7.094
 4011.00    1.00454   0.98709    7.108
 4012.00    0.99894   1.00343    7.515
 4013.00    1.00088   1.01813    7.985
 4014.00    0.99685   1.02997    8.016
 4015.00    1.00000   1.03909    7.694
 4016.00    1.02502   1.04599    7.408
 4017.00    1.06432   1.05109    7.390
 4018.00    1.10296   1.05478    7.667
 4019.00    1.13210   1.05746    8.002
 4020.00    1.14446   1.05938    8.035
 4021.00    1.13144   1.06025    7.614
 4022.00    1.09120   1.05926    7.105
 4023.00    1.03342   1.05574    7.111
 4024.00    0.97407   1.05005    7.765
 4025.00    0.93042   1.04392    8.391
 4026.00    0.91221   1.03965    8.296
 4027.00    0.91773   1.03857    7.852
 4028.00    0.93726   1.03962    7.555
 4029.00    0.95713   1.03907    7.531
 4030.00    0.96907   1.03216    7.728
 4031.00    0.97280   1.01600    7.976
 4032.00    0.97011   0.99191    8.101
 4033.00    0.96384   0.96565    8.010
 4034.00    0.96183   0.94527    7.738
 4035.00    0.97463   0.93770    7.426
 4036.00    1.00439   0.94605    7.286
 4037.00    1.04479   0.96856    7.492
 4038.00    1.09028   0.99936    7.911
 4039.00    1.13575   1.03060    8.102
 4040.00    1.16984   1.05498    7.900
 4041.00    1.18035   1.06783    7.583
 4042.00    1.16916   1.06751    7.527
 4043.00    1.14550   1.05466    7.955
 4044.00    1.10692   1.03127    8.550
 4045.00    1.04770   1.00099    8.602
 4046.00    0.97960   0.96987    8.228
 4047.00    0.92372   0.94604    8.014
 4048.00    0.89226   0.93705    8.016
 4049.00    0.88777   0.94595    8.062
 4050.00    0.90626   0.96928    8.183
 4051.00    0.93938   0.99847    8.428
 4052.00    0.97689   1.02392    8.543
 4053.00    1.00893   1.03887    8.286
 4054.00    1.02832   1.04120    7.882
 4055.00    1.03063   1.03286    7.653
 4056.00    1.01429   1.01819    7.719
 4057.00    0.98371   1.00193    8.070
 4058.00    0.95111   0.98801    8.526
 4059.00    0.92850   0.97870    8.749
 4060.00    0.92081   0.97415    8.433
 4061.00    0.92516   0.97221    7.815
 4062.00    0.93184   0.96934    7.523
 4063.00    0.93127   0.96255    7.737
 4064.00    0.91983   0.95169    8.060
 4065.00    0.90592   0.94014    8.146
 4066.00    0.90915   0.93302    8.165
 4067.00    0.93781   0.93419    8.199
 4068.00    0.97921   0.94388    8.013
 4069.00    1.01187   0.95864    7.726
 4070.00    1.01664   0.97337    7.820
 4071.00    0.99692   0.98379    8.298
 4072.00    0.97792   0.98810    8.495
 4073.00    0.97133   0.98723    8.187
 4074.00    0.96825   0.98331    7.935
 4075.00    0.96168   0.97771    7.949
 4076.00    0.95175   0.97036    8.034
 4077.00    0.93741   0.96107    8.124
 4078.00    0.91605   0.95175    8.300
 4079.00    0.88956   0.94682    8.388
 4080.00    0.86936   0.95093    8.046
 4081.00    0.88321   0.96563    7.371
 4082.00    0.94810   0.98770    6.779
 4083.00    1.01092   1.01082    6.638
 4084.00    1.00003   1.02921    7.180
 4085.00    0.94666   1.04083    8.151
 4086.00    0.92948   1.04793    8.630
 4087.00    0.94009   1.05489    8.354
 4088.00    0.92530   1.06497    7.986
 4089.00    0.88814   1.07827    7.941
 4090.00    0.86404   1.09186    8.267
 4091.00    0.86571   1.10169    8.610
 4092.00    0.88442   1.10479    0.000
 4093.00    0.90252   1.10017    0.000
 4094.00    0.91038   1.08849    0.000
 4095.00    0.92173   1.07081    0.000
 4096.00    0.94951   1.04799    0.000
 4097.00    0.98155   1.02071    0.000
 4098.00    1.00000   0.98973    0.000
 4099.00    1.00040   0.95612    0.000
 4100.00    0.98526   0.92123    0.000
 4101.00    0.95723   0.88722    0.000
 4102.00    0.91709   0.85775    0.000
 4103.00    0.86410   0.83790    0.000
 4104.00    0.80620   0.83269    0.000
 4105.00    0.76398   0.84434    0.000
 4106.00    0.75427   0.87066    0.000
 4107.00    0.78050   0.90536    0.000
 4108.00    0.83500   0.94044    0.000
 4109.00    0.90211   0.96932    0.000
 4110.00    0.96543   0.98897    0.000
 4111.00    1.01233   1.00029    0.000
 4112.00    1.03800   1.00684    0.000
 4113.00    1.04543   1.01278    8.736
 4114.00    1.03901   1.02090    8.706
 4115.00    1.02274   1.03150    8.544
 4116.00    1.00265   1.04263    8.403
 4117.00    0.98677   1.05117    8.375
 4118.00    0.98248   1.05456    8.448
 4119.00    0.99399   1.05203    8.549
 4120.00    1.01801   1.04505    8.688
 4121.00    1.04567   1.03660    8.890
 4122.00    1.06993   1.02982    8.913
 4123.00    1.08612   1.02668    8.519
 4124.00    1.08927   1.02743    8.174
 4125.00    1.07656   1.03078    8.425
 4126.00    1.05297   1.03449    9.047
 4127.00    1.02873   1.03617    9.254
 4128.00    1.01281   1.03396    8.943
 4129.00    1.00965   1.02714    8.620
 4130.00    1.01600   1.01618    8.489
 4131.00    1.02453   1.00245    8.507
 4132.00    1.02957   0.98796    8.554
 4133.00    1.03007   0.97535    8.573
 4134.00    1.03190   0.96764    8.719
 4135.00    1.04246   0.96765    9.056
 4136.00    1.06459   0.97667    9.170
 4137.00    1.09915   0.99355    8.733
 4138.00    1.14741   1.01457    8.181
 4139.00    1.20185   1.03458    7.949
 4140.00    1.23978   1.04836    8.094
 4141.00    1.24250   1.05203    8.505
 4142.00    1.21021   1.04409    8.909
 4143.00    1.15233   1.02626    8.979
 4144.00    1.07951   1.00356    8.629
 4145.00    1.00308   0.98296    8.213
 4146.00    0.93510   0.97061    8.283
 4147.00    0.88855   0.96909    8.880
 4148.00    0.87526   0.97631    9.180
 4149.00    0.89471   0.98711    8.795
 4150.00    0.93093   0.99610    8.533
 4151.00    0.96619   1.00021    8.682
 4152.00    0.98828   0.99911    8.722
 4153.00    0.99289   0.99433    8.456
 4154.00    0.98407   0.98792    8.302
 4155.00    0.97248   0.98175    8.441
 4156.00    0.96984   0.97745    8.701
 4157.00    0.97310   0.97663    8.918
 4158.00    0.96849   0.98058    9.031
 4159.00    0.95936   0.98978    8.938
 4160.00    0.96289   1.00356    8.575
 4161.00    0.97876   1.02010    8.177
 4162.00    0.99225   1.03691    8.046
 4163.00    1.00213   1.05154    8.185
 4164.00    1.01731   1.06193    8.395
 4165.00    1.03499   1.06679    8.538
 4166.00    1.04222   1.06581    8.586
 4167.00    1.02837   1.05978    8.587
 4168.00    0.99347   1.05043    8.592
 4169.00    0.95725   1.03956    8.568
 4170.00    0.94367   1.02800    8.489
 4171.00    0.95499   1.01533    8.484
 4172.00    0.97641   1.00053    8.649
 4173.00    0.98873   0.98353    8.767
 4174.00    0.97915   0.96614    8.599
 4175.00    0.95208   0.95158    8.338
 4176.00    0.92203   0.94285    8.272
 4177.00    0.90387   0.94108    8.459
 4178.00    0.90839   0.94525    8.786
 4179.00    0.93861   0.95315    9.005
 4180.00    0.98619   0.96248    8.970
 4181.00    1.03057   0.97165    8.888
 4182.00    1.05618   0.97990    8.951
 4183.00    1.06516   0.98707    9.071
 4184.00    1.06564   0.99328    9.088
 4185.00    1.06200   0.99859    8.961
 4186.00    1.05178   1.00264    8.814
 4187.00    1.02697   1.00495    8.871
 4188.00    0.99124   1.00554    9.126
 4189.00    0.96564   1.00557    9.209
 4190.00    0.96463   1.00692    8.954
 4191.00    0.98515   1.01123    8.657
 4192.00    1.01650   1.01863    8.563
 4193.00    1.04721   1.02739    8.712
 4194.00    1.07242   1.03430    8.970
 4195.00    1.09452   1.03587    9.087
 4196.00    1.11401   1.02967    9.083
 4197.00    1.12691   1.01546    9.248
 4198.00    1.12803   0.99554    9.511
 4199.00    1.11470   0.97401    9.439
 4200.00    1.09371   0.95529    9.151
 4201.00    1.07742   0.94261    9.176
 4202.00    1.06775   0.93748    9.535
 4203.00    1.05915   0.93990    9.779
 4204.00    1.05581   0.94903    9.671
 4205.00    1.06653   0.96367    9.366
 4206.00    1.08508   0.98233    9.110
 4207.00    1.09508   1.00309    9.046
 4208.00    1.08759   1.02371    9.091
 4209.00    1.06346   1.04194    9.084
 4210.00    1.03102   1.05606    9.056
 4211.00    1.00089   1.06520    9.102
 4212.00    0.97867   1.06924    9.118
 4213.00    0.96913   1.06850    8.977
 4214.00    0.98238   1.06365    8.825
 4215.00    1.01963   1.05602    8.817
 4216.00    1.05646   1.04820    8.818
 4217.00    1.06914   1.04375    8.694
 4218.00    1.06441   1.04586    8.642
 4219.00    1.05677   1.05545    8.868
 4220.00    1.04395   1.06988    9.291
 4221.00    1.02028   1.08342    9.670
 4222.00    0.99020   1.08905    9.805
 4223.00    0.96106   1.08096    9.653
 4224.00    0.93593   1.05648    9.369
 4225.00    0.90999   1.01745    9.149
 4226.00    0.87201   0.97038    9.123
 4227.00    0.82947   0.92546    9.272
 4228.00    0.81688   0.89384    9.407
 4229.00    0.84788   0.88367    9.416
 4230.00    0.89504   0.89680    9.404
 4231.00    0.93442   0.92780    9.393
 4232.00    0.96611   0.96612    9.235
 4233.00    0.99574   1.00051    8.943
 4234.00    1.02527   1.02336    8.733
 4235.00    1.05339   1.03267    8.696
 4236.00    1.07573   1.03134    8.768
 4237.00    1.08457   1.02483    8.904
 4238.00    1.07456   1.01857    9.105
 4239.00    1.06101   1.01654    9.286
 4240.00    1.07086   1.02069    9.273
 4241.00    1.09781   1.03125    8.999
 4242.00    1.10925   1.04706    8.577
 4243.00    1.10029   1.06602    8.242
 4244.00    1.09224   1.08526    8.204
 4245.00    1.09349   1.10143    8.501
 4246.00    1.09553   1.11114    8.978
 4247.00    1.08552   1.11185   -2.000
 4248.00    1.05155   1.10280   -2.000
 4249.00    0.98730   1.08568   -2.000
 4250.00    0.89247   1.06433   -2.000
 4251.00    0.77244   1.04350   -2.000
 4252.00    0.64631   1.02718   -2.000
 4253.00    0.55788   1.01736   -2.000
 4254.00    0.55039   1.01389   -2.000
 4255.00    0.62958   1.01527   -2.000
 4256.00    0.76621   1.01946   -2.000
 4257.00    0.90746   1.02450   -2.000
 4258.00    1.00526   1.02835   -2.000
 4259.00    1.04543   1.02941   -2.000
 4260.00    1.03854   1.02742   -2.000
 4261.00    1.00642   1.02446   -2.000
 4262.00    0.97080   1.02470    8.410
 4263.00    0.94450   1.03243    8.409
 4264.00    0.93426   1.04929    8.666
 4265.00    0.94316   1.07277    9.068
 4266.00    0.96727   1.09667    9.284
 4267.00    0.99452   1.11356    9.100
 4268.00    1.01492   1.11747    8.677
 4269.00    1.02622   1.10576    8.441
 4270.00    1.02794   1.07950    8.585
 4271.00    1.01868   1.04308    8.973
 4272.00    1.00187   1.00309    9.376
 4273.00    0.98757   0.96699    9.596
 4274.00    0.98670   0.94155    9.612
 4275.00    1.00619   0.93136    9.584
 4276.00    1.04117   0.93767    9.511
 4277.00    1.07591   0.95804    9.231
 4278.00    1.09964   0.98700    8.888
 4279.00    1.11102   1.01758    8.831
 4280.00    1.11283   1.04336    9.090
 4281.00    1.10784   1.06036    9.375
 4282.00    1.09241   1.06786    9.506
 4283.00    1.06135   1.06773    9.537
 4284.00    1.02526   1.06277    9.538
 4285.00    1.00267   1.05498    9.510
 4286.00    0.99079   1.04495    9.384
 4287.00    0.97304   1.03221    9.129
 4288.00    0.94973   1.01632    8.941
 4289.00    0.93504   0.99792    9.040
 4290.00    0.93826   0.97931    9.341
 4291.00    0.95996   0.96394    9.571
 4292.00    0.99206   0.95520    9.650
 4293.00    1.02319   0.95470    9.653
 4294.00    1.04667   0.96107    9.562
 4295.00    1.05689   0.96999    9.357
 4296.00    1.04318   0.97566    9.185
 4297.00    0.99857   0.97295    9.195
 4298.00    0.93121   0.95912    9.381
 4299.00    0.85974   0.93479    9.625
 4300.00    0.80550   0.90357    9.770
 4301.00    0.78145   0.87087    9.725
 4302.00    0.78266   0.84214    9.567
 4303.00    0.79428   0.82107    9.427
 4304.00    0.80060   0.80846    9.366
 4305.00    0.79342   0.80227    9.342
 4306.00    0.77687   0.79892    9.217
 4307.00    0.75611   0.79526    9.017
 4308.00    0.73017   0.79022    9.019
 4309.00    0.70025   0.78550    9.372
 4310.00    0.67489   0.78492    9.901
 4311.00    0.66555   0.79280   10.276
 4312.00    0.68248   0.81234   10.239
 4313.00    0.72761   0.84459    9.838
 4314.00    0.79269   0.88857    9.381
 4315.00    0.86790   0.94181    9.070
 4316.00    0.94610   1.00082    8.937
 4317.00    1.02324   1.06108    8.961
 4318.00    1.09570   1.11708    9.104
 4319.00    1.15076   1.16279    9.286
 4320.00    1.17067   1.19285    9.399
 4321.00    1.15754   1.20377    9.383
 4322.00    1.13166   1.19484    9.263
 4323.00    1.10167   1.16825    9.107
 4324.00    1.06431   1.12908    8.997
 4325.00    1.02789   1.08497    8.992
 4326.00    1.00887   1.04530    9.117
 4327.00    1.00893   1.01930    9.340
 4328.00    1.01769   1.01326    9.596
 4329.00    1.03005   1.02805    9.892
 4330.00    1.04645   1.05884    0.000
 4331.00    1.06602   1.09704    0.000
 4332.00    1.08594   1.13382    0.000
 4333.00    1.10255   1.16279    0.000
 4334.00    1.11277   1.18057    0.000
 4335.00    1.11555   1.18566    0.000
 4336.00    1.10906   1.17685    0.000
 4337.00    1.08674   1.15310    0.000
 4338.00    1.04408   1.11486    0.000
 4339.00    0.98713   1.06567    0.000
 4340.00    0.92915   1.01303    0.000
 4341.00    0.88512   0.96690    0.000
 4342.00    0.86584   0.93668    0.000
 4343.00    0.87273   0.92813    0.000
 4344.00    0.89977   0.94166    0.000
 4345.00    0.93659   0.97271    0.000
 4346.00    0.97638   1.01384    0.000
 4347.00    1.02043   1.05710    0.000
 4348.00    1.06535   1.09586    0.000
 4349.00    1.09643   1.12528    0.000
 4350.00    1.10631   1.14235    0.000
 4351.00    1.10459   1.14640    9.443
 4352.00    1.10102   1.13948    9.669
 4353.00    1.09695   1.12643    9.862
 4354.00    1.09452   1.11375    9.943
 4355.00    1.10040   1.10736    9.871
 4356.00    1.11960   1.11029    9.689
 4357.00    1.15205   1.12173    9.502
 4358.00    1.19115   1.13801    9.421
 4359.00    1.22506   1.15495    9.527
 4360.00    1.24352   1.17009    9.817
 4361.00    1.24192   1.18332   10.164
 4362.00    1.22566   1.19607   10.284
 4363.00    1.20800   1.20965    9.922
 4364.00    1.19938   1.22384    9.370
 4365.00    1.20248   1.23663    9.108
 4366.00    1.20807   1.24509    9.142
 4367.00    1.20181   1.24676    9.205
 4368.00    1.18239   1.24091    9.309
 4369.00    1.16005   1.22885    9.657
 4370.00    1.14399   1.21321   10.122
 4371.00    1.13895   1.19666   10.306
 4372.00    1.14404   1.18077   10.168
 4373.00    1.15320   1.16580    9.955
 4374.00    1.15683   1.15149    9.711
 4375.00    1.14949   1.13834    9.403
 4376.00    1.14054   1.12822    9.174
 4377.00    1.14114   1.12341    9.167
 4378.00    1.14532   1.12476    9.327
 4379.00    1.14266   1.13011    9.553
 4380.00    1.13606   1.13426    9.891
 4381.00    1.13121   1.13063   10.340
 4382.00    1.12356   1.11425   10.549
 4383.00    1.10860   1.08453   10.280
 4384.00    1.09262   1.04644    9.930
 4385.00    1.08510   1.00890    9.828
 4386.00    1.09078   0.98142    9.802
 4387.00    1.10895   0.97033    9.650
 4388.00    1.13378   0.97654    9.463
 4389.00    1.15757   0.99587    9.366
 4390.00    1.17315   1.02138    9.358
 4391.00    1.17419   1.04674    9.464
 4392.00    1.15650   1.06840    9.791
 4393.00    1.12495   1.08588   10.270
 4394.00    1.09463   1.10053   10.489
 4395.00    1.07672   1.11419   10.200
 4396.00    1.07253   1.12814    9.667
 4397.00    1.08079   1.14249    9.256
 4398.00    1.10060   1.15611    9.177
 4399.00    1.12883   1.16678    9.271
 4400.00    1.15966   1.17208    9.109
 4401.00    1.18707   1.17035    8.799
 4402.00    1.20577   1.16118    8.873
 4403.00    1.21079   1.14552    9.284
 4404.00    1.19835   1.12545    9.390
 4405.00    1.16856   1.10394    9.119
 4406.00    1.12733   1.08449    8.993
 4407.00    1.08882   1.07085    8.985
 4408.00    1.07050   1.06642    8.720
 4409.00    1.07999   1.07332    8.421
 4410.00    1.11361   1.09117    8.549
 4411.00    1.16001   1.11677    8.936
 4412.00    1.20471   1.14478    9.029
 4413.00    1.23697   1.16913    8.936
 4414.00    1.25181   1.18482    9.147
 4415.00    1.25115   1.18981    9.617
 4416.00    1.24135   1.18607    9.919
 4417.00    1.22927   1.17883    9.888
 4418.00    1.21969   1.17394    9.676
 4419.00    1.21286   1.17530    9.459
 4420.00    1.20558   1.18329    9.329
 4421.00    1.19325   1.19477    9.256
 4422.00    1.17421   1.20506    9.191
 4423.00    1.15391   1.21075    9.167
 4424.00    1.14127   1.21108    9.240
 4425.00    1.14424   1.20760    9.430
 4426.00    1.16568   1.20305    9.634
 4427.00    1.20009   1.19981    9.571
 4428.00    1.23478   1.19863    9.166
 4429.00    1.25260   1.19866    8.756
 4430.00    1.24385   1.19835    8.620
 4431.00    1.21394   1.19632    8.815
 4432.00    1.17821   1.19168    9.195
 4433.00    1.15526   1.18432    9.384
 4434.00    1.15013   1.17530    9.272
 4435.00    1.14943   1.16670    9.263
 4436.00    1.14592   1.16130    9.561
 4437.00    1.14742   1.16172    9.923
 4438.00    1.15766   1.16921   10.140
 4439.00    1.16955   1.18263   10.286
 4440.00    1.17511   1.19815   10.357
 4441.00    1.17091   1.21080   10.198
 4442.00    1.16201   1.21720    9.901
 4443.00    1.16039   1.21702    9.766
 4444.00    1.17557   1.21336    9.844
 4445.00    1.21074   1.21096    9.935
 4446.00    1.26104   1.21380    9.894
 4447.00    1.31607   1.22314    9.745
 4448.00    1.36763   1.23703    9.691
 4449.00    1.40959   1.25142    9.929
 4450.00    1.43285   1.26202   10.287
 4451.00    1.42985   1.26575   10.339
 4452.00    1.40610   1.26135   10.116
 4453.00    1.37471   1.24895    9.968
 4454.00    1.34133   1.22980    9.979
 4455.00    1.30464   1.20600   10.036
 4456.00    1.26220   1.18023   10.070
 4457.00    1.21480   1.15518   10.087
 4458.00    1.17116   1.13347   10.152
 4459.00    1.14144   1.11705   10.299
 4460.00    1.12772   1.10663   10.428
 4461.00    1.12714   1.10216    0.000
 4462.00    1.13746   1.10343    0.000
 4463.00    1.15736   1.11018    0.000
 4464.00    1.18586   1.12167    0.000
 4465.00    1.21993   1.13651    0.000
 4466.00    1.25237   1.15277    0.000
 4467.00    1.27475   1.16807    0.000
 4468.00    1.28089   1.18019    0.000
 4469.00    1.27366   1.18860    0.000
 4470.00    1.26823   1.19461    0.000
 4471.00    1.27759   1.20057    0.000
 4472.00    1.30293   1.20924    0.000
 4473.00    1.34086   1.22276    0.000
 4474.00    1.38728   1.24127    0.000
 4475.00    1.43106   1.26286    0.000
 4476.00    1.45421   1.28447    0.000
 4477.00    1.45193   1.30256    0.000
 4478.00    1.43861   1.31372    0.000
 4479.00    1.42676   1.31570    0.000
 4480.00    1.41807   1.30836    0.000
 4481.00    1.40849   1.29391    0.000
 4482.00    1.39184   1.27672    9.379
 4483.00    1.36463   1.26241    9.644
 4484.00    1.32863   1.25562   10.188
 4485.00    1.29295   1.25801   10.720
 4486.00    1.26921   1.26789   10.786
 4487.00    1.25569   1.28083   10.644
 4488.00    1.24361   1.29129   10.905
 4489.00    1.24484   1.29510   10.972
 4490.00    1.27513   1.29115    9.793
 4491.00    1.29933   1.28128    8.500
 4492.00    1.26629   1.26904    8.201
 4493.00    1.20670   1.25783    8.532
 4494.00    1.19168   1.24936    8.588
 4495.00    1.21842   1.24400    8.389
 4496.00    1.24160   1.24182    8.488
 4497.00    1.26181   1.24298    8.680
 4498.00    1.30125   1.24781    8.467
 4499.00    1.34632   1.25671    8.150
 4500.00    1.37317   1.26974    8.181
 4501.00    1.39189   1.28626    8.352
 4502.00    1.41802   1.30517    8.284
 4503.00    1.43350   1.32491    8.141
 4504.00    1.42224   1.34418    8.186
 4505.00    1.40977   1.36206    8.272
 4506.00    1.41703   1.37753    8.237
 4507.00    1.41609   1.38943    8.317
 4508.00    1.38272   1.39684    8.657
 4509.00    1.34173   1.39948    8.872
 4510.00    1.32556   1.39747    8.667
 4511.00    1.33876   1.39151    8.438
 4512.00    1.36253   1.38293    8.485
 4513.00    1.36587   1.37267    8.621
 4514.00    1.34430   1.36098    8.638
 4515.00    1.33350   1.34840    8.596
 4516.00    1.34543   1.33617    8.604
 4517.00    1.34430   1.32595    8.675
 4518.00    1.31601   1.31929    8.757
 4519.00    1.29184   1.31693    8.776
 4520.00    1.28819   1.31830    8.730
 4521.00    1.28727   1.32155    8.720
 4522.00    1.27558   1.32390    8.839
 4523.00    1.25776   1.32244    9.100
 4524.00    1.24636   1.31500    9.276
 4525.00    1.25100   1.30066    9.022
 4526.00    1.25727   1.27955    8.600
 4527.00    1.23649   1.25325    8.577
 4528.00    1.19356   1.22488    8.958
 4529.00    1.16269   1.19847    9.243
 4530.00    1.15902   1.17750    9.182
 4531.00    1.17323   1.16349    8.988
 4532.00    1.18969   1.15673    8.907
 4533.00    1.19589   1.15678    9.052
 4534.00    1.19234   1.16252    9.286
 4535.00    1.18983   1.17251    9.338
 4536.00    1.20001   1.18591    9.171
 4537.00    1.22688   1.20223    8.963
 4538.00    1.25674   1.22098    8.886
 4539.00    1.27497   1.24079    9.012
 4540.00    1.29265   1.25965    9.216
 4541.00    1.32568   1.27534    9.269
 4542.00    1.36222   1.28602    9.057
 4543.00    1.37407   1.29080    8.721
 4544.00    1.33802   1.29008    8.630
 4545.00    1.26227   1.28598    8.954
 4546.00    1.20667   1.28071    9.272
 4547.00    1.21666   1.27526    9.111
 4548.00    1.26215   1.26966    8.759
 4549.00    1.29283   1.26342    8.623
 4550.00    1.29150   1.25674    0.000
 4551.00    1.26793   1.25087    0.000
 4552.00    1.24638   1.24672    0.000
 4553.00    1.23494   1.24428    0.000
 4554.00    1.21049   1.24375    0.000
 4555.00    1.16103   1.24608    0.000
 4556.00    1.10915   1.25258    0.000
 4557.00    1.08594   1.26355    0.000
 4558.00    1.11198   1.27819    0.000
 4559.00    1.18201   1.29597    0.000
 4560.00    1.26498   1.31492    0.000
 4561.00    1.33799   1.33165    0.000
 4562.00    1.39774   1.34303    0.000
 4563.00    1.44207   1.34701    0.000
 4564.00    1.46405   1.34373    0.000
 4565.00    1.45937   1.33592    0.000
 4566.00    1.43048   1.32747    0.000
 4567.00    1.39058   1.32172    0.000
 4568.00    1.35942   1.32006    0.000
 4569.00    1.34780   1.32217    0.000
 4570.00    1.35565   1.32734    0.000
 4571.00    1.37922   1.33360    0.000
 4572.00    1.41084   1.33868    0.000
 4573.00    1.43421   1.34158    0.000
 4574.00    1.43042   1.34255    0.000
 4575.00    1.39260   1.34308    0.000
 4576.00    1.32951   1.34393    0.000
 4577.00    1.26560   1.34390    0.000
 4578.00    1.22834   1.34172    0.000
 4579.00    1.22718   1.33553    0.000
 4580.00    1.25042   1.32372    0.000
 4581.00    1.26713   1.30830    0.000
 4582.00    1.24972   1.29271    0.000
 4583.00    1.20280   1.27919    0.000
 4584.00    1.15186   1.26954    0.000
 4585.00    1.12359   1.26531    0.000
 4586.00    1.13107   1.26715    0.000
 4587.00    1.16177   1.27430    0.000
 4588.00    1.19566   1.28462    0.000
 4589.00    1.22372   1.29566    0.000
 4590.00    1.24381   1.30579    0.000
 4591.00    1.25513   1.31335    0.000
 4592.00    1.25524   1.31659    0.000
 4593.00    1.23925   1.31471    0.000
 4594.00    1.20883   1.30793    0.000
 4595.00    1.17693   1.29798    0.000
 4596.00    1.15682   1.28777    0.000
 4597.00    1.15458   1.27979    0.000
 4598.00    1.16805   1.27527    0.000
 4599.00    1.18880   1.27398    0.000
 4600.00    1.21380   1.27465    0.000
 4601.00    1.24795   1.27650    0.000
 4602.00    1.28798   1.27911    0.000
 4603.00    1.31844   1.28205    0.000
 4604.00    1.32612   1.28555    0.000
 4605.00    1.30839   1.29040    0.000
 4606.00    1.28067   1.29783    0.000
 4607.00    1.27058   1.30900    0.000
 4608.00    1.29060   1.32335    0.000
 4609.00    1.33227   1.33928    0.000
 4610.00    1.37648   1.35514    0.000
 4611.00    1.40379   1.36918    0.000
 4612.00    1.41258   1.37973    0.000
 4613.00    1.41529   1.38546    0.000
 4614.00    1.41885   1.38641    0.000
 4615.00    1.42330   1.38423    0.000
 4616.00    1.42859   1.38136    0.000
 4617.00    1.43280   1.37998    0.000
 4618.00    1.42643   1.38069    0.000
 4619.00    1.39958   1.38276    0.000
 4620.00    1.35551   1.38522    0.000
 4621.00    1.30869   1.38713    0.000
 4622.00    1.27810   1.38853    0.000
 4623.00    1.27935   1.38963    0.000
 4624.00    1.31491   1.39019    0.000
 4625.00    1.36748   1.39049    0.000
 4626.00    1.39661   1.39023    0.000
 4627.00    1.37559   1.38831    0.000
 4628.00    1.32867   1.38525    0.000
 4629.00    1.29411   1.38225    0.000
 4630.00    1.28482   1.37936    0.000
 4631.00    1.29364   1.37659    0.000
 4632.00    1.30360   1.37406    0.000
 4633.00    1.30861   1.37072    0.000
 4634.00    1.32508   1.36545    0.000
 4635.00    1.36175   1.35842    0.000
 4636.00    1.40102   1.34973    0.000
 4637.00    1.42181   1.33869    0.000
 4638.00    1.41527   1.32626    0.000
 4639.00    1.38661   1.31512    0.000
 4640.00    1.35306   1.30655    0.000
 4641.00    1.33076   1.30020    0.000
 4642.00    1.32688   1.29555    0.000
 4643.00    1.33488   1.29198    0.000
 4644.00    1.33621   1.28809    0.000
 4645.00    1.31529   1.28215    0.000
 4646.00    1.26856   1.27352    0.000
 4647.00    1.21389   1.26236    0.000
 4648.00    1.18323   1.25031    0.000
 4649.00    1.18854   1.24112    0.000
 4650.00    1.21718   1.23804    0.000
 4651.00    1.25166   1.24195    0.000
 4652.00    1.27789   1.25225    0.000
 4653.00    1.29085   1.26639    0.000
 4654.00    1.29257   1.28046    0.000
 4655.00    1.28430   1.29177    0.000
 4656.00    1.26904   1.30001    0.000
 4657.00    1.26019   1.30692    0.000
 4658.00    1.27340   1.31458    0.000
 4659.00    1.30813   1.32379    0.000
 4660.00    1.34762   1.33497    0.000
 4661.00    1.36557   1.34668    0.000
 4662.00    1.34504   1.35529    0.000
 4663.00    1.30349   1.35682    0.000
 4664.00    1.27127   1.34788    0.000
 4665.00    1.25839   1.32798    0.000
 4666.00    1.25907   1.30054    0.000
 4667.00    1.26290   1.27095    0.000
 4668.00    1.25936   1.24449    0.000
 4669.00    1.24175   1.22519    0.000
 4670.00    1.21276   1.21478    0.000
 4671.00    1.18846   1.21350    0.000
 4672.00    1.18881   1.22199    0.000
 4673.00    1.22725   1.23972    0.000
 4674.00    1.29689   1.26208    0.000
 4675.00    1.36414   1.28281    0.000
 4676.00    1.39742   1.29825    0.000
 4677.00    1.38865   1.30745    0.000
 4678.00    1.35704   1.31120    0.000
 4679.00    1.34258   1.31088    0.000
 4680.00    1.36001   1.30744    0.000
 4681.00    1.38079   1.30163    0.000
 4682.00    1.37529   1.29424    0.000
 4683.00    1.33683   1.28744    0.000
 4684.00    1.28852   1.28419    0.000
 4685.00    1.27159   1.28515    0.000
 4686.00    1.28880   1.28901    0.000
 4687.00    1.29936   1.29427    0.000
 4688.00    1.28426   1.29908    0.000
 4689.00    1.26069   1.30147    0.000
 4690.00    1.24936   1.30147    0.000
 4691.00    1.25885   1.30076    0.000
 4692.00    1.27373   1.30033    0.000
 4693.00    1.26733   1.30125    0.000
 4694.00    1.24246   1.30409    0.000
 4695.00    1.22585   1.30763    0.000
 4696.00    1.23032   1.31062    0.000
 4697.00    1.24957   1.31254    0.000
 4698.00    1.26643   1.31195    0.000
 4699.00    1.26455   1.30723    0.000
 4700.00    1.24626   1.29824    0.000
 4701.00    1.22651   1.28570    0.000
 4702.00    1.21709   1.27168    0.000
 4703.00    1.22034   1.25938    0.000
 4704.00    1.22484   1.25162    0.000
 4705.00    1.22074   1.24817    0.000
 4706.00    1.21976   1.24681    0.000
 4707.00    1.23516   1.24680    0.000
 4708.00    1.25631   1.24889    0.000
 4709.00    1.26912   1.25322    0.000
 4710.00    1.27960   1.25795    0.000
 4711.00    1.29485   1.26193    0.000
 4712.00    1.30429   1.26620    0.000
 4713.00    1.29764   1.27223    0.000
 4714.00    1.28086   1.28026    0.000
 4715.00    1.26559   1.28971    0.000
 4716.00    1.25968   1.29966    0.000
 4717.00    1.26653   1.30979    0.000
 4718.00    1.28489   1.32155    0.000
 4719.00    1.30780   1.33626    0.000
 4720.00    1.32406   1.35362    0.000
 4721.00    1.32972   1.37092    0.000
 4722.00    1.33260   1.38476    0.000
 4723.00    1.34152   1.39396    0.000
 4724.00    1.35975   1.39831    0.000
 4725.00    1.38177   1.39659    0.000
 4726.00    1.39569   1.38851    0.000
 4727.00    1.39845   1.37533    0.000
 4728.00    1.39630   1.35852    0.000
 4729.00    1.38444   1.33901    0.000
 4730.00    1.34908   1.31797    0.000
 4731.00    1.29770   1.29818    0.000
 4732.00    1.25641   1.28383    0.000
 4733.00    1.23421   1.27838    0.000
 4734.00    1.22095   1.28108    0.000
 4735.00    1.20952   1.28881    0.000
 4736.00    1.20044   1.29939    0.000
 4737.00    1.19846   1.31070    0.000
 4738.00    1.20899   1.32070    0.000
 4739.00    1.23270   1.32899    0.000
 4740.00    1.26584   1.33589    0.000
 4741.00    1.30289   1.34200    0.000
 4742.00    1.33659   1.34878    0.000
 4743.00    1.35745   1.35568    0.000
 4744.00    1.36212   1.36084    0.000
 4745.00    1.36467   1.36490    0.000
 4746.00    1.37763   1.36970    0.000
 4747.00    1.38631   1.37540    0.000
 4748.00    1.37247   1.38053    0.000
 4749.00    1.34498   1.38399    0.000
 4750.00    1.31974   1.38595    0.000
 4751.00    1.29551   1.38611    0.000
 4752.00    1.26743   1.38297    0.000
 4753.00    1.24103   1.37662    0.000
 4754.00    1.21912   1.36850    0.000
 4755.00    1.19241   1.35939    0.000
 4756.00    1.16483   1.35017    0.000
 4757.00    1.16762   1.34268    0.000
 4758.00    1.21321   1.33811    0.000
 4759.00    1.26884   1.33577    0.000
 4760.00    1.30012   1.33418    0.000
 4761.00    1.29842   1.33196    9.471
 4762.00    1.27199   1.32765    9.451
 4763.00    1.23806   1.32005    9.500
 4764.00    1.21292   1.30908    9.531
 4765.00    1.20577   1.29581    9.356
 4766.00    1.21394   1.28298    9.118
 4767.00    1.22500   1.27467    9.225
 4768.00    1.23338   1.27287    9.609
 4769.00    1.24330   1.27656    9.636
 4770.00    1.25499   1.28510    9.300
 4771.00    1.26198   1.29840    9.269
 4772.00    1.25919   1.31457    9.585
 4773.00    1.24749   1.33057    9.664
 4774.00    1.23867   1.34439    9.413
 4775.00    1.24904   1.35568    9.275
 4776.00    1.27984   1.36571    9.324
 4777.00    1.31765   1.37590    9.333
 4778.00    1.34725   1.38550    9.304
 4779.00    1.35745   1.39182    9.406
 4780.00    1.34666   1.39324    9.579
 4781.00    1.32248   1.39068    9.627
 4782.00    1.29852   1.38505    9.571
 4783.00    1.28899   1.37616    9.559
 4784.00    1.30066   1.36482    9.568
 4785.00    1.32988   1.35318    9.506
 4786.00    1.36081   1.34204    9.422
 4787.00    1.37458   1.33197    9.427
 4788.00    1.36210   1.32525    9.560
 4789.00    1.32882   1.32249    9.768
 4790.00    1.29651   1.32217    9.889
 4791.00    1.28228   1.32577    9.833
 4792.00    1.27775   1.33473    9.781
 4793.00    1.27166   1.34713    9.856
 4794.00    1.27135   1.36168    9.846
 4795.00    1.28224   1.37734    9.634
 4796.00    1.29067   1.39140    9.513
 4797.00    1.28385   1.40165    9.665
 4798.00    1.26539   1.40682    9.855
 4799.00    1.24758   1.40614    9.833
 4800.00    1.24373   1.40074    9.669
 4801.00    1.26016   1.39350    9.562
 4802.00    1.29247   1.38689    9.667
 4803.00    1.33212   1.38237    9.942
 4804.00    1.37067   1.38081   10.091
 4805.00    1.40130   1.38112    9.965
 4806.00    1.41920   1.38058    9.762
 4807.00    1.42017   1.37711    9.687
 4808.00    1.40262   1.37085    9.799
 4809.00    1.37799   1.36409    9.928
 4810.00    1.36639   1.35963    9.779
 4811.00    1.36647   1.35797    9.556
 4812.00    1.35668   1.35909    9.776
 4813.00    1.33389   1.36360   10.290
 4814.00    1.31520   1.37053   10.281
 4815.00    1.30677   1.37815    9.844
 4816.00    1.30253   1.38602    9.808
 4817.00    1.30413   1.39437   10.167
 4818.00    1.31894   1.40293   10.263
 4819.00    1.34337   1.41079    9.976
 4820.00    1.36248   1.41646    9.755
 4821.00    1.35773   1.41798    9.868
 4822.00    1.32305   1.41484   10.284
 4823.00    1.28934   1.40814   10.506
 4824.00    1.29248   1.39853   10.077
 4825.00    1.31544   1.38721    9.605
 4826.00    1.31975   1.37567    9.744
 4827.00    1.30451   1.36558   10.172
 4828.00    1.28827   1.36019   10.207
 4829.00    1.27443   1.35965   10.005
 4830.00    1.26284   1.35965   10.017
 4831.00    1.26748   1.35786   10.116
 4832.00    1.29798   1.35518   10.022
 4833.00    1.33924   1.35335    9.822
 4834.00    1.36803   1.35302    9.707
 4835.00    1.37126   1.35302    9.703
 4836.00    1.34890   1.35330    9.749
 4837.00    1.31364   1.35497    9.775
 4838.00    1.27858   1.35651    9.799
 4839.00    1.24878   1.35553    9.968
 4840.00    1.22897   1.35171   10.306
 4841.00    1.22773   1.34633   10.537
 4842.00    1.24690   1.34034   10.479
 4843.00    1.27666   1.33524   10.323
 4844.00    1.30595   1.33337   10.228
 4845.00    1.32933   1.33524   10.145
 4846.00    1.35087   1.33803   10.039
 4847.00    1.38059   1.34015    9.968
 4848.00    1.41130   1.34328    0.000
 4849.00    1.41769   1.34651    0.000
 4850.00    1.39392   1.34659    0.000
 4851.00    1.36123   1.34260    0.000
 4852.00    1.33983   1.33529    0.000
 4853.00    1.33603   1.32645    0.000
 4854.00    1.33578   1.31686    0.000
 4855.00    1.31373   1.30383    0.000
 4856.00    1.26396   1.28589    0.000
 4857.00    1.20359   1.26333    0.000
 4858.00    1.15832   1.23479    0.000
 4859.00    1.14811   1.20158    0.000
 4860.00    1.16423   1.16982    0.000
 4861.00    1.18120   1.14189    0.000
 4862.00    1.19144   1.11570    0.000
 4863.00    1.19923   1.09347    0.000
 4864.00    1.19720   1.08059    0.000
 4865.00    1.17569   1.08222    0.000
 4866.00    1.14479   1.10114    0.000
 4867.00    1.12440   1.13094    0.000
 4868.00    1.12408   1.16020    0.000
 4869.00    1.13894   1.18431    0.000
 4870.00    1.14935   1.20258    0.000
 4871.00    1.14033   1.21423    0.000
 4872.00    1.12315   1.21993    0.000
 4873.00    1.11794   1.22199    0.000
 4874.00    1.13274   1.22184    0.000
 4875.00    1.16570   1.22307    9.871
 4876.00    1.20917   1.23210    9.959
 4877.00    1.25078   1.24970    9.913
 4878.00    1.27541   1.26919    9.903
 4879.00    1.27693   1.28638   10.047
 4880.00    1.26537   1.30194   10.176
 4881.00    1.25421   1.31528   10.144
 4882.00    1.25129   1.32408   10.059
 4883.00    1.26072   1.32766   10.055
 4884.00    1.28363   1.32366   10.145
 4885.00    1.31413   1.31291   10.238
 4886.00    1.33881   1.30133   10.194
 4887.00    1.34597   1.29055   10.043
 4888.00    1.33094   1.27747   10.006
 4889.00    1.29835   1.26297   10.176
 4890.00    1.26125   1.25284   10.428
 4891.00    1.23424   1.25047   10.580
 4892.00    1.22822   1.25488   10.512
 4893.00    1.24244   1.26473   10.341
 4894.00    1.26646   1.27986   10.316
 4895.00    1.29537   1.30210   10.442
 4896.00    1.33109   1.33302   10.492
 4897.00    1.37181   1.36525   10.348
 4898.00    1.41211   1.39049   10.100
 4899.00    1.45074   1.40697    9.944
 4900.00    1.48580   1.41448   10.031
 4901.00    1.49988   1.41406   10.260
 4902.00    1.47347   1.40818   10.373
 4903.00    1.41856   1.39928   10.330
 4904.00    1.36730   1.39157   10.288
 4905.00    1.33889   1.38744   10.343
 4906.00    1.33331   1.38410   10.465
 4907.00    1.33235   1.37994   10.462
 4908.00    1.31672   1.37654   10.232
 4909.00    1.29018   1.37366   10.080
 4910.00    1.26902   1.36844   10.278
 4911.00    1.26336   1.35944   10.552
 4912.00    1.27377   1.34941   10.509
 4913.00    1.29086   1.34217   10.344
 4914.00    1.30357   1.33965   10.376
 4915.00    1.30797   1.34159   10.522
 4916.00    1.30501   1.34382   10.580
 4917.00    1.29737   1.34118   10.539
 4918.00    1.28808   1.33182   10.494
 4919.00    1.27901   1.31634   10.523
 4920.00    1.26644   1.29540   10.627
 4921.00    1.24015   1.27062   10.705
 4922.00    1.20076   1.24643   10.684
 4923.00    1.16844   1.23005   10.616
 4924.00    1.16127   1.22733   10.607
 4925.00    1.18273   1.23860   10.741
 4926.00    1.22994   1.25924   10.937
 4927.00    1.29659   1.28316   10.920
 4928.00    1.36306   1.30823   10.627
 4929.00    1.39876   1.33522   10.330
 4930.00    1.39472   1.36121   10.242
 4931.00    1.37009   1.37992   10.390
 4932.00    1.33980   1.39005   10.594
 4933.00    1.30472   1.39342   10.540
 4934.00    1.26450   1.38969   10.329
 4935.00    1.22391   1.37899   10.390
 4936.00    1.19749   1.36192   10.768
 4937.00    1.20294   1.34174   11.079
 4938.00    1.23921   1.32590   11.107
 4939.00    1.28626   1.31677   10.977
 4940.00    1.32093   1.31038    0.000
 4941.00    1.32795   1.30696    0.000
 4942.00    1.31467   1.31088    0.000
 4943.00    1.30240   1.32452    0.000
 4944.00    1.30244   1.34518    0.000
 4945.00    1.31618   1.36643    0.000
 4946.00    1.34423   1.38439    0.000
 4947.00    1.38380   1.39940    0.000
 4948.00    1.42230   1.41094    0.000
 4949.00    1.44911   1.41860    0.000
 4950.00    1.47284   1.42439    0.000
 4951.00    1.49906   1.42906    0.000
 4952.00    1.50040   1.43085    0.000
 4953.00    1.45256   1.42869    0.000
 4954.00    1.37840   1.42195    0.000
 4955.00    1.31576   1.40855    0.000
 4956.00    1.27829   1.38875    0.000
 4957.00    1.25866   1.36741    0.000
 4958.00    1.23786   1.34848    0.000
 4959.00    1.20856   1.33220    0.000
 4960.00    1.19032   1.31852    0.000
 4961.00    1.19656   1.31251    0.000
 4962.00    1.21278   1.32013    0.000
 4963.00    1.23007   1.33588    0.000
 4964.00    1.26329   1.34844    0.000
 4965.00    1.31140   1.35439    0.000
 4966.00    1.34099   1.35595    0.000
 4967.00    1.33527   1.35440    0.000
 4968.00    1.31484   1.34877    0.000
 4969.00    1.30109   1.34117    0.000
 4970.00    1.29821   1.33693    0.000
 4971.00    1.29839   1.33793    0.000
 4972.00    1.29015   1.34305    0.000
 4973.00    1.27984   1.35112    0.000
 4974.00    1.29094   1.36063    0.000
 4975.00    1.33124   1.37013    0.000
 4976.00    1.38503   1.37686    0.000
 4977.00    1.42648   1.37825    0.000
 4978.00    1.43368   1.37385    0.000
 4979.00    1.41413   1.36292    0.000
 4980.00    1.39636   1.34527    0.000
 4981.00    1.39055   1.32228    0.000
 4982.00    1.38680   1.29724    0.000
 4983.00    1.37438   1.27420    0.000
 4984.00    1.34852   1.25477    0.000
 4985.00    1.31465   1.23963    0.000
 4986.00    1.28534   1.23191    0.000
 4987.00    1.27298   1.23476    0.000
 4988.00    1.28105   1.24679    0.000
 4989.00    1.29325   1.26344    0.000
 4990.00    1.28990   1.28189    0.000
 4991.00    1.27355   1.29901    0.000
 4992.00    1.25666   1.31142    0.000
 4993.00    1.24124   1.31926    0.000
 4994.00    1.22397   1.32434    0.000
 4995.00    1.20554   1.32827    0.000
 4996.00    1.19173   1.33087    0.000
 4997.00    1.19218   1.32993    0.000
 4998.00    1.20646   1.32641    0.000
 4999.00    1.21369   1.32134    0.000
 5000.00    1.19712   1.31305    0.000
 5001.00    1.16432   1.30134    0.000
 5002.00    1.13275   1.28667    0.000
 5003.00    1.11639   1.27020    0.000
 5004.00    1.11804   1.25458    0.000
 5005.00    1.12814   1.24188    0.000
 5006.00    1.14599   1.23335    0.000
 5007.00    1.18717   1.22852    0.000
 5008.00    1.25096   1.22538    0.000
 5009.00    1.30914   1.22395    0.000
 5010.00    1.34208   1.22614    0.000
 5011.00    1.35232   1.23122    0.000
 5012.00    1.34278   1.23405    0.000
 5013.00    1.31050   1.23102    0.000
 5014.00    1.26138   1.22347    0.000
 5015.00    1.21269   1.21331    0.000
 5016.00    1.18053   1.20245    0.000
 5017.00    1.17309   1.19431    0.000
 5018.00    1.18435   1.19188    0.000
 5019.00    1.19661   1.19488    0.000
 5020.00    1.19314   1.19946    0.000
 5021.00    1.16664   1.20438    0.000
 5022.00    1.13056   1.21242    0.000
 5023.00    1.11155   1.22346    0.000
 5024.00    1.12616   1.23372    0.000
 5025.00    1.17518   1.24092    0.000
 5026.00    1.24384   1.24764    0.000
 5027.00    1.30851   1.25689    0.000
 5028.00    1.34905   1.26684    0.000
 5029.00    1.35585   1.27515   10.617
 5030.00    1.33697   1.28245   10.724
 5031.00    1.31141   1.29178   10.871
 5032.00    1.29689   1.30482   10.936
 5033.00    1.29930   1.31710   10.895
 5034.00    1.30269   1.32430   10.892
 5035.00    1.28976   1.32737   11.026
 5036.00    1.26594   1.32652   11.109
 5037.00    1.24413   1.31824   10.986
 5038.00    1.22648   1.29980   10.890
 5039.00    1.21360   1.27496   10.999
 5040.00    1.21316   1.25230   11.074
 5041.00    1.22322   1.23512   10.921
 5042.00    1.22173   1.22159   10.790
 5043.00    1.20071   1.21313   10.939
 5044.00    1.18816   1.21450   11.344
 5045.00    1.21245   1.22901   11.690
 5046.00    1.27621   1.25249   11.455
 5047.00    1.35460   1.27536   10.786
 5048.00    1.40351   1.29307   10.513
 5049.00    1.40578   1.30489   10.876
 5050.00    1.38761   1.30877   11.297
 5051.00    1.37325   1.30461   11.273
 5052.00    1.36451   1.29760   10.980
 5053.00    1.35268   1.29397   10.722
 5054.00    1.32789   1.29507   10.639
 5055.00    1.29243   1.30017   10.751
 5056.00    1.26148   1.31036   10.999
 5057.00    1.24735   1.32517   11.250
 5058.00    1.25347   1.34117   11.343
 5059.00    1.27396   1.35533   11.250
 5060.00    1.29611   1.36710   11.087
 5061.00    1.30778   1.37620   10.930
 5062.00    1.30432   1.38026   10.795
 5063.00    1.30013   1.37823   10.703
 5064.00    1.31812   1.37216   10.662
 5065.00    1.36024   1.36271   10.621
 5066.00    1.40816   1.34845   10.521
 5067.00    1.43869   1.32999   10.443
 5068.00    1.43258   1.31312   10.511
 5069.00    1.38458   1.30312   10.706
 5070.00    1.30858   1.29725   10.874
 5071.00    1.24151   1.29220   10.803
 5072.00    1.22066   1.29025   10.394
 5073.00    1.25060   1.29235    9.826
 5074.00    1.31003   1.29408    9.378
 5075.00    1.36818   1.29262    9.270
 5076.00    1.40069   1.29074    9.541
 5077.00    1.40470   1.28808    9.883
 5078.00    1.38635   1.28053    9.987
 5079.00    1.34660   1.26920   10.087
 5080.00    1.28838   1.25819   10.502
 5081.00    1.22402   1.24662   11.104
 5082.00    1.16960   1.23242   11.521
 5083.00    1.13822   1.22156   11.512
 5084.00    1.12988   1.22091   11.220
 5085.00    1.12744   1.22818   11.098
 5086.00    1.11986   1.23792   11.287
 5087.00    1.11604   1.25026   11.394
 5088.00    1.12932   1.26678   11.255
 5089.00    1.16547   1.28424   11.310
 5090.00    1.21299   1.29898   11.683
 5091.00    1.24489   1.31151   11.819
 5092.00    1.25182   1.32312   11.489
 5093.00    1.25219   1.33222   11.180
 5094.00    1.26364   1.33712   11.109
 5095.00    1.28989   1.33841   11.059
 5096.00    1.32077   1.33573   10.969
 5097.00    1.33741   1.32719   11.022
 5098.00    1.32918   1.31354   11.216
 5099.00    1.29976   1.29855   11.323
 5100.00    1.26642   1.28473   11.289
 5101.00    1.25107   1.27254   11.279
 5102.00    1.25679   1.26393   11.360
 5103.00    1.26862   1.26269   11.475
 5104.00    1.27239   1.26759   11.592
 5105.00    1.26324   1.27236   11.712
 5106.00    1.25324   1.27351   11.800
 5107.00    1.25973   1.27230   11.784
 5108.00    1.27944   1.27021   11.591
 5109.00    1.29690   1.26675   11.239
 5110.00    1.30847   1.26215   10.912
 5111.00    1.31881   1.25958   10.785
 5112.00    1.32814   1.26119   10.809
 5113.00    1.33377   1.26629   10.849
 5114.00    1.33538   1.27585   10.900
 5115.00    1.33552   1.28937   10.997
 5116.00    1.33901   1.30383   11.077
 5117.00    1.34822   1.31734   11.106
 5118.00    1.35829   1.32823   11.231
 5119.00    1.36280   1.33575   11.515
 5120.00    1.36003   1.33924   11.633
 5121.00    1.34939   1.33634   11.359
 5122.00    1.32836   1.32605   11.041
 5123.00    1.29929   1.31013   10.997
 5124.00    1.27393   1.29152   11.135
 5125.00    1.26059   1.27213   11.245
 5126.00    1.25544   1.25236   11.216
 5127.00    1.25184   1.23519   11.061
 5128.00    1.24726   1.22444   10.890
 5129.00    1.24405   1.21992   10.747
 5130.00    1.24773   1.21956   10.571
 5131.00    1.25640   1.22225   10.393
 5132.00    1.25936   1.22823   10.374
 5133.00    1.25837   1.23800   10.551
 5134.00    1.27106   1.24984   10.766
 5135.00    1.30016   1.25980   10.906
 5136.00    1.32615   1.26594   10.994
 5137.00    1.33292   1.26934   11.018
 5138.00    1.31656   1.27115   10.922
 5139.00    1.27970   1.26898   10.845
 5140.00    1.22997   1.26129   11.040
 5141.00    1.18188   1.25107   11.433
 5142.00    1.15291   1.24211   11.617
 5143.00    1.15133   1.23769   11.483
 5144.00    1.17274   1.23436   11.291
 5145.00    1.20070   1.22762   11.198
 5146.00    1.21533   1.22282   11.180
 5147.00    1.21174   1.22354   11.124
 5148.00    1.19761   1.22459   10.959
 5149.00    1.18027   1.22226   10.859
 5150.00    1.16444   1.21911   11.034
 5151.00    1.15307   1.21886   11.336
 5152.00    1.14874   1.22096   11.422
 5153.00    1.15545   1.22198   11.248
 5154.00    1.17454   1.22271   11.048
 5155.00    1.19884   1.22687   11.080
 5156.00    1.21761   1.23481   11.450
 5157.00    1.22400   1.24510   11.906
 5158.00    1.21800   1.25756   12.068
 5159.00    1.20831   1.27136   11.927
 5160.00    1.20820   1.28362   11.723
 5161.00    1.22975   1.29060   11.660
 5162.00    1.27181   1.29077   11.771
 5163.00    1.31142   1.28419   11.855
 5164.00    1.32464   1.26791   11.794
 5165.00    1.30447   1.23966   11.791
 5166.00    1.25797   1.20389   11.924
 5167.00    1.20105   1.16519   11.880
 5168.00    1.14474   1.12470   11.613
 5169.00    1.08815   1.08349   11.636
 5170.00    1.03162   1.04484   12.132
 5171.00    0.98347   1.01650   12.566
 5172.00    0.95022   1.00449   12.548
 5173.00    0.93260   1.00554   12.425
 5174.00    0.93284   1.01014   12.432
 5175.00    0.95646   1.01770   12.379
 5176.00    1.00365   1.03887   12.182
 5177.00    1.06445   1.07507   12.016
 5178.00    1.11536   1.11196   11.967
 5179.00    1.12738   1.13862   11.969
 5180.00    1.09705   1.15629   11.955
 5181.00    1.04945   1.16523   11.905
 5182.00    1.01278   1.16144   11.813
 5183.00    1.00538   1.14714   11.689
 5184.00    1.02322   1.12911   11.583
 5185.00    1.04623   1.11021   11.550
 5186.00    1.06245   1.09364   11.573
 5187.00    1.07326   1.09131   11.584
 5188.00    1.09091   1.10963   11.546
 5189.00    1.13000   1.13681   11.466
 5190.00    1.19208   1.15988    0.000
 5191.00    1.26436   1.17816    0.000
 5192.00    1.32367   1.19690    0.000
 5193.00    1.34865   1.21220    0.000
 5194.00    1.33750   1.21457    0.000
 5195.00    1.30321   1.20978    0.000
 5196.00    1.26254   1.21147    0.000
 5197.00    1.23488   1.21933    0.000
 5198.00    1.24142   1.22639    0.000
 5199.00    1.28751   1.23470    0.000
 5200.00    1.34493   1.24697    0.000
 5201.00    1.38182   1.25920    0.000
 5202.00    1.39416   1.26687    0.000
 5203.00    1.38706   1.26718    0.000
 5204.00    1.35603   1.25986    0.000
 5205.00    1.30250   1.24707    0.000
 5206.00    1.24571   1.23036    0.000
 5207.00    1.20404   1.20887    0.000
 5208.00    1.18070   1.18661    0.000
 5209.00    1.16793   1.17247    0.000
 5210.00    1.15266   1.16805    0.000
 5211.00    1.12927   1.16909   10.932
 5212.00    1.10548   1.17797   11.025
 5213.00    1.09265   1.19586   11.017
 5214.00    1.09874   1.21726   11.019
 5215.00    1.12108   1.23829   11.061
 5216.00    1.14672   1.25716   11.012
 5217.00    1.16826   1.27209   10.755
 5218.00    1.19005   1.28176   10.304
 5219.00    1.22417   1.28929    9.849
 5220.00    1.28272   1.29768    9.618
 5221.00    1.35791   1.30542    9.591
 5222.00    1.42316   1.30924    9.559
 5223.00    1.45813   1.30749    9.447
 5224.00    1.45571   1.30056    9.342
 5225.00    1.41899   1.28763    9.296
 5226.00    1.35936   1.26949    9.310
 5227.00    1.29435   1.25015    9.413
 5228.00    1.24366   1.23265    9.636
 5229.00    1.22162   1.21902    9.910
 5230.00    1.23334   1.21417   10.083
 5231.00    1.27060   1.22164   10.075
 5232.00    1.31565   1.23462    9.953
 5233.00    1.34960   1.24729    9.946
 5234.00    1.36059   1.26095   10.226
 5235.00    1.35359   1.27391   10.576
 5236.00    1.34192   1.28451   10.640
 5237.00    1.33293   1.29548   10.538
 5238.00    1.32958   1.30784   10.565
 5239.00    1.33493   1.32132   10.687
 5240.00    1.34814   1.33453   10.734
 5241.00    1.36005   1.34558   10.694
 5242.00    1.36212   1.35416   10.635
 5243.00    1.35578   1.36124   10.584
 5244.00    1.34854   1.36548   10.535
 5245.00    1.34834   1.36324   10.479
 5246.00    1.35384   1.35648   10.441
 5247.00    1.34967   1.35013   10.496
 5248.00    1.32969   1.34130   10.619
 5249.00    1.31093   1.32516   10.606
 5250.00    1.30557   1.30798   10.408
 5251.00    1.30400   1.29842   10.277
 5252.00    1.29160   1.29217   10.310
 5253.00    1.26162   1.28386   10.292
 5254.00    1.22530   1.28064   10.148
 5255.00    1.20929   1.28737   10.096
 5256.00    1.21811   1.29771   10.173
 5257.00    1.22630   1.30591   10.145
 5258.00    1.22373   1.31402   10.032
 5259.00    1.22773   1.32509   10.158
 5260.00    1.25129   1.33324   10.451
 5261.00    1.29205   1.33152   10.388
 5262.00    1.33903   1.31979   10.007
 5263.00    1.37673   1.29990    9.880
 5264.00    1.38982   1.27196   10.073
 5265.00    1.36763   1.23837   10.208
 5266.00    1.31185   1.20499   10.241
 5267.00    1.23606   1.17375   10.462
 5268.00    1.15922   1.14471   10.818
 5269.00    1.09954   1.12438   10.947
 5270.00    1.06522   1.11893   10.860
 5271.00    1.05582   1.11963   10.857
 5272.00    1.06903   1.11916   10.971
 5273.00    1.09867   1.12804   11.053
 5274.00    1.12915   1.15243   11.114
 5275.00    1.14587   1.18054   11.259
 5276.00    1.15253   1.20486   11.467
 5277.00    1.16237   1.22969   11.623
 5278.00    1.18156   1.25538   11.639
 5279.00    1.20809   1.27917   11.532
 5280.00    1.23381   1.29996   11.456
 5281.00    1.25042   1.31425   11.516
 5282.00    1.25595   1.32024   11.593
 5283.00    1.25454   1.32214   11.555
 5284.00    1.25477   1.32513   11.491
 5285.00    1.26413   1.32905   11.519
 5286.00    1.28390   1.33280   11.606
 5287.00    1.30909   1.34029   11.642
 5288.00    1.32986   1.35598   11.546
 5289.00    1.34091   1.37532   11.418
 5290.00    1.34732   1.39097   11.554
 5291.00    1.35658   1.40230   11.954
 5292.00    1.37204   1.41211   12.052
 5293.00    1.38792   1.41857   11.651
 5294.00    1.39014   1.41701   11.364
 5295.00    1.37575   1.40634   11.499
 5296.00    1.35928   1.39018   11.752
 5297.00    1.35207   1.37307   11.793
 5298.00    1.35301   1.35557   11.589
 5299.00    1.35393   1.33572   11.340
 5300.00    1.34527   1.31649   11.295
 5301.00    1.32780   1.30636   11.435
 5302.00    1.31392   1.30878   11.493
 5303.00    1.31627   1.31705   11.412
 5304.00    1.33941   1.32679   11.385
 5305.00    1.36758   1.34159   11.404
 5306.00    1.37629   1.36245   11.269
 5307.00    1.37333   1.38347   11.004
 5308.00    1.38997   1.39972   10.798
 5309.00    1.43138   1.41133   10.666
 5310.00    1.47574   1.42020   10.517
 5311.00    1.50042   1.42743   10.407
 5312.00    1.49765   1.43196   10.435
 5313.00    1.49192   1.43237   10.481
 5314.00    1.51189   1.42924   10.366
 5315.00    1.53680   1.42416   10.229
 5316.00    1.52746   1.41809   10.330
 5317.00    1.48916   1.41154   10.690
 5318.00    1.45360   1.40373   11.078
 5319.00    1.43864   1.39478   11.047
 5320.00    1.44229   1.38728   10.468
 5321.00    1.44370   1.38150    9.984
 5322.00    1.42423   1.37339   10.064
 5323.00    1.38973   1.36214   -2.000
 5324.00    1.35042   1.35055   -2.000
 5325.00    1.30095   1.33694   -2.000
 5326.00    1.25481   1.31625   -2.000
 5327.00    1.27008   1.29171   -2.000
 5328.00    1.38043   1.27295   -2.000
 5329.00    1.54196   1.25921   -2.000
 5330.00    1.68463   1.24382   -2.000
 5331.00    1.75618   1.23250   -2.000
 5332.00    1.73737   1.23856   -2.000
 5333.00    1.64738   1.25836   -2.000
 5334.00    1.52589   1.27796   -2.000
 5335.00    1.41834   1.29503   -2.000
 5336.00    1.35780   1.31601   -2.000
 5337.00    1.35453   1.33842   -2.000
 5338.00    1.39232   1.35171   10.987
 5339.00    1.43456   1.35371   11.062
 5340.00    1.45607   1.35204   11.137
 5341.00    1.45322   1.35058   11.165
 5342.00    1.42853   1.34499   11.186
 5343.00    1.38611   1.33600   11.346
 5344.00    1.33725   1.33173   11.603
 5345.00    1.29877   1.33406   11.719
 5346.00    1.28198   1.33667   11.700
 5347.00    1.28911   1.33697   11.771
 5348.00    1.31367   1.33807   11.878
 5349.00    1.34494   1.34260   11.759
 5350.00    1.37845   1.34866   11.481
 5351.00    1.41389   1.35296   11.339
 5352.00    1.44521   1.35825   11.406
 5353.00    1.46386   1.37029   11.551
 5354.00    1.46943   1.38744   11.594
 5355.00    1.46739   1.40328   11.426
 5356.00    1.46145   1.41798   11.187
 5357.00    1.45394   1.43465   11.072
 5358.00    1.44838   1.44993   11.071
 5359.00    1.44816   1.45882   11.074
 5360.00    1.45398   1.46183   11.048
 5361.00    1.46353   1.46127   11.005
 5362.00    1.47174   1.45680   10.931
 5363.00    1.47392   1.44688   10.826
 5364.00    1.46910   1.43246   10.748
 5365.00    1.45831   1.41679   10.750
 5366.00    1.44235   1.40136   10.820
 5367.00    1.42068   1.38484   10.878
 5368.00    1.39144   1.36711   10.797
 5369.00    1.35843   1.35027   10.621
 5370.00    1.33470   1.33550   10.653
 5371.00    1.32575   1.32372   10.971
 5372.00    1.31965   1.31496   11.144
 5373.00    1.30721   1.30959   10.937
 5374.00    1.29446   1.31116   10.780
 5375.00    1.29272   1.32200   10.925
 5376.00    1.31026   1.33815   11.109
 5377.00    1.34225   1.35465   11.117
 5378.00    1.37020   1.37084   11.079
 5379.00    1.38425   1.38521   11.129
 5380.00    1.38995   1.39579   11.259
 5381.00    1.39081   1.40205   11.429
 5382.00    1.38391   1.40363   11.607
 5383.00    1.37323   1.40172   11.711
 5384.00    1.37125   1.39921   11.652
 5385.00    1.38630   1.39657   11.537
 5386.00    1.41756   1.39315   11.601
 5387.00    1.45382   1.39045   11.835
 5388.00    1.47779   1.38784   12.001
 5389.00    1.47846   1.38291   12.040
 5390.00    1.45426   1.37614   12.085
 5391.00    1.41188   1.36823   12.148
 5392.00    1.36267   1.35795   12.145
 5393.00    1.31557   1.34630   12.132
 5394.00    1.27728   1.33529   12.233
 5395.00    1.25539   1.32388   12.393
 5396.00    1.25379   1.31246   12.462
 5397.00    1.26378   1.30478   12.467
 5398.00    1.27022   1.29995   12.515
 5399.00    1.26384   1.29382   12.568
 5400.00    1.24500   1.28982   12.527
 5401.00    1.22585   1.29268   12.402
 5402.00    1.22288   1.29563   12.254
 5403.00    1.24637   1.29247   12.095
 5404.00    1.28980   1.28811   11.923
 5405.00    1.32189   1.28520   11.771
 5406.00    1.31685   1.27832   11.681
 5407.00    1.28487   1.26647   11.667
 5408.00    1.25660   1.25597   11.632
 5409.00    1.26288   1.25173   11.336
 5410.00    1.30600   1.25380   10.829
 5411.00    1.34486   1.25900   10.579
 5412.00    1.35415   1.26640   10.730
 5413.00    1.36109   1.27920   10.811
 5414.00    1.38728   1.29822   10.562
 5415.00    1.41449   1.31804   10.413
 5416.00    1.42382   1.33447   10.553
 5417.00    1.41723   1.34895   10.606
 5418.00    1.39841   1.36306   10.485
 5419.00    1.36547   1.37470   10.670
 5420.00    1.32787   1.38152   11.212
 5421.00    1.30773   1.38410   11.376
 5422.00    1.31006   1.38332   10.967
 5423.00    1.31680   1.38014   10.712
 5424.00    1.31401   1.37736   10.918
 5425.00    1.30129   1.37532   11.318
 5426.00    1.28680   1.37106   11.552
 5427.00    1.28336   1.36518   11.433
 5428.00    1.30254   1.36119   11.150
 5429.00    1.34693   1.35885   11.040
 5430.00    1.39523   1.35410   11.037
 5431.00    1.41482   1.34367   10.860
 5432.00    1.40160   1.33122   10.714
 5433.00    1.37183   1.32342   -2.000
 5434.00    1.32350   1.31842   -2.000
 5435.00    1.24760   1.31118   -2.000
 5436.00    1.16678   1.30665   -2.000
 5437.00    1.14171   1.31094   -2.000
 5438.00    1.26500   1.32117   -2.000
 5439.00    1.59034   1.33388   -2.000
 5440.00    2.03513   1.34991   -2.000
 5441.00    2.57943   1.36852   -2.000
 5442.00    3.53229   1.38554   -2.000
 5443.00    5.01994   1.39758   -2.000
 5444.00    6.34987   1.40309   -2.000
 5445.00    6.75663   1.40149   -2.000
 5446.00    6.29656   1.39398   -2.000
 5447.00    5.36867   1.38274   -2.000
 5448.00    4.15226   1.36876   -2.000
 5449.00    2.87734   1.35486   -2.000
 5450.00    2.05642   1.34623   -2.000
 5451.00    1.90511   1.34400   -2.000
 5452.00    1.94315   1.34350   -2.000
 5453.00    1.74745   1.34227   -2.000
 5454.00    1.46465   1.34134   -2.000
 5455.00    1.31843   1.34103   -2.000
 5456.00    1.28630   1.33946    7.818
 5457.00    1.28232   1.33497    7.867
 5458.00    1.27510   1.33038    7.814
 5459.00    1.26925   1.33097    7.822
 5460.00    1.28515   1.33559    7.826
 5461.00    1.32575   1.33858    7.645
 5462.00    1.36768   1.34005    7.205
 5463.00    1.39046   1.34342    6.956
 5464.00    1.38915   1.34622    7.631
 5465.00    1.37290   1.34470    9.555
 5466.00    1.35953   1.34281   11.436
 5467.00    1.36048   1.34483   11.399
 5468.00    1.37529   1.34675   10.577
 5469.00    1.39139   1.34629   10.148
 5470.00    1.39182   1.34768   10.240
 5471.00    1.37546   1.34957   10.614
 5472.00    1.35476   1.34635   10.866
 5473.00    1.33674   1.34034   10.924
 5474.00    1.32144   1.33447   11.044
 5475.00    1.30894   1.32451   11.305
 5476.00    1.30085   1.31152   11.595
 5477.00    1.29995   1.30252   11.848
 5478.00    1.30685   1.29527   12.048
 5479.00    1.31470   1.28554   12.156
 5480.00    1.31463   1.28063   12.157
 5481.00    1.30577   1.28463   12.162
 5482.00    1.29714   1.28951   12.245
 5483.00    1.30667   1.29276   12.206
 5484.00    1.34014   1.30042   11.920
 5485.00    1.36768   1.31164   11.739
 5486.00    1.35948   1.32053   11.932
 5487.00    1.32750   1.32771   12.144
 5488.00    1.30152   1.33518   12.001
 5489.00    1.29950   1.33980   11.831
 5490.00    1.32012   1.34197   11.941
 5491.00    1.34142   1.34480   12.035
 5492.00    1.34524   1.34631   11.856
 5493.00    1.33535   1.34586   11.700
 5494.00    1.32020   1.34731   11.792
 5495.00    1.30068   1.34909   11.906
 5496.00    1.28082   1.34810   11.843
 5497.00    1.27345   1.34857   11.730
 5498.00    1.28813   1.35140   11.666
 5499.00    1.32422   1.35066   11.553
 5500.00    1.37431   1.34747   11.318
 5501.00    1.42586   1.34767   11.024
 5502.00    1.45988   1.34823   10.846
 5503.00    1.45663   1.34393   10.977
 5504.00    1.42192   1.33796   11.295
 5505.00    1.38866   1.33407   11.337
 5506.00    1.38036   1.33087   11.062
 5507.00    1.39913   1.32670   10.899
 5508.00    1.43411   1.32182   10.860
 5509.00    1.46650   1.31843   10.600
 5510.00    1.47527   1.31773   10.295
 5511.00    1.44757   1.31651   10.439
 5512.00    1.40093   1.31305   10.944
 5513.00    1.37086   1.31056   11.203
 5514.00    1.36672   1.30940   11.101
 5515.00    1.37385   1.30798   11.076
 5516.00    1.38211   1.30875   11.298
 5517.00    1.39122   1.31374   11.625
 5518.00    1.40820   1.32116   11.802
 5519.00    1.43603   1.33037   11.685
 5520.00    1.45624   1.34208   11.544
 5521.00    1.44909   1.35445   11.695
 5522.00    1.42855   1.36406   11.944
 5523.00    1.42159   1.37006   11.932
 5524.00    1.43222   1.37340   11.813
 5525.00    1.44843   1.37321   11.910
 5526.00    1.45773   1.36835   12.187
 5527.00    1.45335   1.36016   12.399
 5528.00    1.43868   1.35182   12.357
 5529.00    1.42150   1.34408   12.113
 5530.00    1.40761   1.33598   12.003
 5531.00    1.40116   1.33030   12.180
 5532.00    1.40491   1.33016   12.296
 5533.00    1.41571   1.33225   12.018
 5534.00    1.42230   1.33364   11.519
 5535.00    1.41697   1.33744   11.096
 5536.00    1.40362   1.34315   10.894
 5537.00    1.39268   1.34648   10.917
 5538.00    1.39552   1.34903   11.045
 5539.00    1.41346   1.35386   11.139
 5540.00    1.43473   1.35863   11.104
 5541.00    1.45247   1.36185   10.913
 5542.00    1.47126   1.36616   10.607
 5543.00    1.49135   1.37129   10.251
 5544.00    1.50384   1.37424    9.904
 5545.00    1.50293   1.37497    9.616
 5546.00    1.49059   1.37648    9.405
 5547.00    1.47366   1.37945    9.206
 5548.00    1.46178   1.38133    8.933
 5549.00    1.46479   1.38295    8.682
 5550.00    1.48787   1.38742    8.639
 5551.00    1.52027   1.39261    8.759
 5552.00    1.54242   1.39502    8.791
 5553.00    1.55361   1.39602    8.635
 5554.00    1.56534   1.39681    8.419
 5555.00    1.56748   1.39511    8.370
 5556.00    1.54005   1.39051    8.666
 5557.00    1.49555   1.38570    9.192
 5558.00    1.46635   1.38190    9.601
 5559.00    1.46235   1.37765    9.836
 5560.00    1.47184   1.37277   10.113
 5561.00    1.47774   1.36875   10.432
 5562.00    1.46840   1.36544   10.635
 5563.00    1.44903   1.36143   10.748
 5564.00    1.43243   1.35604   10.895
 5565.00    1.42373   1.35027   11.055
 5566.00    1.42059   1.34573   11.173
 5567.00    1.41679   1.34153   11.357
 5568.00    1.40998   1.33590   11.663
 5569.00    1.40893   1.33194   11.809
 5570.00    1.42196   1.33161   11.632
 5571.00    1.44502   1.33000   11.554
 5572.00    1.46677   1.32789   11.827
 5573.00    1.47526   1.33081   11.951
 5574.00    1.46682   1.33437   11.618
 5575.00    1.45091   1.33456   11.457
 5576.00    1.43464   1.33823   11.844
 5577.00    1.41330   1.34548   12.279
 5578.00    1.38546   1.34884   12.261
 5579.00    1.36128   1.35146   12.054
 5580.00    1.35003   1.35675   11.955
 5581.00    1.35222   1.35922   11.883
 5582.00    1.35930   1.35841   11.700
 5583.00    1.35695   1.35678   11.393
 5584.00    1.34030   1.35145   11.104
 5585.00    1.31864   1.34214   11.029
 5586.00    1.30399   1.33126   11.112
 5587.00    1.30464   1.31781   11.058
 5588.00    1.31986   1.30206   10.886
 5589.00    1.34067   1.28742   10.922
 5590.00    1.35891   1.27562   11.132
 5591.00    1.36830   1.26713   11.128
 5592.00    1.35822   1.26283   10.927
 5593.00    1.32121   1.26306   10.921
 5594.00    1.27761   1.26808   11.188
 5595.00    1.26428   1.27640   11.481
 5596.00    1.29176   1.28473   11.585
 5597.00    1.34160   1.29213   11.456
 5598.00    1.38392   1.30003   11.212
 5599.00    1.39407   1.30554   11.041
 5600.00    1.37629   1.30505   11.076
 5601.00    1.35251   1.30330   11.338
 5602.00    1.33535   1.30388   11.612
 5603.00    1.32742   1.30344   11.657
 5604.00    1.32779   1.30271   11.671
 5605.00    1.33486   1.30722   11.938
 5606.00    1.34886   1.31759   12.254
 5607.00    1.37040   1.33040   12.249
 5608.00    1.39803   1.34428   12.026
 5609.00    1.42721   1.35871   11.856
 5610.00    1.44976   1.37227   11.745
 5611.00    1.45778   1.38234   11.641
 5612.00    1.44824   1.38747   11.642
 5613.00    1.42962   1.38677   11.821
 5614.00    1.42426   1.38044   12.077
 5615.00    1.44167   1.37165   12.211
 5616.00    1.46004   1.36067   12.058
 5617.00    1.45435   1.34579   11.705
 5618.00    1.41865   1.33203   11.494
 5619.00    1.36851   1.32448   11.537
 5620.00    1.33638   1.31921   11.550
 5621.00    1.33954   1.31380   11.352
 5622.00    1.36499   1.31282   11.111
 5623.00    1.38956   1.31543   10.985
 5624.00    1.39406   1.31703   10.965
 5625.00    1.37632   1.31735   10.920
 5626.00    1.35156   1.31657   10.664
 5627.00    1.32922   1.31651   10.206
 5628.00    1.30815   1.32014    9.728
 5629.00    1.29587   1.32530    9.295
 5630.00    1.30911   1.32977    8.882
 5631.00    1.35076   1.33709    8.578
 5632.00    1.40629   1.34719    8.538
 5633.00    1.45699   1.35458    8.783
 5634.00    1.48631   1.35833    9.207
 5635.00    1.48514   1.36004    9.662
 5636.00    1.45535   1.35842   10.016
 5637.00    1.41406   1.35362   10.264
 5638.00    1.38377   1.34760   10.518
 5639.00    1.36958   1.34040   10.837
 5640.00    1.36245   1.33291   11.157
 5641.00    1.35527   1.32796   11.268
 5642.00    1.34483   1.32486   11.072
 5643.00    1.32993   1.32163   10.986
 5644.00    1.31296   1.32080   11.387
 5645.00    1.30250   1.32344   11.775
 5646.00    1.30860   1.32647   11.419
 5647.00    1.33564   1.32914   10.840
 5648.00    1.38074   1.33336   10.678
 5649.00    1.43321   1.33839   10.589
 5650.00    1.47687   1.34262   10.119
 5651.00    1.49379   1.34598    9.570
 5652.00    1.47657   1.34815    9.329
 5653.00    1.43885   1.34889    9.422
 5654.00    1.40141   1.34826    9.721
 5655.00    1.37759   1.34624   10.033
 5656.00    1.36477   1.34073   10.229
 5657.00    1.34229   1.33161   10.384
 5658.00    1.30022   1.32379   10.601
 5659.00    1.25711   1.31690   10.857
 5660.00    1.23585   1.30567   11.075
 5661.00    1.24604   1.29553   11.183
 5662.00    1.27938   1.29398   11.122
 5663.00    1.31153   1.29458   10.876
 5664.00    1.32317   1.29291   10.603
 5665.00    1.31221   1.29620   10.570
 5666.00    1.29696   1.30495   10.737
 5667.00    1.30770   1.31213   10.723
 5668.00    1.34710   1.31739   10.469
 5669.00    1.38413   1.32348   10.344
 5670.00    1.39476   1.33002   10.465
 5671.00    1.37680   1.33647   10.626
 5672.00    1.34603   1.34293   10.701
 5673.00    1.32781   1.34906   10.749
 5674.00    1.33734   1.35600   10.828
 5675.00    1.37527   1.36453   10.918
 5676.00    1.43255   1.37208   10.933
 5677.00    1.49332   1.37651   10.807
 5678.00    1.53844   1.37990   10.698
 5679.00    1.55440   1.38287   10.836
 5680.00    1.54951   1.38177   11.189
 5681.00    1.54295   1.37625   11.479
 5682.00    1.53750   1.37078   11.453
 5683.00    1.52274   1.36537   11.106
 5684.00    1.48993   1.35682   10.808
 5685.00    1.43996   1.34758   10.879
 5686.00    1.39067   1.34127   11.156
 5687.00    1.36392   1.33659   11.258
 5688.00    1.36646   1.33210   11.123
 5689.00    1.39200   1.33001   10.935
 5690.00    1.42779   1.33133   10.865
 5691.00    1.46302   1.33528   10.966
 5692.00    1.49632   1.34072   11.102
 5693.00    1.52583   1.34667   11.111
 5694.00    1.53973   1.35367   10.997
 5695.00    1.52926   1.36099   10.843
 5696.00    1.50030   1.36565   10.711
 5697.00    1.46351   1.36677   10.634
 5698.00    1.42573   1.36666   10.618
 5699.00    1.39081   1.36411   10.642
 5700.00    1.36080   1.35683   10.662
 5701.00    1.33656   1.34852   10.664
 5702.00    1.31859   1.34145   10.694
 5703.00    1.30921   1.33285   10.761
 5704.00    1.31262   1.32305   10.802
 5705.00    1.32812   1.31554   10.764
 5706.00    1.34845   1.30944   10.657
 5707.00    1.36857   1.30135   10.546
 5708.00    1.38844   1.29269   10.514
 5709.00    1.40694   1.28641   10.552
 5710.00    1.41905   1.28028   10.558
 5711.00    1.41554   1.27374   10.501
 5712.00    1.38730   1.27197   10.453
 5713.00    1.33988   1.27459   10.463
 5714.00    1.29315   1.27881   10.533
 5715.00    1.26550   1.28820   10.626
 5716.00    1.26682   1.30230   10.708
 5717.00    1.29294   1.31593   10.828
 5718.00    1.33064   1.33037   11.056
 5719.00    1.37271   1.34608   11.276
 5720.00    1.41683   1.35918   11.249
 5721.00    1.45558   1.37044   10.957
 5722.00    1.48000   1.38084   10.588
 5723.00    1.49032   1.38855   10.320
 5724.00    1.49374   1.39457   10.189
 5725.00    1.49696   1.39898    9.961
 5726.00    1.50171   1.40009    9.483
 5727.00    1.50043   1.39994    9.096
 5728.00    1.48323   1.39910    9.131
 5729.00    1.44830   1.39519    9.475
 5730.00    1.40250   1.39044    9.833
 5731.00    1.35951   1.38795   10.115
 5732.00    1.33034   1.38566   10.367
 5733.00    1.31382   1.38230   10.569
 5734.00    1.30442   1.38140   10.647
 5735.00    1.30143   1.38326   10.544
 5736.00    1.31138   1.38463   10.321
 5737.00    1.34701   1.38567   10.185
 5738.00    1.40751   1.38778   10.227
 5739.00    1.46573   1.38982   10.293
 5740.00    1.49317   1.39065    0.000
 5741.00    1.48066   1.39067    0.000
 5742.00    1.44943   1.39029    0.000
 5743.00    1.44797   1.38985   -2.000
 5744.00    1.49669   1.38938   -2.000
 5745.00    1.56507   1.38850   -2.000
 5746.00    1.62316   1.38744   -2.000
 5747.00    1.66423   1.38649   -2.000
 5748.00    1.67920   1.38551   -2.000
 5749.00    1.65198   1.38342   -2.000
 5750.00    1.59182   1.37987   -2.000
 5751.00    1.53661   1.37632   -2.000
 5752.00    1.51368   1.37263   -2.000
 5753.00    1.52590   1.36766   -2.000
 5754.00    1.55652   1.36293   -2.000
 5755.00    1.57694   1.35970   -2.000
 5756.00    1.56398   1.35727   -2.000
 5757.00    1.51166   1.35657   -2.000
 5758.00    1.44717   1.35779   -2.000
 5759.00    1.41461   1.35916   -2.000
 5760.00    1.42712   1.36078   -2.000
 5761.00    1.46471   1.36217   -2.000
 5762.00    1.49531   1.36210   -2.000
 5763.00    1.49141   1.36184    0.000
 5764.00    1.45215   1.36183    0.000
 5765.00    1.39924   1.36215    0.000
 5766.00    1.36193   1.36535    0.000
 5767.00    1.36021   1.37081    0.000
 5768.00    1.38458   1.37615    0.000
 5769.00    1.41401   1.38261    0.000
 5770.00    1.44409   1.38939    0.000
 5771.00    1.47528   1.39323    0.000
 5772.00    1.49485   1.39501    0.000
 5773.00    1.49026   1.39544    0.000
 5774.00    1.46603   1.39333    0.000
 5775.00    1.43760   1.39029    0.000
 5776.00    1.42189   1.38673    0.000
 5777.00    1.42189   1.38183    0.000
 5778.00    1.41704   1.37672    0.000
 5779.00    1.39285   1.37050    0.000
 5780.00    1.36262   1.36151    0.000
 5781.00    1.34543   1.35150    0.000
 5782.00    1.34915   1.34059    0.000
 5783.00    1.37180   1.32714    0.000
 5784.00    1.40323   1.31428    0.000
 5785.00    1.42633   1.30553    0.000
 5786.00    1.42234   1.29896    0.000
 5787.00    1.39479   1.29434    0.000
 5788.00    1.37400   1.29608    0.000
 5789.00    1.37995   1.30235    0.000
 5790.00    1.40616   1.30884    0.000
 5791.00    1.42744   1.31805    0.000
 5792.00    1.41439   1.32916    0.000
 5793.00    1.37268   1.33825    0.000
 5794.00    1.34225   1.34719    0.000
 5795.00    1.34591   1.35626    0.000
 5796.00    1.37777   1.36248    0.000
 5797.00    1.42133   1.36806    0.000
 5798.00    1.45933   1.37473    0.000
 5799.00    1.48391   1.37894    0.000
 5800.00    1.49630   1.38169    0.000
 5801.00    1.49943   1.38686    0.000
 5802.00    1.49560   1.39130    0.000
 5803.00    1.48552   1.39286    0.000
 5804.00    1.46956   1.39502    0.000
 5805.00    1.45055   1.39702    0.000
 5806.00    1.43637   1.39584    0.000
 5807.00    1.44245   1.39368    0.000
 5808.00    1.47233   1.39230    0.000
 5809.00    1.48981   1.39064    0.000
 5810.00    1.45701   1.38901    0.000
 5811.00    1.38999   1.38839    0.000
 5812.00    1.32913   1.38885    0.000
 5813.00    1.29366   1.38953    0.000
 5814.00    1.28428   1.38945    0.000
 5815.00    1.29278   1.38903    0.000
 5816.00    1.30893   1.38907    0.000
 5817.00    1.32650   1.38878    0.000
 5818.00    1.34401   1.38808    0.000
 5819.00    1.36445   1.38914    0.000
 5820.00    1.39159   1.39229    0.000
 5821.00    1.42568   1.39560    0.000
 5822.00    1.45439   1.39938    0.000
 5823.00    1.45197   1.40442    0.000
 5824.00    1.41565   1.40901    0.000
 5825.00    1.38157   1.41197    0.000
 5826.00    1.37887   1.41442    0.000
 5827.00    1.40522   1.41666    0.000
 5828.00    1.44360   1.41780    0.000
 5829.00    1.47456   1.41825    0.000
 5830.00    1.48866   1.41853    0.000
 5831.00    1.48913   1.41874    0.000
 5832.00    1.47943   1.41852    0.000
 5833.00    1.46008   1.41711    0.000
 5834.00    1.43643   1.41542    0.000
 5835.00    1.41793   1.41431    0.000
 5836.00    1.40584   1.41216    0.000
 5837.00    1.39499   1.40923    0.000
 5838.00    1.39094   1.40836    0.000
 5839.00    1.40541   1.40847    0.000
 5840.00    1.43124   1.40767    0.000
 5841.00    1.44698   1.40846    0.000
 5842.00    1.44372   1.41112    0.000
 5843.00    1.42786   1.41264    0.000
 5844.00    1.41289   1.41331    0.000
 5845.00    1.41049   1.41405    0.000
 5846.00    1.41763   1.41301    0.000
 5847.00    1.42212   1.40990    0.000
 5848.00    1.41632   1.40571    0.000
 5849.00    1.40142   1.40018    0.000
 5850.00    1.38939   1.39368    0.000
 5851.00    1.38861   1.38676    0.000
 5852.00    1.38519   1.37913    0.000
 5853.00    1.36130   1.37148    0.000
 5854.00    1.32001   1.36399    0.000
 5855.00    1.27570   1.35556    0.000
 5856.00    1.24001   1.34692    0.000
 5857.00    1.21841   1.33989    0.000
 5858.00    1.20933   1.33346    0.000
 5859.00    1.21408   1.32702    0.000
 5860.00    1.24321   1.32356    0.000
 5861.00    1.29408   1.32299    0.000
 5862.00    1.33676   1.32332    0.000
 5863.00    1.34553   1.32612    0.000
 5864.00    1.32154   1.33085    0.000
 5865.00    1.28556   1.33538    0.000
 5866.00    1.26763   1.34075    0.000
 5867.00    1.27986   1.34683    0.000
 5868.00    1.30623   1.35136    0.000
 5869.00    1.33064   1.35561    0.000
 5870.00    1.34998   1.36110    0.000
 5871.00    1.36444   1.36550    0.000
 5872.00    1.37272   1.36863    0.000
 5873.00    1.37208   1.37233    0.000
 5874.00    1.36036   1.37509    0.000
 5875.00    1.34277   1.37538    0.000
 5876.00    1.32980   1.37496    0.000
 5877.00    1.32254   1.37385    0.000
 5878.00    1.31407   1.37028    0.000
 5879.00    1.30802   1.36536    0.000
 5880.00    1.31620   1.36070    0.000
 5881.00    1.33798   1.35511    0.000
 5882.00    1.35914   1.34774    0.000
 5883.00    1.36280   1.34043    0.000
 5884.00    1.34141   1.33306    0.000
 5885.00    1.31517   1.32240    0.000
 5886.00    1.31286   1.30845    0.000
 5887.00    1.32948   1.29207    0.000
 5888.00    1.33915   1.26926    0.000
 5889.00    1.33040   1.24072    0.000
 5890.00    1.30451   1.21201    0.000
 5891.00    1.26368   1.17978    0.000
 5892.00    1.21015   1.14635    0.000
 5893.00    1.14792   1.12301    0.000
 5894.00    1.09017   1.10471    0.000
 5895.00    1.06579   1.08901    0.000
 5896.00    1.09142   1.08766    0.000
 5897.00    1.14247   1.09346    0.000
 5898.00    1.18159   1.09924    0.000
 5899.00    1.19045   1.11679    0.000
 5900.00    1.17457   1.14138    0.000
 5901.00    1.16143   1.16314   12.351
 5902.00    1.16960   1.19010   11.899
 5903.00    1.18742   1.22122   11.421
 5904.00    1.19870   1.24664   11.284
 5905.00    1.20158   1.26901   11.240
 5906.00    1.20246   1.29049   11.105
 5907.00    1.20965   1.30623   11.068
 5908.00    1.22363   1.31682   11.248
 5909.00    1.23429   1.32569   11.491
 5910.00    1.23556   1.33215   11.618
 5911.00    1.23215   1.33553   11.589
 5912.00    1.23454   1.33714   11.489
 5913.00    1.25129   1.33781   11.468
 5914.00    1.26885   1.33713   11.612
 5915.00    1.25689   1.33450   11.902
 5916.00    1.21830   1.33144   12.178
 5917.00    1.19175   1.32926   12.210
 5918.00    1.19907   1.32718   12.057
 5919.00    1.23176   1.32647   12.005
 5920.00    1.26488   1.32775   12.061
 5921.00    1.27348   1.32982   12.009
 5922.00    1.26310   1.33347   11.898
 5923.00    1.26067   1.33761   11.929
 5924.00    1.27432   1.34078   11.919
 5925.00    1.29338   1.34425   11.550
 5926.00    1.30859   1.34691   11.125
 5927.00    1.31602   1.34782   11.108
 5928.00    1.31601   1.34833   11.356
 5929.00    1.31351   1.34768   11.440
 5930.00    1.31839   1.34620   11.406
 5931.00    1.33765   1.34481   11.514
 5932.00    1.36407   1.34256   11.601
 5933.00    1.38455   1.34069   11.400
 5934.00    1.39363   1.34023   11.111
 5935.00    1.39185   1.34000   11.042
 5936.00    1.38141   1.33973   11.192
 5937.00    1.36573   1.34060   11.430
 5938.00    1.34913   1.34293   11.666
 5939.00    1.33415   1.34419   11.808
 5940.00    1.31919   1.34466   11.719
 5941.00    1.30130   1.34682   11.479
 5942.00    1.27967   1.34807   11.501
 5943.00    1.26269   1.34735   11.942
 5944.00    1.27015   1.34790   12.300
 5945.00    1.30997   1.34878   12.121
 5946.00    1.36428   1.34830   11.694
 5947.00    1.40866   1.34803   11.434
 5948.00    1.42659   1.34792   11.488
 5949.00    1.41644   1.34729   11.766
 5950.00    1.39179   1.34583   11.950
 5951.00    1.36395   1.34304   11.811
 5952.00    1.33459   1.34061   11.444
 5953.00    1.30412   1.33903   11.184
 5954.00    1.27647   1.33606   11.367
 5955.00    1.26187   1.33322   11.747
 5956.00    1.27234   1.33320   11.507
 5957.00    1.30208   1.33343   10.847
 5958.00    1.32858   1.33293   10.752
 5959.00    1.34010   1.33480   11.277
 5960.00    1.34164   1.33845   11.576
 5961.00    1.34499   1.34158   11.278
 5962.00    1.36003   1.34547   10.850
 5963.00    1.38073   1.35077   10.624
 5964.00    1.39070   1.35528   10.620
 5965.00    1.38476   1.35881   10.644
 5966.00    1.36897   1.36288   10.474
 5967.00    1.34997   1.36579   10.255
 5968.00    1.33416   1.36732   10.282
 5969.00    1.33053   1.36996   10.587
 5970.00    1.34607   1.37220   10.961
 5971.00    1.37732   1.37318   11.086
 5972.00    1.41081   1.37494   10.841
 5973.00    1.42670   1.37612   10.656
 5974.00    1.41134   1.37509   10.956
 5975.00    1.37300   1.37314   11.558
 5976.00    1.33225   1.37022   11.958
 5977.00    1.30715   1.36532   11.974
 5978.00    1.30529   1.35966   11.779
 5979.00    1.31803   1.35450   11.611
 5980.00    1.33277   1.34926   11.584
 5981.00    1.34515   1.34462   11.593
 5982.00    1.35607   1.34121   11.513
 5983.00    1.36804   1.33765   11.365
 5984.00    1.38533   1.33488   11.231
 5985.00    1.41258   1.33289   11.176
 5986.00    1.44192   1.32980   11.232
 5987.00    1.44871   1.32821   11.379
 5988.00    1.42314   1.32884   11.462
 5989.00    1.38606   1.32904   11.213
 5990.00    1.36092   1.33062   10.717
 5991.00    1.35723   1.33484   10.415
 5992.00    1.37223   1.33910   10.428
 5993.00    1.39394   1.34244   10.464
 5994.00    1.40921   1.34619   10.355
 5995.00    1.40939   1.34989   10.235
 5996.00    1.39793   1.35130   10.223
 5997.00    1.38842   1.35133   10.324
 5998.00    1.38675   1.35123   10.491
 5999.00    1.38669   1.34944   10.673
 6000.00    1.37799   1.34678   10.919
 6001.00    1.35454   1.34423   11.318
 6002.00    1.32946   1.34125   11.683
 6003.00    1.32702   1.33897   11.620
 6004.00    1.35065   1.33640   11.226
 6005.00    1.38215   1.33329   10.945
 6006.00    1.40034   1.33150   10.906
 6007.00    1.39144   1.32865   10.980
 6008.00    1.36065   1.32524   11.035
 6009.00    1.32450   1.32362   11.013
 6010.00    1.29245   1.32117   10.995
 6011.00    1.26869   1.31926   11.064
 6012.00    1.26086   1.31931   11.079
 6013.00    1.27322   1.31890   10.898
 6014.00    1.29503   1.31889   10.759
 6015.00    1.31189   1.31891   10.922
 6016.00    1.32287   1.31848   11.218
 6017.00    1.33244   1.31850   11.323
 6018.00    1.33844   1.31675   11.252
 6019.00    1.33560   1.31468   11.154
 6020.00    1.32176   1.31451   10.999
 6021.00    1.30437   1.31325   10.747
 6022.00    1.30370   1.31163   10.514
 6023.00    1.32732   1.31246   10.410
 6024.00    1.35120   1.31447   10.434
 6025.00    1.35209   1.31656   10.595
 6026.00    1.33303   1.31975   10.970
 6027.00    1.31194   1.32554   11.474
 6028.00    1.30889   1.33182   11.689
 6029.00    1.32534   1.33700   11.516
 6030.00    1.33774   1.34407   11.510
 6031.00    1.33538   1.35162   11.881
 6032.00    1.33675   1.35698   12.115
 6033.00    1.36022   1.36256   11.925
 6034.00    1.40763   1.36843   11.716
 6035.00    1.46138   1.37251   11.696
 6036.00    1.49128   1.37560   11.660
 6037.00    1.48569   1.37853   11.567
 6038.00    1.45872   1.38025   11.633
 6039.00    1.42918   1.38086   11.833
 6040.00    1.41015   1.38127   11.863
 6041.00    1.40196   1.38079   11.681
 6042.00    1.39527   1.38021   11.539
 6043.00    1.38660   1.38034   11.502
 6044.00    1.37998   1.37998   11.446
 6045.00    1.37911   1.38054   11.341
 6046.00    1.38378   1.38252   11.254
 6047.00    1.38665   1.38382   11.171
 6048.00    1.37848   1.38543   11.056
 6049.00    1.36017   1.38791   11.020
 6050.00    1.34071   1.38903   11.163
 6051.00    1.32858   1.38890   11.216
 6052.00    1.32612   1.38866   10.868
 6053.00    1.32384   1.38720   10.416
 6054.00    1.31193   1.38399   10.282
 6055.00    1.29827   1.38021   10.444
 6056.00    1.29735   1.37651   10.713
 6057.00    1.31198   1.37247   11.089
 6058.00    1.33533   1.36826   11.585
 6059.00    1.35692   1.36541   11.884
 6060.00    1.37116   1.36364   11.732
 6061.00    1.38475   1.36164   11.482
 6062.00    1.40582   1.36051   11.452
 6063.00    1.43271   1.36005   11.413
 6064.00    1.45510   1.35818   11.203
 6065.00    1.45795   1.35681   11.184
 6066.00    1.43797   1.35683   11.589
 6067.00    1.41327   1.35569   12.069
 6068.00    1.39975   1.35657   12.193
 6069.00    1.39538   1.36102   12.012
 6070.00    1.39032   1.36498   11.753
 6071.00    1.37576   1.37048   11.532
 6072.00    1.35332   1.37828   11.359
 6073.00    1.33756   1.38437   11.189
 6074.00    1.34226   1.38898   11.052
 6075.00    1.37136   1.39257   11.067
 6076.00    1.41118   1.39363   11.266
 6077.00    1.43426   1.39173   11.527
 6078.00    1.42849   1.38767   11.666
 6079.00    1.40472   1.38271   11.554
 6080.00    1.38002   1.37545   11.347
 6081.00    1.36924   1.36708   11.325
 6082.00    1.37874   1.36089   11.284
 6083.00    1.40408   1.35410   10.703
 6084.00    1.42978   1.34698    9.735
 6085.00    1.43495   1.34370    8.925
 6086.00    1.40798   1.34110    8.488
 6087.00    1.35330   1.33781    8.430
 6088.00    1.29748   1.33706    8.724
 6089.00    1.27414   1.33688    9.313
 6090.00    1.29066   1.33610   10.054
 6091.00    1.32874   1.33600   10.680
 6092.00    1.35941   1.33555   10.951
 6093.00    1.35883   1.33596   10.883
 6094.00    1.32920   1.33728   10.840
 6095.00    1.29163   1.33756   11.131
 6096.00    1.26968   1.33938   11.500
 6097.00    1.27798   1.34282   11.526
 6098.00    1.31086   1.34390   11.460
 6099.00    1.34938   1.34467   11.701
 6100.00    1.37285   1.34622   12.049
 6101.00    1.37380   1.34380   12.127
 6102.00    1.37089   1.33967   12.025
 6103.00    1.38759   1.33711   11.842
 6104.00    1.43017   1.33123   11.235
 6105.00    1.48743   1.32544   10.165
 6106.00    1.53364   1.32473    9.157
 6107.00    1.54114   1.32304    8.531
 6108.00    1.49317   1.32302    8.299
 6109.00    1.40568   1.32841    8.429
 6110.00    1.33360   1.33268    8.911
 6111.00    1.31604   1.33762    9.620
 6112.00    1.34498   1.34448   10.152
 6113.00    1.38979   1.34870   10.253
 6114.00    1.41711   1.35275   10.225
 6115.00    1.41475   1.35627   10.369
 6116.00    1.39763   1.35714   10.701
 6117.00    1.38099   1.35757   11.108
 6118.00    1.36856   1.35558   11.434
 6119.00    1.35593   1.35199   11.650
 6120.00    1.33602   1.34828   11.890
 6121.00    1.31222   1.34080   12.155
 6122.00    1.29727   1.33394   12.274
 6123.00    1.29398   1.32926   12.249
 6124.00    1.29293   1.32152   12.247
 6125.00    1.28448   1.31721   12.208
 6126.00    1.26516   1.31744   11.936
 6127.00    1.24421   1.31538   11.594
 6128.00    1.23725   1.31656   11.510
 6129.00    1.24797   1.32148   11.643
 6130.00    1.26968   1.32348   11.712
 6131.00    1.29733   1.32585   11.670
 6132.00    1.32793   1.32932   11.579
 6133.00    1.35669   1.32911   11.209
 6134.00    1.38072   1.32672   10.386
 6135.00    1.40582   1.32322    9.479
 6136.00    1.43637   1.31587    8.880
 6137.00    1.45960   1.30725    8.679
 6138.00    1.45735   1.29916    8.858
 6139.00    1.42531   1.29020    9.384
 6140.00    1.37689   1.28448   10.155
 6141.00    1.34328   1.28354   10.902
 6142.00    1.35216   1.28510   11.328
 6143.00    1.40508   1.29011   11.475
 6144.00    1.48199   1.29857   -2.000
 6145.00    1.55131   1.30860   -2.000
 6146.00    1.60249   1.31781   -2.000
 6147.00    1.66729   1.32537   -2.000
 6148.00    1.76617   1.33226   -2.000
 6149.00    1.86730   1.33656   -2.000
 6150.00    1.90637   1.33753   -2.000
 6151.00    1.81524   1.33743   -2.000
 6152.00    1.60156   1.33636   -2.000
 6153.00    1.37694   1.33343   -2.000
 6154.00    1.23477   1.33010   -2.000
 6155.00    1.18524   1.32751   -2.000
 6156.00    1.18833   1.32329    8.962
 6157.00    1.18545   1.31764    9.023
 6158.00    1.15702   1.31251    9.525
 6159.00    1.13348   1.30454   10.355
 6160.00    1.13510   1.29312   11.240
 6161.00    1.15304   1.28181   11.937
 6162.00    1.17253   1.26903   12.195
 6163.00    1.18236   1.25415   11.932
 6164.00    1.17682   1.24145   11.584
 6165.00    1.15890   1.23143   11.716
 6166.00    1.14746   1.22390   12.163
 6167.00    1.16560   1.22047   12.142
 6168.00    1.20626   1.21953   11.549
 6169.00    1.24074   1.22191   10.979
 6170.00    1.25866   1.22733   10.767
 6171.00    1.26819   1.23125   10.969
 6172.00    1.27708   1.23600   11.446
 6173.00    1.28759   1.24373   11.889
 6174.00    1.29515   1.24973   11.984
 6175.00    1.29730   1.25486   11.623
 6176.00    1.30762   1.26272   11.036
 6177.00    1.33547   1.27069   10.518
 6178.00    1.35467   1.27664   10.174
 6179.00    1.33388   1.28284   10.052
 6180.00    1.28190   1.29010   10.276
 6181.00    1.22963   1.29554   10.909
 6182.00    1.20084   1.29895   11.675
 6183.00    1.20451   1.30331   12.154
 6184.00    1.23109   1.30632   12.373
 6185.00    1.26152   1.30590   12.543
 6186.00    1.27781   1.30514   12.575
 6187.00    1.27497   1.30277   12.364
 6188.00    1.26833   1.29711   12.060
 6189.00    1.27402   1.29089   11.807
 6190.00    1.29356   1.28318   11.581
 6191.00    1.31695   1.27518   11.410
 6192.00    1.32769   1.26948   11.454
 6193.00    1.31637   1.26326   11.666
 6194.00    1.28831   1.26001   11.653
 6195.00    1.25954   1.26179   11.286
 6196.00    1.25057   1.26341   10.945
 6197.00    1.26856   1.26727   10.903
 6198.00    1.30101   1.27394   11.159
 6199.00    1.32776   1.27925   11.584
 6200.00    1.33175   1.28438   11.927
 6201.00    1.31828   1.28898   11.860
 6202.00    1.31305   1.29213   11.251
 6203.00    1.32776   1.29547   10.586
 6204.00    1.35341   1.29840   10.492
 6205.00    1.37977   1.30107   10.944
 6206.00    1.40323   1.30420   11.290
 6207.00    1.42970   1.30695   10.892
 6208.00    1.46741   1.30915    9.769
 6209.00    1.50711   1.30985    8.566
 6210.00    1.52828   1.30877    7.746
 6211.00    1.52500   1.30621    7.281
 6212.00    1.50391   1.30048    7.068
 6213.00    1.46777   1.29277    7.259
 6214.00    1.42014   1.28434    8.135
 6215.00    1.37962   1.27344    9.634
 6216.00    1.36168   1.26291   11.000
 6217.00    1.34607   1.25406   11.701
 6218.00    1.30216   1.24496   12.079
 6219.00    1.23352   1.23883   12.376
 6220.00    1.16771   1.23566   12.527
 6221.00    1.13290   1.23309   12.396
 6222.00    1.14156   1.23320   12.028
 6223.00    1.17654   1.23500   11.782
 6224.00    1.21342   1.23717   11.858
 6225.00    1.24512   1.24011   11.945
 6226.00    1.27038   1.24223   11.797
 6227.00    1.28141   1.24429   11.786
 6228.00    1.27629   1.24543   12.195
 6229.00    1.26861   1.24363   12.642
 6230.00    1.27205   1.24191   12.643
 6231.00    1.28752   1.23978   12.286
 6232.00    1.30306   1.23520   11.914
 6233.00    1.29790   1.23284   11.760
 6234.00    1.26435   1.23282   11.850
 6235.00    1.21815   1.23219   12.006
 6236.00    1.17921   1.23447   12.137
 6237.00    1.15967   1.23882   12.364
 6238.00    1.16124   1.24145   12.688
 6239.00    1.17602   1.24356   12.853
 6240.00    1.19505   1.24518   12.717
 6241.00    1.21200   1.24386   12.420
 6242.00    1.22189   1.23956   12.131
 6243.00    1.22187   1.23598   11.951
 6244.00    1.21584   1.23182   11.912
 6245.00    1.21280   1.22562   11.991
 6246.00    1.21640   1.22319   12.089
 6247.00    1.22437   1.22274   12.085
 6248.00    1.23659   1.22112   12.050
 6249.00    1.25480   1.22311   12.163
 6250.00    1.27573   1.22625   12.353
 6251.00    1.29031   1.22671   12.404
 6252.00    1.28620   1.22780   12.461
 6253.00    1.25633   1.22770   12.825
 6254.00    1.21420   1.22379   13.247
 6255.00    1.18176   1.21918   13.187
 6256.00    1.16177   1.21387   12.877
 6257.00    1.14443   1.20708   12.890
 6258.00    1.12680   1.20161   13.231
 6259.00    1.11464   1.19849   13.546
 6260.00    1.11962   1.19652   13.600
 6261.00    1.14751   1.19783   13.406
 6262.00    1.18434   1.20335   13.201
 6263.00    1.21394   1.20944   13.135
 6264.00    1.23970   1.21710   13.013
 6265.00    1.26960   1.22740   12.598
 6266.00    1.29810   1.23619   11.963
 6267.00    1.31224   1.24319   11.414
 6268.00    1.30074   1.25033   11.329
 6269.00    1.26682   1.25598   11.768
 6270.00    1.23542   1.25933   12.168
 6271.00    1.22687   1.26241   12.062
 6272.00    1.23717   1.26537   11.854
 6273.00    1.24837   1.26724   11.953
 6274.00    1.24022   1.26943   12.255
 6275.00    1.21148   1.27180   12.489
 6276.00    1.18673   1.27307   12.497
 6277.00    1.18134   1.27445   12.404
 6278.00    1.18576   1.27543   12.576
 6279.00    1.18826   1.27466   13.077
 6280.00    1.18707   1.27409    0.000
 6281.00    1.19031   1.27335    0.000
 6282.00    1.21030   1.27151    0.000
 6283.00    1.24198   1.27124    0.000
 6284.00    1.26318   1.27170    0.000
 6285.00    1.26629   1.27273    0.000
 6286.00    1.26376   1.27601    0.000
 6287.00    1.26857   1.27948    0.000
 6288.00    1.28582   1.28370    0.000
 6289.00    1.30801   1.28843    0.000
 6290.00    1.31944   1.29175    0.000
 6291.00    1.31056   1.29471    0.000
 6292.00    1.28314   1.29582    0.000
 6293.00    1.25306   1.29509    0.000
 6294.00    1.23945   1.29359    0.000
 6295.00    1.24203   1.28966    0.000
 6296.00    1.24752   1.28499    0.000
 6297.00    1.24993   1.28018    0.000
 6298.00    1.24911   1.27404    0.000
 6299.00    1.24253   1.26834    0.000
 6300.00    1.23010   1.26310    0.000
 6301.00    1.22257   1.25833    0.000
 6302.00    1.23234   1.25523    0.000
 6303.00    1.25972   1.25307    0.000
 6304.00    1.29160   1.25220    0.000
 6305.00    1.30399   1.25379    0.000
 6306.00    1.28420   1.25698    0.000
 6307.00    1.25170   1.26075    0.000
 6308.00    1.23211   1.26552    0.000
 6309.00    1.23081   1.27090    0.000
 6310.00    1.24000   1.27514    0.000
 6311.00    1.24766   1.27799    0.000
 6312.00    1.24487   1.27965    0.000
 6313.00    1.23090   1.27877    0.000
 6314.00    1.21298   1.27561    0.000
 6315.00    1.20285   1.27210    0.000
 6316.00    1.19866   1.26685    0.000
 6317.00    1.18024   1.25976    0.000
 6318.00    1.14593   1.25499    0.000
 6319.00    1.12441   1.25111    0.000
 6320.00    1.12899   1.24677    0.000
 6321.00    1.14158   1.24594   11.733
 6322.00    1.14646   1.24761   11.865
 6323.00    1.14440   1.25034   11.899
 6324.00    1.14586   1.25529   11.829
 6325.00    1.16390   1.26164   11.869
 6326.00    1.20014   1.26847   12.076
 6327.00    1.24237   1.27560   12.305
 6328.00    1.27349   1.28240   12.520
 6329.00    1.27955   1.28741   12.811
 6330.00    1.26365   1.29176   13.037
 6331.00    1.24290   1.29529   12.942
 6332.00    1.23042   1.29605   12.801
 6333.00    1.23017   1.29587   13.111
 6334.00    1.23628   1.29424   13.629
 6335.00    1.23804   1.29076   13.624
 6336.00    1.23034   1.28723   13.265
 6337.00    1.21741   1.28215   13.182
 6338.00    1.21506   1.27664   13.187
 6339.00    1.23559   1.27315   12.634
 6340.00    1.26382   1.26984   11.423
 6341.00    1.27734   1.26688   10.067
 6342.00    1.28085   1.26607    9.171
 6343.00    1.29068   1.26577    8.938
 6344.00    1.30838   1.26610    9.140
 6345.00    1.32724   1.26714    9.464
 6346.00    1.34383   1.26756    9.812
 6347.00    1.35687   1.26941   10.165
 6348.00    1.36471   1.27182   10.358
 6349.00    1.36675   1.27347   10.324
 6350.00    1.36451   1.27653   10.330
 6351.00    1.35826   1.27965   10.619
 6352.00    1.34421   1.28172   11.127
 6353.00    1.31698   1.28329   11.676
 6354.00    1.27348   1.28308   12.163
 6355.00    1.22581   1.28148   12.551
 6356.00    1.20423   1.27803   12.846
 6357.00    1.22089   1.27177   13.033
 6358.00    1.25229   1.26495   13.065
 6359.00    1.26983   1.25753   13.023
 6360.00    1.25866   1.24835   13.135
 6361.00    1.22178   1.23979   13.429
 6362.00    1.17822   1.23294   13.624
 6363.00    1.14750   1.22705   13.507
 6364.00    1.14100   1.22335   13.133
 6365.00    1.15645   1.22248   12.673
 6366.00    1.18007   1.22433   12.279
 6367.00    1.20158   1.22936   12.005
 6368.00    1.21935   1.23625   11.835
 6369.00    1.23880   1.24458   11.797
 6370.00    1.26560   1.25476   11.926
 6371.00    1.28844   1.26494   12.082
 6372.00    1.28758   1.27442   11.978
 6373.00    1.26820   1.28331   11.495
 6374.00    1.25563   1.29103   10.753
 6375.00    1.26487   1.29754    9.979
 6376.00    1.29147   1.30229    9.386
 6377.00    1.30862   1.30509    9.152
 6378.00    1.29076   1.30697    9.406
 6379.00    1.25573   1.30762   10.166
 6380.00    1.23900   1.30643   11.301
 6381.00    1.24019   1.30506   12.376
 6382.00    1.23855   1.30367   12.817
 6383.00    1.22816   1.30161   12.751
 6384.00    1.21571   1.30060   12.632
 6385.00    1.21049   1.30029   12.366
 6386.00    1.21902   1.29992   11.838
 6387.00    1.24042   1.30055   11.479
 6388.00    1.26760   1.30145   11.608
 6389.00    1.29016   1.30192   11.967
 6390.00    1.30406   1.30210   12.187
 6391.00    1.31877   1.30131   12.298
 6392.00    1.34019   1.29912   12.224
 6393.00    1.35667   1.29665   11.435
 6394.00    1.34893   1.29364   10.142
 6395.00    1.30168   1.28922    9.263
 6396.00    1.22536   1.28570    9.017
 6397.00    1.16352   1.28352    8.983
 6398.00    1.14797   1.28083    8.981
 6399.00    1.17299   1.27879    9.385
 6400.00    1.21076   1.27887   10.356
 6401.00    1.22733   1.27892   11.251
 6402.00    1.21379   1.27860   11.325
 6403.00    1.19443   1.28043   10.800
 6404.00    1.19430   1.28238   10.191
 6405.00    1.22297   1.28421    9.761
 6406.00    1.27011   1.28677    9.605
 6407.00    1.31109   1.28780    9.747
 6408.00    1.33201   1.28953   10.193
 6409.00    1.33561   1.29049   10.906
 6410.00    1.33098   1.28833   11.677
 6411.00    1.32697   1.28769   12.121
 6412.00    1.32359   1.28709   12.170
 6413.00    1.31396   1.28441   12.161
 6414.00    1.29527   1.28323   12.302
 6415.00    1.27041   1.28275   12.513
 6416.00    1.24500   1.28199   12.365
 6417.00    1.22552   1.28217   11.519
 6418.00    1.21698   1.28197   10.446
 6419.00    1.21952   1.28146    9.721
 6420.00    1.22371   1.28161    9.450
 6421.00    1.22098   1.28136    9.567
 6422.00    1.22089   1.28114   10.018
 6423.00    1.23778   1.28184   10.721
 6424.00    1.26776   1.28346   11.443
 6425.00    1.29594   1.28635   11.897
 6426.00    1.31059   1.28973   12.102
 6427.00    1.30897   1.29326   12.234
 6428.00    1.30084   1.29668   12.262
 6429.00    1.29550   1.29897   12.175
 6430.00    1.28855   1.30014   12.236
 6431.00    1.27192   1.30007   12.620
 6432.00    1.24475   1.29816   13.072
 6433.00    1.21496   1.29583   13.271
 6434.00    1.19763   1.29397   13.284
 6435.00    1.19880   1.29187   13.252
 6436.00    1.20552   1.29083   13.105
 6437.00    1.20431   1.29031   12.858
 6438.00    1.19383   1.29004   12.738
 6439.00    1.18129   1.29194   12.828
 6440.00    1.17815   1.29348   12.911
 6441.00    1.19126   1.29466   12.792
 6442.00    1.21876   1.29804   12.477
 6443.00    1.25353   1.30150   12.049
 6444.00    1.28585   1.30495   11.581
 6445.00    1.30657   1.30855   11.102
 6446.00    1.31023   1.31068   10.644
 6447.00    1.30129   1.31215   10.416
 6448.00    1.29211   1.31112   10.706
 6449.00    1.28736   1.30706   11.421
 6450.00    1.28078   1.30249   11.973
 6451.00    1.26307   1.29560   12.159
 6452.00    1.22844   1.28804   12.414
 6453.00    1.18504   1.28273   12.814
 6454.00    1.15120   1.27805   12.997
 6455.00    1.13820   1.27591   12.985
 6456.00    1.14656   1.27640   13.154
 6457.00    1.16790   1.27787   13.505
 6458.00    1.19123   1.28167   13.724
 6459.00    1.21436   1.28615   13.730
 6460.00    1.24107   1.28978   13.653
 6461.00    1.27165   1.29254   13.516
 6462.00    1.30104   1.29439   13.311
 6463.00    1.31916   1.29555   13.217
 6464.00    1.32108   1.29494   13.335
 6465.00    1.32055   1.29420   13.308
 6466.00    1.33256   1.29430   12.810
 6467.00    1.34929   1.29430   12.209
 6468.00    1.35538   1.29527   11.921
 6469.00    1.34913   1.29661   11.908
 6470.00    1.33961   1.29804   11.947
 6471.00    1.33974   1.30037   11.870
 6472.00    1.35302   1.30244   11.676
 6473.00    1.36392   1.30300   11.565
 6474.00    1.35873   1.30342   11.641
 6475.00    1.34251   1.30423   11.727
 6476.00    1.32560   1.30389   11.714
 6477.00    1.31244   1.30314   11.811
 6478.00    1.30358   1.30255   12.160
 6479.00    1.29794   1.30166   12.581
 6480.00    1.29522   1.30020   12.869
 6481.00    1.29648   1.29794   13.035
 6482.00    1.29906   1.29521   13.195
 6483.00    1.29552   1.29220   13.433
 6484.00    1.28196   1.28910   13.637
 6485.00    1.26130   1.28603   13.523
 6486.00    1.23885   1.28355   13.217
 6487.00    1.21995   1.28200   13.220
 6488.00    1.20853   1.28025   13.536
 6489.00    1.20585   1.27786   13.598
 6490.00    1.20786   1.27507   13.251
 6491.00    1.20773   1.27078   12.923
 6492.00    1.20649   1.26355   12.821
 6493.00    1.21196   1.25314   12.845
 6494.00    1.22634   1.24113   12.825
 6495.00    1.24278   1.22764   12.637
 6496.00    1.24600   1.21261   12.342
 6497.00    1.22159   1.19942   12.115
 6498.00    1.17580   1.18853   12.053
 6499.00    1.13065   1.18168   12.173
 6500.00    1.10484   1.18016   12.433
 6501.00    1.10808   1.18158   12.721
 6502.00    1.13826   1.18848   12.830
 6503.00    1.18401   1.19953   12.650
 6504.00    1.23007   1.21184   12.456
 6505.00    1.26381   1.22593   12.552
 6506.00    1.28315   1.23912   12.817
 6507.00    1.29238   1.25120   12.965
 6508.00    1.29527   1.26223   12.994
 6509.00    1.29411   1.27073   13.033
 6510.00    1.28960   1.27710   13.068
 6511.00    1.28128   1.28169   13.050
 6512.00    1.26796   1.28472   13.047
 6513.00    1.24868   1.28650   13.118
 6514.00    1.22382   1.28679   13.201
 6515.00    1.19767   1.28603   13.204
 6516.00    1.17989   1.28476   13.095
 6517.00    1.17955   1.28277   12.883
 6518.00    1.19947   1.28052   12.601
 6519.00    1.22906   1.27861   12.353
 6520.00    1.24434   1.27678   12.297
 6521.00    1.23764   1.27586   12.416
 6522.00    1.22958   1.27599   12.444
 6523.00    1.23396   1.27672   12.318
 6524.00    1.24220   1.27869   12.320
 6525.00    1.24550   1.28036   12.537
 6526.00    1.24483   1.28179   12.703
 6527.00    1.24426   1.28387   12.711
 6528.00    1.24739   1.28482    0.000
 6529.00    1.25596   1.28475    0.000
 6530.00    1.26954   1.28439    0.000
 6531.00    1.28630   1.28365    0.000
 6532.00    1.30365   1.28313    0.000
 6533.00    1.31943   1.28248    0.000
 6534.00    1.33100   1.28182    0.000
 6535.00    1.33189   1.28206    0.000
 6536.00    1.31588   1.28285    0.000
 6537.00    1.28917   1.28410    0.000
 6538.00    1.26771   1.28575    0.000
 6539.00    1.26437   1.28711    0.000
 6540.00    1.28284   1.28823    0.000
 6541.00    1.31207   1.28920    0.000
 6542.00    1.33326   1.28943    0.000
 6543.00    1.33442   1.28830    0.000
 6544.00    1.31457   1.28554    0.000
 6545.00    1.28563   1.28130    0.000
 6546.00    1.26528   1.27691    0.000
 6547.00    1.26571   1.27201    0.000
 6548.00    1.28755   1.26590    0.000
 6549.00    1.31512   1.26039    0.000
 6550.00    1.33188   1.25529    0.000
 6551.00    1.33803   1.25080    0.000
 6552.00    1.33931   1.24666    0.000
 6553.00    1.33355   1.24124    0.000
 6554.00    1.31588   1.23601    0.000
 6555.00    1.28497   1.23042    0.000
 6556.00    1.24518   1.22287    0.000
 6557.00    1.20724   1.21346    0.000
 6558.00    1.18353   1.20205    0.000
 6559.00    1.18274   1.18890    0.000
 6560.00    1.19774   1.17380    0.000
 6561.00    1.20336   1.15549    0.000
 6562.00    1.19197   1.13615    0.000
 6563.00    1.18929   1.11927    0.000
 6564.00    1.21942   1.10282    0.000
 6565.00    1.28376   1.08935    0.000
 6566.00    1.35621   1.08325    0.000
 6567.00    1.39252   1.08307    0.000
 6568.00    1.37775   1.08997    0.000
 6569.00    1.33617   1.10105    0.000
 6570.00    1.28712   1.11479    0.000
 6571.00    1.23328   1.13406    0.000
 6572.00    1.18263   1.15306    0.000
 6573.00    1.15070   1.16819    0.000
 6574.00    1.14272   1.18127    0.000
 6575.00    1.15228   1.19227    0.000
 6576.00    1.17351   1.20070    0.000
 6577.00    1.20218   1.20799    0.000
 6578.00    1.22976   1.21522    0.000
 6579.00    1.24745   1.22140    0.000
 6580.00    1.25817   1.22724    0.000
 6581.00    1.27177   1.23328    0.000
 6582.00    1.29018   1.23847    0.000
 6583.00    1.30946   1.24338    0.000
 6584.00    1.32870   1.24791    0.000
 6585.00    1.35056   1.25114    0.000
 6586.00    1.37910   1.25395    0.000
 6587.00    1.41461   1.25620    0.000
 6588.00    1.44697   1.25709    0.000
 6589.00    1.45931   1.25817    0.000
 6590.00    1.43498   1.25830    0.000
 6591.00    1.37139   1.25658    0.000
 6592.00    1.29360   1.25401    0.000
 6593.00    1.23599   1.25033    0.000
 6594.00    1.22015   1.24631    0.000
 6595.00    1.23927   1.24191    0.000
 6596.00    1.25081   1.23790    0.000
 6597.00    1.22405   1.23534    0.000
 6598.00    1.17681   1.23444    0.000
 6599.00    1.14291   1.23529    0.000
 6600.00    1.14402   1.23687    0.000
 6601.00    1.18143   1.24028    0.000
 6602.00    1.23450   1.24512    0.000
 6603.00    1.27820   1.24902    0.000
 6604.00    1.29586   1.25206    0.000
 6605.00    1.28907   1.25394    0.000
 6606.00    1.27713   1.25435    0.000
 6607.00    1.26992   1.25385    0.000
 6608.00    1.25965   1.25215    0.000
 6609.00    1.24406   1.24991   12.799
 6610.00    1.23349   1.24796   12.669
 6611.00    1.23759   1.24620   12.761
 6612.00    1.25704   1.24566   12.650
 6613.00    1.27433   1.24669   12.374
 6614.00    1.26260   1.24932   12.415
 6615.00    1.22226   1.25275   12.855
 6616.00    1.18085   1.25622   13.293
 6617.00    1.16049   1.26073   13.335
 6618.00    1.16872   1.26530   12.932
 6619.00    1.19988   1.26909   12.514
 6620.00    1.24054   1.27175   12.514
 6621.00    1.28066   1.27310   12.701
 6622.00    1.31224   1.27404   12.548
 6623.00    1.32212   1.27363   12.290
 6624.00    1.30133   1.27176   12.470
 6625.00    1.26341   1.26943   12.928
 6626.00    1.23305   1.26608   13.124
 6627.00    1.22232   1.26235   13.111
 6628.00    1.22655   1.25880   13.260
 6629.00    1.22526   1.25489   13.506
 6630.00    1.20411   1.25142   13.570
 6631.00    1.18084   1.24779   13.425
 6632.00    1.17743   1.24393   13.212
 6633.00    1.18568   1.24096   13.039
 6634.00    1.18712   1.23820   12.964
 6635.00    1.17763   1.23553   13.001
 6636.00    1.16567   1.23352   13.048
 6637.00    1.16671   1.23240   12.839
 6638.00    1.18752   1.23232   12.368
 6639.00    1.21560   1.23337   12.062
 6640.00    1.23718   1.23494   12.117
 6641.00    1.25013   1.23648   12.226
 6642.00    1.25443   1.23804   12.218
 6643.00    1.24675   1.23975   12.417
 6644.00    1.23023   1.24104   12.936
 6645.00    1.21808   1.24144   13.282
 6646.00    1.21922   1.24152   13.188
 6647.00    1.23117   1.24149   13.086
 6648.00    1.24473   1.24207   13.192
 6649.00    1.24842   1.24304   13.235
 6650.00    1.23658   1.24333   13.201
 6651.00    1.21187   1.24409   13.464
 6652.00    1.18105   1.24545   13.878
 6653.00    1.15334   1.24654   13.878
 6654.00    1.14060   1.24737   13.761
 6655.00    1.15229   1.24756   13.252
 6656.00    1.18021   1.24759   12.911
 6657.00    1.20245   1.24752   12.745
 6658.00    1.20727   1.24656   12.705
 6659.00    1.19738   1.24510   12.693
 6660.00    1.18349   1.24311   12.456
 6661.00    1.17895   1.24045   11.736
 6662.00    1.19176   1.23717   10.595
 6663.00    1.22081   1.23357    9.373
 6664.00    1.25241   1.22989    8.444
 6665.00    1.26744   1.22598    7.965
 6666.00    1.25558   1.22297    7.822
 6667.00    1.22258   1.22064    7.829
 6668.00    1.19620   1.21965    7.855
 6669.00    1.19836   1.22040    7.874
 6670.00    1.20663   1.22151    8.013
 6671.00    1.19052   1.22397    8.417
 6672.00    1.16305   1.22729    9.045
 6673.00    1.15361   1.23047    9.733
 6674.00    1.16949   1.23321   10.391
 6675.00    1.20100   1.23467   10.949
 6676.00    1.23190   1.23483   11.204
 6677.00    1.24681   1.23376   11.095
 6678.00    1.23786   1.23193   10.933
 6679.00    1.21052   1.22907   11.025
 6680.00    1.18524   1.22545   11.409
 6681.00    1.17566   1.22272   11.916
 6682.00    1.17500   1.22085   12.183
 6683.00    1.17694   1.22061   12.072
 6684.00    1.18754   1.22171   11.931
 6685.00    1.20766   1.22306   12.012
 6686.00    1.22512   1.22614   12.209
 6687.00    1.23320   1.22970   12.310
 6688.00    1.23827   1.23299   12.199
 6689.00    1.24592   1.23592   12.071
 6690.00    1.25536   1.23788   12.331
 6691.00    1.26600   1.23949   12.915
 6692.00    1.27856   1.24016   13.119
 6693.00    1.28769   1.24002   12.778
 6694.00    1.28222   1.23904   12.463
 6695.00    1.25591   1.23708   12.027
 6696.00    1.21559   1.23500    0.000
 6697.00    1.19335   1.23254    0.000
 6698.00    1.22895   1.22978    0.000
 6699.00    1.31220   1.22750    0.000
 6700.00    1.38909   1.22534    0.000
 6701.00    1.41706   1.22400    0.000
 6702.00    1.38222   1.22353    0.000
 6703.00    1.30535   1.22310    0.000
 6704.00    1.23144   1.22349    0.000
 6705.00    1.20596   1.22397    0.000
 6706.00    1.25019   1.22418    0.000
 6707.00    1.32832   1.22450    0.000
 6708.00    1.37976   1.22448    0.000
 6709.00    1.37922   1.22411    0.000
 6710.00    1.33437   1.22352    0.000
 6711.00    1.26762   1.22234    0.000
 6712.00    1.20066   1.22033    0.000
 6713.00    1.13913   1.21812    0.000
 6714.00    1.08930   1.21487    0.000
 6715.00    1.07689   1.21099    0.000
 6716.00    1.11870   1.20693    0.000
 6717.00    1.19293   1.20241    0.000
 6718.00    1.25838   1.19876    0.000
 6719.00    1.27813   1.19555    0.000
 6720.00    1.24583   1.19327    0.000
 6721.00    1.20107   1.19269    0.000
 6722.00    1.18921   1.19345    0.000
 6723.00    1.22863   1.19578    0.000
 6724.00    1.30140   1.19856    0.000
 6725.00    1.35650   1.20171    0.000
 6726.00    1.35884   1.20549    0.000
 6727.00    1.31630   1.20914    0.000
 6728.00    1.26286   1.21229    0.000
 6729.00    1.23931   1.21489    0.000
 6730.00    1.24943   1.21698    0.000
 6731.00    1.25418   1.21896    0.000
 6732.00    1.23742   1.22055    0.000
 6733.00    1.22321   1.22155    0.000
 6734.00    1.22956   1.22230    0.000
 6735.00    1.25596   1.22253    0.000
 6736.00    1.30410   1.22220    0.000
 6737.00    1.37442   1.22125    0.000
 6738.00    1.43326   1.22000    0.000
 6739.00    1.42977   1.21835    0.000
 6740.00    1.36933   1.21635    0.000
 6741.00    1.30326   1.21396    0.000
 6742.00    1.25338   1.21136    0.000
 6743.00    1.21128   1.20933    0.000
 6744.00    1.17886   1.20738    0.000
 6745.00    1.16831   1.20545    0.000
 6746.00    1.18397   1.20366    0.000
 6747.00    1.22142   1.20186    0.000
 6748.00    1.27252   1.20068    0.000
 6749.00    1.32427   1.19945    0.000
 6750.00    1.35591   1.19820    0.000
 6751.00    1.34503   1.19730    0.000
 6752.00    1.27770   1.19641    0.000
 6753.00    1.16286   1.19661   11.222
 6754.00    1.04691   1.19716   10.559
 6755.00    0.98641   1.19846    9.243
 6756.00    1.01367   1.20097    8.122
 6757.00    1.12363   1.20360    7.554
 6758.00    1.26741   1.20760    7.350
 6759.00    1.38397   1.21187    7.400
 6760.00    1.43216   1.21592    7.940
 6761.00    1.40811   1.22007    9.211
 6762.00    1.35190   1.22342   10.782
 6763.00    1.30401   1.22601   11.642
 6764.00    1.27368   1.22746   11.796
 6765.00    1.25077   1.22763   11.919
 6766.00    1.21885   1.22660   12.276
 6767.00    1.17703   1.22492   12.694
 6768.00    1.14643   1.22263   12.651
 6769.00    1.13550   1.21973   11.971
 6770.00    1.12718   1.21691   11.087
 6771.00    1.10982   1.21473   10.338
 6772.00    1.09109   1.21358    9.783
 6773.00    1.09134   1.21370    9.317
 6774.00    1.13009   1.21460    8.836
 6775.00    1.18852   1.21642    8.563
 6776.00    1.21360   1.21943    8.906
 6777.00    1.18188   1.22292    9.910
 6778.00    1.11366   1.22661   10.921
 6779.00    1.04651   1.22945   10.895
 6780.00    1.01898   1.23137    9.649
 6781.00    1.05015   1.23215    8.296
 6782.00    1.13612   1.23145    7.594
 6783.00    1.25555   1.22964    7.431
 6784.00    1.37255   1.22638    7.516
 6785.00    1.44047   1.22234    7.928
 6786.00    1.42583   1.21798    8.993
 6787.00    1.35175   1.21387   10.550
 6788.00    1.27391   1.21053   11.548
 6789.00    1.22319   1.20827   11.725
 6790.00    1.20507   1.20717   11.874
 6791.00    1.21514   1.20686   11.889
 6792.00    1.24106   1.20730   11.345
 6793.00    1.26287   1.20797   10.812
 6794.00    1.26738   1.20885   10.843
 6795.00    1.26529   1.20969   11.109
 6796.00    1.27488   1.21032   11.050
 6797.00    1.30069   1.21063   10.761
 6798.00    1.32977   1.21083   10.550
 6799.00    1.33338   1.21152   10.400
 6800.00    1.29937   1.21213   10.198
 6801.00    1.25747   1.21320    9.944
 6802.00    1.23893   1.21432    9.713
 6803.00    1.24344   1.21532    9.607
 6804.00    1.25760   1.21675    9.672
 6805.00    1.27000   1.21771    9.868
 6806.00    1.26609   1.21833   10.153
 6807.00    1.22878   1.21877   10.506
 6808.00    1.16680   1.21854   10.672
 6809.00    1.12196   1.21833   10.171
 6810.00    1.11579   1.21806    9.241
 6811.00    1.12951   1.21722    8.644
 6812.00    1.14830   1.21670    8.597
 6813.00    1.17737   1.21611    8.891
 6814.00    1.21562   1.21542    9.347
 6815.00    1.24761   1.21557    9.916
 6816.00    1.25870   1.21565   10.478
 6817.00    1.24384   1.21584   10.804
 6818.00    1.21623   1.21640   10.892
 6819.00    1.20091   1.21695   10.993
 6820.00    1.20670   1.21841   11.086
 6821.00    1.22448   1.22011   10.927
 6822.00    1.24640   1.22138   10.652
 6823.00    1.26781   1.22275   10.633
 6824.00    1.27867   1.22392   10.887
 6825.00    1.27053   1.22535   11.143
 6826.00    1.25571   1.22661   11.239
 6827.00    1.25432   1.22702   11.229
 6828.00    1.26125   1.22710   11.305
 6829.00    1.25527   1.22676   11.614
 6830.00    1.22658   1.22631   11.958
 6831.00    1.18174   1.22563   11.983
 6832.00    1.14258   1.22462   11.722
 6833.00    1.13088   1.22398   11.431
 6834.00    1.14698   1.22360   11.202
 6835.00    1.17185   1.22303   10.995
 6836.00    1.17535   1.22189   10.745
 6837.00    1.14094   1.22016   10.503
 6838.00    1.09013   1.21797   10.531
 6839.00    1.05228   1.21531   10.879
 6840.00    1.03311   1.21161   10.955
 6841.00    1.03693   1.20716   10.344
 6842.00    1.08577   1.20287    9.611
 6843.00    1.18198   1.19883    9.245
 6844.00    1.28209   1.19593    9.246
 6845.00    1.34525   1.19399    9.476
 6846.00    1.36754   1.19350    9.793
 6847.00    1.35797   1.19486   10.150
 6848.00    1.32241   1.19723   10.682
 6849.00    1.27442   1.20034   11.409
 6850.00    1.23800   1.20350   11.990
 6851.00    1.22541   1.20629   12.134
 6852.00    1.22773   1.20869   11.991
 6853.00    1.22834   1.20996   11.809
 6854.00    1.21371   1.20986   11.717
 6855.00    1.18973   1.20888   11.775
 6856.00    1.17943   1.20696   11.991
 6857.00    1.18806   1.20436   12.196
 6858.00    1.19884   1.20138   12.096
 6859.00    1.20470   1.19797   11.680
 6860.00    1.21231   1.19543   11.226
 6861.00    1.22003   1.19388   10.894
 6862.00    1.21840   1.19269   10.706
 6863.00    1.20999   1.19228   10.685
 6864.00    1.20661   1.19201   10.840
 6865.00    1.20905   1.19220   11.055
 6866.00    1.20902   1.19322   11.153
 6867.00    1.20433   1.19435   11.186
 6868.00    1.20059   1.19553   11.312
 6869.00    1.20752   1.19588   11.401
 6870.00    1.23046   1.19549   11.223
 6871.00    1.25762   1.19508   10.939
 6872.00    1.27156   1.19483   10.836
 6873.00    1.27047   1.19515   10.894
 6874.00    1.26460   1.19541   10.934
 6875.00    1.26605   1.19538   10.853
 6876.00    1.28394   1.19561   10.608
 6877.00    1.31960   1.19654   10.153
 6878.00    1.36205   1.19804    9.568
 6879.00    1.38551   1.19947    9.104
 6880.00    1.37123   1.20051    8.928
 6881.00    1.32897   1.20147    9.019
 6882.00    1.28390   1.20255    9.262
 6883.00    1.26097   1.20326    9.482
 6884.00    1.26968   1.20377    9.557
 6885.00    1.29470   1.20408    9.534
 6886.00    1.31182   1.20481    9.553
 6887.00    1.30255   1.20629    9.755
 6888.00    1.26755   1.20846   10.126
 6889.00    1.23055   1.21117   10.409
 6890.00    1.21109   1.21381   10.434
 6891.00    1.20909   1.21696   10.365
 6892.00    1.21179   1.22030   10.368
 6893.00    1.20108   1.22337   10.447
 6894.00    1.16820   1.22589   10.555
 6895.00    1.12051   1.22768   10.655
 6896.00    1.08008   1.22882   10.797
 6897.00    1.07539   1.22935   11.077
 6898.00    1.11351   1.22965   11.333
 6899.00    1.17409   1.22942   11.168
 6900.00    1.22617   1.22922   10.643
 6901.00    1.24377   1.22931   10.211
 6902.00    1.23412   1.22939   10.037
 6903.00    1.22912   1.22964   10.017
 6904.00    1.23912   1.22986   10.004
 6905.00    1.25135   1.23055    9.905
 6906.00    1.25739   1.23178    9.809
 6907.00    1.25880   1.23258    9.855
 6908.00    1.26397   1.23323    9.912
 6909.00    1.27777   1.23374    9.764
 6910.00    1.28389   1.23394    9.612
 6911.00    1.26283   1.23402    9.763
 6912.00    1.22799   1.23319   10.042
 6913.00    1.20762   1.23186   10.068
 6914.00    1.20693   1.23024    9.961
 6915.00    1.21113   1.22811   10.050
 6916.00    1.19945   1.22586   10.288
 6917.00    1.16429   1.22391   10.447
 6918.00    1.13088   1.22214   10.480
 6919.00    1.13025   1.22133   10.426
 6920.00    1.16597   1.22115   10.237
 6921.00    1.21653   1.22077    9.954
 6922.00    1.24507   1.22125    9.835
 6923.00    1.23369   1.22149    9.992
 6924.00    1.20926   1.22162   10.152
 6925.00    1.19865   1.22148   10.141
 6926.00    1.19438   1.22057   10.283
 6927.00    1.18912   1.21956   10.640
 6928.00    1.19838   1.21782   10.511
 6929.00    1.22781   1.21646    9.806
 6930.00    1.25610   1.21549    9.504
 6931.00    1.27047   1.21517    9.916
 6932.00    1.28283   1.21509   10.315
 6933.00    1.29908   1.21514   10.170
 6934.00    1.30686   1.21572    9.971
 6935.00    1.29859   1.21624   10.087
 6936.00    1.28042   1.21720   10.377
 6937.00    1.26119   1.21781   10.623
 6938.00    1.24691   1.21902   10.726
 6939.00    1.23873   1.22045   10.693
 6940.00    1.23256   1.22125   10.603
 6941.00    1.22030   1.22178   10.549
 6942.00    1.19461   1.22171   10.593
 6943.00    1.16155   1.22164   10.687
 6944.00    1.13677   1.22107   10.717
 6945.00    1.12515   1.22004   10.700
 6946.00    1.12382   1.21849   10.730
 6947.00    1.14294   1.21651   10.707
 6948.00    1.19405   1.21477   10.451
 6949.00    1.25475   1.21302   10.069
 6950.00    1.28574   1.21214    9.802
 6951.00    1.27852   1.21194    9.712
 6952.00    1.25414   1.21156    9.720
 6953.00    1.24371   1.21145    9.678
 6954.00    1.26679   1.21150    9.506
 6955.00    1.30471   1.21144    9.344
 6956.00    1.32295   1.21212    9.379
 6957.00    1.30810   1.21311    9.618
 6958.00    1.26873   1.21438    9.922
 6959.00    1.22823   1.21622   10.063
 6960.00    1.20253   1.21853    9.965
 6961.00    1.17912   1.22112    9.939
 6962.00    1.15276   1.22355   10.196
 6963.00    1.15811   1.22607   10.406
 6964.00    1.20917   1.22839   10.253
 6965.00    1.25053   1.23066   10.049
 6966.00    1.23997   1.23262   10.078
 6967.00    1.21098   1.23410   10.145
 6968.00    1.20350   1.23531    9.997
 6969.00    1.21353   1.23582    9.647
 6970.00    1.22386   1.23591    9.245
 6971.00    1.22711   1.23603    8.930
 6972.00    1.22733   1.23581    8.724
 6973.00    1.23698   1.23441    8.546
 6974.00    1.25973   1.23190    8.408
 6975.00    1.28416   1.22822    8.441
 6976.00    1.29731   1.22410    8.657
 6977.00    1.29390   1.21971    8.880
 6978.00    1.28613   1.21429    9.021
 6979.00    1.29573   1.20907    9.182
 6980.00    1.31001   1.20440    9.442
 6981.00    1.28836   1.20102    9.777
 6982.00    1.24008   1.19888   10.134
 6983.00    1.22028   1.19881   10.435
 6984.00    1.23711   1.20178   10.501
 6985.00    1.25229   1.20600   10.198
 6986.00    1.25992   1.21092    9.785
 6987.00    1.28479   1.21626    9.621
 6988.00    1.32575   1.22127    9.594
 6989.00    1.35737   1.22587    9.366
 6990.00    1.36408   1.22967    9.020
 6991.00    1.34476   1.23250    8.848
 6992.00    1.30664   1.23436   -2.000
 6993.00    1.26314   1.23504   -2.000
 6994.00    1.23186   1.23537   -2.000
 6995.00    1.22808   1.23556   -2.000
 6996.00    1.25493   1.23519   -2.000
 6997.00    1.29637   1.23429   -2.000
 6998.00    1.31216   1.23259   -2.000
 6999.00    1.27527   1.23066   -2.000
 7000.00    1.21643   1.22862   -2.000
 7001.00    1.18387   1.22618   -2.000
 7002.00    1.19226   1.22345   -2.000
 7003.00    1.22885   1.22016   -2.000
 7004.00    1.26720   1.21713   -2.000
 7005.00    1.28554   1.21499   -2.000
 7006.00    1.28219   1.21351   -2.000
 7007.00    1.27269   1.21219   -2.000
 7008.00    1.28252   1.21093   -2.000
 7009.00    1.31643   1.21030   -2.000
 7010.00    1.34306   1.21016   -2.000
 7011.00    1.34039   1.21048   -2.000
 7012.00    1.32216   1.21073   -2.000
 7013.00    1.30979   1.21070   -2.000
 7014.00    1.31376   1.21015   -2.000
 7015.00    1.32854   1.20881   -2.000
 7016.00    1.33521   1.20762   -2.000
 7017.00    1.32371   1.20665   -2.000
 7018.00    1.30029   1.20558   -2.000
 7019.00    1.27339   1.20445   -2.000
 7020.00    1.24801   1.20313   -2.000
 7021.00    1.22792   1.20313   -2.000
 7022.00    1.21813   1.20447   -2.000
 7023.00    1.22964   1.20582   -2.000
 7024.00    1.27389   1.20726   -2.000
 7025.00    1.34144   1.20847   -2.000
 7026.00    1.40488   1.20936   -2.000
 7027.00    1.44390   1.20983   -2.000
 7028.00    1.44878   1.21051   -2.000
 7029.00    1.41209   1.21181   -2.000
 7030.00    1.33634   1.21354   -2.000
 7031.00    1.25384   1.21505   -2.000
 7032.00    1.21122   1.21673   -2.000
 7033.00    1.23126   1.21864   -2.000
 7034.00    1.30421   1.22034   -2.000
 7035.00    1.38751   1.22196   -2.000
 7036.00    1.43351   1.22325   -2.000
 7037.00    1.43159   1.22446   -2.000
 7038.00    1.39988   1.22579   -2.000
 7039.00    1.36346   1.22737   -2.000
 7040.00    1.33846   1.22962   -2.000
 7041.00    1.31746   1.23209   -2.000
 7042.00    1.28875   1.23443   -2.000
 7043.00    1.25919   1.23802   -2.000
 7044.00    1.24472   1.24270   -2.000
 7045.00    1.25740   1.24753   -2.000
 7046.00    1.29638   1.25199   -2.000
 7047.00    1.34233   1.25560   -2.000
 7048.00    1.37151   1.25809   -2.000
 7049.00    1.36865   1.25896   -2.000
 7050.00    1.33469   1.25904   -2.000
 7051.00    1.28940   1.25778   -2.000
 7052.00    1.25596   1.25479   -2.000
 7053.00    1.24843   1.25013   -2.000
 7054.00    1.25943   1.24377   -2.000
 7055.00    1.26051   1.23648   -2.000
 7056.00    1.24017   1.22804   -2.000
 7057.00    1.21746   1.21937   -2.000
 7058.00    1.21001   1.21132   -2.000
 7059.00    1.22187   1.20375   -2.000
 7060.00    1.25861   1.19739   -2.000
 7061.00    1.32294   1.19200   -2.000
 7062.00    1.37426   1.18734   -2.000
 7063.00    1.35675   1.18324   -2.000
 7064.00    1.34118   1.17964   -2.000
 7065.00    1.48610   1.17699   -2.000
 7066.00    1.78039   1.17511   -2.000
 7067.00    2.04973   1.17350   -2.000
 7068.00    2.18624   1.17263   -2.000
 7069.00    2.19091   1.17201   -2.000
 7070.00    2.11941   1.17153   -2.000
 7071.00    2.03855   1.17177   -2.000
 7072.00    1.96436   1.17270   -2.000
 7073.00    1.87859   1.17489   -2.000
 7074.00    1.78561   1.17810   -2.000
 7075.00    1.69497   1.18184   -2.000
 7076.00    1.57514   1.18556   -2.000
 7077.00    1.40619   1.18916   -2.000
 7078.00    1.26747   1.19235   -2.000
 7079.00    1.24192   1.19470   -2.000
 7080.00    1.27171   1.19620   -2.000
 7081.00    1.25964   1.19633   -2.000
 7082.00    1.21466   1.19519   -2.000
 7083.00    1.18318   1.19233   -2.000
 7084.00    1.15651   1.18807   -2.000
 7085.00    1.11680   1.18272   -2.000
 7086.00    1.08868   1.17587   -2.000
 7087.00    1.09314   1.16815   -2.000
 7088.00    1.10603   1.15997   -2.000
 7089.00    1.09879   1.15211   -2.000
 7090.00    1.07328   1.14533   -2.000
 7091.00    1.05151   1.13926   -2.000
 7092.00    1.06013   1.13404   -2.000
 7093.00    1.08995   1.13014   -2.000
 7094.00    1.08986   1.12705   -2.000
 7095.00    1.08448   1.12527   -2.000
 7096.00    1.19984   1.12495   -2.000
 7097.00    1.43129   1.12510   -2.000
 7098.00    1.59169   1.12657   -2.000
 7099.00    1.65052   1.12799   -2.000
 7100.00    1.79939   1.13005   -2.000
 7101.00    2.04438   1.13247   -2.000
 7102.00    2.15038   1.13472   -2.000
 7103.00    2.08840   1.13746   -2.000
 7104.00    2.06634   1.13929   -2.000
 7105.00    2.05878   1.14103   -2.000
 7106.00    1.82325   1.14197   -2.000
 7107.00    1.42711   1.14248   -2.000
 7108.00    1.21559   1.14270   -2.000
 7109.00    1.29680   1.14248   -2.000
 7110.00    1.50821   1.14180   -2.000
 7111.00    1.67963   1.14075   -2.000
 7112.00    1.71620   1.13968   -2.000
 7113.00    1.63175   1.13884   -2.000
 7114.00    1.50628   1.13806   -2.000
 7115.00    1.39161   1.13767   -2.000
 7116.00    1.30760   1.13776   -2.000
 7117.00    1.26723   1.13822   -2.000
 7118.00    1.27352   1.13906   -2.000
 7119.00    1.30848   1.13976   -2.000
 7120.00    1.34145   1.14062   -2.000
 7121.00    1.34503   1.14093   -2.000
 7122.00    1.32328   1.14076   -2.000
 7123.00    1.33728   1.14022   -2.000
 7124.00    1.41612   1.13892   -2.000
 7125.00    1.46709   1.13736   -2.000
 7126.00    1.42118   1.13497   -2.000
 7127.00    1.37161   1.13243   -2.000
 7128.00    1.40220   1.12967   -2.000
 7129.00    1.43722   1.12649   -2.000
 7130.00    1.38733   1.12343   -2.000
 7131.00    1.27488   1.12070   -2.000
 7132.00    1.20415   1.11851   -2.000
 7133.00    1.29019   1.11705   -2.000
 7134.00    1.37859   1.11639   -2.000
 7135.00    1.01345   1.11659   -2.000
 7136.00    0.31357   1.11807   -2.000
 7137.00    0.20540   1.12018   -2.000
 7138.00    0.92294   1.12329   -2.000
 7139.00    1.53596   1.12655   -2.000
 7140.00    1.50948   1.12962   -2.000
 7141.00    1.23956   1.13270   -2.000
 7142.00    1.12255   1.13490   -2.000
 7143.00    1.19370   1.13675   -2.000
 7144.00    1.31572   1.13786   -2.000
 7145.00    1.31319   1.13846   -2.000
 7146.00    1.15641   1.13853   -2.000
 7147.00    0.98317   1.13806   -2.000
 7148.00    0.97476   1.13755   -2.000
 7149.00    1.20097   1.13676   -2.000
 7150.00    1.32816   1.13636   -2.000
 7151.00    0.93072   1.13631   -2.000
 7152.00    0.39135   1.13651   -2.000
 7153.00    0.48085   1.13789   -2.000
 7154.00    1.02374   1.14001   -2.000
 7155.00    1.27570   1.14274   -2.000
 7156.00    1.18181   1.14620   -2.000
 7157.00    1.14998   1.14943   -2.000
 7158.00    1.25141   1.15231   -2.000
 7159.00    1.33198   1.15455   -2.000
 7160.00    1.39014   1.15563   -2.000
 7161.00    1.47623   1.15619   -2.000
 7162.00    1.48518   1.15493   -2.000
 7163.00    1.32254   1.15317   -2.000
 7164.00    1.12966   1.15033   -2.000
 7165.00    1.09009   1.14681   -2.000
 7166.00    1.19362   1.14389   -2.000
 7167.00    1.34632   1.14027   -2.000
 7168.00    1.50038   1.13821   -2.000
 7169.00    1.59877   1.13618   -2.000
 7170.00    1.53297   1.13620   -2.000
 7171.00    1.29953   1.13722   -2.000
 7172.00    1.09434   1.13940   -2.000
 7173.00    1.04351   1.14207   -2.000
 7174.00    1.03834   1.14456   -2.000
 7175.00    0.98198   1.14692   -2.000
 7176.00    0.93280   1.14845   -2.000
 7177.00    0.95096   1.14938   -2.000
 7178.00    1.01463   1.14917   -2.000
 7179.00    1.08230   1.14814   -2.000
 7180.00    1.13297   1.14627   -2.000
 7181.00    1.18735   1.14397   -2.000
 7182.00    1.28916   1.14157   -2.000
 7183.00    1.39110   1.13890   -2.000
 7184.00    1.37592   1.13615   -2.000
 7185.00    1.30892   1.13337   -2.000
 7186.00    1.38361   1.13068   -2.000
 7187.00    1.43466   1.12851   -2.000
 7188.00    1.13969   1.12664   -2.000
 7189.00    1.07438   1.12476   -2.000
 7190.00    1.95306   1.12301   -2.000
 7191.00    1.86818   1.12094   -2.000
 7192.00   -1.71581   1.11959   -2.000
 7193.00   -5.65497   1.11872   -2.000
 7194.00   -4.34089   1.11855   -2.000
 7195.00    0.44276   1.11965   -2.000
 7196.00    2.62460   1.12085   -2.000
 7197.00    1.68716   1.12275   -2.000
 7198.00    0.89359   1.12462   -2.000
 7199.00    1.05165   1.12664   -2.000
 7200.00    1.15698   1.12885   -2.000
 7201.00    1.01305   1.13077   -2.000
 7202.00    0.97403   1.13265   -2.000
 7203.00    1.04996   1.13374   -2.000
 7204.00    1.07446   1.13435   -2.000
 7205.00    1.05359   1.13458   -2.000
 7206.00    1.06069   1.13392   -2.000
 7207.00    1.07956   1.13317   -2.000
 7208.00    1.07591   1.13217   -2.000
 7209.00    1.07910   1.13094   -2.000
 7210.00    1.12269   1.12994   -2.000
 7211.00    1.18823   1.12865   -2.000
 7212.00    1.24120   1.12824   -2.000
 7213.00    1.26422   1.12827   -2.000
 7214.00    1.25995   1.12946   -2.000
 7215.00    1.24722   1.13179   -2.000
 7216.00    1.23296   1.13405   -2.000
 7217.00    1.20397   1.13680   -2.000
 7218.00    1.18552   1.13909   -2.000
