###################################################################
## OUTPUT of StarlightChains_v04.for    [Cid@UFSC - 01/Apr/2007] ##
###################################################################

## Some input info
1996aa.txt                               [arq_obs]
Base.CB07.vall.4m                        [arq_base]
Masks.EmLines.NEW.gm                     [arq_masks]
StCv04.C11.config                        [arq_config]
   66                                    [N_base]
    0                                    [N_YAV_components = # of components with extra extinction!]
    0                                    [i_FitPowerLaw (1/0 = Yes/No)]
-9.99                                    [alpha_PowerLaw]
CCM                                      [red_law_option]
 1.458241                                [q_norm = A(l_norm)/A(V)]

## (Re)Sampling Parameters
 3741.00                                 [l_ini (A)]
 7218.00                                 [l_fin (A)]
    1.00                                 [dl    (A)]     (OBS: dl_cushion =    50.00 A)

## Normalization info
 4020.00                                 [l_norm (A) - for base]
 4010.00                                 [llow_norm (A) - window for f_obs]
 4060.00                                 [lupp_norm (A) - window for f_obs]
1.424879E-15                             [fobs_norm (in input units)]

## S/N
 3691.00                                 [llow_SN (A) - window for S/N]
 7268.00                                 [lupp_SN (A) - window for S/N]
   4.022                                 [S/N in S/N window]
   2.790                                 [S/N in norm. window]
  57.720                                 [S/N_err in S/N window]
  40.040                                 [S/N_err in norm. window]
  1.0000                                 [fscale_chi2]

## etc...
    -2007225                             [idum_orig]
  2380                                   [NOl_eff]
  2332                                   [Nl_eff]
    48    NSIGMA                         [Ntot_cliped & clip_method]
  1113770                                [Nglobal_steps]
   7                                     [N_chains]
  11                                     [NEX0s_base = N_base in EX0s-fits]
 0   0   1        9   2.0   9.366E+01    [Clip-Bug, RC-Crash & Burn-In warning-flags, n_censored_weights, wei_nsig_threshold & wei_limit]
    16     16.278     15.700      0.579  [idt_all, wdt_TotTime, wdt_UsrTime & wdt_SysTime (sec)]

## Synthesis Results - Best model ##

 1.07888E+00                             [chi2/Nl_eff]
     1.26107                             [adev (%)]

   107.67697                             [sum-of-x (%)]
 1.53545E-15                             [Flux_tot (units of input spectrum!)]
 1.19073E-10                             [Mini_tot (???)]
 6.10223E-11                             [Mcor_tot (???)]

   9.99                                  [v0_min  (km/s)]
 271.02                                  [vd_min  (km/s)]
 0.0006                                  [AV_min  (mag)]
 0.0000                                  [YAV_min (mag)]

# j     x_j(%)      Mini_j(%)     Mcor_j(%)     age_j(yr)     Z_j      (L/M)_j    YAV?  Mstars   component_j        a/Fe...       SSP_chi2r SSP_adev(%)   SSP_AV   SSP_x(%)
  1      0.0000     0.0000E+00    0.0000E+00    1.000000E+06  0.00400  1.094E-02    0   1.0000   age020_m42            0.0000     3.5577E+01    10.4838   3.9306    97.0922
  2      0.0000     0.0000E+00    0.0000E+00    3.160000E+06  0.00400  4.007E-02    0   0.9999   age045_m42            0.0000     3.3901E+01     9.9755   3.1951   104.2947
  3      0.0000     0.0000E+00    0.0000E+00    5.010000E+06  0.00400  2.539E-02    0   0.9488   age055_m42            0.0000     3.4612E+01    10.2322   3.5158   101.6750
  4      0.0000     0.0000E+00    0.0000E+00    6.610000E+06  0.00400  2.620E-02    0   0.9220   age061_m42            0.0000     3.4467E+01    10.0720   3.1113   105.0167
  5      0.0000     0.0000E+00    0.0000E+00    1.000000E+07  0.00400  1.322E-02    0   0.8862   age070_m42            0.0000     4.3096E+01    11.8617   2.7635   110.4171
  6      0.0000     0.0000E+00    0.0000E+00    1.445000E+07  0.00400  7.883E-03    0   0.8571   age078_m42            0.0000     4.2687E+01    11.8004   3.1007   107.1174
  7      0.0000     0.0000E+00    0.0000E+00    2.512000E+07  0.00400  5.251E-03    0   0.8174   age090_m42            0.0000     4.5380E+01    12.1827   2.6209   111.6608
  8      0.0000     0.0000E+00    0.0000E+00    4.000000E+07  0.00400  3.649E-03    0   0.7851   age104_m42            0.0000     4.3141E+01    11.8331   2.3976   112.4124
  9      0.0000     0.0000E+00    0.0000E+00    5.500000E+07  0.00400  3.098E-03    0   0.7629   age110_m42            0.0000     3.9079E+01    10.9068   2.5794   111.0377
 10      0.0000     0.0000E+00    0.0000E+00    1.015200E+08  0.00400  2.228E-03    0   0.7207   age116_m42            0.0000     3.6528E+01    10.2448   2.6164   110.4473
 11      0.0000     0.0000E+00    0.0000E+00    2.861200E+08  0.00400  1.093E-03    0   0.6648   age125_m42            0.0000     4.0995E+01    10.8909   2.0111   115.6663
 12      0.0000     0.0000E+00    0.0000E+00    5.088000E+08  0.00400  6.597E-04    0   0.6365   age130_m42            0.0000     3.4148E+01     9.6543   2.0317   115.0964
 13      0.0000     0.0000E+00    0.0000E+00    1.434000E+09  0.00400  2.132E-04    0   0.5798   age139_m42            0.0000     2.1916E+01     7.9967   1.0730   116.8117
 14      0.0000     0.0000E+00    0.0000E+00    4.250000E+09  0.00400  5.895E-05    0   0.5377   age158_m42            0.0000     1.1906E+01     6.3619   0.6772   110.2014
 15      0.0000     0.0000E+00    0.0000E+00    7.500000E+09  0.00400  3.510E-05    0   0.5212   age171_m42            0.0000     9.1478E+00     5.5859   0.5061   108.7039
 16      0.0000     0.0000E+00    0.0000E+00    1.300000E+10  0.00400  2.005E-05    0   0.5034   age193_m42            0.0000     7.3228E+00     4.9559   0.3553   107.4773
 17      0.0000     0.0000E+00    0.0000E+00    1.800000E+10  0.00400  1.525E-05    0   0.4967   age213_m42            0.0000     7.5826E+00     5.0728   0.3286   107.1705
 18      0.0000     0.0000E+00    0.0000E+00    1.000000E+06  0.00800  1.238E-02    0   1.0000   age020_m52            0.0000     3.5415E+01    10.4624   3.9269    97.2830
 19      0.0000     0.0000E+00    0.0000E+00    3.160000E+06  0.00800  3.074E-02    0   0.9966   age045_m52            0.0000     3.4716E+01    10.3200   3.8529    98.0375
 20      0.0000     0.0000E+00    0.0000E+00    5.010000E+06  0.00800  2.668E-02    0   0.9443   age055_m52            0.0000     3.4391E+01    10.2881   3.5971   100.8040
 21      0.0000     0.0000E+00    0.0000E+00    6.610000E+06  0.00800  2.136E-02    0   0.9177   age061_m52            0.0000     3.5764E+01    11.2548   2.2697   111.4089
 22      0.0000     0.0000E+00    0.0000E+00    1.000000E+07  0.00800  1.215E-02    0   0.8827   age070_m52            0.0000     4.6680E+01    12.5019   2.9238   111.0832
 23      0.0000     0.0000E+00    0.0000E+00    1.445000E+07  0.00800  8.717E-03    0   0.8552   age078_m52            0.0000     4.1959E+01    11.7525   3.0616   108.8224
 24      0.0000     0.0000E+00    0.0000E+00    2.512000E+07  0.00800  5.592E-03    0   0.8162   age090_m52            0.0000     4.5508E+01    12.2240   2.6776   113.3466
 25      0.0000     0.0000E+00    0.0000E+00    4.000000E+07  0.00800  3.896E-03    0   0.7841   age104_m52            0.0000     4.3292E+01    11.7475   2.5995   113.7827
 26      0.0000     0.0000E+00    0.0000E+00    1.015200E+08  0.00800  2.148E-03    0   0.7226   age116_m52            0.0000     3.7607E+01    10.6781   2.5661   112.2261
 27      0.0000     0.0000E+00    0.0000E+00    2.861200E+08  0.00800  9.925E-04    0   0.6683   age125_m52            0.0000     3.3658E+01     9.5878   2.0924   116.3725
 28      0.0000     0.0000E+00    0.0000E+00    9.047900E+08  0.00800  3.141E-04    0   0.6138   age135_m52            0.0000     2.0985E+01     7.4597   1.3223   119.8949
 29      3.6227     2.5238E-01    2.8825E-01    1.434000E+09  0.00800  1.719E-04    0   0.5853   age139_m52            0.0000     1.5726E+01     6.9064   0.7486   117.1460
 30      0.0000     0.0000E+00    0.0000E+00    2.500000E+09  0.00800  7.872E-05    0   0.5600   age150_m52            0.0000     7.7636E+00     5.0452   0.5321   111.4779
 31      0.0000     0.0000E+00    0.0000E+00    4.250000E+09  0.00800  4.336E-05    0   0.5426   age158_m52            0.0000     7.5557E+00     5.0033   0.5199   110.3002
 32      0.0006     2.1948E-04    2.2780E-04    6.250000E+09  0.00800  3.159E-05    0   0.5319   age166_m52            0.0000     4.9382E+00     3.8813   0.3421   109.1778
 33      0.0000     0.0000E+00    0.0000E+00    1.300000E+10  0.00800  1.361E-05    0   0.5073   age193_m52            0.0000     2.3289E+00     2.4016  -0.0946   107.0245
 34      0.0000     0.0000E+00    0.0000E+00    1.800000E+10  0.00800  9.886E-06    0   0.4990   age213_m52            0.0000     1.6011E+00     1.7481  -0.1741   105.2282
 35      0.0000     0.0000E+00    0.0000E+00    1.000000E+06  0.02000  1.544E-02    0   1.0000   age020_m62            0.0000     3.5423E+01    10.4568   3.9246    97.4329
 36      0.0000     0.0000E+00    0.0000E+00    3.160000E+06  0.02000  3.762E-02    0   0.9858   age045_m62            0.0000     3.5035E+01    10.3973   3.8652    98.2345
 37      0.0000     0.0000E+00    0.0000E+00    5.010000E+06  0.02000  3.296E-02    0   0.9342   age055_m62            0.0000     3.3018E+01     9.8685   3.4811   102.7087
 38      0.0000     0.0000E+00    0.0000E+00    8.710000E+06  0.02000  1.154E-02    0   0.8861   age067_m62            0.0000     8.1044E+01    17.0551   2.2578   120.2606
 39      0.0000     0.0000E+00    0.0000E+00    1.445000E+07  0.02000  7.663E-03    0   0.8472   age078_m62            0.0000     5.5190E+01    13.8217   2.5292   115.7464
 40      0.0000     0.0000E+00    0.0000E+00    2.512000E+07  0.02000  4.532E-03    0   0.8099   age090_m62            0.0000     5.8613E+01    14.1085   2.5122   115.9025
 41      0.0000     0.0000E+00    0.0000E+00    5.500000E+07  0.02000  2.733E-03    0   0.7595   age110_m62            0.0000     4.2097E+01    11.6649   2.5839   112.8702
 42      0.0000     0.0000E+00    0.0000E+00    1.609000E+08  0.02000  1.369E-03    0   0.6985   age120_m62            0.0000     3.6670E+01    10.2205   2.4515   114.5631
 43      0.0000     0.0000E+00    0.0000E+00    2.861200E+08  0.02000  9.013E-04    0   0.6714   age125_m62            0.0000     3.2839E+01     9.3996   2.2121   117.3204
 44      0.0000     0.0000E+00    0.0000E+00    5.088000E+08  0.02000  5.028E-04    0   0.6449   age130_m62            0.0000     2.3966E+01     7.8248   1.8714   118.6159
 45      0.0000     0.0000E+00    0.0000E+00    9.047900E+08  0.02000  2.428E-04    0   0.6179   age135_m62            0.0000     1.4090E+01     6.2483   1.3022   117.1646
 46      0.0000     0.0000E+00    0.0000E+00    1.434000E+09  0.02000  1.263E-04    0   0.5908   age139_m62            0.0000     9.2546E+00     5.3768   0.8723   114.7625
 47      0.0000     0.0000E+00    0.0000E+00    2.500000E+09  0.02000  5.985E-05    0   0.5673   age150_m62            0.0000     4.9697E+00     3.9280   0.5448   111.3403
 48      9.4165     3.4475E+00    3.6784E+00    4.250000E+09  0.02000  3.271E-05    0   0.5468   age158_m62            0.0000     2.1515E+00     2.2830   0.2805   108.4905
 49      4.8474     4.2684E+00    4.3036E+00    1.000000E+10  0.02000  1.360E-05    0   0.5167   age181_m62            0.0000     1.2309E+00     1.5260  -0.0275   106.2443
 50      9.2921     1.5620E+01    1.5280E+01    1.800000E+10  0.02000  7.124E-06    0   0.5013   age213_m62            0.0000     1.8949E+00     2.2466  -0.2011   103.8027
 51      0.0000     0.0000E+00    0.0000E+00    1.000000E+06  0.05000  2.592E-02    0   0.9998   age020_m72            0.0000     3.5788E+01    10.5464   3.9128    97.6007
 52      0.0000     0.0000E+00    0.0000E+00    3.160000E+06  0.05000  4.845E-02    0   0.9577   age045_m72            0.0000     3.3687E+01    10.0616   3.7524    99.3794
 53      0.0000     0.0000E+00    0.0000E+00    5.010000E+06  0.05000  3.072E-02    0   0.9147   age055_m72            0.0000     4.8742E+01    12.6638   3.1628   109.0750
 54      0.0000     0.0000E+00    0.0000E+00    6.610000E+06  0.05000  1.455E-02    0   0.8877   age061_m72            0.0000     1.3146E+02    20.4274   2.2483   124.6650
 55      0.0000     0.0000E+00    0.0000E+00    1.000000E+07  0.05000  9.074E-03    0   0.8524   age070_m72            0.0000     6.2183E+01    13.3590   3.3400   109.2149
 56      0.0000     0.0000E+00    0.0000E+00    2.512000E+07  0.05000  4.250E-03    0   0.7902   age090_m72            0.0000     5.4938E+01    12.9156   3.0327   111.5204
 57      0.0000     0.0000E+00    0.0000E+00    4.000000E+07  0.05000  3.087E-03    0   0.7618   age104_m72            0.0000     5.7552E+01    13.1816   2.7909   114.0812
 58      0.0000     0.0000E+00    0.0000E+00    1.015200E+08  0.05000  1.700E-03    0   0.7096   age116_m72            0.0000     4.1873E+01    11.0278   2.5721   115.1890
 59      3.2296     5.2378E-02    6.7793E-02    2.861200E+08  0.05000  7.384E-04    0   0.6633   age125_m72            0.0000     2.7608E+01     8.5277   2.0961   118.1600
 60      0.0000     0.0000E+00    0.0000E+00    5.088000E+08  0.05000  3.819E-04    0   0.6372   age130_m72            0.0000     1.6511E+01     6.5892   1.6407   118.2401
 61      0.0000     0.0000E+00    0.0000E+00    9.047900E+08  0.05000  1.676E-04    0   0.6110   age135_m72            0.0000     6.6128E+00     4.2452   1.0002   113.4996
 62      0.0018     2.4528E-04    2.8113E-04    1.434000E+09  0.05000  8.837E-05    0   0.5874   age139_m72            0.0000     4.1514E+00     3.5327   0.5459   112.9033
 63     31.8983     9.0244E+00    9.8577E+00    2.500000E+09  0.05000  4.233E-05    0   0.5598   age150_m72            0.0000     1.6482E+00     1.8985   0.2913   108.8986
 64     24.3816     2.0347E+01    2.0841E+01    6.250000E+09  0.05000  1.435E-05    0   0.5249   age166_m72            0.0000     1.3327E+00     1.5957  -0.1100   105.1569
 65     10.5753     1.9445E+01    1.9108E+01    1.300000E+10  0.05000  6.513E-06    0   0.5036   age193_m72            0.0000     2.8505E+00     2.8870  -0.3441   104.1026
 66     10.4111     2.7542E+01    2.6575E+01    1.800000E+10  0.05000  4.527E-06    0   0.4945   age213_m72            0.0000     4.6339E+00     3.8520  -0.4757   102.5934


## Synthesis Results - Average & Chains ##

# j      x_j: min, <> & last-chain-values for 1 ...  7 chains
  1      0.0000      0.0043      0.0000      0.0000      0.0000      0.0000      0.0000      0.0000      0.0000
  2      0.0000      0.0146      0.0000      0.0000      0.0192      0.0000      0.0571      0.0214      0.1169
  3      0.0000      0.0070      0.0000      0.0986      0.0000      0.0000      0.0000      0.0000      0.0000
  4      0.0000      0.0113      0.0000      0.0000      0.0000      0.0000      0.0438      0.0000      0.0922
  5      0.0000      0.0086      0.0000      0.0427      0.0000      0.0171      0.0000      0.0819      0.0000
  6      0.0000      0.0127      0.1410      0.0000      0.0000      0.0000      0.0067      0.0634      0.0000
  7      0.0000      0.0144      0.0000      0.1061      0.0000      0.0000      0.0000      0.0000      0.0430
  8      0.0000      0.0152      0.0000      0.0000      0.0000      0.0000      0.0139      0.2961      0.0000
  9      0.0000      0.1178      0.2210      0.0859      0.2508      0.1437      0.0576      0.1484      0.1688
 10      0.0000      0.0260      0.0000      0.2517      0.0000      0.0000      0.0000      0.0000      0.0000
 11      0.0000      0.0923      0.0000      0.1292      0.0000      0.4172      0.2098      0.0000      0.0000
 12      0.0000      0.0299      0.0000      0.0000      0.0000      0.0000      0.0851      0.0000      0.0912
 13      0.0000      0.1136      0.0566      0.0000      0.2248      0.1606      0.0633      0.0000      0.1364
 14      0.0000      0.1097      0.1410      0.2346      0.0000      0.0000      0.0442      0.0625      0.2778
 15      0.0000      0.1037      0.1274      0.2904      0.1373      0.0000      0.0524      0.2582      0.2764
 16      0.0000      0.1905      0.1426      0.0000      0.0000      0.6022      0.8503      0.0418      0.1569
 17      0.0000      0.3065      0.3148      0.1329      0.3433      0.0140      0.0000      0.3074      0.7860
 18      0.0000      0.0165      0.0173      0.0000      0.1445      0.0000      0.0000      0.0000      0.0000
 19      0.0000      0.0131      0.0000      0.0000      0.0000      0.0000      0.0000      0.0000      0.0095
 20      0.0000      0.0255      0.0000      0.0000      0.1547      0.0000      0.0000      0.0000      0.0000
 21      0.0000      0.0130      0.0000      0.0000      0.0000      0.0000      0.0000      0.0000      0.0327
 22      0.0000      0.0154      0.0000      0.0000      0.0000      0.0000      0.0637      0.0000      0.0000
 23      0.0000      0.0154      0.0000      0.0000      0.0233      0.0380      0.0000      0.0000      0.0000
 24      0.0000      0.0133      0.0000      0.0000      0.1118      0.0000      0.0000      0.0166      0.0000
 25      0.0000      0.0120      0.0000      0.0000      0.0765      0.0000      0.0868      0.0678      0.0000
 26      0.0000      0.0327      0.0000      0.0000      0.0062      0.0000      0.0491      0.0000      0.1715
 27      0.0000      0.0515      0.0371      0.0299      0.0437      0.2109      0.2076      0.4175      0.0000
 28      0.0000      0.0503      0.0000      0.0563      0.0578      0.0000      0.0000      0.0000      0.1644
 29      3.6227      0.1331      0.3966      0.1189      0.0000      0.2926      0.3908      0.1006      0.0347
 30      0.0000      0.0726      0.2077      0.0906      0.0000      0.0000      0.0000      0.0000      0.0000
 31      0.0000      0.1463      0.0000      0.0000      0.0000      0.0919      0.0000      0.1007      0.1166
 32      0.0006      0.1233      0.3617      0.0000      0.0000      0.0000      0.0000      0.0000      0.1682
 33      0.0000      0.0741      0.0612      0.0000      0.0000      0.0000      0.0000      0.0000      0.0000
 34      0.0000      0.1346      0.0000      0.0000      0.0000      0.0284      0.0034      0.2040      0.0000
 35      0.0000      0.0035      0.0000      0.0000      0.0000      0.0000      0.0000      0.0000      0.0000
 36      0.0000      0.0262      0.0000      0.0000      0.0000      0.0000      0.0000      0.0000      0.0698
 37      0.0000      0.0190      0.0000      0.0000      0.0000      0.1485      0.0000      0.0000      0.0209
 38      0.0000      0.0188      0.0000      0.0000      0.0000      0.0000      0.0629      0.0000      0.0000
 39      0.0000      0.0105      0.0000      0.0000      0.0000      0.0000      0.0000      0.0000      0.0000
 40      0.0000      0.0147      0.0000      0.0000      0.0000      0.0000      0.0000      0.0000      0.0000
 41      0.0000      0.0160      0.0000      0.0252      0.0125      0.0000      0.0000      0.0000      0.0030
 42      0.0000      0.0299      0.0000      0.0000      0.1668      0.0000      0.0000      0.0450      0.0000
 43      0.0000      0.0483      0.0000      0.0866      0.0000      0.0000      0.0000      0.0000      0.0589
 44      0.0000      0.0266      0.0000      0.0637      0.0500      0.0000      0.0266      0.0000      0.0000
 45      0.0000      0.0522      0.0000      0.0628      0.0465      0.0366      0.0000      0.1714      0.0000
 46      0.0000      0.0751      0.0000      0.0000      0.0000      0.0755      0.0000      0.0000      0.0000
 47      0.0000      0.1056      0.0000      0.0000      0.0000      0.0739      0.0000      0.0000      0.0595
 48      9.4165     13.0387     12.9351     13.6842     11.6675     12.9208     12.3485     12.8479     12.9538
 49      4.8474      5.9498      5.7445      5.9134      5.8658      6.6751      6.1718      6.4849      4.8336
 50      9.2921     10.4402     10.3662     10.5023     11.7519     10.6144     10.8172      9.9622     10.4576
 51      0.0000      0.0078      0.0000      0.0260      0.0000      0.0000      0.0000      0.0000      0.0000
 52      0.0000      0.0190      0.0703      0.0000      0.0000      0.0000      0.0088      0.0000      0.0000
 53      0.0000      0.0162      0.0000      0.0000      0.0000      0.0000      0.0000      0.0000      0.0000
 54      0.0000      0.0088      0.0000      0.0000      0.0028      0.0000      0.0961      0.0000      0.0000
 55      0.0000      0.0055      0.0000      0.0000      0.0000      0.0000      0.0000      0.0256      0.0000
 56      0.0000      0.0139      0.0095      0.0000      0.0000      0.0000      0.0000      0.0000      0.0884
 57      0.0000      0.0235      0.0000      0.0000      0.2583      0.0000      0.2199      0.1570      0.0000
 58      0.0000      0.0214      0.0056      0.0000      0.0177      0.0000      0.0000      0.0000      0.0000
 59      3.2296      0.5393      0.7633      0.5285      0.3137      0.5683      0.5624      0.5534      0.6171
 60      0.0000      0.0930      0.3596      0.0000      0.1964      0.0000      0.1875      0.0000      0.0793
 61      0.0000      0.0757      0.0000      0.0000      0.0516      0.1357      0.0000      0.2104      0.0000
 62      0.0018      4.5368      4.5449      4.5008      4.8209      4.5850      4.5454      3.6584      4.4277
 63     31.8983     34.3326     32.1819     34.2722     33.4742     32.7535     33.3250     34.3010     34.2374
 64     24.3816     24.4827     25.6540     23.8927     25.0588     24.9842     23.6377     24.4813     24.2180
 65     10.5753      7.2284      8.1678      8.0038      7.8627      7.5817      8.9663      7.9701      7.6720
 66     10.4111      4.1688      4.4888      4.2912      4.3327      4.2799      4.2376      4.4324      5.0746

# j      m_j: min, <> & last-chain-values for 1 ...  7 chains
  1  0.0000E+00  1.0965E-05  0.0000E+00  0.0000E+00  0.0000E+00  0.0000E+00  0.0000E+00  0.0000E+00  0.0000E+00
  2  0.0000E+00  1.0070E-05  0.0000E+00  0.0000E+00  1.2835E-05  0.0000E+00  3.8299E-05  1.4538E-05  7.8947E-05
  3  0.0000E+00  7.2037E-06  0.0000E+00  1.0092E-04  0.0000E+00  0.0000E+00  0.0000E+00  0.0000E+00  0.0000E+00
  4  0.0000E+00  1.1030E-05  0.0000E+00  0.0000E+00  0.0000E+00  0.0000E+00  4.1446E-05  0.0000E+00  8.7870E-05
  5  0.0000E+00  1.6062E-05  0.0000E+00  7.8490E-05  0.0000E+00  3.1184E-05  0.0000E+00  1.4971E-04  0.0000E+00
  6  0.0000E+00  3.8334E-05  4.1317E-04  0.0000E+00  0.0000E+00  0.0000E+00  1.9534E-05  1.8816E-04  0.0000E+00
  7  0.0000E+00  6.1963E-05  0.0000E+00  4.5267E-04  0.0000E+00  0.0000E+00  0.0000E+00  0.0000E+00  1.8134E-04
  8  0.0000E+00  9.0704E-05  0.0000E+00  0.0000E+00  0.0000E+00  0.0000E+00  8.0165E-05  1.7379E-03  0.0000E+00
  9  0.0000E+00  8.0422E-04  1.4673E-03  5.7977E-04  1.6547E-03  9.6443E-04  3.8146E-04  9.9728E-04  1.1253E-03
 10  0.0000E+00  2.3304E-04  0.0000E+00  2.2304E-03  0.0000E+00  0.0000E+00  0.0000E+00  0.0000E+00  0.0000E+00
 11  0.0000E+00  1.5565E-03  0.0000E+00  2.1526E-03  0.0000E+00  6.9148E-03  3.4308E-03  0.0000E+00  0.0000E+00
 12  0.0000E+00  8.0055E-04  0.0000E+00  0.0000E+00  0.0000E+00  0.0000E+00  2.2087E-03  0.0000E+00  2.3804E-03
 13  0.0000E+00  8.5599E-03  4.1456E-03  0.0000E+00  1.6380E-02  1.1899E-02  4.6284E-03  0.0000E+00  1.0037E-02
 14  0.0000E+00  2.7726E-02  3.4661E-02  5.8628E-02  0.0000E+00  0.0000E+00  1.0851E-02  1.5563E-02  6.8589E-02
 15  0.0000E+00  4.2703E-02  5.1014E-02  1.1815E-01  5.4620E-02  0.0000E+00  2.0919E-02  1.0461E-01  1.1107E-01
 16  0.0000E+00  1.3258E-01  9.6487E-02  0.0000E+00  0.0000E+00  4.1196E-01  5.7399E-01  2.8617E-02  1.0662E-01
 17  0.0000E+00  2.7674E-01  2.7635E-01  1.1858E-01  2.9960E-01  1.2438E-02  0.0000E+00  2.7316E-01  6.9296E-01
 18  0.0000E+00  3.6973E-05  3.7575E-05  0.0000E+00  3.1274E-04  0.0000E+00  0.0000E+00  0.0000E+00  0.0000E+00
 19  0.0000E+00  1.1784E-05  0.0000E+00  0.0000E+00  0.0000E+00  0.0000E+00  0.0000E+00  0.0000E+00  8.3150E-06
 20  0.0000E+00  2.4979E-05  0.0000E+00  0.0000E+00  1.4672E-04  0.0000E+00  0.0000E+00  0.0000E+00  0.0000E+00
 21  0.0000E+00  1.5506E-05  0.0000E+00  0.0000E+00  0.0000E+00  0.0000E+00  0.0000E+00  0.0000E+00  3.8034E-05
 22  0.0000E+00  3.1014E-05  0.0000E+00  0.0000E+00  0.0000E+00  0.0000E+00  1.2450E-04  0.0000E+00  0.0000E+00
 23  0.0000E+00  4.2012E-05  0.0000E+00  0.0000E+00  6.1238E-05  1.0146E-04  0.0000E+00  0.0000E+00  0.0000E+00
 24  0.0000E+00  5.3676E-05  0.0000E+00  0.0000E+00  4.3700E-04  0.0000E+00  0.0000E+00  6.6148E-05  0.0000E+00
 25  0.0000E+00  6.7166E-05  0.0000E+00  0.0000E+00  4.1256E-04  0.0000E+00  4.6952E-04  3.7244E-04  0.0000E+00
 26  0.0000E+00  3.0500E-04  0.0000E+00  0.0000E+00  5.5788E-05  0.0000E+00  4.4376E-04  0.0000E+00  1.5614E-03
 27  0.0000E+00  9.6125E-04  6.7368E-04  5.5103E-04  7.8778E-04  3.8698E-03  3.7578E-03  7.6689E-03  0.0000E+00
 28  0.0000E+00  2.7269E-03  0.0000E+00  3.0150E-03  3.0254E-03  0.0000E+00  0.0000E+00  0.0000E+00  8.6980E-03
 29  2.8825E-01  1.2559E-02  3.6398E-02  1.1088E-02  0.0000E+00  2.7147E-02  3.5778E-02  9.3456E-03  3.1981E-03
 30  0.0000E+00  1.4325E-02  3.9834E-02  1.7666E-02  0.0000E+00  0.0000E+00  0.0000E+00  0.0000E+00  0.0000E+00
 31  0.0000E+00  5.0742E-02  0.0000E+00  0.0000E+00  0.0000E+00  3.1333E-02  0.0000E+00  3.4371E-02  3.9482E-02
 32  2.2780E-04  5.7536E-02  1.6418E-01  0.0000E+00  0.0000E+00  0.0000E+00  0.0000E+00  0.0000E+00  7.6671E-02
 33  0.0000E+00  7.6552E-02  6.1477E-02  0.0000E+00  0.0000E+00  0.0000E+00  0.0000E+00  0.0000E+00  0.0000E+00
 34  0.0000E+00  1.8836E-01  0.0000E+00  0.0000E+00  0.0000E+00  3.9079E-02  4.6194E-03  2.8086E-01  0.0000E+00
 35  0.0000E+00  6.2384E-06  0.0000E+00  0.0000E+00  0.0000E+00  0.0000E+00  0.0000E+00  0.0000E+00  0.0000E+00
 36  0.0000E+00  1.8999E-05  0.0000E+00  0.0000E+00  0.0000E+00  0.0000E+00  0.0000E+00  0.0000E+00  4.9483E-05
 37  0.0000E+00  1.4943E-05  0.0000E+00  0.0000E+00  0.0000E+00  1.1465E-04  0.0000E+00  0.0000E+00  1.6035E-05
 38  0.0000E+00  4.0011E-05  0.0000E+00  0.0000E+00  0.0000E+00  0.0000E+00  1.2992E-04  0.0000E+00  0.0000E+00
 39  0.0000E+00  3.2266E-05  0.0000E+00  0.0000E+00  0.0000E+00  0.0000E+00  0.0000E+00  0.0000E+00  0.0000E+00
 40  0.0000E+00  7.3046E-05  0.0000E+00  0.0000E+00  0.0000E+00  0.0000E+00  0.0000E+00  0.0000E+00  0.0000E+00
 41  0.0000E+00  1.2342E-04  0.0000E+00  1.9157E-04  9.2982E-05  0.0000E+00  0.0000E+00  0.0000E+00  2.2225E-05
 42  0.0000E+00  4.2291E-04  0.0000E+00  0.0000E+00  2.2803E-03  0.0000E+00  0.0000E+00  6.2631E-04  0.0000E+00
 43  0.0000E+00  9.9837E-04  0.0000E+00  1.7680E-03  0.0000E+00  0.0000E+00  0.0000E+00  0.0000E+00  1.1882E-03
 44  0.0000E+00  9.4487E-04  0.0000E+00  2.2375E-03  1.7166E-03  0.0000E+00  9.1672E-04  0.0000E+00  0.0000E+00
 45  0.0000E+00  3.6824E-03  0.0000E+00  4.3756E-03  3.1682E-03  2.5365E-03  0.0000E+00  1.1896E-02  0.0000E+00
 46  0.0000E+00  9.7383E-03  0.0000E+00  0.0000E+00  0.0000E+00  9.6246E-03  0.0000E+00  0.0000E+00  0.0000E+00
 47  0.0000E+00  2.7756E-02  0.0000E+00  0.0000E+00  0.0000E+00  1.9076E-02  0.0000E+00  0.0000E+00  1.5274E-02
 48  3.6784E+00  6.0419E+00  5.8287E+00  6.2670E+00  5.2252E+00  5.8854E+00  5.5500E+00  5.8592E+00  5.8613E+00
 49  4.3036E+00  6.2660E+00  5.8832E+00  6.1550E+00  5.9704E+00  6.9103E+00  6.3044E+00  6.7214E+00  4.9707E+00
 50  1.5280E+01  2.0364E+01  1.9663E+01  2.0246E+01  2.2155E+01  2.0352E+01  2.0465E+01  1.9124E+01  1.9918E+01
 51  0.0000E+00  8.3675E-06  0.0000E+00  2.7453E-05  0.0000E+00  0.0000E+00  0.0000E+00  0.0000E+00  0.0000E+00
 52  0.0000E+00  1.0417E-05  3.7432E-05  0.0000E+00  0.0000E+00  0.0000E+00  4.6758E-06  0.0000E+00  0.0000E+00
 53  0.0000E+00  1.3392E-05  0.0000E+00  0.0000E+00  0.0000E+00  0.0000E+00  0.0000E+00  0.0000E+00  0.0000E+00
 54  0.0000E+00  1.4905E-05  0.0000E+00  0.0000E+00  4.6318E-06  0.0000E+00  1.5771E-04  0.0000E+00  0.0000E+00
 55  0.0000E+00  1.4333E-05  0.0000E+00  0.0000E+00  0.0000E+00  0.0000E+00  0.0000E+00  6.5612E-05  0.0000E+00
 56  0.0000E+00  7.1694E-05  4.7386E-05  0.0000E+00  0.0000E+00  0.0000E+00  0.0000E+00  0.0000E+00  4.4469E-04
 57  0.0000E+00  1.6095E-04  0.0000E+00  0.0000E+00  1.7075E-03  0.0000E+00  1.4587E-03  1.0567E-03  0.0000E+00
 58  0.0000E+00  2.4733E-04  6.2835E-05  0.0000E+00  1.9754E-04  0.0000E+00  0.0000E+00  0.0000E+00  0.0000E+00
 59  6.7793E-02  1.3430E-02  1.8483E-02  1.3007E-02  7.5490E-03  1.3911E-02  1.3582E-02  1.3561E-02  1.5004E-02
 60  0.0000E+00  4.2994E-03  1.6175E-02  0.0000E+00  8.7787E-03  0.0000E+00  8.4112E-03  0.0000E+00  3.5806E-03
 61  0.0000E+00  7.6486E-03  0.0000E+00  0.0000E+00  5.0374E-03  1.3477E-02  0.0000E+00  2.0923E-02  0.0000E+00
 62  2.8113E-04  8.3593E-01  8.1435E-01  8.1961E-01  8.5850E-01  8.3044E-01  8.1232E-01  6.6341E-01  7.9664E-01
 63  9.8577E+00  1.2586E+01  1.1472E+01  1.2417E+01  1.1860E+01  1.1803E+01  1.1849E+01  1.2375E+01  1.2256E+01
 64  2.0841E+01  2.4824E+01  2.5295E+01  2.3943E+01  2.4556E+01  2.4902E+01  2.3247E+01  2.4430E+01  2.3978E+01
 65  1.9108E+01  1.5493E+01  1.7024E+01  1.6955E+01  1.6288E+01  1.5974E+01  1.8640E+01  1.6812E+01  1.6057E+01
 66  2.6575E+01  1.2623E+01  1.3217E+01  1.2842E+01  1.2679E+01  1.2739E+01  1.2445E+01  1.3208E+01  1.5004E+01

# AV, chi2 & Mass for <> & i_chain = 1 ...  7 solutions
AV       0.0006      0.0541      0.0417      0.0493      0.0436      0.0479      0.0477      0.0497      0.0472
chi2 1.0789E+00  1.1510E+00  1.1354E+00  1.1440E+00  1.1385E+00  1.1414E+00  1.1393E+00  1.1427E+00  1.1423E+00
Mass 6.1022E-11  5.5273E-11  5.5907E-11  5.5572E-11  5.6395E-11  5.5767E-11  5.6503E-11  5.5838E-11  5.6089E-11
   9.99                                  [v0_min (km/s) before EX0s...]
 271.02                                  [vd_min (km/s) before EX0s...]


## Synthetic spectrum (Best Model) ##l_obs f_obs f_syn wei
 3478    [Nl_obs]
 3741.00    0.39965   0.44517    0.000
 3742.00    0.39139   0.44349    0.000
 3743.00    0.38240   0.43556    0.000
 3744.00    0.37656   0.42237    0.000
 3745.00    0.37257   0.40568   24.663
 3746.00    0.36743   0.39237   25.016
 3747.00    0.35956   0.38657   25.385
 3748.00    0.35362   0.38620   25.723
 3749.00    0.36084   0.39381   25.666
 3750.00    0.38398   0.41371   25.272
 3751.00    0.41182   0.44037   25.221
 3752.00    0.43696   0.46565   25.685
 3753.00    0.46327   0.48795   25.944
 3754.00    0.49159   0.50740   25.626
 3755.00    0.51376   0.51994   25.284
 3756.00    0.52206   0.52169   25.352
 3757.00    0.51441   0.51495   25.760
 3758.00    0.49563   0.50625   26.296
 3759.00    0.47604   0.49839   26.761
 3760.00    0.46289   0.49121   27.017
 3761.00    0.45710   0.48647   27.036
 3762.00    0.45662   0.48424   26.936
 3763.00    0.45881   0.48404   26.921
 3764.00    0.46370   0.48861   27.012
 3765.00    0.47406   0.49584   27.004
 3766.00    0.49029   0.50049   26.740
 3767.00    0.50871   0.50804   26.260
 3768.00    0.52300   0.52349   25.881
 3769.00    0.52749   0.53916   25.979
 3770.00    0.52653   0.55163   26.294
 3771.00    0.53255   0.56758   26.028
 3772.00    0.54882   0.58644   25.185
 3773.00    0.56759   0.60103   24.535
 3774.00    0.58299   0.61175   24.317
 3775.00    0.59421   0.62380   24.238
 3776.00    0.60211   0.63657   24.191
 3777.00    0.60743   0.64609   24.310
 3778.00    0.60874   0.65355   24.563
 3779.00    0.60441   0.66261   24.765
 3780.00    0.59934   0.67071   24.960
 3781.00    0.60112   0.67178   25.372
 3782.00    0.60572   0.66639   25.919
 3783.00    0.60110   0.65882   26.247
 3784.00    0.58531   0.64604   26.273
 3785.00    0.56574   0.62415   26.223
 3786.00    0.54674   0.59915   26.285
 3787.00    0.52918   0.57832   26.507
 3788.00    0.51642   0.55785   26.778
 3789.00    0.51270   0.53619   26.935
 3790.00    0.51701   0.51996   27.062
 3791.00    0.52318   0.50958   27.384
 3792.00    0.52297   0.49935   27.915
 3793.00    0.51053   0.48800   28.509
 3794.00    0.48941   0.47870   29.133
 3795.00    0.47012   0.47290   29.799
 3796.00    0.46288   0.47021   30.290
 3797.00    0.47189   0.46964   30.344
 3798.00    0.48830   0.47386   30.131
 3799.00    0.49921   0.48645   30.024
 3800.00    0.50445   0.50400   30.077
 3801.00    0.51122   0.52200   30.119
 3802.00    0.52117   0.54039   30.000
 3803.00    0.53184   0.55905   29.685
 3804.00    0.54184   0.57489   29.306
 3805.00    0.55039   0.58567   29.044
 3806.00    0.55551   0.59162   28.981
 3807.00    0.55603   0.59472   29.069
 3808.00    0.55434   0.59558   29.122
 3809.00    0.55252   0.59184   29.081
 3810.00    0.54712   0.58382   29.344
 3811.00    0.53413   0.57264   30.216
 3812.00    0.51582   0.55718   31.138
 3813.00    0.49819   0.53884   31.318
 3814.00    0.48676   0.51967   30.950
 3815.00    0.48233   0.49876   30.731
 3816.00    0.47745   0.47827   31.060
 3817.00    0.46538   0.46290   31.944
 3818.00    0.44975   0.45015   32.902
 3819.00    0.43765   0.43593   33.334
 3820.00    0.43145   0.42278   33.148
 3821.00    0.42786   0.41349   32.806
 3822.00    0.41863   0.40491   33.091
 3823.00    0.39988   0.39397   34.374
 3824.00    0.37958   0.38332   35.925
 3825.00    0.36621   0.37573   36.787
 3826.00    0.35865   0.36951   37.079
 3827.00    0.35342   0.36274   37.363
 3828.00    0.35113   0.35649   37.773
 3829.00    0.35258   0.35268   38.176
 3830.00    0.35539   0.35014   38.406
 3831.00    0.35619   0.34669   38.508
 3832.00    0.35269   0.34317   38.839
 3833.00    0.34578   0.34110   39.459
 3834.00    0.34018   0.34000   39.743
 3835.00    0.33935   0.34060   39.410
 3836.00    0.34242   0.34349   39.146
 3837.00    0.34838   0.34835   39.302
 3838.00    0.35852   0.35733   39.258
 3839.00    0.37284   0.37033   38.766
 3840.00    0.38842   0.38527   38.574
 3841.00    0.40369   0.40326   38.874
 3842.00    0.42049   0.42420   38.681
 3843.00    0.44007   0.44434   37.667
 3844.00    0.46072   0.46254   36.876
 3845.00    0.47801   0.47760   36.886
 3846.00    0.48626   0.48783   37.220
 3847.00    0.48538   0.49575    0.000
 3848.00    0.48238   0.50034    0.000
 3849.00    0.48086   0.49900    0.000
 3850.00    0.47775   0.49667    0.000
 3851.00    0.47314   0.49552    0.000
 3852.00    0.47271   0.49037    0.000
 3853.00    0.47705   0.48224    0.000
 3854.00    0.47926   0.47550    0.000
 3855.00    0.47564   0.46756    0.000
 3856.00    0.46921   0.45790    0.000
 3857.00    0.46418   0.45156    0.000
 3858.00    0.46295   0.44839    0.000
 3859.00    0.46433   0.44718    0.000
 3860.00    0.46432   0.45098    0.000
 3861.00    0.46177   0.45939    0.000
 3862.00    0.45986   0.46919    0.000
 3863.00    0.46344   0.47852    0.000
 3864.00    0.47577   0.48629    0.000
 3865.00    0.49118   0.49144    0.000
 3866.00    0.49785   0.49259    0.000
 3867.00    0.49438   0.48977    0.000
 3868.00    0.48956   0.48464    0.000
 3869.00    0.48569   0.47945    0.000
 3870.00    0.47836   0.47552    0.000
 3871.00    0.47084   0.47334    0.000
 3872.00    0.47255   0.47348    0.000
 3873.00    0.48321   0.47606    0.000
 3874.00    0.49350   0.47956    0.000
 3875.00    0.49813   0.48270    0.000
 3876.00    0.49747   0.48538    0.000
 3877.00    0.49258   0.48510    0.000
 3878.00    0.48516   0.48135    0.000
 3879.00    0.48020   0.47943    0.000
 3880.00    0.48261   0.47891    0.000
 3881.00    0.48847   0.47412   39.593
 3882.00    0.48923   0.47013   39.525
 3883.00    0.48462   0.47290   39.736
 3884.00    0.48137   0.47559   39.900
 3885.00    0.48480   0.47432   39.784
 3886.00    0.49593   0.47830   39.371
 3887.00    0.50967   0.49032   38.917
 3888.00    0.51947   0.50216   38.748
 3889.00    0.52628   0.51524   38.953
 3890.00    0.53604   0.53527   39.325
 3891.00    0.55219   0.55637   39.328
 3892.00    0.57391   0.57430   38.560
 3893.00    0.59558   0.59153   37.493
 3894.00    0.61197   0.60571   36.721
 3895.00    0.62606   0.61407   35.945
 3896.00    0.64192   0.62043   34.835
 3897.00    0.65239   0.62632   34.170
 3898.00    0.64894   0.62700   34.660
 3899.00    0.63791   0.62538   35.447
 3900.00    0.63132   0.62718   35.308
 3901.00    0.63108   0.62797   34.956
 3902.00    0.63368   0.62437   35.505
 3903.00    0.63888   0.62400   36.196
 3904.00    0.64751   0.62999   35.848
 3905.00    0.65745   0.63463   35.262
 3906.00    0.66594   0.64098   35.572
 3907.00    0.67286   0.65568   36.225
 3908.00    0.68005   0.67188   36.207
 3909.00    0.69000   0.68564   35.798
 3910.00    0.70309   0.69999   35.775
 3911.00    0.71512   0.71328   36.334
 3912.00    0.72184   0.72039   37.196
 3913.00    0.72358   0.72033   37.768
 3914.00    0.72129   0.71661   37.770
 3915.00    0.71250   0.70832   37.863
 3916.00    0.69552   0.69283   38.644
 3917.00    0.67343   0.67476   39.723
 3918.00    0.65203   0.65631   40.410
 3919.00    0.63692   0.63489   40.576
 3920.00    0.62781   0.61364   40.612
 3921.00    0.61518   0.59444   41.145
 3922.00    0.59316   0.57492   42.431
 3923.00    0.56852   0.55442   43.883
 3924.00    0.54617   0.53298   44.860
 3925.00    0.51909   0.50839   45.518
 3926.00    0.48189   0.48008   46.251
 3927.00    0.44033   0.44906   47.102
 3928.00    0.40187   0.41497   47.972
 3929.00    0.36894   0.38085   48.800
 3930.00    0.34115   0.34962   49.512
 3931.00    0.31748   0.32269   49.979
 3932.00    0.29871   0.30349   50.105
 3933.00    0.28832   0.29361   49.877
 3934.00    0.28917   0.29304   49.293
 3935.00    0.30130   0.30251   48.341
 3936.00    0.32160   0.32094   47.195
 3937.00    0.34471   0.34519   46.181
 3938.00    0.36887   0.37408   45.277
 3939.00    0.39768   0.40594   44.079
 3940.00    0.43234   0.43623   42.643
 3941.00    0.46869   0.46503   41.581
 3942.00    0.50355   0.49479   41.131
 3943.00    0.53734   0.52181   40.935
 3944.00    0.57047   0.54579   40.476
 3945.00    0.60163   0.57241   39.418
 3946.00    0.62810   0.59945   38.142
 3947.00    0.64705   0.62252   37.491
 3948.00    0.65995   0.64450   37.533
 3949.00    0.67248   0.66629   37.521
 3950.00    0.68633   0.68464   37.308
 3951.00    0.69777   0.69738   37.541
 3952.00    0.70569   0.70452   38.132
 3953.00    0.71245   0.70943   38.104
 3954.00    0.71520   0.71116   37.561
 3955.00    0.70623   0.70355   37.771
 3956.00    0.68601   0.68987   38.902
 3957.00    0.66319   0.67413   39.802
 3958.00    0.63910   0.65110   40.195
 3959.00    0.60688   0.62053   41.069
 3960.00    0.56591   0.58571    0.000
 3961.00    0.52330   0.54678    0.000
 3962.00    0.48406   0.50639    0.000
 3963.00    0.44898   0.46577    0.000
 3964.00    0.41768   0.42498    0.000
 3965.00    0.38964   0.38889    0.000
 3966.00    0.36453   0.36056    0.000
 3967.00    0.34338   0.33994    0.000
 3968.00    0.33102   0.32896    0.000
 3969.00    0.33418   0.32920    0.000
 3970.00    0.35501   0.34129    0.000
 3971.00    0.39048   0.36502    0.000
 3972.00    0.43472   0.39829    0.000
 3973.00    0.48179   0.43883    0.000
 3974.00    0.53016   0.48517    0.000
 3975.00    0.58089   0.53441    0.000
 3976.00    0.63158   0.58276    0.000
 3977.00    0.67785   0.62900    0.000
 3978.00    0.71896   0.67198    0.000
 3979.00    0.75705   0.70922    0.000
 3980.00    0.79318   0.74062    0.000
 3981.00    0.82562   0.76675   37.507
 3982.00    0.84834   0.78805   37.035
 3983.00    0.85660   0.80562   37.197
 3984.00    0.85678   0.82104   37.509
 3985.00    0.86018   0.83542   37.316
 3986.00    0.86966   0.84729   36.614
 3987.00    0.88115   0.85906   35.946
 3988.00    0.88987   0.87239   35.939
 3989.00    0.89394   0.88112   36.789
 3990.00    0.89800   0.88740   37.465
 3991.00    0.90751   0.89543   36.778
 3992.00    0.92014   0.89977   35.500
 3993.00    0.93010   0.90099   34.848
 3994.00    0.93590   0.90279   34.558
 3995.00    0.93948   0.90546   33.982
 3996.00    0.94352   0.90936   33.445
 3997.00    0.94999   0.91286   33.303
 3998.00    0.95865   0.91795   32.817
 3999.00    0.96869   0.92690   31.401
 4000.00    0.98062   0.93355   29.948
 4001.00    0.99364   0.93531   29.300
 4002.00    1.00269   0.93780   29.178
 4003.00    1.00220   0.93964   29.176
 4004.00    0.99064   0.93567   29.659
 4005.00    0.97302   0.93126   30.980
 4006.00    0.96185   0.93330   32.477
 4007.00    0.96662   0.93774   33.305
 4008.00    0.98374   0.94220   33.864
 4009.00    1.00288   0.95231   34.736
 4010.00    1.01449   0.96625   35.304
 4011.00    1.01609   0.97859   35.053
 4012.00    1.01619   0.99082   34.907
 4013.00    1.02242   1.00218   35.584
 4014.00    1.03197   1.01013   36.311
 4015.00    1.03997   1.01819   36.282
 4016.00    1.04639   1.02489   36.044
 4017.00    1.05157   1.02625   36.079
 4018.00    1.05269   1.02874   35.803
 4019.00    1.04755   1.03249   35.119
 4020.00    1.03752   1.03042   35.218
 4021.00    1.02680   1.02772   36.497
 4022.00    1.02093   1.02868   37.314
 4023.00    1.02086   1.02637   36.681
 4024.00    1.02053   1.02042   36.236
 4025.00    1.01692   1.01652   36.934
 4026.00    1.01491   1.01001   37.493
 4027.00    1.01579   0.99630   36.939
 4028.00    1.01204   0.98202   36.210
 4029.00    0.99934   0.96618   36.120
 4030.00    0.98246   0.94538   36.453
 4031.00    0.96671   0.92976   36.796
 4032.00    0.95364   0.92148   36.977
 4033.00    0.94485   0.91665   36.974
 4034.00    0.94376   0.92186   36.841
 4035.00    0.95362   0.93648   36.620
 4036.00    0.97515   0.95324   36.323
 4037.00    1.00000   0.97032   36.048
 4038.00    1.01186   0.98454   35.973
 4039.00    1.00574   0.99213   36.134
 4040.00    0.99284   0.99057   36.365
 4041.00    0.98300   0.98006   36.475
 4042.00    0.97742   0.96452   36.379
 4043.00    0.97156   0.94654   36.226
 4044.00    0.95925   0.92924   36.331
 4045.00    0.94301   0.91663   36.718
 4046.00    0.93437   0.91285   37.046
 4047.00    0.93994   0.91876   36.994
 4048.00    0.95717   0.92834   36.491
 4049.00    0.97870   0.94129   35.800
 4050.00    0.99604   0.95836   35.347
 4051.00    1.00647   0.96897   35.263
 4052.00    1.01266   0.97213   35.372
 4053.00    1.01450   0.97370   35.523
 4054.00    1.00879   0.96796   35.651
 4055.00    0.99661   0.95673   35.689
 4056.00    0.98297   0.94742   35.576
 4057.00    0.96936   0.93566   35.371
 4058.00    0.95390   0.92309   35.249
 4059.00    0.93789   0.91428   35.399
 4060.00    0.92575   0.90409   35.923
 4061.00    0.91996   0.89499   36.581
 4062.00    0.92000   0.89006   36.924
 4063.00    0.92317   0.88445   36.935
 4064.00    0.92602   0.88317   36.993
 4065.00    0.92722   0.88911   37.287
 4066.00    0.92748   0.89465   37.730
 4067.00    0.92793   0.90122   38.065
 4068.00    0.92979   0.91156   38.054
 4069.00    0.93451   0.92015   37.841
 4070.00    0.94242   0.92415   37.797
 4071.00    0.94997   0.92492   38.072
 4072.00    0.95210   0.92580   38.537
 4073.00    0.94799   0.92516   38.828
 4074.00    0.94116   0.92057   38.668
 4075.00    0.93735   0.91942   38.448
 4076.00    0.94147   0.92275   38.728
 4077.00    0.95307   0.92700   39.263
 4078.00    0.96734   0.93690   39.399
 4079.00    0.97856   0.95112   39.132
 4080.00    0.98400   0.96700   38.865
 4081.00    0.98895   0.98629   38.679
 4082.00    1.00074   1.00433   38.430
 4083.00    1.01851   1.02053   38.053
 4084.00    1.03669   1.03814   37.649
 4085.00    1.05237   1.05299   37.510
 4086.00    1.06489   1.06468   37.784
 4087.00    1.07385   1.07694   38.039
 4088.00    1.07877   1.08585   37.832
 4089.00    1.07902   1.08820   37.576
 4090.00    1.07440   1.08778   37.787
 4091.00    1.06556   1.08240   38.122
 4092.00    1.05302   1.06772    0.000
 4093.00    1.03582   1.05009    0.000
 4094.00    1.01369   1.02978    0.000
 4095.00    0.98940   1.00244    0.000
 4096.00    0.96603   0.97600    0.000
 4097.00    0.94392   0.95168    0.000
 4098.00    0.92246   0.92594    0.000
 4099.00    0.90226   0.90677    0.000
 4100.00    0.88538   0.89456    0.000
 4101.00    0.87509   0.88595    0.000
 4102.00    0.87424   0.88762    0.000
 4103.00    0.88359   0.89721    0.000
 4104.00    0.90122   0.90855    0.000
 4105.00    0.92242   0.92544    0.000
 4106.00    0.94265   0.94459    0.000
 4107.00    0.95978   0.95977    0.000
 4108.00    0.97233   0.97375    0.000
 4109.00    0.97822   0.98617    0.000
 4110.00    0.97942   0.99544    0.000
 4111.00    0.98398   1.00333    0.000
 4112.00    0.99334   1.01001    0.000
 4113.00    0.99553   1.01681   37.202
 4114.00    0.98602   1.02254   36.997
 4115.00    0.97953   1.02470   36.739
 4116.00    0.98554   1.02664   36.308
 4117.00    0.99407   1.02766   35.959
 4118.00    0.99605   1.02407   35.847
 4119.00    0.99544   1.02058   35.811
 4120.00    0.99798   1.01923   35.743
 4121.00    1.00403   1.01613   35.767
 4122.00    1.01011   1.01316   35.927
 4123.00    1.01100   1.01183   36.046
 4124.00    1.00507   1.00966   36.023
 4125.00    0.99612   1.00519   35.971
 4126.00    0.98767   0.99853   36.040
 4127.00    0.98022   0.99078   36.311
 4128.00    0.97333   0.98057   36.797
 4129.00    0.96678   0.96911   37.405
 4130.00    0.96053   0.96036   37.801
 4131.00    0.95477   0.95285   37.586
 4132.00    0.95025   0.94936   37.474
 4133.00    0.94840   0.95265   38.905
 4134.00    0.95073   0.95762   40.101
 4135.00    0.95782   0.96694   36.782
 4136.00    0.96643   0.97867   34.621
 4137.00    0.97044   0.98529   44.653
 4138.00    0.96940   0.99069   56.465
 4139.00    0.96861   0.99151   25.662
 4140.00    0.96674   0.98370   12.536
 4141.00    0.95586   0.97528    9.734
 4142.00    0.93826   0.96538   10.199
 4143.00    0.92695   0.95241   11.031
 4144.00    0.92665   0.94490   10.867
 4145.00    0.93101   0.94200   10.806
 4146.00    0.93512   0.93858   10.920
 4147.00    0.93828   0.93917   10.218
 4148.00    0.93968   0.94250    9.914
 4149.00    0.93782   0.94262   12.895
 4150.00    0.93290   0.94241   26.570
 4151.00    0.92676   0.94252   59.709
 4152.00    0.92086   0.94147   48.023
 4153.00    0.91631   0.94125   37.539
 4154.00    0.91571   0.94277   40.519
 4155.00    0.92145   0.94788   44.580
 4156.00    0.93054   0.95608   42.910
 4157.00    0.93820   0.96608   40.949
 4158.00    0.94900   0.97916   40.913
 4159.00    0.97117   0.99414   41.127
 4160.00    0.99783   1.00719   40.766
 4161.00    1.01275   1.01716   40.269
 4162.00    1.01193   1.02636   40.000
 4163.00    1.00272   1.03070   40.045
 4164.00    0.99206   1.02788   40.360
 4165.00    0.98378   1.02429   40.773
 4166.00    0.97821   1.01727   40.942
 4167.00    0.97327   1.00452   40.628
 4168.00    0.96686   0.99248   40.209
 4169.00    0.95762   0.97914   40.241
 4170.00    0.94560   0.96383   40.661
 4171.00    0.93179   0.95058   41.033
 4172.00    0.91731   0.93779   41.203
 4173.00    0.90413   0.92763   41.284
 4174.00    0.89635   0.92140   41.396
 4175.00    0.89735   0.91727   41.555
 4176.00    0.90520   0.91799   41.573
 4177.00    0.91511   0.92193   41.211
 4178.00    0.92390   0.92660   40.441
 4179.00    0.93077   0.93467   39.563
 4180.00    0.93727   0.94339   39.220
 4181.00    0.94544   0.95015   39.725
 4182.00    0.95530   0.95894   40.259
 4183.00    0.96477   0.96682   39.851
 4184.00    0.97022   0.97097   38.947
 4185.00    0.97002   0.97714   38.488
 4186.00    0.96838   0.98288   38.716
 4187.00    0.97030   0.98537   39.258
 4188.00    0.97552   0.98944   39.249
 4189.00    0.98124   0.99403   38.360
 4190.00    0.98574   0.99650   37.713
 4191.00    0.98803   0.99694   38.152
 4192.00    0.98707   0.99514   38.827
 4193.00    0.98220   0.99075   38.749
 4194.00    0.97370   0.98230   38.579
 4195.00    0.96345   0.96958   39.063
 4196.00    0.95526   0.95690   39.512
 4197.00    0.95167   0.94595   39.233
 4198.00    0.95130   0.93413   38.940
 4199.00    0.95198   0.92737   39.223
 4200.00    0.95342   0.92909   39.358
 4201.00    0.95630   0.93257   38.746
 4202.00    0.96139   0.94179   38.088
 4203.00    0.96974   0.95869   38.051
 4204.00    0.98256   0.97499   38.415
 4205.00    0.99913   0.99323   38.711
 4206.00    1.01565   1.01253   38.703
 4207.00    1.02932   1.02684   38.380
 4208.00    1.04071   1.03967   37.904
 4209.00    1.05012   1.04829   37.611
 4210.00    1.05517   1.05114   37.923
 4211.00    1.05305   1.05382   38.831
 4212.00    1.04278   1.05276   39.579
 4213.00    1.03023   1.05042   39.489
 4214.00    1.02819   1.05277   38.683
 4215.00    1.03942   1.05426   37.956
 4216.00    1.05033   1.05662   38.302
 4217.00    1.05320   1.06264   39.666
 4218.00    1.05540   1.06488   40.415
 4219.00    1.06020   1.06145   39.754
 4220.00    1.05879   1.05252   39.022
 4221.00    1.04367   1.03525   39.207
 4222.00    1.01551   1.01089   40.094
 4223.00    0.98144   0.98113   41.202
 4224.00    0.95217   0.95083   42.172
 4225.00    0.93335   0.92797   42.755
 4226.00    0.92329   0.91095   42.885
 4227.00    0.92030   0.90327   42.897
 4228.00    0.92526   0.91232   43.343
 4229.00    0.93823   0.92664   43.944
 4230.00    0.95713   0.94310   43.573
 4231.00    0.97825   0.96793   42.334
 4232.00    0.99710   0.98730   41.617
 4233.00    1.01057   0.99890   41.794
 4234.00    1.01785   1.01343   42.065
 4235.00    1.02039   1.02305   42.077
 4236.00    1.02140   1.02774   42.211
 4237.00    1.02402   1.03806   42.444
 4238.00    1.03079   1.05086   42.274
 4239.00    1.04357   1.06277   41.833
 4240.00    1.06260   1.07781   41.798
 4241.00    1.08334   1.09529   42.089
 4242.00    1.09837   1.10864   41.932
 4243.00    1.10562   1.11768   41.226
 4244.00    1.10830   1.12259   40.582
 4245.00    1.10797   1.12019   40.329
 4246.00    1.10327   1.11237   40.432
 4247.00    1.09175   1.09800   40.834
 4248.00    1.07240   1.08047   41.484
 4249.00    1.05049   1.06515   42.185
 4250.00    1.03471   1.04861   42.616
 4251.00    1.02775   1.03497   42.566
 4252.00    1.02620   1.02742   42.102
 4253.00    1.02579   1.02276   41.712
 4254.00    1.02432   1.02163   41.903
 4255.00    1.02491   1.02244   42.411
 4256.00    1.03241   1.02624   42.501
 4257.00    1.04455   1.03194   42.053
 4258.00    1.05479   1.03711   41.520
 4259.00    1.06143   1.04718   41.313
 4260.00    1.06738   1.05969   41.549
 4261.00    1.07640   1.07142   41.803
 4262.00    1.09021   1.08694   41.494
 4263.00    1.10514   1.10191   40.715
 4264.00    1.11479   1.10986   40.019
 4265.00    1.11559   1.11208   39.830
 4266.00    1.10681   1.10758   40.201
 4267.00    1.08893   1.09289   40.540
 4268.00    1.06420   1.06850   40.464
 4269.00    1.03769   1.04150   41.184
 4270.00    1.01434   1.01646   43.096
 4271.00    0.99453   0.99083   41.628
 4272.00    0.97794   0.97361   36.734
 4273.00    0.96945   0.97028   39.947
 4274.00    0.97373   0.97215   63.967
 4275.00    0.98732   0.98441   47.102
 4276.00    1.00380   1.00483   17.120
 4277.00    1.02156   1.02263    9.989
 4278.00    1.03981   1.04383    8.857
 4279.00    1.05321   1.06103    9.454
 4280.00    1.05811   1.06895    9.726
 4281.00    1.05989   1.07630    9.443
 4282.00    1.06350   1.07503    9.338
 4283.00    1.06297   1.06672    9.408
 4284.00    1.05105   1.05929    9.455
 4285.00    1.03008   1.04599    9.710
 4286.00    1.00821   1.02973   10.205
 4287.00    0.99386   1.01631   10.039
 4288.00    0.98945   1.00276    9.311
 4289.00    0.98685   0.99157   10.264
 4290.00    0.97864   0.98466   17.060
 4291.00    0.96793   0.97709   44.977
 4292.00    0.96156   0.97287   63.334
 4293.00    0.96286   0.96951   40.672
 4294.00    0.96684   0.95960   37.192
 4295.00    0.95869   0.94919   42.099
 4296.00    0.93134   0.93288   44.121
 4297.00    0.89705   0.91028   42.658
 4298.00    0.86917   0.89025   42.241
 4299.00    0.84872   0.86484   42.852
 4300.00    0.83240   0.83990   43.286
 4301.00    0.81883   0.82272   43.523
 4302.00    0.80605   0.80387   43.817
 4303.00    0.79046   0.78998   44.006
 4304.00    0.77240   0.78274   -2.000
 4305.00    0.75872   0.77536   -2.000
 4306.00    0.75576   0.77603   -2.000
 4307.00    0.76507   0.78392   -2.000
 4308.00    0.78510   0.79622   -2.000
 4309.00    0.81318   0.81997   -2.000
 4310.00    0.85035   0.85439   -2.000
 4311.00    0.90170   0.89532   -2.000
 4312.00    0.96392   0.94492   -2.000
 4313.00    1.02228   1.00310   -2.000
 4314.00    1.06952   1.05939   -2.000
 4315.00    1.11235   1.11140   -2.000
 4316.00    1.15513   1.16034   -2.000
 4317.00    1.19283   1.19531   -2.000
 4318.00    1.21674   1.21546   -2.000
 4319.00    1.21932   1.22483   -2.000
 4320.00    1.20311   1.21703   39.921
 4321.00    1.18089   1.19864   40.875
 4322.00    1.16047   1.17628   40.229
 4323.00    1.14091   1.14995   40.034
 4324.00    1.12318   1.13167   40.928
 4325.00    1.11286   1.12276   41.401
 4326.00    1.11382   1.12152   41.068
 4327.00    1.12589   1.13249   41.257
 4328.00    1.14578   1.15246   41.765
 4329.00    1.16843   1.17815   40.891
 4330.00    1.19050   1.20297    0.000
 4331.00    1.21024   1.22265    0.000
 4332.00    1.22326   1.23783    0.000
 4333.00    1.22358   1.24193    0.000
 4334.00    1.21111   1.23133    0.000
 4335.00    1.19131   1.21420    0.000
 4336.00    1.16751   1.19215    0.000
 4337.00    1.14076   1.16146    0.000
 4338.00    1.11573   1.13417    0.000
 4339.00    1.09959   1.11658    0.000
 4340.00    1.09463   1.10242    0.000
 4341.00    1.09796   1.09860    0.000
 4342.00    1.10597   1.10959    0.000
 4343.00    1.11650   1.12567    0.000
 4344.00    1.13091   1.14550    0.000
 4345.00    1.15155   1.16973    0.000
 4346.00    1.17485   1.19192    0.000
 4347.00    1.19371   1.20895    0.000
 4348.00    1.20597   1.21733    0.000
 4349.00    1.21368   1.22022    0.000
 4350.00    1.21745   1.22342    0.000
 4351.00    1.21665   1.22140   85.029
 4352.00    1.21202   1.21640   48.794
 4353.00    1.20543   1.21781   36.436
 4354.00    1.19855   1.22367   41.639
 4355.00    1.19392   1.23025   46.371
 4356.00    1.19706   1.23979   43.215
 4357.00    1.21243   1.25454   40.879
 4358.00    1.23618   1.27212   41.111
 4359.00    1.25983   1.28798   41.459
 4360.00    1.27841   1.30189   41.335
 4361.00    1.29115   1.31727   41.451
 4362.00    1.30042   1.33121   41.536
 4363.00    1.30834   1.33843   41.059
 4364.00    1.31235   1.34064   40.770
 4365.00    1.30993   1.34018   41.380
 4366.00    1.30573   1.33581   41.671
 4367.00    1.30481   1.32480   40.744
 4368.00    1.30268   1.31022   41.171
 4369.00    1.29232   1.29601   44.229
 4370.00    1.27447   1.27943   42.923
 4371.00    1.25450   1.26173   36.831
 4372.00    1.23684   1.24579   41.791
 4373.00    1.22384   1.23260   79.880
 4374.00    1.21499   1.22231   45.224
 4375.00    1.20728   1.21196   14.210
 4376.00    1.19584   1.20125    8.396
 4377.00    1.17826   1.18996    7.780
 4378.00    1.15848   1.17667    8.636
 4379.00    1.14017   1.15835    8.979
 4380.00    1.12049   1.13308    8.924
 4381.00    1.09725   1.10821    9.290
 4382.00    1.07581   1.08672    9.262
 4383.00    1.06290   1.06726    8.640
 4384.00    1.06044   1.05318    9.614
 4385.00    1.06655   1.04806   16.626
 4386.00    1.07717   1.05380   50.593
 4387.00    1.08939   1.06584   75.828
 4388.00    1.10370   1.08259   43.231
 4389.00    1.12110   1.10467   39.070
 4390.00    1.14058   1.12811   44.490
 4391.00    1.15913   1.15133   45.380
 4392.00    1.17272   1.17218   42.964
 4393.00    1.18241   1.19261   42.950
 4394.00    1.19673   1.21224   43.799
 4395.00    1.21748   1.22524   43.238
 4396.00    1.23253   1.23556   42.417
 4397.00    1.23430   1.24117   42.559
 4398.00    1.22973   1.23965   43.102
 4399.00    1.22476   1.23636   43.420
 4400.00    1.21588   1.22443   43.815
 4401.00    1.20073   1.20551   44.450
 4402.00    1.18368   1.19054   44.779
 4403.00    1.16959   1.17732   44.538
 4404.00    1.16049   1.16404   44.227
 4405.00    1.15752   1.15607   44.208
 4406.00    1.16182   1.15817   44.322
 4407.00    1.17344   1.16924   44.343
 4408.00    1.19080   1.18374   44.205
 4409.00    1.21147   1.20093   43.954
 4410.00    1.23277   1.22181   43.691
 4411.00    1.25305   1.24027   43.453
 4412.00    1.27171   1.25389   43.190
 4413.00    1.28683   1.26675   42.866
 4414.00    1.29530   1.27498   42.527
 4415.00    1.29782   1.28017   42.360
 4416.00    1.29946   1.28724   42.523
 4417.00    1.30380   1.29214   42.370
 4418.00    1.31072   1.29771   40.992
 4419.00    1.31739   1.30246   40.051
 4420.00    1.31999   1.30502   42.298
 4421.00    1.31795   1.30995   44.106
 4422.00    1.31444   1.31088   38.105
 4423.00    1.31239   1.30950   35.631
 4424.00    1.31291   1.30912   57.210
 4425.00    1.31473   1.30744   80.815
 4426.00    1.31498   1.30573   20.846
 4427.00    1.31168   1.29988    9.102
 4428.00    1.30467   1.29630    7.018
 4429.00    1.29573   1.29554    7.390
 4430.00    1.28779   1.28882    8.020
 4431.00    1.28273   1.28374    7.907
 4432.00    1.28108   1.28002    7.735
 4433.00    1.28300   1.27785    7.781
 4434.00    1.28835   1.28068    7.733
 4435.00    1.29640   1.28231    7.654
 4436.00    1.30584   1.28855    7.827
 4437.00    1.31494   1.29898    7.795
 4438.00    1.32241   1.30691    7.096
 4439.00    1.32915   1.31559    7.029
 4440.00    1.33745   1.32342   10.017
 4441.00    1.34836   1.33076   26.377
 4442.00    1.36103   1.33984   90.132
 4443.00    1.37256   1.34785   48.840
 4444.00    1.38030   1.35465   34.624
 4445.00    1.38603   1.36437   39.055
 4446.00    1.39322   1.37282   43.870
 4447.00    1.40043   1.37493   41.451
 4448.00    1.40278   1.37713   39.808
 4449.00    1.39690   1.37476   40.771
 4450.00    1.38173   1.36431   41.681
 4451.00    1.35831   1.35016   41.680
 4452.00    1.33010   1.32859   41.698
 4453.00    1.30346   1.30609   42.086
 4454.00    1.28316   1.28418   42.517
 4455.00    1.26576   1.25917   42.497
 4456.00    1.24601   1.23899   42.170
 4457.00    1.22741   1.22532   43.150
 4458.00    1.21739   1.21468   45.637
 4459.00    1.21830   1.20888   43.571
 4460.00    1.22795   1.21210   37.265
 4461.00    1.24200   1.21932    0.000
 4462.00    1.25693   1.22944    0.000
 4463.00    1.27302   1.24519    0.000
 4464.00    1.29113   1.26082    0.000
 4465.00    1.30859   1.27834    0.000
 4466.00    1.32222   1.29492    0.000
 4467.00    1.33246   1.31013    0.000
 4468.00    1.34193   1.32941    0.000
 4469.00    1.35328   1.34716    0.000
 4470.00    1.36729   1.36477    0.000
 4471.00    1.38152   1.38359    0.000
 4472.00    1.39391   1.40125    0.000
 4473.00    1.40629   1.41917    0.000
 4474.00    1.41993   1.43417    0.000
 4475.00    1.43160   1.44453    0.000
 4476.00    1.43808   1.45056    0.000
 4477.00    1.44039   1.45157    0.000
 4478.00    1.44063   1.44953    0.000
 4479.00    1.43907   1.44459    0.000
 4480.00    1.43589   1.43826    0.000
 4481.00    1.43273   1.43344    0.000
 4482.00    1.43226   1.43085   33.870
 4483.00    1.43710   1.43213   40.557
 4484.00    1.44488   1.43367   42.813
 4485.00    1.44631   1.43402   40.520
 4486.00    1.43793   1.43424   40.533
 4487.00    1.42916   1.43247   41.606
 4488.00    1.42547   1.42945   41.374
 4489.00    1.41902   1.42400   40.974
 4490.00    1.40621   1.41653   41.579
 4491.00    1.39680   1.40861   42.283
 4492.00    1.39575   1.40347   42.146
 4493.00    1.39430   1.40084   41.589
 4494.00    1.38753   1.39977   41.214
 4495.00    1.38303   1.40516   41.112
 4496.00    1.38823   1.41434   41.235
 4497.00    1.40333   1.42824   41.585
 4498.00    1.42423   1.44547   42.027
 4499.00    1.44523   1.46344   42.232
 4500.00    1.46354   1.48646   41.986
 4501.00    1.48080   1.50753   41.367
 4502.00    1.49904   1.52756   40.644
 4503.00    1.51860   1.54762   40.139
 4504.00    1.53845   1.56218   39.980
 4505.00    1.55645   1.57412   40.061
 4506.00    1.56968   1.58022   40.241
 4507.00    1.57488   1.58146   40.453
 4508.00    1.56954   1.58131   40.821
 4509.00    1.55332   1.57529   41.590
 4510.00    1.53163   1.56640   42.556
 4511.00    1.51425   1.55655   43.002
 4512.00    1.50482   1.54452   42.738
 4513.00    1.49905   1.53437   42.342
 4514.00    1.49304   1.52403   42.213
 4515.00    1.48631   1.51470   42.343
 4516.00    1.48150   1.51051   42.621
 4517.00    1.48168   1.50469   42.919
 4518.00    1.48258   1.49951   43.072
 4519.00    1.47498   1.49462   42.964
 4520.00    1.45994   1.48509   42.822
 4521.00    1.44767   1.47649   43.048
 4522.00    1.44008   1.46076   43.512
 4523.00    1.42999   1.43873   43.675
 4524.00    1.41370   1.41754   43.612
 4525.00    1.39272   1.39200   43.891
 4526.00    1.36839   1.36773   44.426
 4527.00    1.34213   1.34613   44.622
 4528.00    1.31938   1.32604   44.668
 4529.00    1.30706   1.31539   45.247
 4530.00    1.30488   1.30970   45.942
 4531.00    1.30702   1.30803   45.671
 4532.00    1.31082   1.31556   44.909
 4533.00    1.31769   1.32605   44.957
 4534.00    1.33056   1.34246   45.509
 4535.00    1.35127   1.36014   45.258
 4536.00    1.37653   1.37660   44.313
 4537.00    1.39994   1.39708   43.750
 4538.00    1.41765   1.41358   43.826
 4539.00    1.42870   1.42740   44.164
 4540.00    1.43344   1.43763   44.504
 4541.00    1.43304   1.44215   44.758
 4542.00    1.42916   1.44634   44.860
 4543.00    1.42407   1.44809   44.737
 4544.00    1.42081   1.44471   44.307
 4545.00    1.42054   1.44033   43.693
 4546.00    1.41843   1.43501   43.490
 4547.00    1.40939   1.42994   44.160
 4548.00    1.39757   1.42832   45.098
 4549.00    1.39091   1.42374   45.353
 4550.00    1.39094   1.42131    0.000
 4551.00    1.39569   1.42369    0.000
 4552.00    1.40563   1.42682    0.000
 4553.00    1.42131   1.43506    0.000
 4554.00    1.43935   1.44486    0.000
 4555.00    1.45673   1.45574    0.000
 4556.00    1.47646   1.47080    0.000
 4557.00    1.50030   1.48549    0.000
 4558.00    1.51987   1.49844    0.000
 4559.00    1.52693   1.51059    0.000
 4560.00    1.52602   1.51720    0.000
 4561.00    1.52576   1.52118    0.000
 4562.00    1.52782   1.52473    0.000
 4563.00    1.53009   1.52388    0.000
 4564.00    1.53127   1.52357    0.000
 4565.00    1.53156   1.52299    0.000
 4566.00    1.53255   1.52164    0.000
 4567.00    1.53473   1.52511    0.000
 4568.00    1.53544   1.52749    0.000
 4569.00    1.53355   1.52960    0.000
 4570.00    1.53320   1.53433    0.000
 4571.00    1.53684   1.53450    0.000
 4572.00    1.53971   1.53496    0.000
 4573.00    1.53759   1.53598    0.000
 4574.00    1.53301   1.53205    0.000
 4575.00    1.52882   1.52727    0.000
 4576.00    1.52313   1.51883    0.000
 4577.00    1.51278   1.50795    0.000
 4578.00    1.49649   1.49826    0.000
 4579.00    1.47757   1.48727    0.000
 4580.00    1.46447   1.47620    0.000
 4581.00    1.46191   1.46719    0.000
 4582.00    1.46585   1.46276    0.000
 4583.00    1.47160   1.46119    0.000
 4584.00    1.47869   1.46322    0.000
 4585.00    1.48652   1.46786    0.000
 4586.00    1.49202   1.47241    0.000
 4587.00    1.49346   1.47911    0.000
 4588.00    1.49238   1.48441    0.000
 4589.00    1.49100   1.48757    0.000
 4590.00    1.49064   1.48844    0.000
 4591.00    1.49168   1.48564    0.000
 4592.00    1.49349   1.48031    0.000
 4593.00    1.49423   1.47461    0.000
 4594.00    1.49148   1.46911    0.000
 4595.00    1.48576   1.46250    0.000
 4596.00    1.48107   1.45880    0.000
 4597.00    1.47921   1.45572    0.000
 4598.00    1.47814   1.45467    0.000
 4599.00    1.47719   1.45874    0.000
 4600.00    1.47869   1.46091    0.000
 4601.00    1.48524   1.46739    0.000
 4602.00    1.49784   1.47612    0.000
 4603.00    1.51341   1.48583    0.000
 4604.00    1.52580   1.50078    0.000
 4605.00    1.53279   1.51419    0.000
 4606.00    1.53785   1.52951    0.000
 4607.00    1.54621   1.54560    0.000
 4608.00    1.56180   1.55981    0.000
 4609.00    1.58209   1.57440    0.000
 4610.00    1.59924   1.58519    0.000
 4611.00    1.60954   1.59248    0.000
 4612.00    1.61503   1.59938    0.000
 4613.00    1.61870   1.60248    0.000
 4614.00    1.62256   1.60533    0.000
 4615.00    1.62685   1.60878    0.000
 4616.00    1.63028   1.60922    0.000
 4617.00    1.63167   1.61174    0.000
 4618.00    1.63070   1.61363    0.000
 4619.00    1.62900   1.61357    0.000
 4620.00    1.62863   1.61501    0.000
 4621.00    1.62794   1.61528    0.000
 4622.00    1.62373   1.61439    0.000
 4623.00    1.61900   1.61408    0.000
 4624.00    1.61971   1.61187    0.000
 4625.00    1.62322   1.60891    0.000
 4626.00    1.62165   1.60661    0.000
 4627.00    1.61525   1.60290    0.000
 4628.00    1.61047   1.59892    0.000
 4629.00    1.60977   1.59366    0.000
 4630.00    1.61082   1.58658    0.000
 4631.00    1.60919   1.57983    0.000
 4632.00    1.60102   1.57059    0.000
 4633.00    1.58672   1.55997    0.000
 4634.00    1.56986   1.54842    0.000
 4635.00    1.55385   1.53472    0.000
 4636.00    1.54011   1.52343    0.000
 4637.00    1.52607   1.51135    0.000
 4638.00    1.50911   1.49953    0.000
 4639.00    1.49316   1.48938    0.000
 4640.00    1.48367   1.47790    0.000
 4641.00    1.47830   1.46865    0.000
 4642.00    1.47129   1.45967    0.000
 4643.00    1.46191   1.45021    0.000
 4644.00    1.45280   1.44258    0.000
 4645.00    1.44591   1.43596    0.000
 4646.00    1.44228   1.43087    0.000
 4647.00    1.44250   1.43010    0.000
 4648.00    1.44633   1.43270    0.000
 4649.00    1.45219   1.43812    0.000
 4650.00    1.45902   1.44812    0.000
 4651.00    1.46835   1.45877    0.000
 4652.00    1.48138   1.47101    0.000
 4653.00    1.49547   1.48540    0.000
 4654.00    1.50756   1.49763    0.000
 4655.00    1.51826   1.51092    0.000
 4656.00    1.52903   1.52161    0.000
 4657.00    1.53874   1.52960    0.000
 4658.00    1.54499   1.53636    0.000
 4659.00    1.54579   1.53835    0.000
 4660.00    1.54014   1.53641    0.000
 4661.00    1.52855   1.52756    0.000
 4662.00    1.51229   1.51250    0.000
 4663.00    1.49287   1.49391    0.000
 4664.00    1.47254   1.47411    0.000
 4665.00    1.45455   1.45590    0.000
 4666.00    1.44134   1.44011    0.000
 4667.00    1.43313   1.42777    0.000
 4668.00    1.42913   1.42118    0.000
 4669.00    1.42862   1.42140    0.000
 4670.00    1.43150   1.42796    0.000
 4671.00    1.43844   1.44022    0.000
 4672.00    1.44919   1.45284    0.000
 4673.00    1.46160   1.46485    0.000
 4674.00    1.47329   1.47536    0.000
 4675.00    1.48278   1.48289    0.000
 4676.00    1.48905   1.48937    0.000
 4677.00    1.49131   1.49201    0.000
 4678.00    1.49014   1.49244    0.000
 4679.00    1.48780   1.49117    0.000
 4680.00    1.48612   1.48855    0.000
 4681.00    1.48530   1.48737    0.000
 4682.00    1.48535   1.48660    0.000
 4683.00    1.48663   1.48763    0.000
 4684.00    1.48852   1.48942    0.000
 4685.00    1.48928   1.49114    0.000
 4686.00    1.48934   1.49333    0.000
 4687.00    1.49179   1.49467    0.000
 4688.00    1.49648   1.49601    0.000
 4689.00    1.49864   1.49759    0.000
 4690.00    1.49647   1.49910    0.000
 4691.00    1.49339   1.50038    0.000
 4692.00    1.49163   1.50109    0.000
 4693.00    1.49022   1.49989    0.000
 4694.00    1.48897   1.49803    0.000
 4695.00    1.48891   1.49571    0.000
 4696.00    1.48743   1.49082    0.000
 4697.00    1.47904   1.48440    0.000
 4698.00    1.46616   1.47488    0.000
 4699.00    1.45859   1.46555    0.000
 4700.00    1.45670   1.45718    0.000
 4701.00    1.45077   1.44923    0.000
 4702.00    1.44032   1.44366    0.000
 4703.00    1.43540   1.43902    0.000
 4704.00    1.43807   1.43705    0.000
 4705.00    1.44058   1.43739    0.000
 4706.00    1.43901   1.44111    0.000
 4707.00    1.43589   1.44575    0.000
 4708.00    1.43501   1.45167    0.000
 4709.00    1.43945   1.45765    0.000
 4710.00    1.45072   1.46567    0.000
 4711.00    1.46809   1.47789    0.000
 4712.00    1.48727   1.48964    0.000
 4713.00    1.50259   1.50365    0.000
 4714.00    1.51309   1.51758    0.000
 4715.00    1.52209   1.53243    0.000
 4716.00    1.53225   1.54961    0.000
 4717.00    1.54415   1.56524    0.000
 4718.00    1.55622   1.58109    0.000
 4719.00    1.56617   1.59480    0.000
 4720.00    1.57420   1.60371    0.000
 4721.00    1.58159   1.60896    0.000
 4722.00    1.58641   1.60759    0.000
 4723.00    1.58473   1.60165    0.000
 4724.00    1.57498   1.59204    0.000
 4725.00    1.55915   1.57822    0.000
 4726.00    1.54320   1.56310    0.000
 4727.00    1.53294   1.54644    0.000
 4728.00    1.52672   1.53057    0.000
 4729.00    1.51846   1.51699    0.000
 4730.00    1.50530   1.50858    0.000
 4731.00    1.48967   1.50450    0.000
 4732.00    1.48021   1.50509    0.000
 4733.00    1.48493   1.51049    0.000
 4734.00    1.50049   1.51726    0.000
 4735.00    1.51753   1.52672    0.000
 4736.00    1.53087   1.53584    0.000
 4737.00    1.53975   1.54615    0.000
 4738.00    1.54589   1.55744    0.000
 4739.00    1.55218   1.56667    0.000
 4740.00    1.56108   1.57600    0.000
 4741.00    1.57335   1.58485    0.000
 4742.00    1.58685   1.59232    0.000
 4743.00    1.59861   1.59908    0.000
 4744.00    1.60759   1.60501    0.000
 4745.00    1.61438   1.61046    0.000
 4746.00    1.62029   1.61500    0.000
 4747.00    1.62546   1.61573    0.000
 4748.00    1.62716   1.61558    0.000
 4749.00    1.62385   1.61358    0.000
 4750.00    1.61910   1.60943    0.000
 4751.00    1.61572   1.60368    0.000
 4752.00    1.60989   1.59606    0.000
 4753.00    1.59864   1.58898    0.000
 4754.00    1.58678   1.58071    0.000
 4755.00    1.57935   1.57371    0.000
 4756.00    1.57449   1.56589    0.000
 4757.00    1.56806   1.55813    0.000
 4758.00    1.55838   1.55111    0.000
 4759.00    1.54697   1.54283    0.000
 4760.00    1.53819   1.53459    0.000
 4761.00    1.53468   1.52494   49.470
 4762.00    1.53400   1.51641   49.775
 4763.00    1.53237   1.50921   49.917
 4764.00    1.52773   1.50360   50.162
 4765.00    1.52059   1.50203   50.425
 4766.00    1.51411   1.50258   49.972
 4767.00    1.51173   1.50775   48.850
 4768.00    1.51526   1.51633   48.400
 4769.00    1.52420   1.52905   49.130
 4770.00    1.53566   1.54417   49.781
 4771.00    1.54666   1.55792   49.521
 4772.00    1.55574   1.57312   49.262
 4773.00    1.56423   1.58615   49.522
 4774.00    1.57592   1.59812   49.441
 4775.00    1.59144   1.60842   48.663
 4776.00    1.60598   1.61505   48.123
 4777.00    1.61436   1.61906   48.392
 4778.00    1.61408   1.61736   49.053
 4779.00    1.60583   1.61370   49.503
 4780.00    1.59323   1.60862   49.439
 4781.00    1.58058   1.59947   49.013
 4782.00    1.57149   1.59030   48.741
 4783.00    1.56740   1.58082   48.997
 4784.00    1.56715   1.57220   49.780
 4785.00    1.56785   1.56647   50.556
 4786.00    1.56641   1.56242   50.450
 4787.00    1.56431   1.56340   49.688
 4788.00    1.56757   1.56719   49.610
 4789.00    1.57819   1.57376   50.566
 4790.00    1.59228   1.58443   51.500
 4791.00    1.60635   1.59520   51.414
 4792.00    1.61925   1.60715   50.249
 4793.00    1.63011   1.61858   49.016
 4794.00    1.63806   1.62823   49.024
 4795.00    1.64376   1.63621   50.198
 4796.00    1.64909   1.64114   51.088
 4797.00    1.65427   1.64361   50.967
 4798.00    1.65753   1.64273   50.444
 4799.00    1.65702   1.64019   50.145
 4800.00    1.65192   1.63622   50.305
 4801.00    1.64366   1.63294   50.913
 4802.00    1.63526   1.62942   51.706
 4803.00    1.62857   1.62553   52.071
 4804.00    1.62367   1.62235   51.459
 4805.00    1.61968   1.61794   50.535
 4806.00    1.61579   1.61469   50.564
 4807.00    1.61324   1.61148   51.581
 4808.00    1.61421   1.61059   52.484
 4809.00    1.61804   1.61208   52.356
 4810.00    1.62176   1.61479   51.166
 4811.00    1.62367   1.61994   50.027
 4812.00    1.62435   1.62676   50.140
 4813.00    1.62713   1.63390   51.097
 4814.00    1.63528   1.64205   51.482
 4815.00    1.64618   1.64923   51.092
 4816.00    1.65383   1.65548   50.747
 4817.00    1.65625   1.66031   50.670
 4818.00    1.65517   1.66136   50.564
 4819.00    1.65259   1.66098   50.329
 4820.00    1.64990   1.65779   50.124
 4821.00    1.64758   1.65240   50.235
 4822.00    1.64491   1.64547   50.795
 4823.00    1.63974   1.63612   51.338
 4824.00    1.63023   1.62785   51.306
 4825.00    1.61782   1.62025   51.105
 4826.00    1.60601   1.61365   51.448
 4827.00    1.59776   1.60907   52.122
 4828.00    1.59414   1.60544   52.413
 4829.00    1.59320   1.60218   52.128
 4830.00    1.59245   1.60012   51.584
 4831.00    1.59256   1.59794   51.233
 4832.00    1.59443   1.59721   51.283
 4833.00    1.59489   1.59671   51.323
 4834.00    1.59068   1.59508   51.019
 4835.00    1.58411   1.59455   50.995
 4836.00    1.57939   1.59317   51.734
 4837.00    1.57722   1.59178   52.181
 4838.00    1.57624   1.58865   51.345
 4839.00    1.57553   1.58610   50.431
 4840.00    1.57503   1.58440   50.663
 4841.00    1.57566   1.58257   51.154
 4842.00    1.57798   1.58208   50.798
 4843.00    1.58099   1.58179   50.485
 4844.00    1.58325   1.58266   51.232
 4845.00    1.58434   1.58338   52.265
 4846.00    1.58466   1.58320   52.373
 4847.00    1.58497   1.58233   51.654
 4848.00    1.58470   1.57831    0.000
 4849.00    1.58065   1.57143    0.000
 4850.00    1.57051   1.56193    0.000
 4851.00    1.55571   1.54941    0.000
 4852.00    1.53871   1.53545    0.000
 4853.00    1.52045   1.51733    0.000
 4854.00    1.50066   1.49512    0.000
 4855.00    1.47841   1.47099    0.000
 4856.00    1.45356   1.44575    0.000
 4857.00    1.42776   1.42144    0.000
 4858.00    1.40382   1.40010    0.000
 4859.00    1.38484   1.38216    0.000
 4860.00    1.37225   1.36809    0.000
 4861.00    1.36481   1.35787    0.000
 4862.00    1.36216   1.35477    0.000
 4863.00    1.36637   1.35744    0.000
 4864.00    1.37744   1.36496    0.000
 4865.00    1.39107   1.37758    0.000
 4866.00    1.40391   1.38871    0.000
 4867.00    1.41619   1.40061    0.000
 4868.00    1.42884   1.41146    0.000
 4869.00    1.44159   1.42143    0.000
 4870.00    1.45282   1.42999    0.000
 4871.00    1.46026   1.43781    0.000
 4872.00    1.46498   1.44795    0.000
 4873.00    1.47217   1.45764    0.000
 4874.00    1.48471   1.47023    0.000
 4875.00    1.50074   1.48527   50.430
 4876.00    1.51764   1.49950   49.581
 4877.00    1.53384   1.51269   49.131
 4878.00    1.54818   1.52315   49.330
 4879.00    1.55942   1.53220   49.631
 4880.00    1.56587   1.53576   49.577
 4881.00    1.56580   1.53583   49.163
 4882.00    1.55969   1.53281   48.664
 4883.00    1.55032   1.52525   48.433
 4884.00    1.53970   1.51565   48.607
 4885.00    1.52845   1.50737   49.041
 4886.00    1.51835   1.49903   49.397
 4887.00    1.51245   1.49406   49.358
 4888.00    1.51245   1.49377   49.269
 4889.00    1.51775   1.49876   49.902
 4890.00    1.52556   1.50977   51.009
 4891.00    1.53293   1.52368   51.362
 4892.00    1.54258   1.54397   50.971
 4893.00    1.56125   1.56512   51.036
 4894.00    1.58947   1.58940   51.386
 4895.00    1.62060   1.61329   50.649
 4896.00    1.64739   1.63241   49.008
 4897.00    1.66468   1.64771   47.904
 4898.00    1.67121   1.65735   47.742
 4899.00    1.66946   1.66257   47.971
 4900.00    1.66392   1.66355   48.090
 4901.00    1.65896   1.66228   47.956
 4902.00    1.65497   1.65792   47.945
 4903.00    1.64952   1.65267   48.530
 4904.00    1.64237   1.64687   49.288
 4905.00    1.63557   1.63961   49.286
 4906.00    1.63105   1.63315   48.748
 4907.00    1.62924   1.62668   48.653
 4908.00    1.62762   1.62040   49.147
 4909.00    1.62297   1.61280   49.702
 4910.00    1.61629   1.60476   50.030
 4911.00    1.61075   1.59690   50.175
 4912.00    1.60576   1.58790   50.263
 4913.00    1.59846   1.57859   50.387
 4914.00    1.58845   1.56815   50.500
 4915.00    1.57725   1.55640   50.510
 4916.00    1.56581   1.54200   50.482
 4917.00    1.55420   1.52729   50.595
 4918.00    1.54168   1.51240   51.009
 4919.00    1.52782   1.49991   51.675
 4920.00    1.51430   1.49125   52.047
 4921.00    1.50474   1.48891   51.703
 4922.00    1.50395   1.49484   51.340
 4923.00    1.51480   1.50683   51.755
 4924.00    1.53407   1.52536   52.366
 4925.00    1.55602   1.54585   52.168
 4926.00    1.57800   1.56663   51.429
 4927.00    1.59922   1.58670   50.919
 4928.00    1.61810   1.60524   50.662
 4929.00    1.63302   1.61952   50.425
 4930.00    1.64340   1.62683   50.396
 4931.00    1.64889   1.62952   50.761
 4932.00    1.64824   1.62624   51.167
 4933.00    1.64096   1.61863   51.313
 4934.00    1.62918   1.60973   51.672
 4935.00    1.61629   1.59971   52.564
 4936.00    1.60514   1.59131   53.107
 4937.00    1.59806   1.58768   52.626
 4938.00    1.59687   1.58669   52.211
 4939.00    1.60181   1.58924   52.793
 4940.00    1.61069   1.59685    0.000
 4941.00    1.62109   1.60909    0.000
 4942.00    1.63245   1.62488    0.000
 4943.00    1.64557   1.64238    0.000
 4944.00    1.66160   1.65868    0.000
 4945.00    1.67944   1.67297    0.000
 4946.00    1.69412   1.68489    0.000
 4947.00    1.70170   1.69329    0.000
 4948.00    1.70295   1.69732    0.000
 4949.00    1.70007   1.69873    0.000
 4950.00    1.69399   1.69381    0.000
 4951.00    1.68503   1.68552    0.000
 4952.00    1.67338   1.67374    0.000
 4953.00    1.65912   1.65949    0.000
 4954.00    1.64233   1.64380    0.000
 4955.00    1.62437   1.62675    0.000
 4956.00    1.60856   1.61350    0.000
 4957.00    1.59865   1.60115    0.000
 4958.00    1.59705   1.59323    0.000
 4959.00    1.60036   1.58770    0.000
 4960.00    1.59881   1.58649    0.000
 4961.00    1.58931   1.59077    0.000
 4962.00    1.58055   1.59402    0.000
 4963.00    1.57976   1.59670    0.000
 4964.00    1.58594   1.59811    0.000
 4965.00    1.59438   1.59988    0.000
 4966.00    1.59997   1.60104    0.000
 4967.00    1.60133   1.60227    0.000
 4968.00    1.60165   1.60409    0.000
 4969.00    1.60342   1.60839    0.000
 4970.00    1.60635   1.61223    0.000
 4971.00    1.60936   1.61603    0.000
 4972.00    1.61129   1.61908    0.000
 4973.00    1.60983   1.61910    0.000
 4974.00    1.60214   1.61715    0.000
 4975.00    1.58937   1.60964    0.000
 4976.00    1.57656   1.59855    0.000
 4977.00    1.56507   1.58405    0.000
 4978.00    1.55126   1.56587    0.000
 4979.00    1.53268   1.54747    0.000
 4980.00    1.51054   1.52883    0.000
 4981.00    1.49007   1.51270    0.000
 4982.00    1.47839   1.50051    0.000
 4983.00    1.47762   1.49289    0.000
 4984.00    1.48400   1.48946    0.000
 4985.00    1.49271   1.49204    0.000
 4986.00    1.50046   1.49990    0.000
 4987.00    1.50845   1.51093    0.000
 4988.00    1.52020   1.52305    0.000
 4989.00    1.53308   1.53575    0.000
 4990.00    1.54010   1.54695    0.000
 4991.00    1.54168   1.55473    0.000
 4992.00    1.54461   1.56084    0.000
 4993.00    1.55123   1.56300    0.000
 4994.00    1.55842   1.56303    0.000
 4995.00    1.56218   1.56026    0.000
 4996.00    1.55985   1.55276    0.000
 4997.00    1.55227   1.54398    0.000
 4998.00    1.54224   1.53264    0.000
 4999.00    1.52991   1.51859    0.000
 5000.00    1.51359   1.50471    0.000
 5001.00    1.49381   1.49026    0.000
 5002.00    1.47365   1.47682    0.000
 5003.00    1.45765   1.46576    0.000
 5004.00    1.44934   1.45658    0.000
 5005.00    1.44701   1.44916    0.000
 5006.00    1.44587   1.44366    0.000
 5007.00    1.44343   1.43890    0.000
 5008.00    1.43969   1.43503    0.000
 5009.00    1.43574   1.43252    0.000
 5010.00    1.43239   1.43035    0.000
 5011.00    1.42834   1.42722    0.000
 5012.00    1.42179   1.42210    0.000
 5013.00    1.41338   1.41843    0.000
 5014.00    1.40568   1.41411    0.000
 5015.00    1.40165   1.41224    0.000
 5016.00    1.40326   1.41259    0.000
 5017.00    1.40981   1.41570    0.000
 5018.00    1.41912   1.42127    0.000
 5019.00    1.42940   1.42796    0.000
 5020.00    1.43956   1.43530    0.000
 5021.00    1.44920   1.44521    0.000
 5022.00    1.45822   1.45588    0.000
 5023.00    1.46637   1.46684    0.000
 5024.00    1.47383   1.47828    0.000
 5025.00    1.48182   1.49002    0.000
 5026.00    1.49131   1.50375    0.000
 5027.00    1.50155   1.51503    0.000
 5028.00    1.51156   1.52657    0.000
 5029.00    1.52173   1.53572    6.573
 5030.00    1.53169   1.54274    6.372
 5031.00    1.53824   1.54876    6.506
 5032.00    1.53836   1.54940    6.763
 5033.00    1.53229   1.54612    6.502
 5034.00    1.52170   1.53872    5.966
 5035.00    1.50790   1.52849    6.752
 5036.00    1.49256   1.51519   12.732
 5037.00    1.47835   1.50107   67.780
 5038.00    1.46796   1.48768   93.659
 5039.00    1.46308   1.47923   52.843
 5040.00    1.46376   1.47521   45.190
 5041.00    1.46818   1.47369   60.334
 5042.00    1.47416   1.47798   63.985
 5043.00    1.48038   1.48500   56.510
 5044.00    1.48639   1.49661   56.135
 5045.00    1.49249   1.51029   59.304
 5046.00    1.49947   1.52127   59.342
 5047.00    1.50826   1.53108   57.324
 5048.00    1.51837   1.53893   56.228
 5049.00    1.52723   1.54509   56.205
 5050.00    1.53252   1.54966   56.670
 5051.00    1.53380   1.55554   57.373
 5052.00    1.53334   1.56360   57.928
 5053.00    1.53568   1.57355   57.682
 5054.00    1.54312   1.58405   56.841
 5055.00    1.55377   1.59588   56.644
 5056.00    1.56554   1.60721   57.243
 5057.00    1.57799   1.61716   57.084
 5058.00    1.59018   1.62390   55.620
 5059.00    1.59968   1.62741   54.293
 5060.00    1.60379   1.62750   54.083
 5061.00    1.60047   1.62408   54.794
 5062.00    1.58964   1.61660   55.765
 5063.00    1.57358   1.60736   56.221
 5064.00    1.55615   1.59594   55.906
 5065.00    1.54155   1.58361   55.290
 5066.00    1.53066   1.57122   54.939
 5067.00    1.52084   1.55950   55.171
 5068.00    1.51163   1.55229   55.737
 5069.00    1.50571   1.54574   55.915
 5070.00    1.50369   1.53942   55.600
 5071.00    1.50295   1.53442   55.422
 5072.00    1.50147   1.53007   55.516
 5073.00    1.49880   1.52487   55.388
 5074.00    1.49469   1.51701   54.996
 5075.00    1.48883   1.50960   54.827
 5076.00    1.48163   1.50206   54.897
 5077.00    1.47407   1.49286   54.751
 5078.00    1.46623   1.48456   54.448
 5079.00    1.45775   1.47796   54.509
 5080.00    1.45056   1.47436   54.865
 5081.00    1.44819   1.47167   54.919
 5082.00    1.45130   1.47384   54.698
 5083.00    1.45773   1.48128   54.719
 5084.00    1.46597   1.49217   54.723
 5085.00    1.47566   1.50457   53.981
 5086.00    1.48607   1.51848   52.964
 5087.00    1.49619   1.53346   52.825
 5088.00    1.50582   1.54698   53.547
 5089.00    1.51563   1.55843   54.144
 5090.00    1.52662   1.56698   54.121
 5091.00    1.53865   1.57290   53.707
 5092.00    1.54755   1.57494   53.348
 5093.00    1.54766   1.57329   53.376
 5094.00    1.53852   1.56866   53.652
 5095.00    1.52412   1.56178   53.776
 5096.00    1.50849   1.55284   53.677
 5097.00    1.49432   1.54279   53.597
 5098.00    1.48234   1.53349   53.810
 5099.00    1.47279   1.52480   54.413
 5100.00    1.46844   1.51826   55.032
 5101.00    1.47115   1.51240   55.205
 5102.00    1.47540   1.50995   55.226
 5103.00    1.47372   1.50842   55.661
 5104.00    1.46741   1.50730   56.278
 5105.00    1.46288   1.50604   56.509
 5106.00    1.46305   1.50560   56.527
 5107.00    1.46708   1.50640   56.823
 5108.00    1.47231   1.50879   57.281
 5109.00    1.47677   1.51286   57.575
 5110.00    1.48214   1.51862   57.961
 5111.00    1.49116   1.52739   58.689
 5112.00    1.50350   1.53620   59.041
 5113.00    1.51621   1.54643   58.310
 5114.00    1.52533   1.55637   57.270
 5115.00    1.52842   1.56358   56.929
 5116.00    1.52725   1.56835   57.073
 5117.00    1.52478   1.56933   57.169
 5118.00    1.52130   1.56580   57.494
 5119.00    1.51554   1.55874   58.342
 5120.00    1.50651   1.54780   58.992
 5121.00    1.49361   1.53373   58.731
 5122.00    1.47665   1.51857   58.156
 5123.00    1.45694   1.50278   58.140
 5124.00    1.43809   1.48926   58.751
 5125.00    1.42404   1.47747   -1.000
 5126.00    1.41678   1.46943   -1.000
 5127.00    1.41583   1.46567   -1.000
 5128.00    1.41819   1.46538   61.491
 5129.00    1.42147   1.46807   61.187
 5130.00    1.42645   1.47267   60.773
 5131.00    1.43468   1.47880   60.501
 5132.00    1.44619   1.48463   60.113
 5133.00    1.45879   1.49058   59.541
 5134.00    1.46817   1.49410   59.341
 5135.00    1.47154   1.49582   59.759
 5136.00    1.47004   1.49487   60.139
 5137.00    1.46587   1.49244   59.975
 5138.00    1.46014   1.48812   59.661
 5139.00    1.45372   1.48153   59.566
 5140.00    1.44789   1.47571   59.447
 5141.00    1.44356   1.46887   59.046
 5142.00    1.44076   1.46356   58.494
 5143.00    1.43885   1.45946   58.108
 5144.00    1.43674   1.45464   58.189
 5145.00    1.43388   1.45146   58.566
 5146.00    1.43061   1.45016   58.511
 5147.00    1.42749   1.44929   58.018
 5148.00    1.42481   1.44947   58.110
 5149.00    1.42217   1.45152   58.501
 5150.00    1.41886   1.45481   57.308
 5151.00    1.41719   1.46057   56.338
 5152.00    1.42262   1.46725   60.751
 5153.00    1.43641   1.47508   64.479
 5154.00    1.45315   1.48342   50.804
 5155.00    1.46755   1.49157   43.001
 5156.00    1.47757   1.49776   82.284
 5157.00    1.48319   1.50148   93.659
 5158.00    1.48487   1.50043   26.319
 5159.00    1.47967   1.49378    8.884
 5160.00    1.46176   1.48016    6.312
 5161.00    1.43098   1.45933    6.580
 5162.00    1.39397   1.43200    7.370
 5163.00    1.35478   1.39975    7.483
 5164.00    1.31272   1.36319    7.634
 5165.00    1.26839   1.32580    8.053
 5166.00    1.22548   1.29006    7.842
 5167.00    1.18876   1.25709    7.732
 5168.00    1.16265   1.23084   10.425
 5169.00    1.14920   1.21125   26.688
 5170.00    1.14761   1.20162   -1.000
 5171.00    1.15537   1.20068   -1.000
 5172.00    1.16910   1.20811   50.165
 5173.00    1.18600   1.22062   55.187
 5174.00    1.20416   1.23636   67.595
 5175.00    1.22214   1.25430   63.847
 5176.00    1.23851   1.27269   58.776
 5177.00    1.25106   1.28857   59.481
 5178.00    1.25754   1.30008   -1.000
 5179.00    1.25793   1.30698   -1.000
 5180.00    1.25442   1.31027   -1.000
 5181.00    1.24954   1.31091   -1.000
 5182.00    1.24570   1.31145   -1.000
 5183.00    1.24502   1.31334   -1.000
 5184.00    1.24968   1.31788   -1.000
 5185.00    1.26254   1.32595   -1.000
 5186.00    1.28527   1.33771   -1.000
 5187.00    1.31401   1.35399   62.114
 5188.00    1.34174   1.37107   61.838
 5189.00    1.36500   1.38867   61.703
 5190.00    1.38428   1.40438    0.000
 5191.00    1.40206   1.41822    0.000
 5192.00    1.42086   1.43094    0.000
 5193.00    1.44048   1.44117    0.000
 5194.00    1.45854   1.45047    0.000
 5195.00    1.47250   1.45923    0.000
 5196.00    1.48090   1.46734    0.000
 5197.00    1.48476   1.47355    0.000
 5198.00    1.48638   1.47788    0.000
 5199.00    1.48700   1.47925    0.000
 5200.00    1.48617   1.47660    0.000
 5201.00    1.48148   1.47099    0.000
 5202.00    1.47093   1.46149    0.000
 5203.00    1.45620   1.45029    0.000
 5204.00    1.44085   1.43774    0.000
 5205.00    1.42703   1.42696    0.000
 5206.00    1.41638   1.41812    0.000
 5207.00    1.41164   1.41387    0.000
 5208.00    1.41476   1.41439    0.000
 5209.00    1.42446   1.42093    0.000
 5210.00    1.43802   1.43155    0.000
 5211.00    1.45386   1.44652   59.533
 5212.00    1.47106   1.46416   59.192
 5213.00    1.48864   1.48199   59.702
 5214.00    1.50633   1.50049   59.596
 5215.00    1.52535   1.51606   58.559
 5216.00    1.54599   1.52951   57.176
 5217.00    1.56536   1.53865   56.240
 5218.00    1.57906   1.54424   56.086
 5219.00    1.58342   1.54597   56.210
 5220.00    1.57774   1.54375   56.134
 5221.00    1.56581   1.53865   56.181
 5222.00    1.55219   1.53022   56.715
 5223.00    1.53886   1.52052   57.449
 5224.00    1.52640   1.51015   57.928
 5225.00    1.51536   1.50093   58.029
 5226.00    1.50732   1.49434   57.865
 5227.00    1.50527   1.49097   57.589
 5228.00    1.51079   1.49205   57.041
 5229.00    1.52208   1.49701   55.647
 5230.00    1.53629   1.50661   53.385
 5231.00    1.55136   1.51914   51.116
 5232.00    1.56617   1.53386   49.385
 5233.00    1.58053   1.54992   48.058
 5234.00    1.59493   1.56583   47.255
 5235.00    1.61020   1.58110   47.667
 5236.00    1.62609   1.59639   49.433
 5237.00    1.64062   1.60953   51.445
 5238.00    1.65185   1.62175   52.565
 5239.00    1.65898   1.63122   52.838
 5240.00    1.66255   1.63762   52.925
 5241.00    1.66402   1.64070   53.440
 5242.00    1.66311   1.63994   54.348
 5243.00    1.65716   1.63610   54.841
 5244.00    1.64607   1.62925   54.755
 5245.00    1.63392   1.62040   55.075
 5246.00    1.62397   1.61042   56.172
 5247.00    1.61644   1.60013   57.158
 5248.00    1.61022   1.59067   57.421
 5249.00    1.60422   1.58287   57.347
 5250.00    1.59925   1.57746   57.247
 5251.00    1.59797   1.57456   57.002
 5252.00    1.60067   1.57456   56.806
 5253.00    1.60452   1.57653   57.234
 5254.00    1.60790   1.57915   58.212
 5255.00    1.61127   1.58067   58.846
 5256.00    1.61330   1.58095   58.779
 5257.00    1.61055   1.57664   58.571
 5258.00    1.60169   1.56812   58.633
 5259.00    1.58830   1.55388   58.930
 5260.00    1.57157   1.53458   59.330
 5261.00    1.55130   1.51129   59.752
 5262.00    1.52616   1.48377   60.235
 5263.00    1.49509   1.45563   60.893
 5264.00    1.46077   1.42750   61.697
 5265.00    1.42944   1.40330   62.464
 5266.00    1.40663   1.38350   63.098
 5267.00    1.39539   1.37094   63.594
 5268.00    1.39504   1.36551   63.759
 5269.00    1.40232   1.36832   63.365
 5270.00    1.41557   1.37817   62.753
 5271.00    1.43491   1.39458   62.485
 5272.00    1.45979   1.41638   62.161
 5273.00    1.48841   1.44058   60.896
 5274.00    1.51799   1.46716   59.075
 5275.00    1.54559   1.49482   57.854
 5276.00    1.56963   1.52135   57.569
 5277.00    1.58972   1.54476   57.801
 5278.00    1.60529   1.56547   57.903
 5279.00    1.61581   1.58386   57.386
 5280.00    1.62174   1.59937   56.532
 5281.00    1.62532   1.61450   55.982
 5282.00    1.63134   1.62768   55.778
 5283.00    1.64454   1.64086   55.568
 5284.00    1.66424   1.65349   55.255
 5285.00    1.68571   1.66681   54.950
 5286.00    1.70470   1.67948   54.677
 5287.00    1.71884   1.69148   54.318
 5288.00    1.72828   1.70090   53.654
 5289.00    1.73424   1.70778   52.675
 5290.00    1.73621   1.71067   51.997
 5291.00    1.73297   1.70859   52.165
 5292.00    1.72492   1.70221   52.647
 5293.00    1.71381   1.69234   52.573
 5294.00    1.70183   1.68052   52.157
 5295.00    1.69030   1.66771   52.094
 5296.00    1.67820   1.65550   52.408
 5297.00    1.66523   1.64580   52.742
 5298.00    1.65602   1.63976   52.958
 5299.00    1.65534   1.63869   53.044
 5300.00    1.66149   1.64199   52.881
 5301.00    1.67097   1.65007   52.516
 5302.00    1.68515   1.66207   52.465
 5303.00    1.70560   1.67747   53.045
 5304.00    1.72783   1.69428   53.597
 5305.00    1.74619   1.71033   53.477
 5306.00    1.75999   1.72550   53.340
 5307.00    1.77006   1.73850   53.912
 5308.00    1.77456   1.74888   54.627
 5309.00    1.77256   1.75576   54.709
 5310.00    1.76797   1.75936   54.527
 5311.00    1.76568   1.75957   54.557
 5312.00    1.76724   1.75721   54.337
 5313.00    1.77031   1.75237   53.698
 5314.00    1.76906   1.74541   53.769
 5315.00    1.76065   1.73626   55.188
 5316.00    1.75019   1.72564   56.600
 5317.00    1.74238   1.71311   56.683
 5318.00    1.73470   1.69930   56.388
 5319.00    1.72268   1.68368   56.834
 5320.00    1.70482   1.66655   57.581
 5321.00    1.68257   1.64800   57.914
 5322.00    1.65979   1.62860   57.964
 5323.00    1.63995   1.60921   58.052
 5324.00    1.62414   1.59012   58.170
 5325.00    1.61152   1.57396   58.432
 5326.00    1.60014   1.56016   59.300
 5327.00    1.59007   1.55196   60.596
 5328.00    1.58476   1.54780   60.953
 5329.00    1.58624   1.55040   59.902
 5330.00    1.59254   1.55736   58.931
 5331.00    1.60154   1.56886   58.822
 5332.00    1.61311   1.58260   58.639
 5333.00    1.62687   1.59791   57.850
 5334.00    1.64103   1.61317   57.225
 5335.00    1.65372   1.62610   57.074
 5336.00    1.66368   1.63675   56.678
 5337.00    1.67011   1.64357   55.989
 5338.00    1.67255   1.64810   56.061
 5339.00    1.67134   1.64983   56.973
 5340.00    1.66775   1.65046   57.244
 5341.00    1.66370   1.65014   56.387
 5342.00    1.66140   1.65028   55.720
 5343.00    1.66212   1.65105   55.802
 5344.00    1.66570   1.65328   55.850
 5345.00    1.67108   1.65727   55.592
 5346.00    1.67695   1.66330   55.690
 5347.00    1.68401   1.67149   56.052
 5348.00    1.69480   1.68165   55.648
 5349.00    1.70958   1.69398   54.648
 5350.00    1.72569   1.70749   54.451
 5351.00    1.74131   1.72275   55.116
 5352.00    1.75620   1.73812   55.197
 5353.00    1.76960   1.75352   54.404
 5354.00    1.78007   1.76742   53.929
 5355.00    1.78767   1.77915   54.119
 5356.00    1.79375   1.78756   54.241
 5357.00    1.79767   1.79234   53.922
 5358.00    1.79696   1.79252   53.479
 5359.00    1.79069   1.78851   53.396
 5360.00    1.77993   1.78016   53.980
 5361.00    1.76583   1.76836   54.857
 5362.00    1.74944   1.75356   55.238
 5363.00    1.73280   1.73652   55.321
 5364.00    1.71792   1.71879   56.029
 5365.00    1.70349   1.70064   57.108
 5366.00    1.68640   1.68407   57.410
 5367.00    1.66766   1.66921   57.274
 5368.00    1.65195   1.65783   58.062
 5369.00    1.64297   1.65019   59.506
 5370.00    1.64199   1.64696   60.094
 5371.00    1.64728   1.64822   59.956
 5372.00    1.65557   1.65324   60.370
 5373.00    1.66529   1.66237   60.906
 5374.00    1.67641   1.67292   60.204
 5375.00    1.68870   1.68559   58.983
 5376.00    1.70135   1.69715   58.856
 5377.00    1.71312   1.70849   59.415
 5378.00    1.72300   1.71736   59.188
 5379.00    1.73157   1.72440   58.385
 5380.00    1.73966   1.72828   58.148
 5381.00    1.74586   1.72957   58.461
 5382.00    1.74768   1.72847   58.671
 5383.00    1.74444   1.72500   58.868
 5384.00    1.73764   1.71989   59.408
 5385.00    1.73076   1.71295   59.759
 5386.00    1.72601   1.70449   59.276
 5387.00    1.71984   1.69460   58.676
 5388.00    1.70719   1.68356   58.918
 5389.00    1.68850   1.67164   59.469
 5390.00    1.66784   1.65914   59.302
 5391.00    1.64866   1.64671   58.661
 5392.00    1.63309   1.63448   58.313
 5393.00    1.62170   1.62307   58.300
 5394.00    1.61386   1.61286   58.272
 5395.00    1.60846   1.60380   58.062
 5396.00    1.60476   1.59636   -2.000
 5397.00    1.60329   1.58981   -2.000
 5398.00    1.60486   1.58448   -2.000
 5399.00    1.60914   1.57929   -2.000
 5400.00    1.61358   1.57469   -2.000
 5401.00    1.61279   1.56976   -2.000
 5402.00    1.60320   1.56516   -2.000
 5403.00    1.58765   1.56079   -2.000
 5404.00    1.57187   1.55746   -2.000
 5405.00    1.56053   1.55595   -2.000
 5406.00    1.55670   1.55656   -2.000
 5407.00    1.56162   1.56066   -2.000
 5408.00    1.57413   1.56750   -2.000
 5409.00    1.59036   1.57821   -2.000
 5410.00    1.60665   1.59137   55.836
 5411.00    1.62197   1.60732   56.297
 5412.00    1.63738   1.62405   56.826
 5413.00    1.65503   1.64157   57.112
 5414.00    1.67557   1.65804   57.071
 5415.00    1.69634   1.67322   56.903
 5416.00    1.71297   1.68579   56.798
 5417.00    1.72126   1.69564   56.747
 5418.00    1.72115   1.70239   56.775
 5419.00    1.71842   1.70647   57.072
 5420.00    1.71724   1.70778   57.694
 5421.00    1.71576   1.70685   58.373
 5422.00    1.71158   1.70374   58.745
 5423.00    1.70513   1.69922   58.600
 5424.00    1.69802   1.69315   58.285
 5425.00    1.69160   1.68626   58.666
 5426.00    1.68610   1.67828   59.802
 5427.00    1.68043   1.67013   60.416
 5428.00    1.67350   1.66164   59.987
 5429.00    1.66502   1.65410   59.724
 5430.00    1.65561   1.64746   60.414
 5431.00    1.64674   1.64313   61.524
 5432.00    1.64050   1.64109   62.154
 5433.00    1.63917   1.64243   61.742
 5434.00    1.64363   1.64688   60.725
 5435.00    1.65293   1.65441   60.291
 5436.00    1.66541   1.66449   60.648
 5437.00    1.67931   1.67575   60.781
 5438.00    1.69299   1.68761   60.466
 5439.00    1.70496   1.69799   60.630
 5440.00    1.71387   1.70671   61.060
 5441.00    1.71866   1.71192   60.236
 5442.00    1.71883   1.71421   58.608
 5443.00    1.71481   1.71251   58.451
 5444.00    1.70831   1.70862   59.880
 5445.00    1.70191   1.70201   60.499
 5446.00    1.69673   1.69502   59.336
 5447.00    1.69191   1.68696   57.865
 5448.00    1.68565   1.68016   57.156
 5449.00    1.67648   1.67333   57.228
 5450.00    1.66624   1.66841   57.519
 5451.00    1.65915   1.66379   57.291
 5452.00    1.65638   1.66089   56.605
 5453.00    1.65560   1.65831   56.236
 5454.00    1.65485   1.65704   56.600
 5455.00    1.65371   1.65629   57.512
 5456.00    1.65362   1.65641   58.149
 5457.00    1.65674   1.65718   57.578
 5458.00    1.66301   1.65841   56.340
 5459.00    1.67004   1.66013   55.848
 5460.00    1.67512   1.66187   56.383
 5461.00    1.67645   1.66369   57.236
 5462.00    1.67506   1.66518   57.850
 5463.00    1.67374   1.66630   58.095
 5464.00    1.67353   1.66693   58.190
 5465.00    1.67381   1.66677   58.453
 5466.00    1.67384   1.66581   58.806
 5467.00    1.67318   1.66361   58.957
 5468.00    1.67147   1.66029   59.018
 5469.00    1.66834   1.65543   59.359
 5470.00    1.66331   1.64945   60.076
 5471.00    1.65595   1.64214   60.954
 5472.00    1.64630   1.63439   61.614
 5473.00    1.63505   1.62619   61.758
 5474.00    1.62374   1.61879   61.598
 5475.00    1.61441   1.61214   61.592
 5476.00    1.60902   1.60761   61.902
 5477.00    1.60875   1.60471   62.378
 5478.00    1.61312   1.60467   62.683
 5479.00    1.62009   1.60639   62.614
 5480.00    1.62659   1.61078   62.541
 5481.00    1.63044   1.61633   62.833
 5482.00    1.63300   1.62355   62.961
 5483.00    1.63712   1.63099   62.316
 5484.00    1.64388   1.63879   61.479
 5485.00    1.65260   1.64611   61.300
 5486.00    1.66145   1.65276   61.670
 5487.00    1.66884   1.65865   61.964
 5488.00    1.67480   1.66339   61.771
 5489.00    1.67987   1.66741   61.100
 5490.00    1.68356   1.67035   60.430
 5491.00    1.68530   1.67277   60.176
 5492.00    1.68567   1.67436   60.188
 5493.00    1.68577   1.67546   60.078
 5494.00    1.68618   1.67595   59.634
 5495.00    1.68681   1.67583   58.948
 5496.00    1.68678   1.67513   58.433
 5497.00    1.68500   1.67374   58.327
 5498.00    1.68076   1.67165   58.309
 5499.00    1.67460   1.66893   58.074
 5500.00    1.66880   1.66547   57.847
 5501.00    1.66540   1.66171   57.762
 5502.00    1.66433   1.65728   57.374
 5503.00    1.66425   1.65303   56.662
 5504.00    1.66332   1.64835   56.661
 5505.00    1.66031   1.64430   57.792
 5506.00    1.65529   1.64013   -2.000
 5507.00    1.64992   1.63691   -2.000
 5508.00    1.64728   1.63393   -2.000
 5509.00    1.65025   1.63224   -2.000
 5510.00    1.66040   1.63131   -2.000
 5511.00    1.67886   1.63198   -2.000
 5512.00    1.70633   1.63405   -2.000
 5513.00    1.73787   1.63784   -2.000
 5514.00    1.76191   1.64331   -2.000
 5515.00    1.77627   1.65011   -2.000
 5516.00    1.79471   1.65817   -2.000
 5517.00    1.82153   1.66638   -2.000
 5518.00    1.83942   1.67466   -2.000
 5519.00    1.83326   1.68165   -2.000
 5520.00    1.80393   1.68735   -2.000
 5521.00    1.76372   1.69078   -2.000
 5522.00    1.73050   1.69222   -2.000
 5523.00    1.71282   1.69142   -2.000
 5524.00    1.70460   1.68900   -2.000
 5525.00    1.69842   1.68536   -2.000
 5526.00    1.69201   1.68127   -2.000
 5527.00    1.68554   1.67727   -2.000
 5528.00    1.67998   1.67409   -2.000
 5529.00    1.67661   1.67188   -2.000
 5530.00    1.67651   1.67125   62.172
 5531.00    1.67932   1.67175   61.966
 5532.00    1.68321   1.67387   61.692
 5533.00    1.68673   1.67676   61.545
 5534.00    1.68961   1.68085   61.238
 5535.00    1.69274   1.68525   60.616
 5536.00    1.69756   1.69031   59.857
 5537.00    1.70397   1.69538   59.268
 5538.00    1.71024   1.70062   59.142
 5539.00    1.71509   1.70573   59.530
 5540.00    1.71848   1.71070   60.136
 5541.00    1.72130   1.71548   60.202
 5542.00    1.72481   1.72006   59.001
 5543.00    1.72927   1.72442   57.351
 5544.00    1.73378   1.72862   56.877
 5545.00    1.73735   1.73252   57.464
 5546.00    1.73934   1.73621   57.577
 5547.00    1.73976   1.73935   57.047
 5548.00    1.73907   1.74199   57.078
 5549.00    1.73746   1.74373   57.820
 5550.00    1.73523   1.74458   58.279
 5551.00    1.73416   1.74427   57.897
 5552.00    1.73629   1.74286   56.962
 5553.00    1.73991   1.74035   56.222
 5554.00    1.74083   1.73680   56.303
 5555.00    1.73803   1.73250   56.805
 5556.00    1.73346   1.72740   56.874
 5557.00    1.72867   1.72193   57.048
 5558.00    1.72433   1.71595   58.257
 5559.00    1.72088   1.70984   58.646
 5560.00    1.71851   1.70352   56.446
 5561.00    1.71678   1.69726   56.989
 5562.00    1.71482   1.69111   65.279
 5563.00    1.71201   1.68533   63.902
 5564.00    1.70798   1.68002   46.312
 5565.00    1.70247   1.67551   50.383
 5566.00    1.69572   1.67178   93.659
 5567.00    1.68923   1.66929   93.659
 5568.00    1.68504   1.66772   13.731
 5569.00    1.68421   1.66761    6.377
 5570.00    1.68644   1.66835    5.347
 5571.00    1.68966   1.67037    5.811
 5572.00    1.69158   1.67295    6.137
 5573.00    1.69203   1.67623    5.941
 5574.00    1.69238   1.67945    5.853
 5575.00    1.69417   1.68249    5.901
 5576.00    1.69796   1.68464    5.850
 5577.00    1.70208   1.68558    5.857
 5578.00    1.70404   1.68474    6.058
 5579.00    1.70260   1.68189    5.924
 5580.00    1.69762   1.67672    5.382
 5581.00    1.68962   1.66934    5.795
 5582.00    1.67927   1.65991   10.133
 5583.00    1.66696   1.64892   51.441
 5584.00    1.65316   1.63707   -2.000
 5585.00    1.63894   1.62518   62.619
 5586.00    1.62571   1.61408   44.203
 5587.00    1.61481   1.60467   60.598
 5588.00    1.60706   1.59742   69.874
 5589.00    1.60241   1.59302   60.294
 5590.00    1.60107   1.59112   57.834
 5591.00    1.60444   1.59205   60.527
 5592.00    1.61273   1.59478   60.462
 5593.00    1.62289   1.59923   58.644
 5594.00    1.63134   1.60434   58.545
 5595.00    1.63659   1.60985   59.094
 5596.00    1.63880   1.61538   58.559
 5597.00    1.63908   1.62058   57.952
 5598.00    1.63851   1.62613   58.498
 5599.00    1.63751   1.63151   59.659
 5600.00    1.63688   1.63813   60.422
 5601.00    1.63853   1.64518   60.512
 5602.00    1.64461   1.65400   60.249
 5603.00    1.65658   1.66338   60.186
 5604.00    1.67390   1.67398   60.372
 5605.00    1.69334   1.68436   60.063
 5606.00    1.71072   1.69432   59.182
 5607.00    1.72251   1.70260   58.946
 5608.00    1.72802   1.70869   59.791
 5609.00    1.73000   1.71186   60.424
 5610.00    1.72990   1.71194   60.127
 5611.00    1.72564   1.70895   60.028
 5612.00    1.71635   1.70333   60.722
 5613.00    1.70476   1.69575   61.198
 5614.00    1.69403   1.68693   60.959
 5615.00    1.68575   1.67792   60.995
 5616.00    1.67934   1.66917   61.777
 5617.00    1.67237   1.66173   62.440
 5618.00    1.66368   1.65545   62.344
 5619.00    1.65462   1.65121   61.825
 5620.00    1.64788   1.64833   61.202
 5621.00    1.64615   1.64744   60.421
 5622.00    1.64934   1.64777   59.696
 5623.00    1.65419   1.64978   59.528
 5624.00    1.65814   1.65287   59.652
 5625.00    1.66088   1.65720   59.019
 5626.00    1.66355   1.66222   57.589
 5627.00    1.66775   1.66786   56.491
 5628.00    1.67337   1.67345   56.155
 5629.00    1.67842   1.67878   56.108
 5630.00    1.68175   1.68310   56.169
 5631.00    1.68392   1.68621   56.626
 5632.00    1.68640   1.68772   57.296
 5633.00    1.69040   1.68763   57.506
 5634.00    1.69370   1.68603   57.357
 5635.00    1.69179   1.68323   57.659
 5636.00    1.68490   1.67968   58.194
 5637.00    1.67809   1.67588   57.879
 5638.00    1.67436   1.67225   57.180
 5639.00    1.67342   1.66940   57.705
 5640.00    1.67441   1.66732   59.168
 5641.00    1.67664   1.66663   59.547
 5642.00    1.67931   1.66674   58.686
 5643.00    1.68171   1.66833   58.324
 5644.00    1.68421   1.67025   58.963
 5645.00    1.68770   1.67314   59.798
 5646.00    1.69182   1.67565   60.273
 5647.00    1.69544   1.67825   60.392
 5648.00    1.69871   1.67991   60.332
 5649.00    1.70252   1.68076   60.262
 5650.00    1.70596   1.68001   60.191
 5651.00    1.70666   1.67799   60.103
 5652.00    1.70300   1.67460   60.300
 5653.00    1.69499   1.66982   61.151
 5654.00    1.68512   1.66406   62.401
 5655.00    1.67664   1.65768   63.377
 5656.00    1.66987   1.65152   63.861
 5657.00    1.66330   1.64567   64.084
 5658.00    1.65706   1.64125   64.210
 5659.00    1.65256   1.63792   64.222
 5660.00    1.65051   1.63694   63.932
 5661.00    1.65062   1.63736   63.267
 5662.00    1.65148   1.64033   62.668
 5663.00    1.65174   1.64438   62.614
 5664.00    1.65185   1.65059   62.846
 5665.00    1.65345   1.65736   62.795
 5666.00    1.65795   1.66554   62.425
 5667.00    1.66583   1.67378   61.960
 5668.00    1.67599   1.68273   61.323
 5669.00    1.68632   1.69136   60.444
 5670.00    1.69472   1.70000   59.725
 5671.00    1.70017   1.70800   59.491
 5672.00    1.70387   1.71520   59.332
 5673.00    1.70811   1.72130   58.852
 5674.00    1.71440   1.72581   58.608
 5675.00    1.72227   1.72889   59.014
 5676.00    1.72819   1.72975   59.027
 5677.00    1.72868   1.72918   57.753
 5678.00    1.72394   1.72653   56.359
 5679.00    1.71604   1.72284   56.202
 5680.00    1.70658   1.71771   57.164
 5681.00    1.69719   1.71226   58.407
 5682.00    1.69007   1.70675   59.183
 5683.00    1.68627   1.70170   59.327
 5684.00    1.68414   1.69796   59.596
 5685.00    1.68230   1.69502   60.539
 5686.00    1.68246   1.69429   61.468
 5687.00    1.68596   1.69429   61.680
 5688.00    1.69091   1.69638   61.708
 5689.00    1.69520   1.69871   61.904
 5690.00    1.69930   1.70223   61.301
 5691.00    1.70394   1.70520   59.825
 5692.00    1.70828   1.70777   59.553
 5693.00    1.71085   1.70908   61.459
 5694.00    1.71060   1.70893   63.331
 5695.00    1.70764   1.70688   63.056
 5696.00    1.70360   1.70298   61.956
 5697.00    1.69977   1.69741   61.790
 5698.00    1.69599   1.69037   62.639
 5699.00    1.69153   1.68197   63.723
 5700.00    1.68589   1.67274   63.990
 5701.00    1.67909   1.66291   63.151
 5702.00    1.67176   1.65326   62.113
 5703.00    1.66451   1.64355   61.475
 5704.00    1.65761   1.63515   60.891
 5705.00    1.65115   1.62749   60.102
 5706.00    1.64516   1.62168   59.380
 5707.00    1.63970   1.61796   58.901
 5708.00    1.63500   1.61668   58.519
 5709.00    1.63172   1.61813   58.316
 5710.00    1.63105   1.62242   58.709
 5711.00    1.63478   1.62968   59.616
 5712.00    1.64474   1.63931   60.160
 5713.00    1.66030   1.65154   59.775
 5714.00    1.67785   1.66504   58.768
 5715.00    1.69472   1.67994   57.775
 5716.00    1.71052   1.69486   57.334
 5717.00    1.72528   1.70967   57.401
 5718.00    1.73859   1.72328   57.415
 5719.00    1.74963   1.73559   57.321
 5720.00    1.75754   1.74594   57.661
 5721.00    1.76302   1.75412   58.217
 5722.00    1.76799   1.76045   57.942
 5723.00    1.77220   1.76454   57.024
 5724.00    1.77321   1.76714   56.859
 5725.00    1.77101   1.76781   57.498
 5726.00    1.76867   1.76768   57.535
 5727.00    1.76873   1.76652   56.754
 5728.00    1.77187   1.76522   56.395
 5729.00    1.77673   1.76388   56.916
 5730.00    1.78074   1.76274   57.755
 5731.00    1.78240   1.76200   58.544
 5732.00    1.78177   1.76162   59.358
 5733.00    1.77962   1.76170   60.149
 5734.00    1.77717   1.76206   60.647
 5735.00    1.77632   1.76264   60.656
 5736.00    1.77856   1.76325   60.252
 5737.00    1.78215   1.76369   59.971
 5738.00    1.78314   1.76405   60.447
 5739.00    1.77977   1.76403   61.496
 5740.00    1.77329   1.76386    0.000
 5741.00    1.76713   1.76325    0.000
 5742.00    1.76485   1.76214    0.000
 5743.00    1.76593   1.76067    0.000
 5744.00    1.76680   1.75851    0.000
 5745.00    1.76503   1.75632    0.000
 5746.00    1.76055   1.75342    0.000
 5747.00    1.75605   1.75037    0.000
 5748.00    1.75493   1.74656    0.000
 5749.00    1.75718   1.74298    0.000
 5750.00    1.76018   1.73929    0.000
 5751.00    1.76166   1.73626    0.000
 5752.00    1.76102   1.73376    0.000
 5753.00    1.76043   1.73160    0.000
 5754.00    1.76229   1.73026    0.000
 5755.00    1.76470   1.72907    0.000
 5756.00    1.76387   1.72884    0.000
 5757.00    1.75919   1.72858    0.000
 5758.00    1.75308   1.72962    0.000
 5759.00    1.74940   1.73054    0.000
 5760.00    1.75079   1.73313    0.000
 5761.00    1.75547   1.73563    0.000
 5762.00    1.75979   1.73929    0.000
 5763.00    1.76242   1.74303    0.000
 5764.00    1.76396   1.74756    0.000
 5765.00    1.76552   1.75195    0.000
 5766.00    1.76793   1.75619    0.000
 5767.00    1.77093   1.76003    0.000
 5768.00    1.77399   1.76251    0.000
 5769.00    1.77732   1.76430    0.000
 5770.00    1.78107   1.76412    0.000
 5771.00    1.78430   1.76266    0.000
 5772.00    1.78581   1.75934    0.000
 5773.00    1.78504   1.75442    0.000
 5774.00    1.78205   1.74769    0.000
 5775.00    1.77729   1.73925    0.000
 5776.00    1.77100   1.72949    0.000
 5777.00    1.76272   1.71812    0.000
 5778.00    1.75236   1.70691    0.000
 5779.00    1.74107   1.69530    0.000
 5780.00    1.73015   1.68471    0.000
 5781.00    1.71997   1.67462    0.000
 5782.00    1.71011   1.66710    0.000
 5783.00    1.69984   1.66208    0.000
 5784.00    1.69048   1.65959    0.000
 5785.00    1.68684   1.66018    0.000
 5786.00    1.69211   1.66318    0.000
 5787.00    1.70412   1.66855    0.000
 5788.00    1.71870   1.67633    0.000
 5789.00    1.73254   1.68556    0.000
 5790.00    1.74421   1.69576    0.000
 5791.00    1.75448   1.70643    0.000
 5792.00    1.76443   1.71691    0.000
 5793.00    1.77417   1.72673    0.000
 5794.00    1.78315   1.73572    0.000
 5795.00    1.79057   1.74462    0.000
 5796.00    1.79656   1.75240    0.000
 5797.00    1.80256   1.75922    0.000
 5798.00    1.80906   1.76482    0.000
 5799.00    1.81463   1.76946    0.000
 5800.00    1.81782   1.77254    0.000
 5801.00    1.81817   1.77499    0.000
 5802.00    1.81557   1.77643    0.000
 5803.00    1.81022   1.77728    0.000
 5804.00    1.80396   1.77743    0.000
 5805.00    1.80028   1.77713    0.000
 5806.00    1.80050   1.77664    0.000
 5807.00    1.80254   1.77614    0.000
 5808.00    1.80390   1.77549    0.000
 5809.00    1.80318   1.77514    0.000
 5810.00    1.80052   1.77482    0.000
 5811.00    1.79741   1.77476    0.000
 5812.00    1.79557   1.77487    0.000
 5813.00    1.79605   1.77568    0.000
 5814.00    1.79799   1.77727    0.000
 5815.00    1.79899   1.77923    0.000
 5816.00    1.79817   1.78189    0.000
 5817.00    1.79675   1.78487    0.000
 5818.00    1.79558   1.78833    0.000
 5819.00    1.79450   1.79198    0.000
 5820.00    1.79303   1.79576    0.000
 5821.00    1.79096   1.79968   -2.000
 5822.00    1.78920   1.80306   -2.000
 5823.00    1.78914   1.80631   -2.000
 5824.00    1.78998   1.80871   -2.000
 5825.00    1.78927   1.81089   -2.000
 5826.00    1.78707   1.81215   -2.000
 5827.00    1.78588   1.81289   -2.000
 5828.00    1.78705   1.81298   -2.000
 5829.00    1.79002   1.81258   -2.000
 5830.00    1.79347   1.81165   -2.000
 5831.00    1.79592   1.81036   -2.000
 5832.00    1.79644   1.80919   -2.000
 5833.00    1.79476   1.80790   -2.000
 5834.00    1.79103   1.80662   -2.000
 5835.00    1.78585   1.80572   -2.000
 5836.00    1.78059   1.80507   -2.000
 5837.00    1.77712   1.80474   -2.000
 5838.00    1.77717   1.80447   -2.000
 5839.00    1.78138   1.80417   -2.000
 5840.00    1.78787   1.80341   -2.000
 5841.00    1.79330   1.80209    0.000
 5842.00    1.79549   1.79991    0.000
 5843.00    1.79374   1.79662    0.000
 5844.00    1.78848   1.79236    0.000
 5845.00    1.78080   1.78690    0.000
 5846.00    1.77193   1.78049    0.000
 5847.00    1.76304   1.77293    0.000
 5848.00    1.75516   1.76458    0.000
 5849.00    1.74871   1.75530    0.000
 5850.00    1.74286   1.74599    0.000
 5851.00    1.73600   1.73659    0.000
 5852.00    1.72676   1.72749    0.000
 5853.00    1.71475   1.71883    0.000
 5854.00    1.70133   1.71090    0.000
 5855.00    1.68882   1.70476    0.000
 5856.00    1.67899   1.69946    0.000
 5857.00    1.67276   1.69699    0.000
 5858.00    1.66997   1.69492    0.000
 5859.00    1.67025   1.69565    0.000
 5860.00    1.67405   1.69690    0.000
 5861.00    1.68157   1.70032    0.000
 5862.00    1.69135   1.70416    0.000
 5863.00    1.70124   1.70909    0.000
 5864.00    1.70968   1.71461    0.000
 5865.00    1.71596   1.72005    0.000
 5866.00    1.72023   1.72612    0.000
 5867.00    1.72319   1.73117    0.000
 5868.00    1.72577   1.73625    0.000
 5869.00    1.72869   1.73977    0.000
 5870.00    1.73194   1.74292    0.000
 5871.00    1.73441   1.74453    0.000
 5872.00    1.73363   1.74491    0.000
 5873.00    1.72844   1.74394    0.000
 5874.00    1.72104   1.74094    0.000
 5875.00    1.71320   1.73660    0.000
 5876.00    1.70317   1.72981    0.000
 5877.00    1.68880   1.72172    0.000
 5878.00    1.67022   1.71110    0.000
 5879.00    1.64881   1.69853    0.000
 5880.00    1.62609   1.68328    0.000
 5881.00    1.60274   1.66548    0.000
 5882.00    1.57804   1.64468    0.000
 5883.00    1.55080   1.62114    0.000
 5884.00    1.52009   1.59471    0.000
 5885.00    1.48605   1.56553    0.000
 5886.00    1.45030   1.53459    0.000
 5887.00    1.41521   1.50426    0.000
 5888.00    1.38326   1.47510    0.000
 5889.00    1.35606   1.44991    0.000
 5890.00    1.33389   1.42894    0.000
 5891.00    1.31702   1.41207    0.000
 5892.00    1.30641   1.40107    0.000
 5893.00    1.30331   1.39706    0.000
 5894.00    1.30875   1.39955    0.000
 5895.00    1.32233   1.40989    0.000
 5896.00    1.34210   1.42618    0.000
 5897.00    1.36670   1.44705    0.000
 5898.00    1.39615   1.47154    0.000
 5899.00    1.42997   1.49859    0.000
 5900.00    1.46641   1.52662    0.000
 5901.00    1.50352   1.55417   -1.000
 5902.00    1.53943   1.58074   59.721
 5903.00    1.57190   1.60488   59.369
 5904.00    1.59861   1.62657   59.362
 5905.00    1.61940   1.64517   59.720
 5906.00    1.63648   1.66051   59.972
 5907.00    1.65122   1.67277   59.966
 5908.00    1.66329   1.68181   60.060
 5909.00    1.67242   1.68862   60.450
 5910.00    1.67890   1.69272   60.951
 5911.00    1.68301   1.69572   61.200
 5912.00    1.68504   1.69652   60.938
 5913.00    1.68591   1.69768   60.718
 5914.00    1.68687   1.69802   61.557
 5915.00    1.68764   1.69887   63.221
 5916.00    1.68667   1.70000   64.125
 5917.00    1.68396   1.70122   63.593
 5918.00    1.68139   1.70322   62.450
 5919.00    1.68141   1.70512   61.667
 5920.00    1.68581   1.70760   61.736
 5921.00    1.69353   1.70974   62.193
 5922.00    1.70112   1.71235   62.042
 5923.00    1.70568   1.71408   61.385
 5924.00    1.70605   1.71569   61.090
 5925.00    1.70365   1.71662   60.923
 5926.00    1.70134   1.71666   60.013
 5927.00    1.70021   1.71697   58.940
 5928.00    1.69966   1.71632   58.939
 5929.00    1.69956   1.71651   59.475
 5930.00    1.70040   1.71610   58.980
 5931.00    1.70245   1.71590   57.761
 5932.00    1.70554   1.71572   57.316
 5933.00    1.70886   1.71568   57.911
 5934.00    1.71160   1.71668   58.794
 5935.00    1.71417   1.71747   59.266
 5936.00    1.71731   1.71858   59.056
 5937.00    1.72016   1.71951   58.557
 5938.00    1.72130   1.72060   58.353
 5939.00    1.72132   1.72110   58.413
 5940.00    1.72175   1.72195   58.460
 5941.00    1.72239   1.72264   58.786
 5942.00    1.72199   1.72313   59.800
 5943.00    1.71997   1.72328   61.039
 5944.00    1.71680   1.72292   61.673
 5945.00    1.71393   1.72199   61.822
 5946.00    1.71296   1.72068   62.104
 5947.00    1.71431   1.71905   62.557
 5948.00    1.71692   1.71763   62.924
 5949.00    1.71810   1.71611   63.293
 5950.00    1.71569   1.71453   63.814
 5951.00    1.71075   1.71288   64.165
 5952.00    1.70625   1.71227   63.919
 5953.00    1.70474   1.71223   63.156
 5954.00    1.70702   1.71256   62.364
 5955.00    1.71093   1.71368   62.165
 5956.00    1.71393   1.71588   62.640
 5957.00    1.71604   1.71898   62.671
 5958.00    1.71884   1.72281   61.441
 5959.00    1.72372   1.72705   60.078
 5960.00    1.73079   1.73166   59.692
 5961.00    1.73786   1.73624   59.702
 5962.00    1.74268   1.74077   59.298
 5963.00    1.74501   1.74526   58.869
 5964.00    1.74599   1.74880   58.891
 5965.00    1.74712   1.75288   58.887
 5966.00    1.74950   1.75576   58.497
 5967.00    1.75319   1.75823   58.400
 5968.00    1.75716   1.75952   58.949
 5969.00    1.75957   1.76024   59.131
 5970.00    1.75913   1.75967   58.480
 5971.00    1.75627   1.75816   58.487
 5972.00    1.75198   1.75556   59.965
 5973.00    1.74690   1.75189   61.211
 5974.00    1.74110   1.74750   60.961
 5975.00    1.73415   1.74265   60.880
 5976.00    1.72616   1.73801   62.061
 5977.00    1.71836   1.73297   62.802
 5978.00    1.71203   1.72870   62.065
 5979.00    1.70768   1.72422   61.765
 5980.00    1.70485   1.72012   63.070
 5981.00    1.70240   1.71653   64.450
 5982.00    1.70042   1.71356   64.395
 5983.00    1.70101   1.71192   63.464
 5984.00    1.70496   1.71186   62.811
 5985.00    1.71027   1.71210   63.074
 5986.00    1.71456   1.71345   64.044
 5987.00    1.71674   1.71532   64.613
 5988.00    1.71746   1.71782   64.019
 5989.00    1.71896   1.72035   62.626
 5990.00    1.72274   1.72271   61.368
 5991.00    1.72852   1.72559   61.129
 5992.00    1.73457   1.72751   61.673
 5993.00    1.73834   1.72876   61.584
 5994.00    1.73823   1.72888   60.585
 5995.00    1.73438   1.72827   60.029
 5996.00    1.72858   1.72696   60.239
 5997.00    1.72352   1.72546   60.040
 5998.00    1.72020   1.72327   59.226
 5999.00    1.71736   1.72052   58.988
 6000.00    1.71381   1.71746   59.568
 6001.00    1.70940   1.71369   59.919
 6002.00    1.70500   1.71082   59.831
 6003.00    1.70197   1.70769   60.269
 6004.00    1.70034   1.70417   61.281
 6005.00    1.69875   1.70126   61.753
 6006.00    1.69655   1.69794   61.544
 6007.00    1.69422   1.69602   61.745
 6008.00    1.69215   1.69482   62.695
 6009.00    1.69038   1.69323   63.689
 6010.00    1.68896   1.69174   64.208
 6011.00    1.68802   1.68990   64.295
 6012.00    1.68759   1.68893   64.210
 6013.00    1.68750   1.68830   64.247
 6014.00    1.68729   1.68745   64.576
 6015.00    1.68657   1.68668   65.081
 6016.00    1.68615   1.68675   65.007
 6017.00    1.68735   1.68713   63.648
 6018.00    1.68983   1.68738   62.164
 6019.00    1.69184   1.68945   62.347
 6020.00    1.69219   1.69162   63.654
 6021.00    1.69098   1.69564   63.855
 6022.00    1.69007   1.69951   62.587
 6023.00    1.69172   1.70512   61.224
 6024.00    1.69546   1.71155   60.343
 6025.00    1.69928   1.71778   59.794
 6026.00    1.70338   1.72549   59.679
 6027.00    1.70950   1.73280   60.120
 6028.00    1.71789   1.74055   60.442
 6029.00    1.72730   1.74724   59.853
 6030.00    1.73611   1.75436   59.081
 6031.00    1.74342   1.76057   59.319
 6032.00    1.75050   1.76613   60.120
 6033.00    1.75905   1.77083   60.202
 6034.00    1.76779   1.77481   59.631
 6035.00    1.77392   1.77824   59.372
 6036.00    1.77647   1.78069   59.869
 6037.00    1.77626   1.78296   60.946
 6038.00    1.77490   1.78424   61.901
 6039.00    1.77424   1.78610   61.992
 6040.00    1.77555   1.78704   61.331
 6041.00    1.77881   1.78874   60.645
 6042.00    1.78196   1.79024   60.635
 6043.00    1.78257   1.79140   61.443
 6044.00    1.78026   1.79262   62.024
 6045.00    1.77630   1.79323   61.361
 6046.00    1.77258   1.79395   60.281
 6047.00    1.77083   1.79331   60.027
 6048.00    1.77173   1.79314   60.555
 6049.00    1.77434   1.79158   61.042
 6050.00    1.77575   1.78962   60.648
 6051.00    1.77376   1.78666   59.416
 6052.00    1.76966   1.78329   58.813
 6053.00    1.76590   1.78010   59.772
 6054.00    1.76339   1.77589   60.972
 6055.00    1.76157   1.77251   60.792
 6056.00    1.75914   1.76904   59.849
 6057.00    1.75539   1.76635   59.338
 6058.00    1.75144   1.76388   59.285
 6059.00    1.74863   1.76177   59.266
 6060.00    1.74701   1.76045   59.120
 6061.00    1.74619   1.75910   58.978
 6062.00    1.74624   1.75941   59.197
 6063.00    1.74750   1.75952   59.840
 6064.00    1.75044   1.76165   60.324
 6065.00    1.75515   1.76558   60.232
 6066.00    1.76108   1.76946   59.968
 6067.00    1.76711   1.77398   59.967
 6068.00    1.77183   1.77803   60.124
 6069.00    1.77469   1.78227   60.262
 6070.00    1.77669   1.78570   60.462
 6071.00    1.77917   1.78829   60.776
 6072.00    1.78272   1.78946   61.044
 6073.00    1.78601   1.78933   61.158
 6074.00    1.78561   1.78739   61.233
 6075.00    1.78000   1.78422   61.398
 6076.00    1.77166   1.77961   61.672
 6077.00    1.76387   1.77376   62.001
 6078.00    1.75853   1.76816   62.298
 6079.00    1.75519   1.76157   62.511
 6080.00    1.75117   1.75466   62.645
 6081.00    1.74496   1.74876   62.658
 6082.00    1.73778   1.74392   62.417
 6083.00    1.73188   1.73893   61.768
 6084.00    1.72919   1.73508   60.655
 6085.00    1.72950   1.73220   59.409
 6086.00    1.73017   1.73027   58.654
 6087.00    1.72886   1.72879   58.537
 6088.00    1.72489   1.72708   58.630
 6089.00    1.71955   1.72692   58.719
 6090.00    1.71542   1.72702   58.966
 6091.00    1.71337   1.72724   59.076
 6092.00    1.71202   1.72760   58.362
 6093.00    1.71124   1.72911   57.440
 6094.00    1.71273   1.72910   57.958
 6095.00    1.71723   1.72876   59.699
 6096.00    1.72335   1.72831   60.313
 6097.00    1.72768   1.72781   59.520
 6098.00    1.72642   1.72686   59.665
 6099.00    1.72041   1.72500   61.156
 6100.00    1.71485   1.72226   62.039
 6101.00    1.71260   1.71928   61.994
 6102.00    1.71296   1.72038   62.806
 6103.00    1.71500   1.72082   64.499
 6104.00    1.71850   1.72231   65.038
 6105.00    1.72320   1.72383   64.101
 6106.00    1.72859   1.72583   63.382
 6107.00    1.73378   1.72952   63.481
 6108.00    1.73780   1.73329   63.704
 6109.00    1.74049   1.73623   63.499
 6110.00    1.74243   1.73885   62.827
 6111.00    1.74421   1.74170   62.050
 6112.00    1.74595   1.74338   61.582
 6113.00    1.74675   1.74434   61.293
 6114.00    1.74516   1.74304   60.787
 6115.00    1.74067   1.74061   60.296
 6116.00    1.73403   1.73780   60.286
 6117.00    1.72725   1.73353   60.282
 6118.00    1.72229   1.72817   59.482
 6119.00    1.71847   1.72340   58.532
 6120.00    1.71367   1.71748   58.665
 6121.00    1.70788   1.71388   59.686
 6122.00    1.70286   1.71226   60.481
 6123.00    1.70014   1.70971   60.798
 6124.00    1.70030   1.70810   61.117
 6125.00    1.70250   1.70662   61.547
 6126.00    1.70513   1.70562   61.840
 6127.00    1.70706   1.70494   61.831
 6128.00    1.70775   1.70459   61.626
 6129.00    1.70704   1.70363   61.744
 6130.00    1.70540   1.70159   62.550
 6131.00    1.70430   1.69935   63.363
 6132.00    1.70504   1.69583   63.220
 6133.00    1.70702   1.69136   62.442
 6134.00    1.70850   1.68641   62.044
 6135.00    1.70804   1.68070   62.581
 6136.00    1.70517   1.67880   63.848
 6137.00    1.70101   1.67925   64.535
 6138.00    1.69759   1.68073   63.676
 6139.00    1.69689   1.68247   62.661
 6140.00    1.69963   1.68496   62.966
 6141.00    1.70416   1.69035   63.642
 6142.00    1.70867   1.69605   63.124
 6143.00    1.71370   1.70173   61.780
 6144.00    1.72057   1.70683   60.719
 6145.00    1.72914   1.71155   60.230
 6146.00    1.73754   1.71525   60.043
 6147.00    1.74235   1.71740   59.699
 6148.00    1.74114   1.71789   59.109
 6149.00    1.73491   1.71690   58.968
 6150.00    1.72603   1.71398   59.672
 6151.00    1.71592   1.70998   60.392
 6152.00    1.70478   1.70343   60.425
 6153.00    1.69172   1.69535   60.538
 6154.00    1.67655   1.68661   61.479
 6155.00    1.66122   1.67604   62.635
 6156.00    1.64773   1.66483   63.132
 6157.00    1.63633   1.65267   63.025
 6158.00    1.62597   1.64005   62.994
 6159.00    1.61496   1.62593   63.820
 6160.00    1.60261   1.61309   65.485
 6161.00    1.59013   1.60280   66.559
 6162.00    1.57904   1.59451   66.286
 6163.00    1.57006   1.58919   66.100
 6164.00    1.56401   1.58478   66.839
 6165.00    1.56225   1.58353   67.123
 6166.00    1.56517   1.58391   65.847
 6167.00    1.57132   1.58483   63.823
 6168.00    1.57903   1.58783   61.960
 6169.00    1.58728   1.59392   60.375
 6170.00    1.59535   1.60216   59.274
 6171.00    1.60261   1.60991   59.216
 6172.00    1.60888   1.61895   60.109
 6173.00    1.61462   1.62756   60.832
 6174.00    1.62067   1.63590   60.746
 6175.00    1.62786   1.64343   60.453
 6176.00    1.63632   1.65066   60.370
 6177.00    1.64518   1.65741   60.169
 6178.00    1.65334   1.66255   59.745
 6179.00    1.65992   1.66746   59.539
 6180.00    1.66459   1.67020   59.833
 6181.00    1.66759   1.67152   60.475
 6182.00    1.66939   1.67130   61.099
 6183.00    1.67031   1.66988   61.337
 6184.00    1.66967   1.66644   61.338
 6185.00    1.66604   1.66238   61.739
 6186.00    1.65944   1.65826   62.657
 6187.00    1.65189   1.65341   63.466
 6188.00    1.64552   1.64943   63.727
 6189.00    1.64159   1.64427   63.518
 6190.00    1.63933   1.64112   63.004
 6191.00    1.63638   1.64101   62.341
 6192.00    1.63188   1.64119   61.984
 6193.00    1.62707   1.64290   62.497
 6194.00    1.62400   1.64526   63.659
 6195.00    1.62459   1.64918   64.446
 6196.00    1.62918   1.65324   64.305
 6197.00    1.63635   1.65708   63.545
 6198.00    1.64381   1.66092   62.790
 6199.00    1.64957   1.66554   62.518
 6200.00    1.65420   1.67109   62.435
 6201.00    1.65995   1.67530   61.844
 6202.00    1.66636   1.67820   61.026
 6203.00    1.67049   1.67989   60.831
 6204.00    1.67067   1.68051   60.966
 6205.00    1.66664   1.67968   60.452
 6206.00    1.65783   1.67732   59.752
 6207.00    1.64377   1.67362   60.124
 6208.00    1.62612   1.66867   61.222
 6209.00    1.60796   1.66222   -1.000
 6210.00    1.59123   1.65489   -1.000
 6211.00    1.57667   1.64561   -1.000
 6212.00    1.56474   1.63601   -1.000
 6213.00    1.55579   1.62700   -1.000
 6214.00    1.54984   1.61854   -1.000
 6215.00    1.54662   1.61164   -1.000
 6216.00    1.54587   1.60580   -1.000
 6217.00    1.54729   1.60023   -1.000
 6218.00    1.55037   1.59589   -1.000
 6219.00    1.55430   1.59314   64.874
 6220.00    1.55793   1.59138   63.713
 6221.00    1.56002   1.59079   63.335
 6222.00    1.55969   1.59003   63.828
 6223.00    1.55679   1.59063   64.724
 6224.00    1.55220   1.59107   65.420
 6225.00    1.54764   1.59146   -1.000
 6226.00    1.54528   1.59132   -1.000
 6227.00    1.54646   1.59045   -1.000
 6228.00    1.55018   1.58929   -2.000
 6229.00    1.55455   1.58783   -2.000
 6230.00    1.55906   1.58875   -2.000
 6231.00    1.56350   1.58809   -2.000
 6232.00    1.56627   1.58950   -2.000
 6233.00    1.56597   1.59067   -2.000
 6234.00    1.56350   1.59087   -2.000
 6235.00    1.56103   1.59103   -2.000
 6236.00    1.56028   1.58976   -2.000
 6237.00    1.56172   1.58883   -2.000
 6238.00    1.56374   1.58624   -2.000
 6239.00    1.56435   1.58587   -2.000
 6240.00    1.56287   1.58459   60.948
 6241.00    1.55962   1.58154   61.928
 6242.00    1.55543   1.58011   63.176
 6243.00    1.55139   1.57756   63.933
 6244.00    1.54860   1.57522   64.850
 6245.00    1.54745   1.57354   66.546
 6246.00    1.54701   1.57261   68.011
 6247.00    1.54603   1.57087   68.083
 6248.00    1.54388   1.56909   67.213
 6249.00    1.54095   1.56749   66.357
 6250.00    1.53884   1.56317   65.860
 6251.00    1.53845   1.56043   65.682
 6252.00    1.53874   1.55764   65.614
 6253.00    1.53862   1.55537   65.304
 6254.00    1.53833   1.55319   64.375
 6255.00    1.53846   1.55190   63.138
 6256.00    1.53916   1.55131   62.721
 6257.00    1.54107   1.55148   63.334
 6258.00    1.54562   1.55568   63.463
 6259.00    1.55340   1.55897   62.315
 6260.00    1.56326   1.56521   61.182
 6261.00    1.57367   1.57264   60.910
 6262.00    1.58359   1.58023   60.818
 6263.00    1.59212   1.58731   60.452
 6264.00    1.59839   1.59448   60.405
 6265.00    1.60238   1.60257   61.019
 6266.00    1.60519   1.60939   61.812
 6267.00    1.60772   1.61659   62.497
 6268.00    1.61010   1.62223   63.439
 6269.00    1.61280   1.62693   64.630
 6270.00    1.61686   1.63145   65.276
 6271.00    1.62225   1.63492   65.084
 6272.00    1.62747   1.63703   64.792
 6273.00    1.63118   1.63924   65.018
 6274.00    1.63307   1.64163   65.764
 6275.00    1.63362   1.64325   66.505
 6276.00    1.63387   1.64415   66.433
 6277.00    1.63488   1.64552   65.517
 6278.00    1.63728   1.64608   64.630
 6279.00    1.64077   1.64747   64.333
 6280.00    1.64421   1.64954    0.000
 6281.00    1.64687   1.65124    0.000
 6282.00    1.64886   1.65427    0.000
 6283.00    1.65102   1.65625    0.000
 6284.00    1.65440   1.65896    0.000
 6285.00    1.65871   1.66142    0.000
 6286.00    1.66237   1.66348    0.000
 6287.00    1.66446   1.66515    0.000
 6288.00    1.66514   1.66518    0.000
 6289.00    1.66509   1.66501    0.000
 6290.00    1.66488   1.66371    0.000
 6291.00    1.66401   1.66121    0.000
 6292.00    1.66128   1.65826    0.000
 6293.00    1.65664   1.65444    0.000
 6294.00    1.65110   1.65003    0.000
 6295.00    1.64520   1.64542    0.000
 6296.00    1.63881   1.64094    0.000
 6297.00    1.63189   1.63739    0.000
 6298.00    1.62497   1.63447    0.000
 6299.00    1.61973   1.63210    0.000
 6300.00    1.61828   1.63069    0.000
 6301.00    1.62108   1.63059    0.000
 6302.00    1.62684   1.63175    0.000
 6303.00    1.63359   1.63299    0.000
 6304.00    1.63934   1.63474    0.000
 6305.00    1.64327   1.63774    0.000
 6306.00    1.64550   1.63981    0.000
 6307.00    1.64631   1.64177    0.000
 6308.00    1.64606   1.64219    0.000
 6309.00    1.64522   1.64138    0.000
 6310.00    1.64403   1.64058    0.000
 6311.00    1.64203   1.63937    0.000
 6312.00    1.63866   1.63748    0.000
 6313.00    1.63463   1.63384    0.000
 6314.00    1.63136   1.63181    0.000
 6315.00    1.62970   1.62991    0.000
 6316.00    1.62953   1.62697    0.000
 6317.00    1.62964   1.62661    0.000
 6318.00    1.62892   1.62709    0.000
 6319.00    1.62821   1.62927    0.000
 6320.00    1.62938   1.63249    0.000
 6321.00    1.63352   1.63607   63.706
 6322.00    1.64064   1.64136   64.205
 6323.00    1.64950   1.64589   64.256
 6324.00    1.65814   1.65220   64.282
 6325.00    1.66465   1.65659   64.704
 6326.00    1.66821   1.66045   65.513
 6327.00    1.67009   1.66491   65.845
 6328.00    1.67228   1.66648   65.156
 6329.00    1.67554   1.66849   64.588
 6330.00    1.67912   1.66838   65.156
 6331.00    1.68085   1.66841   65.869
 6332.00    1.67939   1.66715   65.404
 6333.00    1.67649   1.66354   64.258
 6334.00    1.67418   1.66044   63.447
 6335.00    1.67178   1.65676   63.078
 6336.00    1.66791   1.65507   62.819
 6337.00    1.66261   1.65262   62.401
 6338.00    1.65709   1.65152   61.795
 6339.00    1.65314   1.65114   61.281
 6340.00    1.65155   1.65019   61.100
 6341.00    1.65102   1.65016   61.195
 6342.00    1.65022   1.64956   61.440
 6343.00    1.64959   1.65129   61.807
 6344.00    1.65019   1.65328   62.090
 6345.00    1.65253   1.65527   61.793
 6346.00    1.65616   1.65715   61.123
 6347.00    1.65960   1.65829   61.445
 6348.00    1.66204   1.65899   63.364
 6349.00    1.66441   1.65802   65.445
 6350.00    1.66736   1.65638   65.929
 6351.00    1.66991   1.65392   64.698
 6352.00    1.67040   1.64991   63.130
 6353.00    1.66728   1.64460   63.092
 6354.00    1.65979   1.63902   64.849
 6355.00    1.64836   1.63282   66.190
 6356.00    1.63490   1.62597   65.754
 6357.00    1.62248   1.61923   65.179
 6358.00    1.61316   1.61349   65.562
 6359.00    1.60691   1.60888   65.894
 6360.00    1.60276   1.60532   65.477
 6361.00    1.59964   1.60409   65.023
 6362.00    1.59750   1.60487   64.851
 6363.00    1.59760   1.60812   64.276
 6364.00    1.60142   1.61334   63.169
 6365.00    1.60991   1.61977   62.357
 6366.00    1.62252   1.62801   62.158
 6367.00    1.63708   1.63672   62.037
 6368.00    1.65095   1.64604   61.700
 6369.00    1.66193   1.65499   61.450
 6370.00    1.66950   1.66413   61.600
 6371.00    1.67503   1.67297   62.228
 6372.00    1.68023   1.68004   63.145
 6373.00    1.68628   1.68647   63.935
 6374.00    1.69250   1.69122   64.312
 6375.00    1.69675   1.69490   64.312
 6376.00    1.69837   1.69691   64.311
 6377.00    1.69859   1.69830   64.757
 6378.00    1.69819   1.69944   65.289
 6379.00    1.69706   1.69931   64.918
 6380.00    1.69584   1.69980   63.855
 6381.00    1.69590   1.69950   63.357
 6382.00    1.69753   1.69884   63.645
 6383.00    1.69963   1.69789   63.846
 6384.00    1.70085   1.69638   63.499
 6385.00    1.70031   1.69543   62.856
 6386.00    1.69861   1.69400   62.285
 6387.00    1.69736   1.69297   61.980
 6388.00    1.69708   1.69158   61.711
 6389.00    1.69683   1.68940   61.121
 6390.00    1.69501   1.68672   60.573
 6391.00    1.69016   1.68206   60.765
 6392.00    1.68265   1.67934   61.402
 6393.00    1.67426   1.67738   61.509
 6394.00    1.66624   1.67592   61.022
 6395.00    1.65933   1.67541   60.676
 6396.00    1.65454   1.67414   60.809
 6397.00    1.65298   1.67311   61.296
 6398.00    1.65487   1.67004   61.875
 6399.00    1.65904   1.67031   62.316
 6400.00    1.66214   1.67207   62.630
 6401.00    1.66087   1.67365   62.974
 6402.00    1.65635   1.67633   63.355
 6403.00    1.65228   1.67696   63.718
 6404.00    1.65023   1.67758   64.202
 6405.00    1.64953   1.67663   64.924
 6406.00    1.64866   1.67629   65.467
 6407.00    1.64656   1.67771   65.287
 6408.00    1.64428   1.67799   64.590
 6409.00    1.64357   1.67793   63.966
 6410.00    1.64438   1.67722   63.615
 6411.00    1.64551   1.67606   63.465
 6412.00    1.64606   1.67477   63.459
 6413.00    1.64558   1.67402   63.464
 6414.00    1.64394   1.67477   63.108
 6415.00    1.64208   1.67507   62.259
 6416.00    1.64294   1.67545   61.599
 6417.00    1.64844   1.67579   61.723
 6418.00    1.65553   1.67613   62.081
 6419.00    1.65948   1.67693   61.956
 6420.00    1.65845   1.67876   61.831
 6421.00    1.65368   1.68177   62.467
 6422.00    1.64880   1.68358   63.661
 6423.00    1.64749   1.68579   64.656
 6424.00    1.65090   1.68735   64.853
 6425.00    1.65803   1.68890   64.252
 6426.00    1.66657   1.69050   63.655
 6427.00    1.67400   1.69181   63.549
 6428.00    1.67877   1.69264   63.208
 6429.00    1.68060   1.69161   62.200
 6430.00    1.68067   1.69161   61.656
 6431.00    1.68067   1.69148   62.333
 6432.00    1.68181   1.69211   63.066
 6433.00    1.68423   1.69325   62.694
 6434.00    1.68672   1.69394   61.955
 6435.00    1.68804   1.69476   61.816
 6436.00    1.68806   1.69457   62.095
 6437.00    1.68739   1.69548   62.237
 6438.00    1.68690   1.69806   62.008
 6439.00    1.68668   1.70068   61.560
 6440.00    1.68544   1.70282   61.334
 6441.00    1.68198   1.70400   61.470
 6442.00    1.67614   1.70402   61.514
 6443.00    1.66812   1.70310   61.357
 6444.00    1.65810   1.70228   61.715
 6445.00    1.64740   1.70150   -1.000
 6446.00    1.63892   1.69989   -1.000
 6447.00    1.63480   1.69589   -1.000
 6448.00    1.63497   1.69111   -1.000
 6449.00    1.63768   1.68833   -1.000
 6450.00    1.64037   1.68580   66.315
 6451.00    1.64226   1.68565   66.072
 6452.00    1.64530   1.68566   65.518
 6453.00    1.65090   1.68435   65.350
 6454.00    1.65841   1.68350   65.104
 6455.00    1.66706   1.68301   64.618
 6456.00    1.67661   1.68547   64.538
 6457.00    1.68591   1.68897   65.010
 6458.00    1.69247   1.69212   65.244
 6459.00    1.69473   1.69495   64.540
 6460.00    1.69309   1.69465   62.907
 6461.00    1.68991   1.69494   61.069
 6462.00    1.68866   1.69660   60.019
 6463.00    1.69065   1.69836   59.979
 6464.00    1.69427   1.70134   60.321
 6465.00    1.69775   1.70294   60.381
 6466.00    1.70039   1.70463   59.956
 6467.00    1.70222   1.70433   59.816
 6468.00    1.70380   1.70466   61.074
 6469.00    1.70531   1.70598   62.238
 6470.00    1.70650   1.70707   60.260
 6471.00    1.70710   1.70886   59.280
 6472.00    1.70697   1.70880   66.779
 6473.00    1.70596   1.70857   70.578
 6474.00    1.70399   1.70700   51.204
 6475.00    1.70164   1.70563   46.705
 6476.00    1.69987   1.70393   93.659
 6477.00    1.69870   1.70222   -2.000
 6478.00    1.69727   1.70079   18.910
 6479.00    1.69499   1.69748    7.069
 6480.00    1.69184   1.69315    5.348
 6481.00    1.68814   1.68893    5.659
 6482.00    1.68424   1.68509    6.182
 6483.00    1.67980   1.68056    6.068
 6484.00    1.67420   1.67558    5.845
 6485.00    1.66785   1.66937    5.908
 6486.00    1.66204   1.66193    6.200
 6487.00    1.65758   1.65220    6.204
 6488.00    1.65411   1.64249    5.632
 6489.00    1.64913   1.63327    5.644
 6490.00    1.63958   1.62281    8.474
 6491.00    1.62561   1.61280   29.243
 6492.00    1.61031   1.60078   -2.000
 6493.00    1.59744   1.59110   86.440
 6494.00    1.58977   1.58307   44.276
 6495.00    1.58698   1.57688   56.162
 6496.00    1.58676   1.57568   72.619
 6497.00    1.58770   1.57500   65.254
 6498.00    1.58952   1.57844   60.747
 6499.00    1.59265   1.58274   64.171
 6500.00    1.59767   1.58955   67.004
 6501.00    1.60468   1.60013   66.293
 6502.00    1.61343   1.61036   65.361
 6503.00    1.62380   1.62269   65.236
 6504.00    1.63546   1.63381   65.073
 6505.00    1.64735   1.64434   64.701
 6506.00    1.65844   1.65416   64.315
 6507.00    1.66889   1.66205   63.572
 6508.00    1.67900   1.66936   62.244
 6509.00    1.68761   1.67496   61.089
 6510.00    1.69302   1.67927   60.836
 6511.00    1.69445   1.68259   61.065
 6512.00    1.69267   1.68427   61.067
 6513.00    1.69043   1.68521   61.010
 6514.00    1.69018   1.68541   61.251
 6515.00    1.69147   1.68582   61.394
 6516.00    1.69291   1.68573   61.159
 6517.00    1.69470   1.68538   61.379
 6518.00    1.69745   1.68619   62.610
 6519.00    1.70073   1.68632   63.580
 6520.00    1.70337   1.68688   63.065
 6521.00    1.70413   1.68743   62.212
 6522.00    1.70273   1.68858   62.425
 6523.00    1.70059   1.68973   63.411
 6524.00    1.69923   1.68986   64.266
 6525.00    1.69863   1.69074   64.634
 6526.00    1.69825   1.69156   64.644
 6527.00    1.69803   1.69212   64.657
 6528.00    1.69844   1.69309    0.000
 6529.00    1.70036   1.69390    0.000
 6530.00    1.70399   1.69414    0.000
 6531.00    1.70815   1.69403    0.000
 6532.00    1.71191   1.69399    0.000
 6533.00    1.71568   1.69533    0.000
 6534.00    1.71972   1.69640    0.000
 6535.00    1.72308   1.69669    0.000
 6536.00    1.72497   1.69644    0.000
 6537.00    1.72552   1.69531    0.000
 6538.00    1.72518   1.69426    0.000
 6539.00    1.72415   1.69210    0.000
 6540.00    1.72224   1.69026    0.000
 6541.00    1.71905   1.68717    0.000
 6542.00    1.71501   1.68260    0.000
 6543.00    1.71173   1.67779    0.000
 6544.00    1.70957   1.67140    0.000
 6545.00    1.70666   1.66600    0.000
 6546.00    1.70118   1.65928    0.000
 6547.00    1.69264   1.65215    0.000
 6548.00    1.68167   1.64474    0.000
 6549.00    1.66967   1.63565    0.000
 6550.00    1.65773   1.62735    0.000
 6551.00    1.64610   1.61701    0.000
 6552.00    1.63446   1.60671    0.000
 6553.00    1.62214   1.59587    0.000
 6554.00    1.60841   1.58330    0.000
 6555.00    1.59284   1.56942    0.000
 6556.00    1.57607   1.55427    0.000
 6557.00    1.55986   1.54300    0.000
 6558.00    1.54567   1.53202    0.000
 6559.00    1.53407   1.52093    0.000
 6560.00    1.52424   1.50902    0.000
 6561.00    1.51476   1.49838    0.000
 6562.00    1.50704   1.49432    0.000
 6563.00    1.50512   1.49254    0.000
 6564.00    1.51061   1.49607    0.000
 6565.00    1.52149   1.50184    0.000
 6566.00    1.53444   1.50712    0.000
 6567.00    1.54630   1.51272    0.000
 6568.00    1.55602   1.51932    0.000
 6569.00    1.56472   1.53357    0.000
 6570.00    1.57378   1.54832    0.000
 6571.00    1.58405   1.55991    0.000
 6572.00    1.59517   1.57068    0.000
 6573.00    1.60600   1.57951    0.000
 6574.00    1.61636   1.58859    0.000
 6575.00    1.62704   1.59790    0.000
 6576.00    1.63843   1.60799    0.000
 6577.00    1.64994   1.61644    0.000
 6578.00    1.65964   1.62223    0.000
 6579.00    1.66515   1.62703    0.000
 6580.00    1.66610   1.63192    0.000
 6581.00    1.66429   1.63740    0.000
 6582.00    1.66263   1.64206    0.000
 6583.00    1.66379   1.64560    0.000
 6584.00    1.66784   1.64675    0.000
 6585.00    1.67295   1.64684    0.000
 6586.00    1.67772   1.64572    0.000
 6587.00    1.68145   1.64540    0.000
 6588.00    1.68354   1.64626    0.000
 6589.00    1.68355   1.64461    0.000
 6590.00    1.68135   1.64201    0.000
 6591.00    1.67721   1.63787    0.000
 6592.00    1.67199   1.63528    0.000
 6593.00    1.66668   1.63503    0.000
 6594.00    1.66189   1.63450    0.000
 6595.00    1.65805   1.63510    0.000
 6596.00    1.65610   1.63477    0.000
 6597.00    1.65685   1.63402    0.000
 6598.00    1.65992   1.63397    0.000
 6599.00    1.66421   1.63582    0.000
 6600.00    1.66882   1.63935    0.000
 6601.00    1.67306   1.64110    0.000
 6602.00    1.67628   1.64100    0.000
 6603.00    1.67814   1.64127    0.000
 6604.00    1.67896   1.64225    0.000
 6605.00    1.67919   1.64362    0.000
 6606.00    1.67874   1.64467    0.000
 6607.00    1.67695   1.64443    0.000
 6608.00    1.67275   1.64582    0.000
 6609.00    1.66646   1.64749   60.826
 6610.00    1.66143   1.64924   61.868
 6611.00    1.66138   1.65212   62.949
 6612.00    1.66725   1.65439   63.283
 6613.00    1.67732   1.65746   62.605
 6614.00    1.68791   1.65960   62.031
 6615.00    1.69565   1.66256   62.513
 6616.00    1.69972   1.66604   63.538
 6617.00    1.70081   1.66705   64.201
 6618.00    1.70003   1.66709   64.371
 6619.00    1.69899   1.66716   64.293
 6620.00    1.69966   1.66720   64.064
 6621.00    1.70224   1.66606   63.798
 6622.00    1.70371   1.66276   63.758
 6623.00    1.70112   1.65889   63.921
 6624.00    1.69430   1.65595   63.722
 6625.00    1.68454   1.65206   63.010
 6626.00    1.67357   1.64822   62.583
 6627.00    1.66365   1.64392   62.701
 6628.00    1.65747   1.63961   62.315
 6629.00    1.65570   1.63608   61.095
 6630.00    1.65569   1.63235   60.446
 6631.00    1.65473   1.63007   60.997
 6632.00    1.65220   1.62761   61.464
 6633.00    1.64898   1.62542   61.089
 6634.00    1.64678   1.62488   61.016
 6635.00    1.64648   1.62492   61.901
 6636.00    1.64743   1.62471   62.743
 6637.00    1.64865   1.62464   62.764
 6638.00    1.64956   1.62503   62.543
 6639.00    1.64990   1.62604   62.826
 6640.00    1.64970   1.62768   63.805
 6641.00    1.64943   1.62894   64.972
 6642.00    1.65000   1.63036   65.251
 6643.00    1.65162   1.63126   64.614
 6644.00    1.65362   1.63177   64.399
 6645.00    1.65559   1.63286   64.844
 6646.00    1.65782   1.63428   64.539
 6647.00    1.66020   1.63546   63.165
 6648.00    1.66188   1.63536   62.130
 6649.00    1.66237   1.63523   62.055
 6650.00    1.66176   1.63606   62.284
 6651.00    1.66012   1.63624   62.341
 6652.00    1.65733   1.63535   62.357
 6653.00    1.65369   1.63431   62.327
 6654.00    1.64992   1.63302   62.002
 6655.00    1.64647   1.63157   61.558
 6656.00    1.64333   1.62867   61.559
 6657.00    1.64031   1.62581   62.021
 6658.00    1.63726   1.62377   62.426
 6659.00    1.63436   1.62087   62.873
 6660.00    1.63203   1.61826   64.038
 6661.00    1.63052   1.61477   65.583
 6662.00    1.62958   1.61252   66.171
 6663.00    1.62806   1.61138   65.814
 6664.00    1.62455   1.61017   65.860
 6665.00    1.61928   1.60994   66.440
 6666.00    1.61433   1.60919   66.435
 6667.00    1.61235   1.60983   65.459
 6668.00    1.61519   1.61065   64.052
 6669.00    1.62132   1.61178   62.562
 6670.00    1.62684   1.61331   61.110
 6671.00    1.62993   1.61279   60.149
 6672.00    1.63102   1.61347   60.182
 6673.00    1.63055   1.61429   60.971
 6674.00    1.62888   1.61450   61.700
 6675.00    1.62714   1.61460   61.851
 6676.00    1.62676   1.61292   61.476
 6677.00    1.62776   1.61256   61.148
 6678.00    1.62907   1.61221   61.444
 6679.00    1.62971   1.61261   62.066
 6680.00    1.62901   1.61424   62.302
 6681.00    1.62644   1.61416   62.370
 6682.00    1.62225   1.61508   63.009
 6683.00    1.61856   1.61557   64.209
 6684.00    1.61804   1.61759   65.327
 6685.00    1.62122   1.62071   65.825
 6686.00    1.62660   1.62130   65.603
 6687.00    1.63171   1.62244   65.192
 6688.00    1.63455   1.62277   65.137
 6689.00    1.63544   1.62274   65.092
 6690.00    1.63584   1.62307   64.489
 6691.00    1.63596   1.62184   63.721
 6692.00    1.63524   1.62090   63.412
 6693.00    1.63345   1.61960   63.283
 6694.00    1.63048   1.61761   62.814
 6695.00    1.62573   1.61624   62.282
 6696.00    1.61943   1.61377    0.000
 6697.00    1.61414   1.61196    0.000
 6698.00    1.61260   1.61106    0.000
 6699.00    1.61479   1.60983    0.000
 6700.00    1.61872   1.60918    0.000
 6701.00    1.62187   1.60728    0.000
 6702.00    1.62263   1.60598    0.000
 6703.00    1.62168   1.60499    0.000
 6704.00    1.62043   1.60382    0.000
 6705.00    1.61926   1.60293    0.000
 6706.00    1.61800   1.60092    0.000
 6707.00    1.61654   1.59897    0.000
 6708.00    1.61487   1.59584    0.000
 6709.00    1.61301   1.59292    0.000
 6710.00    1.61090   1.58971    0.000
 6711.00    1.60840   1.58651    0.000
 6712.00    1.60523   1.58450    0.000
 6713.00    1.60114   1.58094    0.000
 6714.00    1.59613   1.57839    0.000
 6715.00    1.59071   1.57562    0.000
 6716.00    1.58573   1.57402    0.000
 6717.00    1.58210   1.57463    0.000
 6718.00    1.58017   1.57442    0.000
 6719.00    1.57935   1.57574    0.000
 6720.00    1.57904   1.57708    0.000
 6721.00    1.57934   1.57889    0.000
 6722.00    1.58033   1.58186    0.000
 6723.00    1.58169   1.58488    0.000
 6724.00    1.58370   1.58880    0.000
 6725.00    1.58762   1.59182    0.000
 6726.00    1.59357   1.59374    0.000
 6727.00    1.59966   1.59598    0.000
 6728.00    1.60483   1.59856    0.000
 6729.00    1.61035   1.60103    0.000
 6730.00    1.61731   1.60202   -2.000
 6731.00    1.62501   1.60155    0.000
 6732.00    1.63091   1.60134    0.000
 6733.00    1.63137   1.60119    0.000
 6734.00    1.62579   1.60092    0.000
 6735.00    1.61779   1.59952    0.000
 6736.00    1.61009   1.59725    0.000
 6737.00    1.60244   1.59515    0.000
 6738.00    1.59483   1.59263    0.000
 6739.00    1.58863   1.59089    0.000
 6740.00    1.58470   1.58885    0.000
 6741.00    1.58264   1.58646    0.000
 6742.00    1.58160   1.58445    0.000
 6743.00    1.58074   1.58156    0.000
 6744.00    1.57932   1.58046    0.000
 6745.00    1.57689   1.57969    0.000
 6746.00    1.57346   1.57849    0.000
 6747.00    1.56964   1.57848    0.000
 6748.00    1.56679   1.57733    0.000
 6749.00    1.56670   1.57861    0.000
 6750.00    1.57022   1.58029    0.000
 6751.00    1.57677   1.58150    0.000
 6752.00    1.58438   1.58457    0.000
 6753.00    1.59046   1.58624   65.205
 6754.00    1.59411   1.58981   63.542
 6755.00    1.59624   1.59317   60.811
 6756.00    1.59772   1.59606   59.141
 6757.00    1.59899   1.60003   58.606
 6758.00    1.60067   1.60228   58.604
 6759.00    1.60337   1.60477   58.384
 6760.00    1.60654   1.60634   57.768
 6761.00    1.60859   1.60740   57.166
 6762.00    1.60789   1.60859   57.094
 6763.00    1.60386   1.60868   57.908
 6764.00    1.59864   1.60846   59.422
 6765.00    1.59588   1.60757   60.935
 6766.00    1.59669   1.60669   61.764
 6767.00    1.59956   1.60644   61.667
 6768.00    1.60244   1.60643   61.303
 6769.00    1.60399   1.60688   61.660
 6770.00    1.60531   1.60698   62.839
 6771.00    1.60857   1.60718   64.197
 6772.00    1.61376   1.60829   65.207
 6773.00    1.61899   1.60973   65.632
 6774.00    1.62250   1.61171   65.452
 6775.00    1.62327   1.61243   64.834
 6776.00    1.62143   1.61235   64.085
 6777.00    1.61819   1.61229   63.524
 6778.00    1.61537   1.61192   63.328
 6779.00    1.61412   1.61166   63.416
 6780.00    1.61290   1.61002   63.305
 6781.00    1.60920   1.60768   62.652
 6782.00    1.60283   1.60493   62.095
 6783.00    1.59518   1.60247   62.349
 6784.00    1.58752   1.60042   62.822
 6785.00    1.58083   1.59852   62.469
 6786.00    1.57603   1.59685   61.418
 6787.00    1.57321   1.59495   60.275
 6788.00    1.57059   1.59399   58.932
 6789.00    1.56611   1.59326   57.196
 6790.00    1.55963   1.59357   55.585
 6791.00    1.55195   1.59398   54.772
 6792.00    1.54351   1.59426   55.023
 6793.00    1.53742   1.59521   -1.000
 6794.00    1.54267   1.59547   -1.000
 6795.00    1.56583   1.59703   57.187
 6796.00    1.60155   1.59817   55.904
 6797.00    1.63858   1.59905   54.017
 6798.00    1.66784   1.60049   -1.000
 6799.00    1.68524   1.60077   -1.000
 6800.00    1.69332   1.60219   -1.000
 6801.00    1.69713   1.60329   -1.000
 6802.00    1.69982   1.60349   -1.000
 6803.00    1.70114   1.60427   -1.000
 6804.00    1.69704   1.60422   -1.000
 6805.00    1.68497   1.60454   -1.000
 6806.00    1.66838   1.60539   -1.000
 6807.00    1.65286   1.60485   56.875
 6808.00    1.64203   1.60463   57.710
 6809.00    1.63373   1.60481   57.761
 6810.00    1.61903   1.60461   58.153
 6811.00    1.59819   1.60571   59.426
 6812.00    1.58973   1.60598   60.085
 6813.00    1.60278   1.60575   59.157
 6814.00    1.61954   1.60686   58.127
 6815.00    1.62336   1.60737   58.197
 6816.00    1.61777   1.60906   58.806
 6817.00    1.61321   1.61080   59.161
 6818.00    1.61657   1.61124   59.239
 6819.00    1.62837   1.61267   59.129
 6820.00    1.64220   1.61362   58.626
 6821.00    1.65104   1.61493   57.844
 6822.00    1.65188   1.61663   57.380
 6823.00    1.64916   1.61693   57.278
 6824.00    1.65345   1.61742   56.734
 6825.00    1.66342   1.61765   55.576
 6826.00    1.66176   1.61739   54.715
 6827.00    1.64799   1.61740   54.630
 6828.00    1.64696   1.61655   54.921
 6829.00    1.66284   1.61544   55.328
 6830.00    1.66654   1.61440   56.120
 6831.00    1.64997   1.61241   57.382
 6832.00    1.64120   1.61018   58.703
 6833.00    1.65065   1.60780   59.654
 6834.00    1.65577   1.60489   -1.000
 6835.00    1.64523   1.60241   60.090
 6836.00    1.63208   1.59937   59.950
 6837.00    1.62583   1.59589   59.876
 6838.00    1.62328   1.59341   59.958
 6839.00    1.62024   1.59062   60.245
 6840.00    1.61546   1.58873   60.744
 6841.00    1.60736   1.58735   61.307
 6842.00    1.59485   1.58590   61.656
 6843.00    1.58480   1.58601   61.711
 6844.00    1.58858   1.58602   61.538
 6845.00    1.60167   1.58636   60.721
 6846.00    1.60661   1.58736   58.707
 6847.00    1.60443   1.58781   56.224
 6848.00    1.61299   1.58861   54.671
 6849.00    1.63063   1.58905   54.338
 6850.00    1.63669   1.58848   54.681
 6851.00    1.62601   1.58829   55.627
 6852.00    1.61155   1.58761   57.536
 6853.00    1.60284   1.58598   59.955
 6854.00    1.60142   1.58455   61.576
 6855.00    1.60522   1.58206   62.067
 6856.00    1.61044   1.58023   62.294
 6857.00    1.61293   1.57940   62.691
 6858.00    1.61000   1.57762   63.075
 6859.00    1.60331   1.57652   63.331
 6860.00    1.59707   1.57491   63.462
 6861.00    1.59231   1.57372   63.266
 6862.00    1.58747   1.57419   62.544
 6863.00    1.58278   1.57428   61.651
 6864.00    1.58034   1.57469   61.051
 6865.00    1.58240   1.57447   60.361
 6866.00    1.58961   1.57393   59.048
 6867.00    1.59837   1.57468   57.875
 6868.00    1.60394   1.57560   57.891
 6869.00    1.60701   1.57670   58.556
 6870.00    1.61117   1.57719   58.515
 6871.00    1.61636   1.57715   57.657
 6872.00    1.62009   1.57801   56.798
 6873.00    1.62146   1.57943   56.429
 6874.00    1.62092   1.58095   56.615
 6875.00    1.61870   1.58219   57.099
 6876.00    1.61472   1.58292   57.688
 6877.00    1.60876   1.58440   58.834
 6878.00    1.60133   1.58645   60.962
 6879.00    1.59473   1.58837   63.129
 6880.00    1.59260   1.59031   63.890
 6881.00    1.59879   1.59186   63.546
 6882.00    1.61272   1.59430   63.152
 6883.00    1.62430   1.59731   62.569
 6884.00    1.62522   1.60012   61.405
 6885.00    1.62315   1.60304   60.335
 6886.00    1.62829   1.60568   59.978
 6887.00    1.63609   1.60889   59.721
 6888.00    1.63846   1.61233   58.939
 6889.00    1.63853   1.61545   58.353
 6890.00    1.64159   1.61809   58.729
 6891.00    1.64414   1.62051   59.536
 6892.00    1.64117   1.62303   59.942
 6893.00    1.63472   1.62496   60.050
 6894.00    1.63011   1.62680   60.309
 6895.00    1.63119   1.62802   60.761
 6896.00    1.63786   1.62917   61.303
 6897.00    1.64485   1.63079   61.988
 6898.00    1.64759   1.63135   62.695
 6899.00    1.64721   1.63205   62.841
 6900.00    1.64620   1.63290   62.099
 6901.00    1.64450   1.63339   60.997
 6902.00    1.64150   1.63466   60.325
 6903.00    1.63782   1.63478   60.571
 6904.00    1.63448   1.63456   60.912
 6905.00    1.63206   1.63513   59.080
 6906.00    1.63076   1.63478   56.818
 6907.00    1.63036   1.63453   60.738
 6908.00    1.62984   1.63390   68.220
 6909.00    1.62722   1.63227   55.985
 6910.00    1.62108   1.63158   43.971
 6911.00    1.61141   1.63049   74.670
 6912.00    1.59953   1.62841   -2.000
 6913.00    1.58777   1.62745   35.231
 6914.00    1.57901   1.62565    9.371
 6915.00    1.57598   1.62424    5.985
 6916.00    1.57896   1.62381    5.859
 6917.00    1.58500   1.62174    6.446
 6918.00    1.59103   1.62112    6.464
 6919.00    1.59560   1.62018    6.218
 6920.00    1.59857   1.61895    6.199
 6921.00    1.60063   1.61897    6.263
 6922.00    1.60207   1.61769    6.252
 6923.00    1.60216   1.61699    6.244
 6924.00    1.59945   1.61633    6.275
 6925.00    1.59254   1.61577    6.252
 6926.00    1.58315   1.61577    6.237
 6927.00    1.57613   1.61544    6.436
 6928.00    1.57380   1.61516    6.593
 6929.00    1.57431   1.61526    6.092
 6930.00    1.57595   1.61616    5.747
 6931.00    1.57862   1.61658    7.499
 6932.00    1.58242   1.61720   19.221
 6933.00    1.58703   1.61781   93.659
 6934.00    1.59187   1.61857   93.659
 6935.00    1.59627   1.61986   46.161
 6936.00    1.59988   1.62012   50.932
 6937.00    1.60260   1.62040   69.502
 6938.00    1.60374   1.62046   65.870
 6939.00    1.60227   1.62056   58.946
 6940.00    1.59806   1.62038   61.027
 6941.00    1.59228   1.61955   65.143
 6942.00    1.58690   1.61906   65.532
 6943.00    1.58394   1.61780   63.704
 6944.00    1.58340   1.61704   62.296
 6945.00    1.58344   1.61632   62.299
 6946.00    1.58220   1.61508   63.115
 6947.00    1.57847   1.61508   63.270
 6948.00    1.57193   1.61439   62.587
 6949.00    1.56362   1.61403   62.061
 6950.00    1.55692   1.61480   -1.000
 6951.00    1.55585   1.61509   -1.000
 6952.00    1.56076   1.61642   -1.000
 6953.00    1.56910   1.61780   60.490
 6954.00    1.57964   1.61915   59.861
 6955.00    1.59231   1.62143   59.316
 6956.00    1.60566   1.62362   59.508
 6957.00    1.61706   1.62626   61.073
 6958.00    1.62425   1.62884   63.103
 6959.00    1.62571   1.63141   63.798
 6960.00    1.62091   1.63388   63.406
 6961.00    1.61131   1.63583   63.454
 6962.00    1.60194   1.63837   63.825
 6963.00    1.59824   1.64024   63.504
 6964.00    1.60004   1.64112   62.829
 6965.00    1.60385   1.64180   62.699
 6966.00    1.60870   1.64138   62.700
 6967.00    1.61508   1.64131   61.848
 6968.00    1.62173   1.64058   60.262
 6969.00    1.62602   1.63760   58.798
 6970.00    1.62523   1.63529   58.148
 6971.00    1.61816   1.63246   58.465
 6972.00    1.60689   1.62925   58.942
 6973.00    1.59498   1.62612   58.819
 6974.00    1.58448   1.62142   58.939
 6975.00    1.57598   1.61890   60.313
 6976.00    1.56929   1.61691   61.977
 6977.00    1.56444   1.61461   62.326
 6978.00    1.56273   1.61387   61.783
 6979.00    1.56531   1.61286   61.551
 6980.00    1.57145   1.61444   61.608
 6981.00    1.57938   1.61689   61.527
 6982.00    1.58757   1.61861   61.584
 6983.00    1.59493   1.62227   62.133
 6984.00    1.60090   1.62521   62.827
 6985.00    1.60495   1.62890   63.034
 6986.00    1.60620   1.63324   62.461
 6987.00    1.60483   1.63580   61.353
 6988.00    1.60327   1.63895   60.421
 6989.00    1.60389   1.64080   59.993
 6990.00    1.60685   1.64196   59.461
 6991.00    1.61113   1.64402   58.482
 6992.00    1.61566   1.64408   57.853
 6993.00    1.61900   1.64369   58.062
 6994.00    1.61919   1.64255   58.302
 6995.00    1.61583   1.64071   58.139
 6996.00    1.61142   1.64020   58.745
 6997.00    1.60811   1.63823   60.739
 6998.00    1.60534   1.63555   62.492
 6999.00    1.60157   1.63322   62.560
 7000.00    1.59592   1.63074   62.078
 7001.00    1.58903   1.62922   -2.000
 7002.00    1.58338   1.62723   -2.000
 7003.00    1.58074   1.62485   -2.000
 7004.00    1.58068   1.62344   -2.000
 7005.00    1.58203   1.62216   -2.000
 7006.00    1.58394   1.62049   -2.000
 7007.00    1.58618   1.61935   -2.000
 7008.00    1.58910   1.61851   -2.000
 7009.00    1.59188   1.61764   -2.000
 7010.00    1.59209   1.61690   -2.000
 7011.00    1.58807   1.61514   -2.000
 7012.00    1.58035   1.61449   -2.000
 7013.00    1.57149   1.61482   -2.000
 7014.00    1.56537   1.61354   -2.000
 7015.00    1.56441   1.61291   -2.000
 7016.00    1.56816   1.61283   -2.000
 7017.00    1.57366   1.61307   -2.000
 7018.00    1.57667   1.61405   -2.000
 7019.00    1.57575   1.61352   -2.000
 7020.00    1.57332   1.61392   -2.000
 7021.00    1.57175   1.61633   -2.000
 7022.00    1.57167   1.61764   -2.000
 7023.00    1.57271   1.61873   -2.000
 7024.00    1.57407   1.62000   -2.000
 7025.00    1.57560   1.62160   -2.000
 7026.00    1.57779   1.62489   -2.000
 7027.00    1.58053   1.62677   -2.000
 7028.00    1.58297   1.62783   -2.000
 7029.00    1.58489   1.63062   -2.000
 7030.00    1.58697   1.63323   -2.000
 7031.00    1.58988   1.63648   -2.000
 7032.00    1.59383   1.63915   -2.000
 7033.00    1.59829   1.64049   -2.000
 7034.00    1.60225   1.64416   -2.000
 7035.00    1.60521   1.64804   -2.000
 7036.00    1.60750   1.65136   -2.000
 7037.00    1.61011   1.65499   -2.000
 7038.00    1.61408   1.65778   -2.000
 7039.00    1.61896   1.66186   -2.000
 7040.00    1.62323   1.66597   -2.000
 7041.00    1.62659   1.66878   -2.000
 7042.00    1.62976   1.67117   -2.000
 7043.00    1.63255   1.67307   -2.000
 7044.00    1.63390   1.67485   -2.000
 7045.00    1.63346   1.67475   -2.000
 7046.00    1.63162   1.67364   -2.000
 7047.00    1.62898   1.67096   -2.000
 7048.00    1.62542   1.66659   -2.000
 7049.00    1.61869   1.66246   -2.000
 7050.00    1.60634   1.65571   -2.000
 7051.00    1.59049   1.64876   -2.000
 7052.00    1.57586   1.64127   -2.000
 7053.00    1.56417   1.63159   -2.000
 7054.00    1.55409   1.62364   -2.000
 7055.00    1.54335   1.61468   -2.000
 7056.00    1.53074   1.60598   -2.000
 7057.00    1.51869   1.59868   -2.000
 7058.00    1.51063   1.58987   -2.000
 7059.00    1.50573   1.58368   -2.000
 7060.00    1.50135   1.57864   -2.000
 7061.00    1.49829   1.57310   -2.000
 7062.00    1.49850   1.56933   -2.000
 7063.00    1.50052   1.56512   -2.000
 7064.00    1.50131   1.56298   -2.000
 7065.00    1.50009   1.56328   -2.000
 7066.00    1.49821   1.56221   -2.000
 7067.00    1.49805   1.56199   -2.000
 7068.00    1.50028   1.56303   -2.000
 7069.00    1.50081   1.56431   -2.000
 7070.00    1.49662   1.56711   -2.000
 7071.00    1.49307   1.56919   -2.000
 7072.00    1.49693   1.57055   -2.000
 7073.00    1.50689   1.57333   -2.000
 7074.00    1.51664   1.57463   -2.000
 7075.00    1.51997   1.57496   -2.000
 7076.00    1.51558   1.57587   -2.000
 7077.00    1.51078   1.57440   -2.000
 7078.00    1.51146   1.57262   -2.000
 7079.00    1.51210   1.56953   -2.000
 7080.00    1.50641   1.56404   -2.000
 7081.00    1.49832   1.56039   -2.000
 7082.00    1.49305   1.55420   -2.000
 7083.00    1.48814   1.54637   -2.000
 7084.00    1.47970   1.54050   -2.000
 7085.00    1.46857   1.53232   -2.000
 7086.00    1.45791   1.52604   -2.000
 7087.00    1.45036   1.51992   -2.000
 7088.00    1.44565   1.51182   -2.000
 7089.00    1.43946   1.50865   -2.000
 7090.00    1.42945   1.50443   -2.000
 7091.00    1.41931   1.50007   -2.000
 7092.00    1.41201   1.49854   -2.000
 7093.00    1.40532   1.49531   -2.000
 7094.00    1.39808   1.49626   -2.000
 7095.00    1.39406   1.49753   -2.000
 7096.00    1.39561   1.49661   -2.000
 7097.00    1.40015   1.49824   -2.000
 7098.00    1.40686   1.49887   -2.000
 7099.00    1.41941   1.50128   -2.000
 7100.00    1.43432   1.50397   -2.000
 7101.00    1.43709   1.50396   -2.000
 7102.00    1.42280   1.50529   -2.000
 7103.00    1.40490   1.50655   -2.000
 7104.00    1.39371   1.50796   -2.000
 7105.00    1.38633   1.50853   -2.000
 7106.00    1.38042   1.50761   -2.000
 7107.00    1.38002   1.50797   -2.000
 7108.00    1.38627   1.50881   -2.000
 7109.00    1.39384   1.50894   -2.000
 7110.00    1.39756   1.50786   -2.000
 7111.00    1.39589   1.50736   -2.000
 7112.00    1.39132   1.50756   -2.000
 7113.00    1.38895   1.50784   -2.000
 7114.00    1.39023   1.50769   -2.000
 7115.00    1.39174   1.50614   -2.000
 7116.00    1.39205   1.50600   -2.000
 7117.00    1.39322   1.50529   -2.000
 7118.00    1.39547   1.50402   -2.000
 7119.00    1.39572   1.50365   -2.000
 7120.00    1.39070   1.50051   -2.000
 7121.00    1.37928   1.49830   -2.000
 7122.00    1.36644   1.49652   -2.000
 7123.00    1.36081   1.49374   -2.000
 7124.00    1.36195   1.49255   -2.000
 7125.00    1.36040   1.48832   -2.000
 7126.00    1.35233   1.48484   -2.000
 7127.00    1.34220   1.48468   -2.000
 7128.00    1.33591   1.48261   -2.000
 7129.00    1.33823   1.48133   -2.000
 7130.00    1.35213   1.47996   -2.000
 7131.00    1.37636   1.47920   -2.000
 7132.00    1.39974   1.48193   -2.000
 7133.00    1.40715   1.48240   -2.000
 7134.00    1.39924   1.48188   -2.000
 7135.00    1.38947   1.48401   -2.000
 7136.00    1.38335   1.48682   -2.000
 7137.00    1.37780   1.48939   -2.000
 7138.00    1.37263   1.49012   -2.000
 7139.00    1.37090   1.49070   -2.000
 7140.00    1.37323   1.49277   -2.000
 7141.00    1.37761   1.49508   -2.000
 7142.00    1.38206   1.49579   -2.000
 7143.00    1.38486   1.49460   -2.000
 7144.00    1.38411   1.49613   -2.000
 7145.00    1.37902   1.49751   -2.000
 7146.00    1.37268   1.49716   -2.000
 7147.00    1.36940   1.49841   -2.000
 7148.00    1.36884   1.49851   -2.000
 7149.00    1.36833   1.50046   -2.000
 7150.00    1.36870   1.50211   -2.000
 7151.00    1.37134   1.50135   -2.000
 7152.00    1.37142   1.50480   -2.000
 7153.00    1.36333   1.50705   -2.000
 7154.00    1.35097   1.50740   -2.000
 7155.00    1.34329   1.50888   -2.000
 7156.00    1.34472   1.50913   -2.000
 7157.00    1.35420   1.51175   -2.000
 7158.00    1.36631   1.51298   -2.000
 7159.00    1.37474   1.51115   -2.000
 7160.00    1.37694   1.51172   -2.000
 7161.00    1.37313   1.51299   -2.000
 7162.00    1.36421   1.51391   -2.000
 7163.00    1.35369   1.51402   -2.000
 7164.00    1.34998   1.51348   -2.000
 7165.00    1.35870   1.51505   -2.000
 7166.00    1.37365   1.51717   -2.000
 7167.00    1.38591   1.51831   -2.000
 7168.00    1.39507   1.51930   -2.000
 7169.00    1.40305   1.52116   -2.000
 7170.00    1.40628   1.52366   -2.000
 7171.00    1.40123   1.52476   -2.000
 7172.00    1.39087   1.52540   -2.000
 7173.00    1.38138   1.52664   -2.000
 7174.00    1.37785   1.52682   -2.000
 7175.00    1.38097   1.52676   -2.000
 7176.00    1.38506   1.52546   -2.000
 7177.00    1.38556   1.52361   -2.000
 7178.00    1.38533   1.52365   -2.000
 7179.00    1.38702   1.52078   -2.000
 7180.00    1.38669   1.51766   -2.000
 7181.00    1.38147   1.51691   -2.000
 7182.00    1.37535   1.51334   -2.000
 7183.00    1.37072   1.51069   -2.000
 7184.00    1.36256   1.50791   -2.000
 7185.00    1.34838   1.50497   -2.000
 7186.00    1.33494   1.50623   -2.000
 7187.00    1.32842   1.50417   -2.000
 7188.00    1.32789   1.50092   -2.000
 7189.00    1.33153   1.50083   -2.000
 7190.00    1.34034   1.50055   -2.000
 7191.00    1.35197   1.50182   -2.000
 7192.00    1.35821   1.50172   -2.000
 7193.00    1.35568   1.50177   -2.000
 7194.00    1.35075   1.50447   -2.000
 7195.00    1.34815   1.50572   -2.000
 7196.00    1.34517   1.50629   -2.000
 7197.00    1.33946   1.50654   -2.000
 7198.00    1.33347   1.50892   -2.000
 7199.00    1.33406   1.51179   -2.000
 7200.00    1.35017   1.51208   -2.000
 7201.00    1.38266   1.51256   -2.000
 7202.00    1.42126   1.51161   -2.000
 7203.00    1.45518   1.51284   -2.000
 7204.00    1.47827   1.51465   -2.000
 7205.00    1.48816   1.51335   -2.000
 7206.00    1.48485   1.51497   -2.000
 7207.00    1.46723   1.51556   -2.000
 7208.00    1.43371   1.51579   -2.000
 7209.00    1.39126   1.51779   -2.000
 7210.00    1.35588   1.51714   -2.000
 7211.00    1.33906   1.51913   -2.000
 7212.00    1.34226   1.52275   -2.000
 7213.00    1.35754   1.52481   -2.000
 7214.00    1.37193   1.52791   -2.000
 7215.00    1.38167   1.52961   -2.000
 7216.00    1.39261   1.53163   -2.000
 7217.00    1.40402   1.53587   -2.000
 7218.00    1.40739   1.53867   -2.000
