###################################################################
## OUTPUT of StarlightChains_v04.for    [Cid@UFSC - 01/Apr/2007] ##
###################################################################

## Some input info
1997cw.txt                               [arq_obs]
Base.CB07.vall.4m                        [arq_base]
Masks.EmLines.NEW.gm                     [arq_masks]
StCv04.C11.config                        [arq_config]
   66                                    [N_base]
    0                                    [N_YAV_components = # of components with extra extinction!]
    0                                    [i_FitPowerLaw (1/0 = Yes/No)]
-9.99                                    [alpha_PowerLaw]
CCM                                      [red_law_option]
 1.458241                                [q_norm = A(l_norm)/A(V)]

## (Re)Sampling Parameters
 3741.00                                 [l_ini (A)]
 7218.00                                 [l_fin (A)]
    1.00                                 [dl    (A)]     (OBS: dl_cushion =    50.00 A)

## Normalization info
 4020.00                                 [l_norm (A) - for base]
 4010.00                                 [llow_norm (A) - window for f_obs]
 4060.00                                 [lupp_norm (A) - window for f_obs]
3.658950E-17                             [fobs_norm (in input units)]

## S/N
 3691.00                                 [llow_SN (A) - window for S/N]
 7268.00                                 [lupp_SN (A) - window for S/N]
   6.282                                 [S/N in S/N window]
   8.183                                 [S/N in norm. window]
  10.000                                 [S/N_err in S/N window]
  13.026                                 [S/N_err in norm. window]
  1.0000                                 [fscale_chi2]

## etc...
    -2007226                             [idum_orig]
  2220                                   [NOl_eff]
  2156                                   [Nl_eff]
    64    NSIGMA                         [Ntot_cliped & clip_method]
  1473710                                [Nglobal_steps]
   7                                     [N_chains]
  28                                     [NEX0s_base = N_base in EX0s-fits]
 0   0   1       31   2.0   2.251E+01    [Clip-Bug, RC-Crash & Burn-In warning-flags, n_censored_weights, wei_nsig_threshold & wei_limit]
    13     12.797     12.198      0.599  [idt_all, wdt_TotTime, wdt_UsrTime & wdt_SysTime (sec)]

## Synthesis Results - Best model ##

 5.95415E-01                             [chi2/Nl_eff]
     5.71817                             [adev (%)]

    96.82861                             [sum-of-x (%)]
 3.71716E-17                             [Flux_tot (units of input spectrum!)]
 2.91439E-13                             [Mini_tot (???)]
 1.56171E-13                             [Mcor_tot (???)]

  16.93                                  [v0_min  (km/s)]
  61.26                                  [vd_min  (km/s)]
 0.0357                                  [AV_min  (mag)]
 0.0000                                  [YAV_min (mag)]

# j     x_j(%)      Mini_j(%)     Mcor_j(%)     age_j(yr)     Z_j      (L/M)_j    YAV?  Mstars   component_j        a/Fe...       SSP_chi2r SSP_adev(%)   SSP_AV   SSP_x(%)
  1      1.6675     2.0078E-02    3.7468E-02    1.000000E+06  0.00400  1.094E-02    0   1.0000   age020_m42            0.0000     1.1991E+00     7.9285   2.5647    81.5394
  2      0.0000     0.0000E+00    0.0000E+00    3.160000E+06  0.00400  4.007E-02    0   0.9999   age045_m42            0.0000     8.8722E-01     7.0463   1.8183    88.0633
  3      0.0000     0.0000E+00    0.0000E+00    5.010000E+06  0.00400  2.539E-02    0   0.9488   age055_m42            0.0000     9.8907E-01     7.2942   2.1486    85.4826
  4      0.0000     0.0000E+00    0.0000E+00    6.610000E+06  0.00400  2.620E-02    0   0.9220   age061_m42            0.0000     8.6252E-01     6.8868   1.7480    88.2009
  5      0.0033     3.2623E-05    5.3951E-05    1.000000E+07  0.00400  1.322E-02    0   0.8862   age070_m42            0.0000     8.1995E-01     6.4625   1.4858    89.6466
  6      0.2078     3.4730E-03    5.5550E-03    1.445000E+07  0.00400  7.883E-03    0   0.8571   age078_m42            0.0000     9.0400E-01     6.7696   1.8175    87.1359
  7      0.0000     0.0000E+00    0.0000E+00    2.512000E+07  0.00400  5.251E-03    0   0.8174   age090_m42            0.0000     8.0430E-01     6.3806   1.3575    90.1490
  8      0.0000     0.0000E+00    0.0000E+00    4.000000E+07  0.00400  3.649E-03    0   0.7851   age104_m42            0.0000     7.5243E-01     6.2326   1.1218    91.2239
  9      0.0000     0.0000E+00    0.0000E+00    5.500000E+07  0.00400  3.098E-03    0   0.7629   age110_m42            0.0000     7.6514E-01     6.3570   1.2675    91.4252
 10      0.0000     0.0000E+00    0.0000E+00    1.015200E+08  0.00400  2.228E-03    0   0.7207   age116_m42            0.0000     7.8649E-01     6.4925   1.2822    91.7465
 11      0.0000     0.0000E+00    0.0000E+00    2.861200E+08  0.00400  1.093E-03    0   0.6648   age125_m42            0.0000     7.2302E-01     6.2288   0.7193    94.6366
 12      0.0000     0.0000E+00    0.0000E+00    5.088000E+08  0.00400  6.597E-04    0   0.6365   age130_m42            0.0000     7.5922E-01     6.3828   0.6950    95.8499
 13     19.2590     1.1899E+01    1.2874E+01    1.434000E+09  0.00400  2.132E-04    0   0.5798   age139_m42            0.0000     7.0220E-01     6.2120  -0.3017    98.7005
 14      6.6310     1.4817E+01    1.4868E+01    4.250000E+09  0.00400  5.895E-05    0   0.5377   age158_m42            0.0000     8.6135E-01     6.9430  -0.7553    95.1757
 15      6.7023     2.5152E+01    2.4464E+01    7.500000E+09  0.00400  3.510E-05    0   0.5212   age171_m42            0.0000     1.0091E+00     7.4648  -0.9447    94.5849
 16      0.5953     3.9107E+00    3.6738E+00    1.300000E+10  0.00400  2.005E-05    0   0.5034   age193_m42            0.0000     1.2103E+00     7.9643  -1.0000    90.5384
 17      3.3213     2.8688E+01    2.6591E+01    1.800000E+10  0.00400  1.525E-05    0   0.4967   age213_m42            0.0000     1.1982E+00     7.8974  -1.0000    89.3994
 18      0.0000     0.0000E+00    0.0000E+00    1.000000E+06  0.00800  1.238E-02    0   1.0000   age020_m52            0.0000     1.1974E+00     7.9331   2.5611    81.6992
 19      0.0000     0.0000E+00    0.0000E+00    3.160000E+06  0.00800  3.074E-02    0   0.9966   age045_m52            0.0000     1.1574E+00     7.8352   2.4803    82.5566
 20      0.0000     0.0000E+00    0.0000E+00    5.010000E+06  0.00800  2.668E-02    0   0.9443   age055_m52            0.0000     1.0165E+00     7.3618   2.2336    84.6180
 21      0.0000     0.0000E+00    0.0000E+00    6.610000E+06  0.00800  2.136E-02    0   0.9177   age061_m52            0.0000     7.5624E-01     6.2178   0.9725    91.1389
 22      0.0000     0.0000E+00    0.0000E+00    1.000000E+07  0.00800  1.215E-02    0   0.8827   age070_m52            0.0000     8.5914E-01     6.5704   1.6763    89.1430
 23      3.6827     5.5649E-02    8.8812E-02    1.445000E+07  0.00800  8.717E-03    0   0.8552   age078_m52            0.0000     8.6576E-01     6.6322   1.7805    88.4519
 24      0.0000     0.0000E+00    0.0000E+00    2.512000E+07  0.00800  5.592E-03    0   0.8162   age090_m52            0.0000     7.8512E-01     6.3156   1.4228    91.2354
 25      8.8942     3.0071E-01    4.4001E-01    4.000000E+07  0.00800  3.896E-03    0   0.7841   age104_m52            0.0000     7.4541E-01     6.2210   1.3288    92.2009
 26      0.0000     0.0000E+00    0.0000E+00    1.015200E+08  0.00800  2.148E-03    0   0.7226   age116_m52            0.0000     7.2556E-01     6.2547   1.2528    92.4838
 27      0.0000     0.0000E+00    0.0000E+00    2.861200E+08  0.00800  9.925E-04    0   0.6683   age125_m52            0.0000     7.4956E-01     6.3165   0.7599    96.7590
 28      0.0000     0.0000E+00    0.0000E+00    9.047900E+08  0.00800  3.141E-04    0   0.6138   age135_m52            0.0000     8.5346E-01     6.7806  -0.0658   101.8706
 29     17.6314     1.3510E+01    1.4757E+01    1.434000E+09  0.00800  1.719E-04    0   0.5853   age139_m52            0.0000     8.3739E-01     6.8314  -0.6455    99.7762
 30      0.0000     0.0000E+00    0.0000E+00    2.500000E+09  0.00800  7.872E-05    0   0.5600   age150_m52            0.0000     1.0611E+00     7.7244  -0.9285    97.3979
 31      0.0000     0.0000E+00    0.0000E+00    4.250000E+09  0.00800  4.336E-05    0   0.5426   age158_m52            0.0000     1.1081E+00     7.8236  -0.9431    96.4380
 32      0.0000     0.0000E+00    0.0000E+00    6.250000E+09  0.00800  3.159E-05    0   0.5319   age166_m52            0.0000     1.4082E+00     8.5340  -1.0000    91.6018
 33      0.0000     0.0000E+00    0.0000E+00    1.300000E+10  0.00800  1.361E-05    0   0.5073   age193_m52            0.0000     2.9421E+00    11.9115  -1.0000    75.9157
 34      0.0000     0.0000E+00    0.0000E+00    1.800000E+10  0.00800  9.886E-06    0   0.4990   age213_m52            0.0000     3.6282E+00    13.1591  -1.0000    72.1960
 35      0.0000     0.0000E+00    0.0000E+00    1.000000E+06  0.02000  1.544E-02    0   1.0000   age020_m62            0.0000     1.2026E+00     7.9618   2.5565    81.9034
 36      0.0000     0.0000E+00    0.0000E+00    3.160000E+06  0.02000  3.762E-02    0   0.9858   age045_m62            0.0000     1.1851E+00     7.9299   2.4944    82.6688
 37      3.4060     1.3612E-02    2.3730E-02    5.010000E+06  0.02000  3.296E-02    0   0.9342   age055_m62            0.0000     9.4293E-01     7.1861   2.1034    86.7337
 38      0.0000     0.0000E+00    0.0000E+00    8.710000E+06  0.02000  1.154E-02    0   0.8861   age067_m62            0.0000     1.1934E+00     7.6138   1.1684    90.6773
 39      0.0000     0.0000E+00    0.0000E+00    1.445000E+07  0.02000  7.663E-03    0   0.8472   age078_m62            0.0000     8.5996E-01     6.4940   1.3342    91.0562
 40      1.8820     5.4701E-02    8.2676E-02    2.512000E+07  0.02000  4.532E-03    0   0.8099   age090_m62            0.0000     8.7299E-01     6.5228   1.3319    90.6835
 41      0.0000     0.0000E+00    0.0000E+00    5.500000E+07  0.02000  2.733E-03    0   0.7595   age110_m62            0.0000     7.5633E-01     6.1795   1.3127    91.4672
 42      0.0000     0.0000E+00    0.0000E+00    1.609000E+08  0.02000  1.369E-03    0   0.6985   age120_m62            0.0000     7.6329E-01     6.3116   1.1332    94.6366
 43      0.7832     1.1446E-01    1.4341E-01    2.861200E+08  0.02000  9.013E-04    0   0.6714   age125_m62            0.0000     8.0994E-01     6.4364   0.8669    97.9669
 44      0.0132     3.4543E-03    4.1572E-03    5.088000E+08  0.02000  5.028E-04    0   0.6449   age130_m62            0.0000     9.0284E-01     6.9083   0.4649   101.4961
 45      0.0000     0.0000E+00    0.0000E+00    9.047900E+08  0.02000  2.428E-04    0   0.6179   age135_m62            0.0000     9.2758E-01     7.1835  -0.1317   101.2971
 46      0.0000     0.0000E+00    0.0000E+00    1.434000E+09  0.02000  1.263E-04    0   0.5908   age139_m62            0.0000     1.0244E+00     7.5182  -0.5790    99.8646
 47      0.0000     0.0000E+00    0.0000E+00    2.500000E+09  0.02000  5.985E-05    0   0.5673   age150_m62            0.0000     1.2851E+00     8.4226  -0.9531    98.6583
 48      0.0000     0.0000E+00    0.0000E+00    4.250000E+09  0.02000  3.271E-05    0   0.5468   age158_m62            0.0000     1.8865E+00     9.7706  -1.0000    89.0830
 49      0.0000     0.0000E+00    0.0000E+00    1.000000E+10  0.02000  1.360E-05    0   0.5167   age181_m62            0.0000     3.3583E+00    12.6314  -1.0000    77.3548
 50      0.0000     0.0000E+00    0.0000E+00    1.800000E+10  0.02000  7.124E-06    0   0.5013   age213_m62            0.0000     4.5732E+00    14.6510  -1.0000    70.2771
 51      0.4270     2.1699E-03    4.0485E-03    1.000000E+06  0.05000  2.592E-02    0   0.9998   age020_m72            0.0000     1.2292E+00     8.0367   2.5492    81.8827
 52      0.0000     0.0000E+00    0.0000E+00    3.160000E+06  0.05000  4.845E-02    0   0.9577   age045_m72            0.0000     1.0894E+00     7.6734   2.3702    84.0326
 53      0.0018     7.7312E-06    1.3197E-05    5.010000E+06  0.05000  3.072E-02    0   0.9147   age055_m72            0.0000     9.5656E-01     6.9444   1.9276    87.2411
 54      2.3065     2.0881E-02    3.4591E-02    6.610000E+06  0.05000  1.455E-02    0   0.8877   age061_m72            0.0000     1.4651E+00     8.6826   1.2720    90.5081
 55      0.0000     0.0000E+00    0.0000E+00    1.000000E+07  0.05000  9.074E-03    0   0.8524   age070_m72            0.0000     1.0188E+00     7.2924   2.1390    86.4590
 56      0.0000     0.0000E+00    0.0000E+00    2.512000E+07  0.05000  4.250E-03    0   0.7902   age090_m72            0.0000     8.7736E-01     6.7211   1.8138    88.7683
 57      2.0075     8.5661E-02    1.2178E-01    4.000000E+07  0.05000  3.087E-03    0   0.7618   age104_m72            0.0000     8.3798E-01     6.5881   1.5831    90.4241
 58     17.4058     1.3487E+00    1.7859E+00    1.015200E+08  0.05000  1.700E-03    0   0.7096   age116_m72            0.0000     7.6218E-01     6.3040   1.2876    93.9284
 59      0.0000     0.0000E+00    0.0000E+00    2.861200E+08  0.05000  7.384E-04    0   0.6633   age125_m72            0.0000     8.5492E-01     6.6597   0.7221    99.7875
 60      0.0000     0.0000E+00    0.0000E+00    5.088000E+08  0.05000  3.819E-04    0   0.6372   age130_m72            0.0000     9.1092E-01     7.0664   0.2049   102.2542
 61      0.0000     0.0000E+00    0.0000E+00    9.047900E+08  0.05000  1.676E-04    0   0.6110   age135_m72            0.0000     1.2045E+00     8.2392  -0.5058   100.8360
 62      0.0000     0.0000E+00    0.0000E+00    1.434000E+09  0.05000  8.837E-05    0   0.5874   age139_m72            0.0000     1.3882E+00     8.6881  -0.9570   100.2240
 63      0.0000     0.0000E+00    0.0000E+00    2.500000E+09  0.05000  4.233E-05    0   0.5598   age150_m72            0.0000     2.0289E+00    10.1352  -1.0000    89.7938
 64      0.0000     0.0000E+00    0.0000E+00    6.250000E+09  0.05000  1.435E-05    0   0.5249   age166_m72            0.0000     3.8280E+00    13.5698  -1.0000    74.0059
 65      0.0000     0.0000E+00    0.0000E+00    1.300000E+10  0.05000  6.513E-06    0   0.5036   age193_m72            0.0000     5.5607E+00    16.2862  -1.0000    66.2408
 66      0.0000     0.0000E+00    0.0000E+00    1.800000E+10  0.05000  4.527E-06    0   0.4945   age213_m72            0.0000     6.6440E+00    17.8513  -1.0000    61.5546


## Synthesis Results - Average & Chains ##

# j      x_j: min, <> & last-chain-values for 1 ...  7 chains
  1      1.6675      0.2617      0.0000      1.8821      0.0000      0.0000      0.8298      0.0000      0.7544
  2      0.0000      0.6439      0.6205      1.5414      0.7317      0.0000      0.0000      0.5428      0.0000
  3      0.0000      0.4434      0.2414      0.0777      0.0000      1.7500      0.0000      0.0000      0.0978
  4      0.0000      0.3333      0.0000      0.7150      0.0000      0.0000      1.8199      0.0000      0.8024
  5      0.0033      0.4393      0.7976      0.0543      0.0000      0.3498      0.0000      0.3320      2.4182
  6      0.2078      1.0599      0.0000      0.0000      0.3883      0.0000      0.0000      0.9124      1.2608
  7      0.0000      0.7147      0.9323      0.0000      3.0934      0.0000      1.0723      0.6091      0.0000
  8      0.0000      1.2503      2.0088      0.0000      0.0000      0.0461      0.0000      0.5611      1.7034
  9      0.0000      0.5239      0.0000      0.2880      0.0000      0.0000      0.0000      0.0000      0.0000
 10      0.0000      0.5788      0.0921      0.3965      2.3777      0.0000      0.0000      0.3593      0.0000
 11      0.0000      1.7648      1.0765      0.0000      1.6650      0.0000      4.2814      0.0000      0.0000
 12      0.0000      1.6395      3.7536      0.4861      2.8481      0.0000      0.0000      2.4592      2.4810
 13     19.2590     11.4188     16.5082     11.3877     20.6274     11.5584     11.3665     11.0220     13.8037
 14      6.6310      3.3278      3.6943      5.0395      1.5336      6.1168      6.6630      1.9982      6.4693
 15      6.7023      2.4163      0.0000      2.9331      1.8192      3.4203      0.8543      2.7507      3.5782
 16      0.5953      0.1566      0.0000      0.0000      0.4234      0.0000      0.0000      0.1388      0.7912
 17      3.3213      0.4074      0.5005      2.1373      1.0060      0.0000      0.8657      2.3913      0.7653
 18      0.0000      0.4142      1.5645      0.0000      0.2221      0.0000      0.1437      0.3790      0.4486
 19      0.0000      0.6418      0.0000      0.5663      2.0350      0.0000      0.0000      3.0161      0.2916
 20      0.0000      0.3588      0.0000      0.0000      2.6097      0.6369      0.0000      0.0000      0.0000
 21      0.0000      0.8633      2.4291      0.0000      0.0000      0.0000      0.0000      0.0593      0.5875
 22      0.0000      0.3143      0.0000      0.0000      0.0000      1.8469      0.0000      0.0000      0.0000
 23      3.6827      0.4843      0.0000      0.0000      1.4342      0.8859      0.0000      0.0000      0.9597
 24      0.0000      2.7436      2.6145      1.0986      2.1656      6.2129      3.9553      9.0998      0.0000
 25      8.8942      2.6413      3.3022      7.9320      3.1276      0.5194      3.7044      6.6736      8.5855
 26      0.0000      0.8354      1.1097      3.2692      0.0000      0.4817      0.0616      2.3182      0.0000
 27      0.0000      1.8829      0.8991      0.8026      0.0000      0.0000      4.6086      0.0000      0.4623
 28      0.0000      4.8111      4.5753      4.3246      2.8621      5.1987      0.9288     15.8407      1.7485
 29     17.6314      9.0927      8.7485     10.0515     12.6544      8.9527     12.9915      8.6684     10.5454
 30      0.0000      0.3836      0.0000      0.9551      0.0000      1.4647      0.0000      0.0000      0.0000
 31      0.0000      0.4300      0.0000      0.0036      0.0000      0.0000      0.0000      0.0000      0.3929
 32      0.0000      0.7556      2.0227      0.0000      1.1051      0.0000      0.6693      2.1757      0.0000
 33      0.0000      0.1449      0.0000      0.0000      0.0000      0.6344      0.0000      0.0000      0.0000
 34      0.0000      0.0333      0.0000      0.0000      0.0000      0.0000      0.0000      0.0000      0.0000
 35      0.0000      0.3428      0.0000      0.0000      0.0514      0.0000      0.0000      0.0000      0.0000
 36      0.0000      0.7345      0.0000      0.0000      0.8112      2.8557      0.0209      0.0000      0.0000
 37      3.4060      0.6407      0.4698      1.3431      0.0000      1.1226      0.2156      0.0000      2.8666
 38      0.0000      3.0477      2.3201      4.6380      1.6670      0.8117      4.2276      2.4161      0.0000
 39      0.0000      0.6907      0.0000      0.7715      2.8810      3.3598      0.0000      0.0000      0.1912
 40      1.8820      2.6549      1.3543      2.4171      0.0000      0.0000      2.9179      1.8117      2.7595
 41      0.0000      1.0516      1.0244      0.6540      0.5762      2.0912      1.6034      0.0000      0.0000
 42      0.0000      1.6354      2.2659      0.0000      0.0000      2.4715      0.0000      0.0000      3.0221
 43      0.7832      1.5045      0.8448      0.0000      0.0000      1.1231      0.9484      1.6920      3.3654
 44      0.0132      3.1591      3.0583      3.7236      6.5585      7.2500      3.3838      4.5683      2.6773
 45      0.0000      3.6093      0.6758      3.0382      0.1312      0.0000      0.0000      0.0000      0.0000
 46      0.0000      6.2276     10.4641      6.8398      5.4855      8.3236      7.3347      2.7659     10.3139
 47      0.0000      0.5426      1.9847      0.0000      0.0000      0.0000      1.5990      0.0000      0.0000
 48      0.0000      0.1091      0.0000      0.0000      0.7781      0.0000      0.5134      0.4575      0.0000
 49      0.0000      0.2249      0.0000      0.0000      0.0000      0.0000      0.0000      0.0000      0.0000
 50      0.0000      0.0982      0.0000      0.0000      0.0000      0.0000      0.0000      0.0000      0.0000
 51      0.4270      0.4839      0.0000      0.0000      0.0000      1.0475      2.1327      0.0000      0.6092
 52      0.0000      0.5921      4.5373      1.4703      2.6618      0.0000      0.0000      0.0000      0.0000
 53      0.0018      0.4566      0.0000      0.0859      0.0000      0.0000      0.0000      1.7964      1.3907
 54      2.3065      2.6605      2.9602      1.1209      1.4003      2.0675      2.3517      3.0706      3.0494
 55      0.0000      0.5227      2.5229      0.0000      1.5281      1.2496      0.3005      0.3425      1.1935
 56      0.0000      0.4939      2.2355      0.0000      0.5856      0.0000      1.2628      0.0000      0.0000
 57      2.0075      3.3510      0.0000      2.3708      4.3371      3.1787      6.3771      2.2313      4.6901
 58     17.4058      3.2352      2.6300      9.7820      0.0000      8.2105      0.6196      3.2083      1.6260
 59      0.0000      1.7071      0.0000      2.8004      1.0513      1.3496      6.0662      0.0000      0.0000
 60      0.0000      1.6767      0.0000      0.0000      1.5013      0.0000      0.0000      0.0000      0.0000
 61      0.0000      0.9132      0.0000      0.0000      0.0000      0.0000      0.2457      0.0000      0.0000
 62      0.0000      0.3143      0.0000      0.0000      0.0000      0.0000      0.0000      0.0000      0.0000
 63      0.0000      0.1072      0.0000      0.0000      0.0000      0.0000      0.0000      0.0000      0.0000
 64      0.0000      0.0334      0.0000      0.0000      0.0185      0.2464      0.0000      0.0000      0.0000
 65      0.0000      0.0495      0.0000      0.0000      0.0000      0.0000      0.0000      0.5903      0.0000
 66      0.0000      0.0481      0.0000      0.0000      0.0063      0.0000      0.0000      0.0000      0.0000

# j      m_j: min, <> & last-chain-values for 1 ...  7 chains
  1  3.7468E-02  8.5187E-03  0.0000E+00  5.7959E-02  0.0000E+00  0.0000E+00  2.8061E-02  0.0000E+00  2.2787E-02
  2  0.0000E+00  5.7211E-03  6.1248E-03  1.2959E-02  6.8021E-03  0.0000E+00  0.0000E+00  3.8706E-03  0.0000E+00
  3  0.0000E+00  5.8999E-03  3.5688E-03  9.7812E-04  0.0000E+00  2.3320E-02  0.0000E+00  0.0000E+00  1.2074E-03
  4  0.0000E+00  4.1766E-03  0.0000E+00  8.4774E-03  0.0000E+00  0.0000E+00  2.3692E-02  0.0000E+00  9.3319E-03
  5  5.3951E-05  1.0486E-02  2.1147E-02  1.2267E-03  0.0000E+00  8.3627E-03  0.0000E+00  6.3590E-03  5.3570E-02
  6  5.5550E-03  4.1032E-02  0.0000E+00  0.0000E+00  1.5726E-02  0.0000E+00  0.0000E+00  2.8348E-02  4.5304E-02
  7  0.0000E+00  3.9611E-02  5.7401E-02  0.0000E+00  1.7938E-01  0.0000E+00  6.1748E-02  2.7092E-02  0.0000E+00
  8  0.0000E+00  9.5779E-02  1.7095E-01  0.0000E+00  0.0000E+00  3.5355E-03  0.0000E+00  3.4497E-02  1.2112E-01
  9  0.0000E+00  4.5933E-02  0.0000E+00  2.3892E-02  0.0000E+00  0.0000E+00  0.0000E+00  0.0000E+00  0.0000E+00
 10  0.0000E+00  6.6666E-02  1.1788E-02  4.3207E-02  2.8651E-01  0.0000E+00  0.0000E+00  3.3210E-02  0.0000E+00
 11  0.0000E+00  3.8220E-01  2.5898E-01  0.0000E+00  3.7725E-01  0.0000E+00  9.6334E-01  0.0000E+00  0.0000E+00
 12  0.0000E+00  5.6323E-01  1.4324E+00  1.5800E-01  1.0236E+00  0.0000E+00  0.0000E+00  6.7798E-01  7.9106E-01
 13  1.2874E+01  1.1057E+01  1.7757E+01  1.0434E+01  2.0897E+01  1.1210E+01  1.1435E+01  8.5649E+00  1.2406E+01
 14  1.4868E+01  1.0808E+01  1.3328E+01  1.5486E+01  5.2109E+00  1.9897E+01  2.2483E+01  5.2080E+00  1.9500E+01
 15  2.4464E+01  1.2775E+01  0.0000E+00  1.4673E+01  1.0063E+01  1.8112E+01  4.6931E+00  1.1671E+01  1.7559E+01
 16  3.6738E+00  1.4001E+00  0.0000E+00  0.0000E+00  3.9597E+00  0.0000E+00  0.0000E+00  9.9607E-01  6.5646E+00
 17  2.6591E+01  4.7240E+00  6.4475E+00  2.3453E+01  1.2206E+01  0.0000E+00  1.0431E+01  2.2255E+01  8.2377E+00
 18  0.0000E+00  1.1912E-02  4.9986E-02  0.0000E+00  6.6842E-03  0.0000E+00  4.2935E-03  8.7482E-03  1.1974E-02
 19  0.0000E+00  7.4089E-03  0.0000E+00  6.1849E-03  2.4578E-02  0.0000E+00  0.0000E+00  2.7940E-02  3.1243E-03
 20  0.0000E+00  4.5215E-03  0.0000E+00  0.0000E+00  3.4409E-02  8.0385E-03  0.0000E+00  0.0000E+00  0.0000E+00
 21  0.0000E+00  1.3206E-02  4.1279E-02  0.0000E+00  0.0000E+00  0.0000E+00  0.0000E+00  7.2805E-04  8.3421E-03
 22  0.0000E+00  8.1305E-03  0.0000E+00  0.0000E+00  0.0000E+00  4.7849E-02  0.0000E+00  0.0000E+00  0.0000E+00
 23  8.8812E-02  1.6916E-02  0.0000E+00  0.0000E+00  5.2415E-02  3.0993E-02  0.0000E+00  0.0000E+00  3.1116E-02
 24  0.0000E+00  1.4258E-01  1.5094E-01  5.4025E-02  1.1775E-01  3.2339E-01  2.1357E-01  3.7952E-01  0.0000E+00
 25  4.4001E-01  1.8927E-01  2.6287E-01  5.3782E-01  2.3448E-01  3.7279E-02  2.7580E-01  3.8378E-01  5.7102E-01
 26  0.0000E+00  1.0006E-01  1.4766E-01  3.7051E-01  0.0000E+00  5.7792E-02  7.6643E-03  2.2284E-01  0.0000E+00
 27  0.0000E+00  4.5141E-01  2.3947E-01  1.8207E-01  0.0000E+00  0.0000E+00  1.1480E+00  0.0000E+00  1.0287E-01
 28  0.0000E+00  3.3475E+00  3.5364E+00  2.8471E+00  2.0835E+00  3.6228E+00  6.7147E-01  8.8452E+00  1.1291E+00
 29  1.4757E+01  1.1023E+01  1.1782E+01  1.1530E+01  1.6051E+01  1.0871E+01  1.6364E+01  8.4337E+00  1.1866E+01
 30  0.0000E+00  9.7154E-01  0.0000E+00  2.2891E+00  0.0000E+00  3.7159E+00  0.0000E+00  0.0000E+00  0.0000E+00
 31  0.0000E+00  1.9161E+00  0.0000E+00  1.5300E-02  0.0000E+00  0.0000E+00  0.0000E+00  0.0000E+00  1.6247E+00
 32  0.0000E+00  4.5296E+00  1.3471E+01  0.0000E+00  6.9318E+00  0.0000E+00  4.1691E+00  1.0468E+01  0.0000E+00
 33  0.0000E+00  1.9234E+00  0.0000E+00  0.0000E+00  0.0000E+00  8.4330E+00  0.0000E+00  0.0000E+00  0.0000E+00
 34  0.0000E+00  5.9783E-01  0.0000E+00  0.0000E+00  0.0000E+00  0.0000E+00  0.0000E+00  0.0000E+00  0.0000E+00
 35  0.0000E+00  7.9058E-03  0.0000E+00  0.0000E+00  1.2398E-03  0.0000E+00  0.0000E+00  0.0000E+00  0.0000E+00
 36  0.0000E+00  6.8530E-03  0.0000E+00  0.0000E+00  7.9182E-03  2.6686E-02  2.0239E-04  0.0000E+00  0.0000E+00
 37  2.3730E-02  6.4662E-03  5.2665E-03  1.2826E-02  0.0000E+00  1.1347E-02  2.2605E-03  0.0000E+00  2.6851E-02
 38  0.0000E+00  8.3323E-02  7.0463E-02  1.1998E-01  4.7684E-02  2.2226E-02  1.2009E-01  5.3012E-02  0.0000E+00
 39  0.0000E+00  2.7189E-02  0.0000E+00  2.8736E-02  1.1865E-01  1.3247E-01  0.0000E+00  0.0000E+00  6.9850E-03
 40  8.2676E-02  1.6893E-01  9.5728E-02  1.4553E-01  0.0000E+00  0.0000E+00  1.9290E-01  9.2514E-02  1.6297E-01
 41  0.0000E+00  1.0405E-01  1.1260E-01  6.1234E-02  5.9655E-02  2.0724E-01  1.6484E-01  0.0000E+00  0.0000E+00
 42  0.0000E+00  2.9709E-01  4.5728E-01  0.0000E+00  0.0000E+00  4.4970E-01  0.0000E+00  0.0000E+00  5.0957E-01
 43  1.4341E-01  3.9905E-01  2.4890E-01  0.0000E+00  0.0000E+00  2.9835E-01  2.6136E-01  3.6015E-01  8.2847E-01
 44  4.1572E-03  1.4427E+00  1.5515E+00  1.6090E+00  3.1337E+00  3.3162E+00  1.6056E+00  1.6743E+00  1.1348E+00
 45  0.0000E+00  3.2704E+00  6.8030E-01  2.6049E+00  1.2442E-01  0.0000E+00  0.0000E+00  0.0000E+00  0.0000E+00
 46  0.0000E+00  1.0372E+01  1.9361E+01  1.0779E+01  9.5587E+00  1.3885E+01  1.2692E+01  3.6969E+00  1.5944E+01
 47  0.0000E+00  1.8311E+00  7.4411E+00  0.0000E+00  0.0000E+00  0.0000E+00  5.6069E+00  0.0000E+00  0.0000E+00
 48  0.0000E+00  6.4943E-01  0.0000E+00  0.0000E+00  4.8456E+00  0.0000E+00  3.1749E+00  2.1855E+00  0.0000E+00
 49  0.0000E+00  3.0426E+00  0.0000E+00  0.0000E+00  0.0000E+00  0.0000E+00  0.0000E+00  0.0000E+00  0.0000E+00
 50  0.0000E+00  2.4614E+00  0.0000E+00  0.0000E+00  0.0000E+00  0.0000E+00  0.0000E+00  0.0000E+00  0.0000E+00
 51  4.0485E-03  6.6462E-03  0.0000E+00  0.0000E+00  0.0000E+00  1.4409E-02  3.0432E-02  0.0000E+00  7.7653E-03
 52  0.0000E+00  4.1675E-03  3.5474E-02  9.7914E-03  1.9600E-02  0.0000E+00  0.0000E+00  0.0000E+00  0.0000E+00
 53  1.3197E-05  4.8409E-03  0.0000E+00  8.6185E-04  0.0000E+00  0.0000E+00  0.0000E+00  1.5284E-02  1.3684E-02
 54  3.4591E-02  5.7794E-02  7.1435E-02  2.3040E-02  3.1825E-02  4.4982E-02  5.3078E-02  5.3531E-02  6.1481E-02
 55  0.0000E+00  1.7484E-02  9.3741E-02  0.0000E+00  5.3473E-02  4.1861E-02  1.0442E-02  9.1940E-03  3.7051E-02
 56  0.0000E+00  3.2695E-02  1.6440E-01  0.0000E+00  4.0557E-02  0.0000E+00  8.6859E-02  0.0000E+00  0.0000E+00
 57  1.2178E-01  2.9443E-01  0.0000E+00  1.9711E-01  3.9870E-01  2.7973E-01  5.8218E-01  1.5734E-01  3.8249E-01
 58  1.7859E+00  4.8081E-01  4.3421E-01  1.3756E+00  0.0000E+00  1.2222E+00  9.5683E-02  3.8266E-01  2.2429E-01
 59  0.0000E+00  5.4600E-01  0.0000E+00  8.4750E-01  3.5179E-01  4.3234E-01  2.0159E+00  0.0000E+00  0.0000E+00
 60  0.0000E+00  9.9607E-01  0.0000E+00  0.0000E+00  9.3314E-01  0.0000E+00  0.0000E+00  0.0000E+00  0.0000E+00
 61  0.0000E+00  1.1854E+00  0.0000E+00  0.0000E+00  0.0000E+00  0.0000E+00  3.3142E-01  0.0000E+00  0.0000E+00
 62  0.0000E+00  7.4388E-01  0.0000E+00  0.0000E+00  0.0000E+00  0.0000E+00  0.0000E+00  0.0000E+00  0.0000E+00
 63  0.0000E+00  5.0499E-01  0.0000E+00  0.0000E+00  0.0000E+00  0.0000E+00  0.0000E+00  0.0000E+00  0.0000E+00
 64  0.0000E+00  4.3527E-01  0.0000E+00  0.0000E+00  2.5260E-01  3.2145E+00  0.0000E+00  0.0000E+00  0.0000E+00
 65  0.0000E+00  1.3627E+00  0.0000E+00  0.0000E+00  0.0000E+00  0.0000E+00  0.0000E+00  1.3043E+01  0.0000E+00
 66  0.0000E+00  1.8689E+00  0.0000E+00  0.0000E+00  2.5828E-01  0.0000E+00  0.0000E+00  0.0000E+00  0.0000E+00

# AV, chi2 & Mass for <> & i_chain = 1 ...  7 solutions
AV       0.0357      0.2011      0.1826      0.1978      0.1831      0.2048      0.1718      0.1884      0.1536
chi2 5.9541E-01  6.0287E-01  6.0244E-01  6.0032E-01  6.0154E-01  6.0123E-01  6.0111E-01  6.0147E-01  6.0017E-01
Mass 1.5617E-13  1.3463E-13  1.1822E-13  1.4166E-13  1.2560E-13  1.3509E-13  1.2458E-13  1.6493E-13  1.3608E-13
  16.93                                  [v0_min (km/s) before EX0s...]
  61.26                                  [vd_min (km/s) before EX0s...]


## Synthetic spectrum (Best Model) ##l_obs f_obs f_syn wei
 3478    [Nl_obs]
 3741.00    0.34030   0.69871    0.000
 3742.00    0.30538   0.69510    0.000
 3743.00    0.51563   0.67623    0.000
 3744.00    0.59065   0.65053    0.000
 3745.00    0.43754   0.61896   22.507
 3746.00    0.54539   0.58231   18.336
 3747.00    0.58714   0.53977   17.032
 3748.00    0.18757   0.48639   -1.000
 3749.00    0.30993   0.43526   22.507
 3750.00    0.79261   0.41935   -1.000
 3751.00    0.78862   0.45415   -1.000
 3752.00    0.52986   0.51949   18.873
 3753.00    0.55930   0.58744   17.879
 3754.00    0.88353   0.64723   -1.000
 3755.00    0.91688   0.69251   -1.000
 3756.00    0.80914   0.71071   12.359
 3757.00    0.84259   0.69863   11.868
 3758.00    0.73455   0.67640   13.614
 3759.00    0.56148   0.67037   17.810
 3760.00    0.53013   0.68410   18.863
 3761.00    0.61571   0.70195   16.242
 3762.00    0.79910   0.71119   12.514
 3763.00    0.91315   0.70848   10.951
 3764.00    0.70927   0.69821   14.099
 3765.00    0.36683   0.68219   -1.000
 3766.00    0.34620   0.65305   -1.000
 3767.00    0.83154   0.61215   -1.000
 3768.00    1.20270   0.57040   -1.000
 3769.00    1.13598   0.52867   -1.000
 3770.00    0.87208   0.49216   -1.000
 3771.00    0.44711   0.48639   22.366
 3772.00    0.07447   0.52361   -1.000
 3773.00    0.07655   0.58036   -1.000
 3774.00    0.36218   0.62953   -1.000
 3775.00    0.62843   0.66701   15.913
 3776.00    0.72861   0.70121   13.725
 3777.00    0.84953   0.73488   11.771
 3778.00    0.98042   0.76537   10.200
 3779.00    0.91601   0.79308   10.917
 3780.00    0.62970   0.81735   15.881
 3781.00    0.45821   0.83265   -1.000
 3782.00    0.62345   0.83841   16.040
 3783.00    0.81796   0.84143   12.225
 3784.00    0.78132   0.84205   12.799
 3785.00    0.60197   0.82979   16.612
 3786.00    0.58826   0.80259   16.999
 3787.00    0.70622   0.77478   14.160
 3788.00    0.78648   0.75588   12.715
 3789.00    0.84793   0.74285   11.793
 3790.00    1.01645   0.73264   -1.000
 3791.00    1.13508   0.72248   -1.000
 3792.00    0.85396   0.70319   11.710
 3793.00    0.40570   0.66733   -1.000
 3794.00    0.25028   0.61880   -1.000
 3795.00    0.53726   0.56630   18.613
 3796.00    0.89649   0.51201   -1.000
 3797.00    0.97862   0.45923   -1.000
 3798.00    0.77033   0.42975   -1.000
 3799.00    0.48931   0.44875   20.437
 3800.00    0.49242   0.51046   20.308
 3801.00    0.79186   0.58396   -1.000
 3802.00    0.69985   0.64886   14.289
 3803.00    0.37307   0.70203   -1.000
 3804.00    0.50587   0.73959   -1.000
 3805.00    0.90084   0.75714   11.101
 3806.00    1.06166   0.76139   -1.000
 3807.00    0.89136   0.76906   11.219
 3808.00    0.83423   0.79191   11.987
 3809.00    0.88945   0.82379   11.243
 3810.00    0.82966   0.84867   12.053
 3811.00    0.76863   0.85593   13.010
 3812.00    0.75611   0.84378   13.226
 3813.00    0.82374   0.81980   12.140
 3814.00    1.03755   0.79788    9.638
 3815.00    1.10129   0.78710   -1.000
 3816.00    0.87840   0.79033   11.384
 3817.00    0.72034   0.80215   13.882
 3818.00    0.80185   0.80179   12.471
 3819.00    0.89220   0.77528   11.208
 3820.00    0.73289   0.74472   13.645
 3821.00    0.77396   0.74315   12.921
 3822.00    1.01941   0.76566    9.810
 3823.00    0.86317   0.77606   11.585
 3824.00    0.55355   0.75665   18.065
 3825.00    0.51539   0.72531   -1.000
 3826.00    0.71563   0.70284   13.974
 3827.00    0.78846   0.68863   12.683
 3828.00    0.62107   0.67354   16.101
 3829.00    0.43265   0.65558   -1.000
 3830.00    0.38306   0.63317   -1.000
 3831.00    0.52033   0.59699   19.218
 3832.00    0.72157   0.54320   -1.000
 3833.00    0.71313   0.48354   -1.000
 3834.00    0.53121   0.43333   18.825
 3835.00    0.40799   0.40626   22.507
 3836.00    0.39606   0.41188   22.507
 3837.00    0.49394   0.44292   20.245
 3838.00    0.65782   0.48329   -1.000
 3839.00    0.75413   0.52614   -1.000
 3840.00    0.64257   0.57149   15.563
 3841.00    0.41020   0.62115   -1.000
 3842.00    0.40520   0.67428   -1.000
 3843.00    0.73364   0.72133   13.631
 3844.00    1.10953   0.75377   -1.000
 3845.00    1.14052   0.77369   -1.000
 3846.00    0.97171   0.78991   10.291
 3847.00    0.88631   0.80718    0.000
 3848.00    0.89566   0.81825    0.000
 3849.00    0.90171   0.81677    0.000
 3850.00    0.90935   0.81416    0.000
 3851.00    1.01249   0.82527    0.000
 3852.00    1.13626   0.84364    0.000
 3853.00    1.10681   0.85277    0.000
 3854.00    0.87144   0.84867    0.000
 3855.00    0.67267   0.83650    0.000
 3856.00    0.64995   0.82546    0.000
 3857.00    0.72017   0.82313    0.000
 3858.00    0.80388   0.82101    0.000
 3859.00    0.89815   0.81141    0.000
 3860.00    1.00389   0.80889    0.000
 3861.00    1.04063   0.82578    0.000
 3862.00    1.02562   0.85039    0.000
 3863.00    0.99220   0.86623    0.000
 3864.00    0.85836   0.86942    0.000
 3865.00    0.73596   0.86464    0.000
 3866.00    0.78734   0.85920    0.000
 3867.00    0.95497   0.85797    0.000
 3868.00    1.12896   0.86052    0.000
 3869.00    1.23099   0.86048    0.000
 3870.00    1.21803   0.84826    0.000
 3871.00    1.06633   0.82232    0.000
 3872.00    0.83905   0.79616    0.000
 3873.00    0.69703   0.78950    0.000
 3874.00    0.73379   0.80477    0.000
 3875.00    0.80416   0.82131    0.000
 3876.00    0.70095   0.81754    0.000
 3877.00    0.69521   0.79014    0.000
 3878.00    0.85235   0.75738    0.000
 3879.00    0.84108   0.74304    0.000
 3880.00    0.72963   0.74433    0.000
 3881.00    0.70645   0.73666   14.155
 3882.00    0.78368   0.71438   12.760
 3883.00    0.84193   0.69069   11.878
 3884.00    0.80657   0.66433   12.398
 3885.00    0.72380   0.62021   13.816
 3886.00    0.70404   0.55904   14.204
 3887.00    0.80699   0.49801   -1.000
 3888.00    0.94836   0.45029   -1.000
 3889.00    0.92021   0.43017   -1.000
 3890.00    0.71453   0.45362   -1.000
 3891.00    0.56781   0.51269   17.612
 3892.00    0.70305   0.57777   14.224
 3893.00    0.90660   0.62736   -1.000
 3894.00    0.87171   0.65953   -1.000
 3895.00    0.71441   0.68399   13.998
 3896.00    0.69924   0.71097   14.301
 3897.00    0.85847   0.73849   11.649
 3898.00    0.91799   0.75533   10.893
 3899.00    0.85430   0.76160   11.706
 3900.00    0.81935   0.77115   12.205
 3901.00    0.88272   0.79027   11.329
 3902.00    0.99755   0.80812   10.025
 3903.00    1.02229   0.81623    9.782
 3904.00    0.87500   0.81692   11.429
 3905.00    0.78127   0.81224   12.800
 3906.00    0.83132   0.81135   12.029
 3907.00    0.84427   0.82801   11.845
 3908.00    0.83675   0.85751   11.951
 3909.00    0.84889   0.88266   11.780
 3910.00    0.86088   0.89645   11.616
 3911.00    0.93869   0.90292   10.653
 3912.00    0.97235   0.90308   10.284
 3913.00    0.80985   0.89550   12.348
 3914.00    0.67449   0.88741   -1.000
 3915.00    0.72087   0.88533   13.872
 3916.00    0.83720   0.88384   11.945
 3917.00    0.84025   0.87756   11.901
 3918.00    0.80713   0.86641   12.390
 3919.00    0.85920   0.85149   11.639
 3920.00    0.82962   0.83783   12.054
 3921.00    0.78114   0.83311   12.802
 3922.00    0.83753   0.83851   11.940
 3923.00    0.84667   0.84704   11.811
 3924.00    0.84071   0.85112   11.895
 3925.00    0.87414   0.84473   11.440
 3926.00    0.79936   0.82632   12.510
 3927.00    0.68027   0.80144   14.700
 3928.00    0.64599   0.77521   15.480
 3929.00    0.66219   0.74750   15.102
 3930.00    0.66750   0.71489   14.981
 3931.00    0.67912   0.67254   14.725
 3932.00    0.73027   0.61810   13.694
 3933.00    0.65826   0.56497   15.192
 3934.00    0.48616   0.54533   20.569
 3935.00    0.47576   0.57704   21.019
 3936.00    0.58151   0.63987   17.196
 3937.00    0.65731   0.70189   15.213
 3938.00    0.67768   0.74968   14.756
 3939.00    0.70396   0.78593   14.205
 3940.00    0.74160   0.81204   13.484
 3941.00    0.76044   0.82472   13.150
 3942.00    0.83466   0.82498   11.981
 3943.00    0.99890   0.81824   10.011
 3944.00    1.12888   0.81482    8.858
 3945.00    1.01429   0.82673    9.859
 3946.00    0.83806   0.84811   11.932
 3947.00    0.85712   0.85845   11.667
 3948.00    0.86145   0.85429   11.608
 3949.00    0.87125   0.85160   11.478
 3950.00    1.01148   0.85721    9.887
 3951.00    1.08679   0.86099    9.201
 3952.00    0.99507   0.85646   10.050
 3953.00    0.86846   0.85293   11.515
 3954.00    0.89488   0.85526   11.175
 3955.00    0.93487   0.85029   10.697
 3956.00    0.89402   0.83147   11.185
 3957.00    0.96349   0.81340   10.379
 3958.00    1.03313   0.80740    9.679
 3959.00    1.00091   0.80233    9.991
 3960.00    0.99059   0.77906    0.000
 3961.00    0.90908   0.73593    0.000
 3962.00    0.74516   0.69090    0.000
 3963.00    0.70055   0.65567    0.000
 3964.00    0.78523   0.62156    0.000
 3965.00    0.81687   0.57582    0.000
 3966.00    0.68097   0.51470    0.000
 3967.00    0.60480   0.44249    0.000
 3968.00    0.63051   0.37256    0.000
 3969.00    0.60126   0.32632    0.000
 3970.00    0.65491   0.32197    0.000
 3971.00    0.80769   0.36097    0.000
 3972.00    0.86567   0.42567    0.000
 3973.00    0.74936   0.49494    0.000
 3974.00    0.66005   0.55956    0.000
 3975.00    0.83360   0.61747    0.000
 3976.00    1.15745   0.66587    0.000
 3977.00    1.29617   0.70605    0.000
 3978.00    1.11921   0.74327    0.000
 3979.00    0.94152   0.77795    0.000
 3980.00    0.89416   0.80421    0.000
 3981.00    0.88213   0.81672   11.336
 3982.00    0.85215   0.81954   11.735
 3983.00    0.88665   0.82462   11.278
 3984.00    0.97743   0.83805   10.231
 3985.00    0.93188   0.85454   10.731
 3986.00    0.76805   0.86767   13.020
 3987.00    0.69257   0.87928   14.439
 3988.00    0.84104   0.89139   11.890
 3989.00    1.01129   0.89846    9.888
 3990.00    1.08716   0.90043    9.198
 3991.00    1.17870   0.90624    8.484
 3992.00    1.16226   0.91749    8.604
 3993.00    1.03852   0.92512    9.629
 3994.00    1.02575   0.92228    9.749
 3995.00    1.12467   0.91239    8.892
 3996.00    1.17756   0.90114    8.492
 3997.00    1.08653   0.89192    9.204
 3998.00    0.98494   0.89194   10.153
 3999.00    1.01977   0.90628    9.806
 4000.00    1.14949   0.92525    8.699
 4001.00    1.14844   0.93644    8.707
 4002.00    1.06017   0.94054    9.432
 4003.00    1.03887   0.93845    9.626
 4004.00    0.95697   0.92221   10.450
 4005.00    0.90263   0.89597   11.079
 4006.00    1.01884   0.88297    9.815
 4007.00    1.12357   0.89389    8.900
 4008.00    1.11330   0.91190    8.982
 4009.00    1.04212   0.92169    9.596
 4010.00    0.99775   0.92693   10.023
 4011.00    1.04030   0.93305    9.613
 4012.00    1.12723   0.93725    8.871
 4013.00    1.12864   0.93923    8.860
 4014.00    1.02970   0.94270    9.712
 4015.00    0.96950   0.94793   10.315
 4016.00    1.06708   0.95054    9.371
 4017.00    1.10622   0.94874    9.040
 4018.00    0.99293   0.94974   10.071
 4019.00    0.94799   0.95733   10.549
 4020.00    1.00678   0.96268    9.933
 4021.00    1.02707   0.95913    9.736
 4022.00    0.92405   0.95010   10.822
 4023.00    0.87570   0.93738   11.419
 4024.00    0.90822   0.91957   11.011
 4025.00    0.88809   0.90456   11.260
 4026.00    0.93778   0.90520   10.663
 4027.00    1.09519   0.92145    9.131
 4028.00    1.18795   0.93796    8.418
 4029.00    1.07327   0.93808    9.317
 4030.00    0.94354   0.91959   10.598
 4031.00    1.00735   0.89756    9.927
 4032.00    1.02542   0.88645    9.752
 4033.00    0.95363   0.88717   10.486
 4034.00    0.94895   0.89657   10.538
 4035.00    1.00712   0.91471    9.929
 4036.00    1.04773   0.94071    9.544
 4037.00    1.03653   0.96718    9.648
 4038.00    1.03424   0.98288    9.669
 4039.00    1.09185   0.98204    9.159
 4040.00    1.12158   0.96970    8.916
 4041.00    0.98172   0.95900   10.186
 4042.00    0.90702   0.95582   11.025
 4043.00    1.01927   0.94677    9.811
 4044.00    1.04683   0.91709    9.553
 4045.00    0.97829   0.87844   10.222
 4046.00    0.94005   0.86382   10.638
 4047.00    0.95114   0.88685   10.514
 4048.00    0.95088   0.92313   10.517
 4049.00    0.97675   0.94717   10.238
 4050.00    1.10944   0.95833    9.014
 4051.00    1.18562   0.96160    8.434
 4052.00    1.11879   0.95640    8.938
 4053.00    1.01657   0.94508    9.837
 4054.00    0.95277   0.93369   10.496
 4055.00    0.92584   0.92689   10.801
 4056.00    0.92147   0.92359   10.852
 4057.00    0.97244   0.91887   10.283
 4058.00    1.00000   0.91580   10.000
 4059.00    0.92088   0.92302   10.859
 4060.00    0.85947   0.93667   11.635
 4061.00    0.90868   0.93888   11.005
 4062.00    1.00364   0.91744    9.964
 4063.00    1.00076   0.88463    9.992
 4064.00    0.96620   0.86992   10.350
 4065.00    0.99300   0.88269   10.071
 4066.00    0.97551   0.90049   10.251
 4067.00    0.93692   0.90909   10.673
 4068.00    0.96452   0.91846   10.368
 4069.00    1.02208   0.92990    9.784
 4070.00    0.98451   0.92572   10.157
 4071.00    0.86806   0.90276   11.520
 4072.00    0.86553   0.88676   11.554
 4073.00    0.96190   0.89496   10.396
 4074.00    0.99689   0.90916   10.031
 4075.00    0.89171   0.90326   11.214
 4076.00    0.80602   0.87537   12.407
 4077.00    0.84888   0.84589   11.780
 4078.00    0.92962   0.83840   10.757
 4079.00    0.94708   0.85896   10.559
 4080.00    0.92429   0.89175   10.819
 4081.00    0.96405   0.91573   10.373
 4082.00    1.05806   0.91953    9.451
 4083.00    1.05452   0.90634    9.483
 4084.00    0.88506   0.88910   11.299
 4085.00    0.80458   0.87975   12.429
 4086.00    0.85033   0.88283   11.760
 4087.00    0.86560   0.89474   11.553
 4088.00    0.88926   0.90550   11.245
 4089.00    0.88998   0.90586   11.236
 4090.00    0.84187   0.89466   11.878
 4091.00    0.89257   0.87662   11.204
 4092.00    0.95741   0.85727    0.000
 4093.00    0.88491   0.84054    0.000
 4094.00    0.76975   0.82192    0.000
 4095.00    0.71016   0.79182    0.000
 4096.00    0.70981   0.75254    0.000
 4097.00    0.71538   0.71472    0.000
 4098.00    0.71928   0.67876    0.000
 4099.00    0.78064   0.63372    0.000
 4100.00    0.93660   0.57274    0.000
 4101.00    1.03558   0.51126    0.000
 4102.00    1.00424   0.48524    0.000
 4103.00    0.96257   0.51323    0.000
 4104.00    0.92266   0.57477    0.000
 4105.00    0.87989   0.63975    0.000
 4106.00    0.87263   0.69349    0.000
 4107.00    0.86616   0.73221    0.000
 4108.00    0.82735   0.75736    0.000
 4109.00    0.79449   0.77335    0.000
 4110.00    0.85057   0.78580    0.000
 4111.00    0.94243   0.80020    0.000
 4112.00    0.93344   0.81887    0.000
 4113.00    0.84707   0.84014   11.805
 4114.00    0.83346   0.85984   11.998
 4115.00    0.94024   0.87501   10.636
 4116.00    0.96330   0.88499   10.381
 4117.00    0.95067   0.88651   10.519
 4118.00    1.00746   0.87755    9.926
 4119.00    0.91615   0.86733   10.915
 4120.00    0.79415   0.86629   12.592
 4121.00    0.85519   0.87213   11.693
 4122.00    0.93435   0.87885   10.703
 4123.00    0.93348   0.88762   10.713
 4124.00    0.89938   0.90055   11.119
 4125.00    0.88477   0.91169   11.302
 4126.00    0.86779   0.91117   11.524
 4127.00    0.83064   0.89789   12.039
 4128.00    0.82246   0.88287   12.159
 4129.00    0.87549   0.87592   11.422
 4130.00    0.94573   0.87250   10.574
 4131.00    0.94916   0.86385   10.536
 4132.00    0.90451   0.85382   11.056
 4133.00    0.90458   0.85362   11.055
 4134.00    0.98584   0.86682   10.144
 4135.00    1.00647   0.88855    9.936
 4136.00    0.94064   0.90960   10.631
 4137.00    0.92493   0.92288   10.812
 4138.00    0.95990   0.93116   10.418
 4139.00    0.92299   0.93797   10.834
 4140.00    0.79415   0.93855   12.592
 4141.00    0.81868   0.92400   12.215
 4142.00    0.87547   0.88926   11.422
 4143.00    0.72359   0.84795   13.820
 4144.00    0.67650   0.83122   14.782
 4145.00    0.80404   0.85194   12.437
 4146.00    0.88816   0.88729   11.259
 4147.00    0.88978   0.91071   11.239
 4148.00    0.84979   0.91618   11.768
 4149.00    0.80916   0.91092   12.359
 4150.00    0.80015   0.90563   12.498
 4151.00    0.85775   0.90590   11.658
 4152.00    0.92238   0.90672   10.841
 4153.00    0.86768   0.90178   11.525
 4154.00    0.85428   0.89366   11.706
 4155.00    0.96482   0.88960   10.365
 4156.00    0.96931   0.89192   10.317
 4157.00    0.87297   0.89898   11.455
 4158.00    0.84695   0.90983   11.807
 4159.00    0.94702   0.92106   10.559
 4160.00    0.97624   0.92731   10.243
 4161.00    0.91275   0.92857   10.956
 4162.00    0.96922   0.92985   10.318
 4163.00    1.05169   0.93173    9.509
 4164.00    1.03008   0.93111    9.708
 4165.00    0.97514   0.92824   10.255
 4166.00    1.03943   0.92289    9.621
 4167.00    1.08012   0.91492    9.258
 4168.00    0.89964   0.91054   11.116
 4169.00    0.82481   0.91311   12.124
 4170.00    0.91957   0.91223   10.875
 4171.00    0.94030   0.89558   10.635
 4172.00    0.90794   0.86794   11.014
 4173.00    0.85348   0.84938   11.717
 4174.00    0.78750   0.85256   12.698
 4175.00    0.81621   0.86881   12.252
 4176.00    0.91944   0.88044   10.876
 4177.00    0.95060   0.88046   10.520
 4178.00    0.82962   0.87788   12.054
 4179.00    0.76173   0.88456   13.128
 4180.00    0.89383   0.89722   11.188
 4181.00    1.01609   0.90227    9.842
 4182.00    0.99545   0.89834   10.046
 4183.00    0.90254   0.89688   11.080
 4184.00    0.88608   0.90254   11.286
 4185.00    0.92657   0.90760   10.792
 4186.00    0.95192   0.90161   10.505
 4187.00    0.95891   0.88651   10.429
 4188.00    0.93452   0.87969   10.701
 4189.00    0.88713   0.88883   11.272
 4190.00    0.87159   0.90062   11.473
 4191.00    0.93984   0.90583   10.640
 4192.00    1.03689   0.91274    9.644
 4193.00    1.04660   0.92499    9.555
 4194.00    0.98157   0.92904   10.188
 4195.00    0.91420   0.91643   10.938
 4196.00    0.89086   0.89676   11.225
 4197.00    0.90653   0.87890   11.031
 4198.00    0.95265   0.86332   10.497
 4199.00    1.00108   0.85497    9.989
 4200.00    0.97580   0.85722   10.248
 4201.00    0.91044   0.86162   10.984
 4202.00    0.88199   0.86398   11.338
 4203.00    0.85485   0.87040   11.698
 4204.00    0.82278   0.88079   12.154
 4205.00    0.84159   0.89041   11.882
 4206.00    0.93413   0.90045   10.705
 4207.00    0.94457   0.91164   10.587
 4208.00    0.83853   0.91913   11.926
 4209.00    0.86452   0.91883   11.567
 4210.00    0.93810   0.91450   10.660
 4211.00    0.91423   0.91469   10.938
 4212.00    0.90905   0.91989   11.000
 4213.00    0.92395   0.91978   10.823
 4214.00    0.91176   0.90557   10.968
 4215.00    0.90630   0.88214   11.034
 4216.00    0.93997   0.86895   10.639
 4217.00    0.98265   0.87898   10.177
 4218.00    0.98031   0.90064   10.201
 4219.00    0.97525   0.91699   10.254
 4220.00    0.96925   0.92501   10.317
 4221.00    0.91193   0.92516   10.966
 4222.00    0.86526   0.91401   11.557
 4223.00    0.85128   0.89180   11.747
 4224.00    0.82256   0.86110   12.157
 4225.00    0.79406   0.82195   12.594
 4226.00    0.78692   0.78295   12.708
 4227.00    0.80168   0.76968   12.474
 4228.00    0.83696   0.79862   11.948
 4229.00    0.86111   0.84952   11.613
 4230.00    0.85247   0.88918   11.731
 4231.00    0.85629   0.90403   11.678
 4232.00    0.90970   0.89656   10.993
 4233.00    0.98118   0.87944   10.192
 4234.00    0.98356   0.86924   10.167
 4235.00    0.91923   0.86695   10.879
 4236.00    0.87106   0.86469   11.480
 4237.00    0.89987   0.86506   11.113
 4238.00    0.95390   0.87056   10.483
 4239.00    0.95546   0.87693   10.466
 4240.00    0.90957   0.88437   10.994
 4241.00    0.88703   0.89383   11.274
 4242.00    0.91927   0.90081   10.878
 4243.00    0.95475   0.90617   10.474
 4244.00    0.95939   0.91438   10.423
 4245.00    0.93714   0.91766   10.671
 4246.00    0.89378   0.90573   11.188
 4247.00    0.79787   0.88526   12.533
 4248.00    0.75219   0.87023   13.294
 4249.00    0.88468   0.86182   11.304
 4250.00    0.97950   0.85535   10.209
 4251.00    0.93788   0.85677   10.662
 4252.00    0.89154   0.86815   11.217
 4253.00    0.85349   0.87409   11.717
 4254.00    0.84779   0.86727   11.795
 4255.00    0.89344   0.86405   11.193
 4256.00    0.87791   0.87710   11.391
 4257.00    0.83405   0.89316   11.990
 4258.00    0.87196   0.89131   11.468
 4259.00    0.91998   0.87049   10.870
 4260.00    0.87486   0.84834   11.430
 4261.00    0.78335   0.84390   12.766
 4262.00    0.83453   0.86255   11.983
 4263.00    0.92859   0.89062   10.769
 4264.00    0.90689   0.91096   11.027
 4265.00    0.88284   0.91849   11.327
 4266.00    0.91238   0.91392   10.960
 4267.00    0.95372   0.89979   10.485
 4268.00    0.96038   0.88475   10.413
 4269.00    0.90788   0.87187   11.015
 4270.00    0.83836   0.85159   11.928
 4271.00    0.82020   0.82285   12.192
 4272.00    0.78922   0.80390   12.671
 4273.00    0.72417   0.80527   13.809
 4274.00    0.72519   0.81531   13.789
 4275.00    0.80812   0.82745   -2.000
 4276.00    0.87729   0.84854   -2.000
 4277.00    0.85672   0.87562   -2.000
 4278.00    0.86012   0.89377   -2.000
 4279.00    0.88719   0.89371   -2.000
 4280.00    0.81381   0.88070   -2.000
 4281.00    0.71394   0.86834   -2.000
 4282.00    0.70477   0.86400   -2.000
 4283.00    0.79543   0.86555   -2.000
 4284.00    0.87464   0.86696   -2.000
 4285.00    0.87258   0.86310   -2.000
 4286.00    0.79326   0.85629   -2.000
 4287.00    0.66679   0.85006   -2.000
 4288.00    0.61935   0.83772   -2.000
 4289.00    0.71295   0.81491   -2.000
 4290.00    0.80020   0.79697   -2.000
 4291.00    0.85597   0.80349   11.683
 4292.00    0.90766   0.82951   11.017
 4293.00    0.87661   0.85003   11.408
 4294.00    0.79937   0.85184   12.510
 4295.00    0.77043   0.84468   12.980
 4296.00    0.80667   0.83793   12.397
 4297.00    0.86254   0.82672   11.594
 4298.00    0.84739   0.80418   11.801
 4299.00    0.71572   0.77393   13.972
 4300.00    0.63370   0.75135   15.780
 4301.00    0.68237   0.74648   14.655
 4302.00    0.72158   0.75135   13.858
 4303.00    0.69478   0.75815   14.393
 4304.00    0.68347   0.76816   14.631
 4305.00    0.77385   0.77676   12.922
 4306.00    0.85942   0.77411   11.636
 4307.00    0.84204   0.75836   11.876
 4308.00    0.76250   0.74053   13.115
 4309.00    0.72817   0.73700   13.733
 4310.00    0.74876   0.75207   13.355
 4311.00    0.76325   0.77414   13.102
 4312.00    0.78748   0.79076   12.699
 4313.00    0.79219   0.79943   12.623
 4314.00    0.74791   0.80808   13.371
 4315.00    0.74460   0.82957   13.430
 4316.00    0.79920   0.86505   12.513
 4317.00    0.84261   0.89617   11.868
 4318.00    0.84785   0.90695   11.794
 4319.00    0.90366   0.90091   11.066
 4320.00    0.99857   0.88846   10.014
 4321.00    0.92786   0.87481   10.778
 4322.00    0.81962   0.85885   12.201
 4323.00    0.82092   0.83325   12.182
 4324.00    0.78194   0.79524   12.789
 4325.00    0.77148   0.75869   12.962
 4326.00    0.84209   0.74712   11.875
 4327.00    0.82712   0.77013   12.090
 4328.00    0.74076   0.80778   13.500
 4329.00    0.69818   0.83012   14.323
 4330.00    0.73754   0.82859    0.000
 4331.00    0.79203   0.81678    0.000
 4332.00    0.79715   0.80684    0.000
 4333.00    0.77255   0.79815    0.000
 4334.00    0.79580   0.78653    0.000
 4335.00    0.82398   0.76761    0.000
 4336.00    0.74984   0.73167    0.000
 4337.00    0.67555   0.67364    0.000
 4338.00    0.78533   0.60441    0.000
 4339.00    1.10559   0.53955    0.000
 4340.00    1.36731   0.49462    0.000
 4341.00    1.38365   0.49184    0.000
 4342.00    1.21067   0.53599    0.000
 4343.00    1.02877   0.59799    0.000
 4344.00    0.91497   0.65103    0.000
 4345.00    0.84895   0.69314    0.000
 4346.00    0.83127   0.72732    0.000
 4347.00    0.84132   0.75420    0.000
 4348.00    0.83197   0.77864    0.000
 4349.00    0.77866   0.79863    0.000
 4350.00    0.75715   0.79936    0.000
 4351.00    0.79041   0.77730   12.652
 4352.00    0.76598   0.75774   13.055
 4353.00    0.71185   0.76597   14.048
 4354.00    0.72136   0.79465   13.863
 4355.00    0.79229   0.82236   12.622
 4356.00    0.82535   0.84262   12.116
 4357.00    0.80838   0.85560   12.370
 4358.00    0.84988   0.85753   11.766
 4359.00    0.93224   0.85279   10.727
 4360.00    0.98266   0.85522   10.176
 4361.00    0.97899   0.86881   10.215
 4362.00    0.95677   0.88316   10.452
 4363.00    0.94729   0.89189   10.556
 4364.00    0.94130   0.89913   10.624
 4365.00    0.91144   0.90474   10.972
 4366.00    0.88986   0.90013   11.238
 4367.00    0.92135   0.88451   10.854
 4368.00    0.94303   0.87071   10.604
 4369.00    0.89833   0.86769   11.132
 4370.00    0.82456   0.87109   12.128
 4371.00    0.82480   0.87467   12.124
 4372.00    0.85283   0.87476   11.726
 4373.00    0.82835   0.86530   12.072
 4374.00    0.84216   0.84599   11.874
 4375.00    0.90317   0.83191   11.072
 4376.00    0.93771   0.83934   10.664
 4377.00    0.92937   0.86436   10.760
 4378.00    0.93546   0.88727   10.690
 4379.00    0.98614   0.89552   10.141
 4380.00    1.00787   0.89157    9.922
 4381.00    0.91870   0.87723   10.885
 4382.00    0.77882   0.84429   12.840
 4383.00    0.75734   0.79517   13.204
 4384.00    0.79315   0.75926   12.608
 4385.00    0.78589   0.76352   12.724
 4386.00    0.77703   0.79724   12.870
 4387.00    0.80955   0.82792   12.353
 4388.00    0.85308   0.84106   11.722
 4389.00    0.84050   0.84461   11.898
 4390.00    0.79292   0.84767   12.612
 4391.00    0.79442   0.85496   12.588
 4392.00    0.88006   0.86669   11.363
 4393.00    0.93446   0.87295   10.701
 4394.00    0.90757   0.86589   11.018
 4395.00    0.87454   0.85732   11.435
 4396.00    0.88908   0.86552   11.248
 4397.00    0.89769   0.88644   11.140
 4398.00    0.85732   0.89742   11.664
 4399.00    0.87904   0.88746   11.376
 4400.00    0.92438   0.86890   10.818
 4401.00    0.90008   0.86206   11.110
 4402.00    0.90019   0.86936   11.109
 4403.00    0.91094   0.86896   10.978
 4404.00    0.86288   0.84853   11.589
 4405.00    0.81200   0.82905   12.315
 4406.00    0.80614   0.83154   12.405
 4407.00    0.83048   0.84517   12.041
 4408.00    0.84592   0.85389   11.821
 4409.00    0.88083   0.86381   11.353
 4410.00    0.92011   0.88301   10.868
 4411.00    0.87922   0.90375   11.374
 4412.00    0.85120   0.91530   11.748
 4413.00    0.89037   0.91105   11.231
 4414.00    0.89552   0.88749   11.167
 4415.00    0.88380   0.85603   11.315
 4416.00    0.87956   0.83951   11.369
 4417.00    0.84810   0.84681   11.791
 4418.00    0.83033   0.86927   12.043
 4419.00    0.85887   0.89459   11.643
 4420.00    0.90102   0.90991   11.099
 4421.00    0.90638   0.90753   11.033
 4422.00    0.86709   0.89445   11.533
 4423.00    0.82971   0.88563   12.052
 4424.00    0.84323   0.88610   11.859
 4425.00    0.85561   0.88762   11.688
 4426.00    0.81142   0.88451   12.324
 4427.00    0.81146   0.88166   12.323
 4428.00    0.86550   0.88391   11.554
 4429.00    0.91156   0.88654   10.970
 4430.00    0.97477   0.88444   10.259
 4431.00    1.02733   0.88333    9.734
 4432.00    0.98611   0.88581   10.141
 4433.00    0.82719   0.88070   12.089
 4434.00    0.69221   0.86239   14.447
 4435.00    0.70180   0.84474   14.249
 4436.00    0.77219   0.84611   12.950
 4437.00    0.78223   0.86886   12.784
 4438.00    0.74716   0.89793   13.384
 4439.00    0.79387   0.91624   12.596
 4440.00    0.84336   0.91516   11.857
 4441.00    0.82469   0.89591   12.126
 4442.00    0.82790   0.86923   12.079
 4443.00    0.85769   0.85138   11.659
 4444.00    0.87402   0.85500   11.441
 4445.00    0.87444   0.87699   11.436
 4446.00    0.88350   0.89865   11.319
 4447.00    0.88122   0.90680   11.348
 4448.00    0.84431   0.90615   11.844
 4449.00    0.86885   0.90352   11.510
 4450.00    0.94452   0.89882   10.587
 4451.00    0.94854   0.89491   10.543
 4452.00    0.88093   0.89330   11.352
 4453.00    0.82510   0.88511   12.120
 4454.00    0.82879   0.86458   12.066
 4455.00    0.83088   0.84325   12.035
 4456.00    0.82763   0.83722   12.083
 4457.00    0.84577   0.84516   11.824
 4458.00    0.84185   0.85251   11.879
 4459.00    0.87849   0.85259   11.383
 4460.00    0.95190   0.84872   10.505
 4461.00    0.85720   0.84478    0.000
 4462.00    0.73545   0.84679    0.000
 4463.00    0.78768   0.85974    0.000
 4464.00    0.86625   0.87569    0.000
 4465.00    0.86509   0.88298    0.000
 4466.00    0.80493   0.88153    0.000
 4467.00    0.75766   0.87558    0.000
 4468.00    0.79220   0.86549    0.000
 4469.00    0.88929   0.85375    0.000
 4470.00    0.94627   0.84718    0.000
 4471.00    0.93270   0.85058    0.000
 4472.00    0.89479   0.86493    0.000
 4473.00    0.89060   0.88683    0.000
 4474.00    0.91611   0.90594    0.000
 4475.00    0.92805   0.91454    0.000
 4476.00    0.90745   0.91786    0.000
 4477.00    0.90675   0.92310    0.000
 4478.00    0.92346   0.92421    0.000
 4479.00    0.91095   0.90875    0.000
 4480.00    0.90871   0.87626    0.000
 4481.00    0.90296   0.84491    0.000
 4482.00    0.84140   0.83774   11.885
 4483.00    0.77210   0.85965   12.952
 4484.00    0.75971   0.89275   13.163
 4485.00    0.80564   0.91749   12.413
 4486.00    0.84165   0.92744   11.881
 4487.00    0.85173   0.92271   11.741
 4488.00    0.85734   0.90555   11.664
 4489.00    0.85242   0.88543   11.731
 4490.00    0.85969   0.87625   11.632
 4491.00    0.88971   0.88331   11.240
 4492.00    0.90009   0.89695   11.110
 4493.00    0.88579   0.90194   11.289
 4494.00    0.85700   0.89338   11.669
 4495.00    0.81107   0.88153   12.329
 4496.00    0.79273   0.87892   12.615
 4497.00    0.83053   0.88824   12.040
 4498.00    0.88367   0.90325   11.316
 4499.00    0.89611   0.91362   11.159
 4500.00    0.87294   0.91233   11.456
 4501.00    0.87527   0.90479   11.425
 4502.00    0.91159   0.90638   10.970
 4503.00    0.95619   0.92285   10.458
 4504.00    0.97599   0.94145   10.246
 4505.00    0.93695   0.94851   10.673
 4506.00    0.88382   0.94331   11.314
 4507.00    0.88183   0.93262   11.340
 4508.00    0.86869   0.92444   11.512
 4509.00    0.83445   0.92422   11.984
 4510.00    0.83949   0.92969   11.912
 4511.00    0.87855   0.93215   11.382
 4512.00    0.93171   0.92637   10.733
 4513.00    0.95463   0.91567   10.475
 4514.00    0.87280   0.90598   11.457
 4515.00    0.79478   0.90102   12.582
 4516.00    0.84731   0.90116   11.802
 4517.00    0.92348   0.90199   10.829
 4518.00    0.92053   0.90085   10.863
 4519.00    0.86632   0.90191   11.543
 4520.00    0.86787   0.90694   11.523
 4521.00    0.89131   0.90895   11.219
 4522.00    0.86245   0.90157   11.595
 4523.00    0.81711   0.88986   12.238
 4524.00    0.82940   0.88294   12.057
 4525.00    0.89720   0.87863   11.146
 4526.00    0.92394   0.86937   10.823
 4527.00    0.86896   0.85514   11.508
 4528.00    0.79465   0.84191   12.584
 4529.00    0.79700   0.83624   12.547
 4530.00    0.85364   0.84092   11.715
 4531.00    0.88169   0.85175   11.342
 4532.00    0.84150   0.85887   11.884
 4533.00    0.79006   0.85319   12.657
 4534.00    0.76012   0.83820   13.156
 4535.00    0.73949   0.83203   13.523
 4536.00    0.76221   0.84856   13.120
 4537.00    0.82740   0.88080   12.086
 4538.00    0.88526   0.90703   11.296
 4539.00    0.90547   0.91305   11.044
 4540.00    0.89742   0.90397   11.143
 4541.00    0.89827   0.89451   11.133
 4542.00    0.93188   0.89402   10.731
 4543.00    0.94094   0.89830   10.628
 4544.00    0.87775   0.89721   11.393
 4545.00    0.81327   0.89095   12.296
 4546.00    0.80127   0.88726   12.480
 4547.00    0.83953   0.88450   11.911
 4548.00    0.88858   0.87342   11.254
 4549.00    0.87075   0.85647   11.484
 4550.00    0.79814   0.85041    0.000
 4551.00    0.79758   0.86106    0.000
 4552.00    0.83693   0.87174    0.000
 4553.00    0.84056   0.86862    0.000
 4554.00    0.83711   0.85740    0.000
 4555.00    0.87046   0.85178    0.000
 4556.00    0.91474   0.86060    0.000
 4557.00    0.90825   0.88061    0.000
 4558.00    0.90469   0.89932    0.000
 4559.00    0.91440   0.90946    0.000
 4560.00    0.88362   0.91413    0.000
 4561.00    0.89157   0.91626    0.000
 4562.00    0.93882   0.91225    0.000
 4563.00    0.92439   0.89917    0.000
 4564.00    0.87551   0.88388    0.000
 4565.00    0.87215   0.87846    0.000
 4566.00    0.92466   0.88728    0.000
 4567.00    0.93517   0.90382    0.000
 4568.00    0.91015   0.91713    0.000
 4569.00    0.91373   0.91949    0.000
 4570.00    0.89025   0.90886    0.000
 4571.00    0.84043   0.89085    0.000
 4572.00    0.83094   0.88115    0.000
 4573.00    0.87368   0.88969    0.000
 4574.00    0.87548   0.90485    0.000
 4575.00    0.82375   0.91150    0.000
 4576.00    0.87435   0.91044    0.000
 4577.00    0.93903   0.90760    0.000
 4578.00    0.90621   0.90192    0.000
 4579.00    0.88953   0.89047    0.000
 4580.00    0.88385   0.87680    0.000
 4581.00    0.84308   0.86860    0.000
 4582.00    0.81159   0.86766    0.000
 4583.00    0.81086   0.86850    0.000
 4584.00    0.80918   0.86824    0.000
 4585.00    0.77964   0.86935    0.000
 4586.00    0.79795   0.87394    0.000
 4587.00    0.87873   0.88234    0.000
 4588.00    0.92219   0.89263    0.000
 4589.00    0.88528   0.89959    0.000
 4590.00    0.83777   0.89886    0.000
 4591.00    0.86380   0.89105    0.000
 4592.00    0.89863   0.88207    0.000
 4593.00    0.90011   0.87810    0.000
 4594.00    0.89740   0.87911    0.000
 4595.00    0.88527   0.88129    0.000
 4596.00    0.83485   0.88376    0.000
 4597.00    0.76384   0.88737    0.000
 4598.00    0.76496   0.89093    0.000
 4599.00    0.80543   0.89149    0.000
 4600.00    0.81202   0.88723    0.000
 4601.00    0.84780   0.88182    0.000
 4602.00    0.92669   0.88099    0.000
 4603.00    0.98826   0.88433    0.000
 4604.00    0.98125   0.88758    0.000
 4605.00    0.91295   0.88898    0.000
 4606.00    0.83665   0.89073    0.000
 4607.00    0.81069   0.89673    0.000
 4608.00    0.85560   0.90780    0.000
 4609.00    0.90941   0.91854    0.000
 4610.00    0.87487   0.92160    0.000
 4611.00    0.80094   0.91638    0.000
 4612.00    0.78243   0.90877    0.000
 4613.00    0.82990   0.90407    0.000
 4614.00    0.87110   0.90409    0.000
 4615.00    0.87497   0.90626    0.000
 4616.00    0.87471   0.90628    0.000
 4617.00    0.85047   0.90391    0.000
 4618.00    0.81662   0.89994    0.000
 4619.00    0.82600   0.89515    0.000
 4620.00    0.85537   0.89503    0.000
 4621.00    0.86815   0.90201    0.000
 4622.00    0.86759   0.90970    0.000
 4623.00    0.88494   0.91288    0.000
 4624.00    0.90006   0.91190    0.000
 4625.00    0.88491   0.90825    0.000
 4626.00    0.89425   0.90457    0.000
 4627.00    0.93939   0.90236    0.000
 4628.00    0.95158   0.89840    0.000
 4629.00    0.86800   0.89230    0.000
 4630.00    0.80094   0.89146    0.000
 4631.00    0.84893   0.89819    0.000
 4632.00    0.89006   0.90232    0.000
 4633.00    0.86614   0.89715    0.000
 4634.00    0.82918   0.88914    0.000
 4635.00    0.83938   0.88549    0.000
 4636.00    0.87553   0.88454    0.000
 4637.00    0.89954   0.88150    0.000
 4638.00    0.91488   0.87610    0.000
 4639.00    0.90637   0.87244    0.000
 4640.00    0.87758   0.87445    0.000
 4641.00    0.86360   0.88260    0.000
 4642.00    0.85856   0.89185    0.000
 4643.00    0.84659   0.89545    0.000
 4644.00    0.83355   0.89136    0.000
 4645.00    0.83353   0.88026    0.000
 4646.00    0.84645   0.86458    0.000
 4647.00    0.85455   0.85214    0.000
 4648.00    0.84446   0.85082    0.000
 4649.00    0.83845   0.85987    0.000
 4650.00    0.85467   0.87207    0.000
 4651.00    0.84331   0.88126    0.000
 4652.00    0.81252   0.88583    0.000
 4653.00    0.82200   0.88538    0.000
 4654.00    0.86545   0.87860    0.000
 4655.00    0.86606   0.86909    0.000
 4656.00    0.80073   0.86555    0.000
 4657.00    0.78674   0.87355    0.000
 4658.00    0.83336   0.89139    0.000
 4659.00    0.86774   0.91022    0.000
 4660.00    0.88338   0.91954    0.000
 4661.00    0.90700   0.91564    0.000
 4662.00    0.93499   0.90339    0.000
 4663.00    0.92263   0.89134    0.000
 4664.00    0.88484   0.88394    0.000
 4665.00    0.84774   0.87625    0.000
 4666.00    0.80876   0.85962    0.000
 4667.00    0.81889   0.83703    0.000
 4668.00    0.87069   0.82442    0.000
 4669.00    0.87572   0.83138    0.000
 4670.00    0.86286   0.85076    0.000
 4671.00    0.86911   0.86927    0.000
 4672.00    0.86552   0.87882    0.000
 4673.00    0.85296   0.87984    0.000
 4674.00    0.85864   0.87906    0.000
 4675.00    0.89228   0.88246    0.000
 4676.00    0.90927   0.88922    0.000
 4677.00    0.87728   0.89232    0.000
 4678.00    0.82443   0.88671    0.000
 4679.00    0.82241   0.87574    0.000
 4680.00    0.87113   0.86611    0.000
 4681.00    0.90070   0.86131    0.000
 4682.00    0.87514   0.86263    0.000
 4683.00    0.84219   0.86966    0.000
 4684.00    0.85519   0.87777    0.000
 4685.00    0.87689   0.88160    0.000
 4686.00    0.88593   0.88095    0.000
 4687.00    0.88390   0.87907    0.000
 4688.00    0.86308   0.87850    0.000
 4689.00    0.86355   0.87901    0.000
 4690.00    0.89680   0.87801    0.000
 4691.00    0.89525   0.87570    0.000
 4692.00    0.86989   0.87642    0.000
 4693.00    0.86465   0.88194    0.000
 4694.00    0.87500   0.88944    0.000
 4695.00    0.88508   0.89614    0.000
 4696.00    0.88941   0.89887    0.000
 4697.00    0.89247   0.89328    0.000
 4698.00    0.89164   0.88004    0.000
 4699.00    0.88414   0.86787    0.000
 4700.00    0.87558   0.86328    0.000
 4701.00    0.87619   0.86133    0.000
 4702.00    0.87782   0.85523    0.000
 4703.00    0.86877   0.84920    0.000
 4704.00    0.87636   0.85190    0.000
 4705.00    0.89378   0.86119    0.000
 4706.00    0.87739   0.86562    0.000
 4707.00    0.82900   0.86036    0.000
 4708.00    0.81170   0.85197    0.000
 4709.00    0.85332   0.84930    0.000
 4710.00    0.85333   0.85608    0.000
 4711.00    0.80783   0.86831    0.000
 4712.00    0.80318   0.87588    0.000
 4713.00    0.84977   0.87258    0.000
 4714.00    0.87594   0.86406    0.000
 4715.00    0.84081   0.86141    0.000
 4716.00    0.81628   0.86910    0.000
 4717.00    0.83493   0.88143    0.000
 4718.00    0.86290   0.89107    0.000
 4719.00    0.86211   0.89668    0.000
 4720.00    0.85969   0.89927    0.000
 4721.00    0.88282   0.89799    0.000
 4722.00    0.89958   0.89389    0.000
 4723.00    0.88565   0.89216    0.000
 4724.00    0.85608   0.89571    0.000
 4725.00    0.84766   0.89907    0.000
 4726.00    0.85780   0.89326    0.000
 4727.00    0.85790   0.87687    0.000
 4728.00    0.83303   0.85954    0.000
 4729.00    0.81203   0.85111    0.000
 4730.00    0.82386   0.85111    0.000
 4731.00    0.86742   0.85447    0.000
 4732.00    0.91942   0.85982    0.000
 4733.00    0.93713   0.86687    0.000
 4734.00    0.89379   0.87302    0.000
 4735.00    0.82804   0.87491    0.000
 4736.00    0.79252   0.87148    0.000
 4737.00    0.80790   0.86794    0.000
 4738.00    0.85099   0.87073    0.000
 4739.00    0.89077   0.87643    0.000
 4740.00    0.91187   0.87750    0.000
 4741.00    0.91852   0.87499    0.000
 4742.00    0.92150   0.87508    0.000
 4743.00    0.90880   0.87894    0.000
 4744.00    0.85179   0.88240    0.000
 4745.00    0.81442   0.88359    0.000
 4746.00    0.84267   0.88517    0.000
 4747.00    0.85973   0.88791    0.000
 4748.00    0.84920   0.88936    0.000
 4749.00    0.84666   0.88946    0.000
 4750.00    0.86516   0.88967    0.000
 4751.00    0.89350   0.88840    0.000
 4752.00    0.91391   0.88340    0.000
 4753.00    0.91473   0.87608    0.000
 4754.00    0.88861   0.86986    0.000
 4755.00    0.84725   0.86631    0.000
 4756.00    0.81861   0.86486    0.000
 4757.00    0.81441   0.86506    0.000
 4758.00    0.82375   0.86718    0.000
 4759.00    0.83332   0.87034    0.000
 4760.00    0.85501   0.87096    0.000
 4761.00    0.87202   0.86448   11.468
 4762.00    0.84855   0.85155   11.785
 4763.00    0.80485   0.83939   12.425
 4764.00    0.78989   0.83287   12.660
 4765.00    0.81762   0.83047   12.231
 4766.00    0.82772   0.83111   12.081
 4767.00    0.79384   0.83646   12.597
 4768.00    0.76942   0.84601   12.997
 4769.00    0.82838   0.85561   12.072
 4770.00    0.89771   0.85997   11.139
 4771.00    0.88347   0.85703   11.319
 4772.00    0.85535   0.85234   11.691
 4773.00    0.85077   0.85412   11.754
 4774.00    0.85002   0.86258   11.764
 4775.00    0.84576   0.87018   11.824
 4776.00    0.84942   0.87264   11.773
 4777.00    0.86847   0.87217   11.514
 4778.00    0.89019   0.86999   11.234
 4779.00    0.89696   0.86526   11.149
 4780.00    0.86474   0.86021   11.564
 4781.00    0.80066   0.85715   12.490
 4782.00    0.81871   0.85413   12.214
 4783.00    0.90294   0.85017   11.075
 4784.00    0.89327   0.84832   11.195
 4785.00    0.86082   0.84831   11.617
 4786.00    0.88618   0.84611   11.284
 4787.00    0.91540   0.84289   10.924
 4788.00    0.90977   0.84221   10.992
 4789.00    0.86304   0.84340   11.587
 4790.00    0.80728   0.84598   12.387
 4791.00    0.81634   0.85101   12.250
 4792.00    0.87768   0.85825   11.394
 4793.00    0.91065   0.86758   10.981
 4794.00    0.89923   0.87777   11.121
 4795.00    0.85733   0.88434   11.664
 4796.00    0.82433   0.88363   12.131
 4797.00    0.86013   0.87617   11.626
 4798.00    0.90052   0.86541   11.105
 4799.00    0.85888   0.85621   11.643
 4800.00    0.80275   0.85370   12.457
 4801.00    0.83676   0.85932   11.951
 4802.00    0.93588   0.86812   10.685
 4803.00    0.93836   0.87217   10.657
 4804.00    0.89448   0.86755   11.180
 4805.00    0.88854   0.85821   11.254
 4806.00    0.84767   0.85121   11.797
 4807.00    0.82701   0.84877   12.092
 4808.00    0.86119   0.84909   11.612
 4809.00    0.85949   0.85132   11.635
 4810.00    0.86213   0.85428   11.599
 4811.00    0.88322   0.85602   11.322
 4812.00    0.84880   0.85659   11.781
 4813.00    0.83620   0.85742   11.959
 4814.00    0.87657   0.85911   11.408
 4815.00    0.88269   0.86148   11.329
 4816.00    0.85810   0.86461   11.654
 4817.00    0.84382   0.86821   11.851
 4818.00    0.84889   0.87109   11.780
 4819.00    0.84802   0.87208   11.792
 4820.00    0.82749   0.87065   12.085
 4821.00    0.81679   0.86575   12.243
 4822.00    0.86519   0.85524   11.558
 4823.00    0.90060   0.84038   11.104
 4824.00    0.84674   0.83061   11.810
 4825.00    0.81854   0.83379   12.217
 4826.00    0.85009   0.84388   11.763
 4827.00    0.87086   0.84912   11.483
 4828.00    0.85313   0.84679   11.722
 4829.00    0.83110   0.84239   12.032
 4830.00    0.83636   0.83940   11.957
 4831.00    0.84620   0.83608   11.818
 4832.00    0.85067   0.83261   11.755
 4833.00    0.85924   0.83343   11.638
 4834.00    0.87300   0.83880   11.455
 4835.00    0.86732   0.84303   11.530
 4836.00    0.84472   0.84317   11.838
 4837.00    0.84338   0.84067   11.857
 4838.00    0.83828   0.83556   11.929
 4839.00    0.81942   0.82744   12.204
 4840.00    0.82631   0.82003   12.102
 4841.00    0.83986   0.81710   11.907
 4842.00    0.82610   0.81648   12.105
 4843.00    0.79301   0.81502   12.610
 4844.00    0.78855   0.81512   12.681
 4845.00    0.82015   0.81875   12.193
 4846.00    0.84628   0.82058   11.816
 4847.00    0.85084   0.81430   11.753
 4848.00    0.83634   0.80203    0.000
 4849.00    0.81481   0.79236    0.000
 4850.00    0.80656   0.78911    0.000
 4851.00    0.81034   0.78711    0.000
 4852.00    0.79903   0.78094    0.000
 4853.00    0.75281   0.76892    0.000
 4854.00    0.72567   0.74943    0.000
 4855.00    0.75297   0.72521    0.000
 4856.00    0.75072   0.70542    0.000
 4857.00    0.71308   0.69190    0.000
 4858.00    0.78863   0.67131    0.000
 4859.00    1.16296   0.62948    0.000
 4860.00    1.72747   0.57040    0.000
 4861.00    2.20165   0.52172    0.000
 4862.00    2.38633   0.51542    0.000
 4863.00    2.19828   0.55371    0.000
 4864.00    1.69837   0.60779    0.000
 4865.00    1.10730   0.65361    0.000
 4866.00    0.74753   0.68746    0.000
 4867.00    0.70479   0.71235    0.000
 4868.00    0.75276   0.72997    0.000
 4869.00    0.77457   0.73981    0.000
 4870.00    0.75971   0.73921    0.000
 4871.00    0.71535   0.73165    0.000
 4872.00    0.65804   0.73078    0.000
 4873.00    0.65488   0.74469    0.000
 4874.00    0.74187   0.76459    0.000
 4875.00    0.78207   0.77882   12.786
 4876.00    0.75818   0.78680   13.189
 4877.00    0.77184   0.79346   12.956
 4878.00    0.78238   0.80195   12.782
 4879.00    0.79384   0.81232   12.597
 4880.00    0.84168   0.81933   11.881
 4881.00    0.84709   0.81813   11.805
 4882.00    0.81276   0.81354   12.304
 4883.00    0.80842   0.81203   12.370
 4884.00    0.83013   0.81112   12.046
 4885.00    0.83458   0.80689   11.982
 4886.00    0.80823   0.80269   12.373
 4887.00    0.79018   0.80306   12.655
 4888.00    0.77431   0.80548   12.915
 4889.00    0.76577   0.80258   13.059
 4890.00    0.81106   0.79202   12.330
 4891.00    0.82564   0.78356   12.112
 4892.00    0.77860   0.79161   12.844
 4893.00    0.79548   0.81674   12.571
 4894.00    0.85847   0.84455   11.649
 4895.00    0.88769   0.86362   11.265
 4896.00    0.87726   0.87260   11.399
 4897.00    0.87193   0.87393   11.469
 4898.00    0.87567   0.86872   11.420
 4899.00    0.84819   0.85806   11.790
 4900.00    0.81355   0.84732   12.292
 4901.00    0.80175   0.84223   12.473
 4902.00    0.80222   0.84063   12.465
 4903.00    0.79071   0.83817   12.647
 4904.00    0.79184   0.83865   12.629
 4905.00    0.83279   0.84693   12.008
 4906.00    0.84750   0.85778   11.799
 4907.00    0.83953   0.86122   11.911
 4908.00    0.86728   0.85383   11.530
 4909.00    0.89819   0.83997   11.134
 4910.00    0.87027   0.82754   11.491
 4911.00    0.78912   0.82399   12.672
 4912.00    0.75671   0.83029   13.215
 4913.00    0.79760   0.84055   12.538
 4914.00    0.83844   0.85018   11.927
 4915.00    0.81251   0.85780   12.308
 4916.00    0.78569   0.85912   12.728
 4917.00    0.82062   0.84731   12.186
 4918.00    0.84157   0.82124   11.883
 4919.00    0.79292   0.78965   12.612
 4920.00    0.73368   0.76656   13.630
 4921.00    0.76694   0.76217   13.039
 4922.00    0.79407   0.77432   12.593
 4923.00    0.76007   0.78984   13.157
 4924.00    0.77428   0.80023   12.915
 4925.00    0.79792   0.81067   12.533
 4926.00    0.78888   0.82713   12.676
 4927.00    0.79944   0.84521   12.509
 4928.00    0.82788   0.85857   12.079
 4929.00    0.83508   0.86655   11.975
 4930.00    0.81004   0.86975   12.345
 4931.00    0.80515   0.86652   12.420
 4932.00    0.81722   0.85453   12.237
 4933.00    0.79961   0.83616   12.506
 4934.00    0.78454   0.82282   12.746
 4935.00    0.77904   0.82327   12.836
 4936.00    0.76037   0.82916   13.151
 4937.00    0.75699   0.82581   13.210
 4938.00    0.79675   0.81316   12.551
 4939.00    0.84910   0.80567   11.777
 4940.00    0.83434   0.81387    0.000
 4941.00    0.78931   0.83211    0.000
 4942.00    0.79227   0.84801    0.000
 4943.00    0.81945   0.85722    0.000
 4944.00    0.83961   0.86109    0.000
 4945.00    0.84372   0.85984    0.000
 4946.00    0.83037   0.85659    0.000
 4947.00    0.80308   0.85726    0.000
 4948.00    0.78770   0.86235    0.000
 4949.00    0.81389   0.86750    0.000
 4950.00    0.83291   0.87033    0.000
 4951.00    0.81401   0.87063    0.000
 4952.00    0.80327   0.86754    0.000
 4953.00    0.81816   0.86135    0.000
 4954.00    0.81679   0.85308    0.000
 4955.00    0.77760   0.83943    0.000
 4956.00    0.82969   0.81479    0.000
 4957.00    0.99638   0.78553    0.000
 4958.00    1.14263   0.77322    0.000
 4959.00    1.22701   0.78928    0.000
 4960.00    1.23910   0.81768    0.000
 4961.00    1.16736   0.83667    0.000
 4962.00    1.05242   0.84217    0.000
 4963.00    0.94061   0.84073    0.000
 4964.00    0.85310   0.83525    0.000
 4965.00    0.79323   0.82612    0.000
 4966.00    0.77833   0.81730    0.000
 4967.00    0.79385   0.81302    0.000
 4968.00    0.76103   0.81315    0.000
 4969.00    0.71758   0.81585    0.000
 4970.00    0.74818   0.82041    0.000
 4971.00    0.82227   0.82660    0.000
 4972.00    0.85823   0.83352    0.000
 4973.00    0.82771   0.83971    0.000
 4974.00    0.79682   0.84408    0.000
 4975.00    0.81150   0.84560    0.000
 4976.00    0.84097   0.84322    0.000
 4977.00    0.81883   0.83682    0.000
 4978.00    0.78374   0.82789    0.000
 4979.00    0.78843   0.81889    0.000
 4980.00    0.80915   0.80940    0.000
 4981.00    0.80447   0.79524    0.000
 4982.00    0.75197   0.77694    0.000
 4983.00    0.68335   0.76394    0.000
 4984.00    0.69879   0.76454    0.000
 4985.00    0.77746   0.77732    0.000
 4986.00    0.79774   0.79556    0.000
 4987.00    0.79779   0.81249    0.000
 4988.00    0.81742   0.82180    0.000
 4989.00    0.82288   0.82099    0.000
 4990.00    0.80240   0.81445    0.000
 4991.00    0.77893   0.80983    0.000
 4992.00    0.77995   0.81077    0.000
 4993.00    0.79618   0.81405    0.000
 4994.00    0.78608   0.81672    0.000
 4995.00    0.74143   0.82040    0.000
 4996.00    0.73319   0.82486    0.000
 4997.00    0.77278   0.82577    0.000
 4998.00    0.80870   0.81981    0.000
 4999.00    0.80825   0.80739    0.000
 5000.00    0.78616   0.79362    0.000
 5001.00    0.76804   0.78525    0.000
 5002.00    0.75590   0.78471    0.000
 5003.00    0.77165   0.78809    0.000
 5004.00    0.89715   0.78788    0.000
 5005.00    1.22918   0.77975    0.000
 5006.00    1.69635   0.76997    0.000
 5007.00    2.07332   0.77062    0.000
 5008.00    2.12366   0.78390    0.000
 5009.00    1.80558   0.79875    0.000
 5010.00    1.31498   0.80396    0.000
 5011.00    0.94247   0.79702    0.000
 5012.00    0.78519   0.78180    0.000
 5013.00    0.76558   0.76516    0.000
 5014.00    0.76719   0.75464    0.000
 5015.00    0.77008   0.75424    0.000
 5016.00    0.78510   0.76025    0.000
 5017.00    0.79533   0.76453    0.000
 5018.00    0.76832   0.76547    0.000
 5019.00    0.72577   0.76938    0.000
 5020.00    0.72731   0.77785    0.000
 5021.00    0.78063   0.78393    0.000
 5022.00    0.81156   0.78473    0.000
 5023.00    0.77190   0.78660    0.000
 5024.00    0.74967   0.79345    0.000
 5025.00    0.77742   0.80003    0.000
 5026.00    0.80286   0.80023    0.000
 5027.00    0.78398   0.79555    0.000
 5028.00    0.75227   0.79368    0.000
 5029.00    0.76241   0.79896   13.116
 5030.00    0.80777   0.80753   12.380
 5031.00    0.81226   0.81508   12.311
 5032.00    0.77631   0.82173   12.882
 5033.00    0.80681   0.82582   12.395
 5034.00    0.82859   0.82133   12.069
 5035.00    0.77978   0.80682   12.824
 5036.00    0.75977   0.79166   13.162
 5037.00    0.78112   0.78476   12.802
 5038.00    0.79483   0.78094   12.581
 5039.00    0.77760   0.76843   12.860
 5040.00    0.75163   0.74684   13.304
 5041.00    0.74977   0.73135   13.337
 5042.00    0.76835   0.73780   13.015
 5043.00    0.75138   0.76414   13.309
 5044.00    0.72696   0.79394   13.756
 5045.00    0.76887   0.81537   13.006
 5046.00    0.80923   0.82535   12.357
 5047.00    0.80174   0.82248   12.473
 5048.00    0.78491   0.80854   12.740
 5049.00    0.79220   0.79189   12.623
 5050.00    0.78763   0.78113   12.696
 5051.00    0.75024   0.77875   13.329
 5052.00    0.76747   0.78358   13.030
 5053.00    0.80792   0.79353   12.377
 5054.00    0.78886   0.80393   12.676
 5055.00    0.76105   0.80980   13.140
 5056.00    0.78592   0.81164   12.724
 5057.00    0.82615   0.81410   12.104
 5058.00    0.78030   0.81864   12.816
 5059.00    0.74840   0.82275   13.362
 5060.00    0.79948   0.82554   12.508
 5061.00    0.79412   0.82779   12.593
 5062.00    0.77186   0.82688   12.956
 5063.00    0.78628   0.81762   12.718
 5064.00    0.76302   0.80042   13.106
 5065.00    0.76685   0.78528   13.040
 5066.00    0.81560   0.78128   12.261
 5067.00    0.79737   0.78506   12.541
 5068.00    0.73970   0.78875   13.519
 5069.00    0.73479   0.79177   13.609
 5070.00    0.79535   0.79527   12.573
 5071.00    0.80939   0.79551   12.355
 5072.00    0.77586   0.79184   12.889
 5073.00    0.79770   0.79011   12.536
 5074.00    0.82600   0.79236   12.106
 5075.00    0.81491   0.79437   12.271
 5076.00    0.79576   0.79445   12.567
 5077.00    0.79595   0.79263   12.564
 5078.00    0.77100   0.78432   12.970
 5079.00    0.69774   0.76772   14.332
 5080.00    0.68193   0.75286   14.664
 5081.00    0.71269   0.75036   14.031
 5082.00    0.71816   0.75747   13.924
 5083.00    0.74135   0.76594   13.489
 5084.00    0.78683   0.77439   12.709
 5085.00    0.81573   0.78434   12.259
 5086.00    0.81416   0.79286   12.283
 5087.00    0.77822   0.79683   12.850
 5088.00    0.74168   0.79797   13.483
 5089.00    0.76308   0.79919   13.105
 5090.00    0.79836   0.80090   12.526
 5091.00    0.79611   0.80352   12.561
 5092.00    0.78368   0.80833   12.760
 5093.00    0.77774   0.81365   12.858
 5094.00    0.78072   0.81457   12.809
 5095.00    0.79650   0.80833   12.555
 5096.00    0.81902   0.79692   12.210
 5097.00    0.80769   0.78362   12.381
 5098.00    0.73699   0.77072   13.569
 5099.00    0.69890   0.76256   14.308
 5100.00    0.73669   0.76461   13.574
 5101.00    0.78835   0.77558   12.685
 5102.00    0.80638   0.78685   12.401
 5103.00    0.78353   0.79164   12.763
 5104.00    0.75033   0.79017   13.328
 5105.00    0.75512   0.78542   13.243
 5106.00    0.79740   0.77869   12.541
 5107.00    0.81782   0.77133   12.228
 5108.00    0.76119   0.76670   13.137
 5109.00    0.69642   0.76629   14.359
 5110.00    0.71411   0.76890   14.003
 5111.00    0.76310   0.77448   13.104
 5112.00    0.77281   0.78249   12.940
 5113.00    0.75749   0.79002   13.202
 5114.00    0.79780   0.79544   12.535
 5115.00    0.82821   0.79973   12.074
 5116.00    0.79007   0.80425   12.657
 5117.00    0.77735   0.80907   12.864
 5118.00    0.78968   0.81181   12.663
 5119.00    0.77866   0.80946   12.843
 5120.00    0.75504   0.80200   13.244
 5121.00    0.75143   0.79174   13.308
 5122.00    0.76332   0.77966   13.101
 5123.00    0.75611   0.76642   13.226
 5124.00    0.75323   0.75606   13.276
 5125.00    0.74996   0.75292   13.334
 5126.00    0.70819   0.75535   14.120
 5127.00    0.68659   0.75791   14.565
 5128.00    0.72225   0.75809   13.846
 5129.00    0.75994   0.75782   13.159
 5130.00    0.72746   0.76059   13.746
 5131.00    0.69114   0.76723   14.469
 5132.00    0.74976   0.77444   13.338
 5133.00    0.79208   0.77940   12.625
 5134.00    0.78137   0.78372   12.798
 5135.00    0.79064   0.78803   12.648
 5136.00    0.81455   0.78783   12.277
 5137.00    0.79898   0.77985   12.516
 5138.00    0.74246   0.76753   13.469
 5139.00    0.73344   0.75850   13.634
 5140.00    0.74116   0.75761   13.492
 5141.00    0.71606   0.76032   13.965
 5142.00    0.72800   0.75925   13.736
 5143.00    0.72174   0.75681   13.855
 5144.00    0.67767   0.75866   14.756
 5145.00    0.73173   0.76163   13.666
 5146.00    0.78236   0.76061   12.782
 5147.00    0.73854   0.75813   13.540
 5148.00    0.72779   0.75909   13.740
 5149.00    0.74056   0.76241   13.503
 5150.00    0.72917   0.76257   13.714
 5151.00    0.72676   0.75759   13.760
 5152.00    0.72958   0.75126   13.707
 5153.00    0.70999   0.74795   14.085
 5154.00    0.67758   0.74988   14.758
 5155.00    0.70893   0.75814   14.106
 5156.00    0.78352   0.77165   12.763
 5157.00    0.80127   0.78591   12.480
 5158.00    0.79610   0.79582   12.561
 5159.00    0.80503   0.79994   12.422
 5160.00    0.79673   0.80013   12.551
 5161.00    0.74083   0.79723   13.498
 5162.00    0.69506   0.79117   14.387
 5163.00    0.72876   0.78311   13.722
 5164.00    0.77930   0.77072   12.832
 5165.00    0.76550   0.74622   13.063
 5166.00    0.69688   0.70713   14.350
 5167.00    0.67273   0.66634   14.865
 5168.00    0.66369   0.64470   15.067
 5169.00    0.62237   0.65023   16.068
 5170.00    0.63677   0.66605   15.704
 5171.00    0.66577   0.66669   15.020
 5172.00    0.63425   0.65031   15.767
 5173.00    0.60220   0.64349   16.606
 5174.00    0.63723   0.66590   15.693
 5175.00    0.71768   0.70559   13.934
 5176.00    0.75587   0.73843   13.230
 5177.00    0.76860   0.75544   13.011
 5178.00    0.79828   0.76132   12.527
 5179.00    0.81952   0.76030   12.202
 5180.00    0.78477   0.75160   12.743
 5181.00    0.71969   0.73116   13.895
 5182.00    0.70179   0.69652   14.249
 5183.00    0.70319   0.65879   14.221
 5184.00    0.67842   0.64337   14.740
 5185.00    0.64799   0.66454   15.432
 5186.00    0.67592   0.70625   14.795
 5187.00    0.73628   0.74076   13.582
 5188.00    0.74475   0.75732   13.427
 5189.00    0.72109   0.76290   13.868
 5190.00    0.70817   0.76217    0.000
 5191.00    0.71119   0.75224    0.000
 5192.00    0.70713   0.73732    0.000
 5193.00    0.69919   0.72999    0.000
 5194.00    0.70739   0.73407    0.000
 5195.00    0.72927   0.74231    0.000
 5196.00    0.76417   0.75011    0.000
 5197.00    0.81321   0.75833    0.000
 5198.00    0.85650   0.76718    0.000
 5199.00    0.83620   0.77505    0.000
 5200.00    0.77307   0.77961    0.000
 5201.00    0.79332   0.77890    0.000
 5202.00    0.83962   0.77283    0.000
 5203.00    0.81388   0.76151    0.000
 5204.00    0.76008   0.74440    0.000
 5205.00    0.73683   0.72519    0.000
 5206.00    0.74321   0.71151    0.000
 5207.00    0.72858   0.70554    0.000
 5208.00    0.68127   0.70380    0.000
 5209.00    0.65181   0.70695    0.000
 5210.00    0.69730   0.71933    0.000
 5211.00    0.77414   0.74047   12.918
 5212.00    0.80211   0.76384   12.467
 5213.00    0.76905   0.78111   13.003
 5214.00    0.77676   0.78601   12.874
 5215.00    0.82539   0.77897   12.116
 5216.00    0.80968   0.76904   12.351
 5217.00    0.73278   0.76678   13.647
 5218.00    0.67088   0.77466   14.906
 5219.00    0.68292   0.78691   14.643
 5220.00    0.74764   0.79723   13.376
 5221.00    0.81848   0.80266   12.218
 5222.00    0.84588   0.80133   11.822
 5223.00    0.79804   0.79133   12.531
 5224.00    0.77243   0.77241   12.946
 5225.00    0.81087   0.74708   12.332
 5226.00    0.75411   0.72265   13.261
 5227.00    0.67448   0.71224   14.826
 5228.00    0.70499   0.72441   14.185
 5229.00    0.75675   0.75103   13.214
 5230.00    0.77698   0.77480   12.870
 5231.00    0.77661   0.78467   12.876
 5232.00    0.76637   0.77977   13.049
 5233.00    0.76394   0.76755   13.090
 5234.00    0.78175   0.75979   12.792
 5235.00    0.80678   0.76384   12.395
 5236.00    0.79680   0.77702   12.550
 5237.00    0.76672   0.79099   13.043
 5238.00    0.78086   0.79957   12.806
 5239.00    0.80722   0.80225   12.388
 5240.00    0.79708   0.80208   12.546
 5241.00    0.76298   0.80133   13.106
 5242.00    0.76304   0.80059   13.105
 5243.00    0.81277   0.80101   12.304
 5244.00    0.86546   0.80289   11.555
 5245.00    0.87406   0.80145   11.441
 5246.00    0.83219   0.79138   12.017
 5247.00    0.78314   0.77688   12.769
 5248.00    0.78168   0.76750   12.793
 5249.00    0.77852   0.76449   12.845
 5250.00    0.72158   0.76272   13.859
 5251.00    0.70574   0.76231   14.169
 5252.00    0.74240   0.76635   13.470
 5253.00    0.78324   0.77202   12.767
 5254.00    0.83904   0.77415   11.918
 5255.00    0.84375   0.77484   11.852
 5256.00    0.78209   0.78126   12.786
 5257.00    0.78229   0.79430   12.783
 5258.00    0.80125   0.80620   12.480
 5259.00    0.79358   0.80913   12.601
 5260.00    0.84514   0.80071   11.832
 5261.00    0.83165   0.78280   12.024
 5262.00    0.73154   0.75945   13.670
 5263.00    0.75153   0.73578   13.306
 5264.00    0.78859   0.71629   12.681
 5265.00    0.74233   0.70464   13.471
 5266.00    0.71995   0.70410   13.890
 5267.00    0.72011   0.71121   13.887
 5268.00    0.71698   0.71202   13.947
 5269.00    0.73077   0.69919   13.684
 5270.00    0.74920   0.68847   13.348
 5271.00    0.74728   0.69893   13.382
 5272.00    0.74158   0.72525   13.485
 5273.00    0.80352   0.74733   12.445
 5274.00    0.85899   0.75572   11.642
 5275.00    0.79140   0.75659   12.636
 5276.00    0.71627   0.76156   13.961
 5277.00    0.72812   0.77599   13.734
 5278.00    0.79803   0.79302   12.531
 5279.00    0.85075   0.80111   11.754
 5280.00    0.83062   0.79647   12.039
 5281.00    0.76658   0.78401   13.045
 5282.00    0.76146   0.77039   13.133
 5283.00    0.78906   0.76134   12.673
 5284.00    0.80016   0.76294   12.498
 5285.00    0.84621   0.77733   11.817
 5286.00    0.85122   0.79703   11.748
 5287.00    0.80149   0.81065   12.477
 5288.00    0.85596   0.81459   11.683
 5289.00    0.93228   0.81416   10.726
 5290.00    0.90451   0.81440   11.056
 5291.00    0.83299   0.81480   12.005
 5292.00    0.80449   0.81314   12.430
 5293.00    0.81849   0.80985   12.218
 5294.00    0.80248   0.80554   12.461
 5295.00    0.75381   0.79718   13.266
 5296.00    0.72373   0.78119   13.817
 5297.00    0.74548   0.76139   13.414
 5298.00    0.77529   0.74914   12.898
 5299.00    0.76569   0.75139   13.060
 5300.00    0.73607   0.76202   13.586
 5301.00    0.76955   0.77095   12.995
 5302.00    0.84471   0.77722   11.838
 5303.00    0.86358   0.78635   11.580
 5304.00    0.82990   0.79873   12.050
 5305.00    0.79587   0.80784   12.565
 5306.00    0.79824   0.80897   12.528
 5307.00    0.82839   0.80520   12.072
 5308.00    0.84342   0.80344   11.856
 5309.00    0.83103   0.80632   12.033
 5310.00    0.84045   0.81043   11.898
 5311.00    0.84245   0.81168   11.870
 5312.00    0.79850   0.80948   12.523
 5313.00    0.76375   0.80565   13.093
 5314.00    0.76678   0.80113   13.042
 5315.00    0.78492   0.79484   12.740
 5316.00    0.78538   0.78726   12.733
 5317.00    0.77606   0.78291   12.886
 5318.00    0.77587   0.78497   12.889
 5319.00    0.78001   0.79018   12.820
 5320.00    0.77528   0.79324   12.899
 5321.00    0.76807   0.79238   13.020
 5322.00    0.77710   0.78755   12.868
 5323.00    0.78372   0.77874   12.760
 5324.00    0.77661   0.76910   12.877
 5325.00    0.76239   0.76218   13.117
 5326.00    0.72073   0.75294   13.875
 5327.00    0.68450   0.73283   14.609
 5328.00    0.70823   0.70901   14.120
 5329.00    0.73694   0.70289   13.570
 5330.00    0.73908   0.72242   13.530
 5331.00    0.74494   0.75139   13.424
 5332.00    0.76577   0.77134   13.059
 5333.00    0.79293   0.78051   12.611
 5334.00    0.81451   0.78636   12.277
 5335.00    0.82469   0.79113   12.126
 5336.00    0.80623   0.79207   12.403
 5337.00    0.75828   0.78881   13.188
 5338.00    0.72171   0.78252   13.856
 5339.00    0.70799   0.77230   14.124
 5340.00    0.71436   0.76019   13.999
 5341.00    0.75161   0.75469   13.305
 5342.00    0.77771   0.76107   12.858
 5343.00    0.77254   0.77336   12.944
 5344.00    0.78904   0.78144   12.674
 5345.00    0.81694   0.78192   12.241
 5346.00    0.80287   0.77881   12.455
 5347.00    0.74351   0.77579   13.450
 5348.00    0.74529   0.77257   13.418
 5349.00    0.80913   0.77027   12.359
 5350.00    0.80349   0.77347   12.446
 5351.00    0.78949   0.78304   12.666
 5352.00    0.81665   0.79338   12.245
 5353.00    0.82012   0.80044   12.193
 5354.00    0.81570   0.80589   12.259
 5355.00    0.83252   0.81172   12.012
 5356.00    0.85084   0.81663   11.753
 5357.00    0.82961   0.81918   12.054
 5358.00    0.76472   0.81977   13.077
 5359.00    0.72587   0.81844   -2.000
 5360.00    0.80680   0.81375   -2.000
 5361.00    0.85291   0.80501   -2.000
 5362.00    0.66638   0.79458   -2.000
 5363.00    0.42491   0.78595   -2.000
 5364.00    0.39060   0.78029   -2.000
 5365.00    0.61942   0.77701   -2.000
 5366.00    0.89445   0.77583   -2.000
 5367.00    1.07982   0.77554   -2.000
 5368.00    1.13700   0.77231   -2.000
 5369.00    1.02791   0.76190   -2.000
 5370.00    0.87219   0.74556   -2.000
 5371.00    0.79008   0.73344   -2.000
 5372.00    0.75104   0.73701   -2.000
 5373.00    0.76845   0.75632   -2.000
 5374.00    0.82202   0.77961   12.165
 5375.00    0.81332   0.79557   12.295
 5376.00    0.77559   0.80175   12.893
 5377.00    0.76204   0.80220   13.123
 5378.00    0.75225   0.80115   13.293
 5379.00    0.75588   0.79922   13.230
 5380.00    0.78720   0.79535   12.703
 5381.00    0.82512   0.78998   12.119
 5382.00    0.82206   0.78482   12.165
 5383.00    0.77292   0.78183   12.938
 5384.00    0.73011   0.78298   13.697
 5385.00    0.74197   0.78796   13.478
 5386.00    0.79653   0.79311   12.554
 5387.00    0.83424   0.79471   11.987
 5388.00    0.81947   0.79167   12.203
 5389.00    0.78432   0.78518   12.750
 5390.00    0.78137   0.77786   12.798
 5391.00    0.79616   0.77215   12.560
 5392.00    0.77219   0.76846   12.950
 5393.00    0.72001   0.76590   13.889
 5394.00    0.75289   0.76326   13.282
 5395.00    0.79592   0.75801   12.564
 5396.00    0.75082   0.74867   13.319
 5397.00    0.72411   0.74084   13.810
 5398.00    0.70157   0.74315   14.254
 5399.00    0.66138   0.75489   15.120
 5400.00    0.71445   0.76665   13.997
 5401.00    0.79873   0.77253   12.520
 5402.00    0.80365   0.77184   12.443
 5403.00    0.75326   0.76292   13.276
 5404.00    0.72055   0.74597   13.878
 5405.00    0.71903   0.72908   13.908
 5406.00    0.70420   0.72328   14.200
 5407.00    0.71224   0.73031   14.040
 5408.00    0.75455   0.74005   13.253
 5409.00    0.77350   0.74309   12.928
 5410.00    0.76240   0.74260   13.116
 5411.00    0.74937   0.74799   13.345
 5412.00    0.74775   0.76048   13.373
 5413.00    0.73418   0.77214   13.621
 5414.00    0.73209   0.77738   13.660
 5415.00    0.77163   0.77917   12.960
 5416.00    0.77909   0.78300   12.835
 5417.00    0.76289   0.78876   13.108
 5418.00    0.78508   0.79186   12.738
 5419.00    0.79897   0.79009   12.516
 5420.00    0.80379   0.78625   12.441
 5421.00    0.81838   0.78401   12.219
 5422.00    0.78045   0.78268   12.813
 5423.00    0.70786   0.77862   14.127
 5424.00    0.67800   0.77296   14.749
 5425.00    0.70926   0.77236   14.099
 5426.00    0.74146   0.77899   13.487
 5427.00    0.74620   0.78432   13.401
 5428.00    0.77676   0.77779   12.874
 5429.00    0.78231   0.76113   12.783
 5430.00    0.73760   0.74833   13.557
 5431.00    0.73109   0.74754   13.678
 5432.00    0.73678   0.75144   13.573
 5433.00    0.71906   0.75017   13.907
 5434.00    0.71600   0.74454   13.967
 5435.00    0.70724   0.74229   14.140
 5436.00    0.70818   0.74848   14.121
 5437.00    0.76612   0.76192   13.053
 5438.00    0.78756   0.77763   12.697
 5439.00    0.77237   0.79073   12.947
 5440.00    0.81894   0.79898   12.211
 5441.00    0.83915   0.80285   11.917
 5442.00    0.80491   0.80348   12.424
 5443.00    0.79292   0.80005   12.612
 5444.00    0.78159   0.78948   12.794
 5445.00    0.76730   0.77031   13.033
 5446.00    0.76522   0.74836   13.068
 5447.00    0.72432   0.73580   13.806
 5448.00    0.67167   0.73977   14.888
 5449.00    0.68122   0.75426   14.679
 5450.00    0.74094   0.76741   13.496
 5451.00    0.78843   0.77309   12.683
 5452.00    0.79154   0.77145   12.634
 5453.00    0.79202   0.76315   12.626
 5454.00    0.81756   0.74874   12.232
 5455.00    0.82673   0.73420   12.096
 5456.00    0.75797   0.73025   13.193
 5457.00    0.71646   0.74107   13.957
 5458.00    0.76472   0.75810   13.077
 5459.00    0.78360   0.76938   12.762
 5460.00    0.77318   0.77052   12.934
 5461.00    0.77869   0.76437   12.842
 5462.00    0.77923   0.75566   12.833
 5463.00    0.76054   0.74951   13.149
 5464.00    0.72403   0.74972   13.812
 5465.00    0.69808   0.75497   14.325
 5466.00    0.75524   0.76069   13.241
 5467.00    0.84381   0.76498   11.851
 5468.00    0.82987   0.76802   12.050
 5469.00    0.76667   0.76869   -2.000
 5470.00    0.73510   0.76640   -2.000
 5471.00    0.75520   0.76298   -2.000
 5472.00    0.82295   0.75943   -2.000
 5473.00    0.76904   0.75496   -2.000
 5474.00    0.63947   0.74887   -2.000
 5475.00    0.95396   0.74012   -2.000
 5476.00    0.92293   0.72972   -2.000
 5477.00    0.01466   0.72474   -2.000
 5478.00    0.05428   0.73123   -2.000
 5479.00    0.79461   0.74345   -2.000
 5480.00    1.06987   0.74983   -2.000
 5481.00    1.60326   0.74797   -2.000
 5482.00    1.72627   0.74588   -2.000
 5483.00    0.89211   0.75035   -2.000
 5484.00    0.60134   0.75998   -2.000
 5485.00    0.90709   0.76805   -2.000
 5486.00    0.97870   0.76900   -2.000
 5487.00    0.77006   0.76377   -2.000
 5488.00    0.71369   0.75885   -2.000
 5489.00    0.86740   0.75871   -2.000
 5490.00    0.79762   0.76195   -2.000
 5491.00    0.68934   0.76541   -2.000
 5492.00    0.76444   0.76735   -2.000
 5493.00    0.83821   0.76744   11.930
 5494.00    0.82120   0.76676   12.177
 5495.00    0.77061   0.76573   12.977
 5496.00    0.76164   0.76265   13.130
 5497.00    0.76025   0.75811   13.154
 5498.00    0.74408   0.75670   13.439
 5499.00    0.74563   0.75938   13.411
 5500.00    0.77091   0.76035   12.972
 5501.00    0.78797   0.75615   12.691
 5502.00    0.77601   0.75112   12.886
 5503.00    0.77586   0.75010   12.889
 5504.00    0.79657   0.75119   12.554
 5505.00    0.80654   0.74927   12.399
 5506.00    0.79603   0.74444   12.562
 5507.00    0.80094   0.74277   12.485
 5508.00    0.82282   0.74745   12.153
 5509.00    0.78656   0.75365   12.714
 5510.00    0.74665   0.75475   13.393
 5511.00    0.77580   0.74915   12.890
 5512.00    0.80745   0.74033   12.385
 5513.00    0.79992   0.73388   12.501
 5514.00    0.77740   0.73364   12.863
 5515.00    0.77990   0.73937   12.822
 5516.00    0.78986   0.74834   12.661
 5517.00    0.78445   0.75813   12.748
 5518.00    0.77799   0.76711   12.854
 5519.00    0.77207   0.77340   12.952
 5520.00    0.76912   0.77573   13.002
 5521.00    0.76735   0.77508   13.032
 5522.00    0.72430   0.77368   13.806
 5523.00    0.69325   0.77246   14.425
 5524.00    0.76696   0.77017   13.038
 5525.00    0.82230   0.76458   12.161
 5526.00    0.79329   0.75458   12.606
 5527.00    0.75765   0.74220   13.199
 5528.00    0.74215   0.73367   13.474
 5529.00    0.74627   0.73530   13.400
 5530.00    0.76019   0.74599   13.155
 5531.00    0.75334   0.75729   13.274
 5532.00    0.73040   0.76240   13.691
 5533.00    0.72135   0.76114   13.863
 5534.00    0.73023   0.75696   13.694
 5535.00    0.74352   0.75382   13.450
 5536.00    0.75102   0.75435   13.315
 5537.00    0.75632   0.75787   13.222
 5538.00    0.75509   0.76207   13.243
 5539.00    0.75085   0.76638   13.318
 5540.00    0.75792   0.77078   13.194
 5541.00    0.73624   0.77320   13.583
 5542.00    0.69304   0.77137   14.429
 5543.00    0.71658   0.76639   13.955
 5544.00    0.74892   0.76197   13.352
 5545.00    0.73717   0.76043   13.565
 5546.00    0.74696   0.76171   13.388
 5547.00    0.76909   0.76533   13.002
 5548.00    0.78007   0.77048   12.819
 5549.00    0.79539   0.77509   12.572
 5550.00    0.79515   0.77729   12.576
 5551.00    0.78293   0.77662   12.772
 5552.00    0.79409   0.77319   12.593
 5553.00    0.81142   0.76772   12.324
 5554.00    0.80186   0.76248   12.471
 5555.00    0.77159   0.76011   12.960
 5556.00    0.77863   0.76064   12.843
 5557.00    0.81415   0.76193   12.283
 5558.00    0.82264   0.76279   12.156
 5559.00    0.82005   0.76344   12.194
 5560.00    0.81086   0.76348   12.333
 5561.00    0.77935   0.76169   12.831
 5562.00    0.74561   0.75783   13.412
 5563.00    0.74848   0.75341   13.360
 5564.00    0.77657   0.75010   12.877
 5565.00    0.74727   0.74807   13.382
 5566.00    0.68256   0.74685   14.651
 5567.00    0.66770   0.74625   14.977
 5568.00    0.71336   0.74566   14.018
 5569.00    0.73061   0.74486   13.687
 5570.00    0.68982   0.74492   14.497
 5571.00    0.69636   0.74539   14.360
 5572.00    0.75508   0.74447   13.244
 5573.00    0.80055   0.74357   12.491
 5574.00    0.79562   0.74576   12.569
 5575.00    0.74188   0.74992   13.479
 5576.00    0.69119   0.75319   14.468
 5577.00    0.70734   0.75549   14.137
 5578.00    0.76741   0.75762   13.031
 5579.00    0.79940   0.75921   12.509
 5580.00    0.77248   0.75936   12.945
 5581.00    0.76119   0.75757   13.137
 5582.00    0.78012   0.75493   12.818
 5583.00    0.78152   0.75309   12.796
 5584.00    0.80988   0.75082   12.347
 5585.00    0.79285   0.74436   12.613
 5586.00    0.65211   0.73226   15.335
 5587.00    0.59339   0.71806   16.852
 5588.00    0.65470   0.70810   15.274
 5589.00    0.70060   0.70683   14.273
 5590.00    0.73981   0.71379   13.517
 5591.00    0.79200   0.72393   12.626
 5592.00    0.81904   0.73118   12.209
 5593.00    0.77674   0.73338   12.874
 5594.00    0.73448   0.73401   13.615
 5595.00    0.75887   0.73771   13.178
 5596.00    0.78137   0.74313   12.798
 5597.00    0.76101   0.74364   13.140
 5598.00    0.72379   0.73715   13.816
 5599.00    0.71003   0.72911   14.084
 5600.00    0.70240   0.72392   14.237
 5601.00    0.69679   0.72058   14.352
 5602.00    0.73510   0.71865   13.604
 5603.00    0.78435   0.72163   12.749
 5604.00    0.78304   0.73191   12.771
 5605.00    0.74282   0.74606   13.462
 5606.00    0.78885   0.75802   12.677
 5607.00    0.87764   0.76466   11.394
 5608.00    0.83189   0.76681   12.021
 5609.00    0.77395   0.76676   12.921
 5610.00    0.79344   0.76651   12.603
 5611.00    0.80569   0.76681   12.412
 5612.00    0.78587   0.76596   12.725
 5613.00    0.74160   0.75967   13.484
 5614.00    0.69480   0.74521   14.393
 5615.00    0.69882   0.72789   14.310
 5616.00    0.73643   0.71897   13.579
 5617.00    0.74296   0.72306   13.460
 5618.00    0.71769   0.73298   13.934
 5619.00    0.72281   0.74039   13.835
 5620.00    0.77395   0.74438   12.921
 5621.00    0.77263   0.74731   12.943
 5622.00    0.72697   0.74809   13.756
 5623.00    0.70413   0.74366   14.202
 5624.00    0.69491   0.73536   14.390
 5625.00    0.69747   0.72990   14.338
 5626.00    0.72079   0.73183   13.874
 5627.00    0.75556   0.73872   13.235
 5628.00    0.78661   0.74579   12.713
 5629.00    0.80128   0.75116   12.480
 5630.00    0.79734   0.75487   12.542
 5631.00    0.79192   0.75679   12.628
 5632.00    0.79502   0.75681   12.578
 5633.00    0.79421   0.75525   12.591
 5634.00    0.77495   0.75251   12.904
 5635.00    0.73469   0.74870   13.611
 5636.00    0.69738   0.74406   14.339
 5637.00    0.71443   0.73985   13.997
 5638.00    0.76758   0.73762   13.028
 5639.00    0.78691   0.73721   12.708
 5640.00    0.78257   0.73677   12.778
 5641.00    0.76142   0.73582   13.133
 5642.00    0.72345   0.73594   13.823
 5643.00    0.72731   0.73774   13.749
 5644.00    0.74421   0.73995   13.437
 5645.00    0.71769   0.74181   13.934
 5646.00    0.72174   0.74364   13.855
 5647.00    0.76641   0.74552   13.048
 5648.00    0.77916   0.74681   12.834
 5649.00    0.73468   0.74728   13.611
 5650.00    0.72771   0.74807   13.742
 5651.00    0.80121   0.75039   12.481
 5652.00    0.81960   0.75324   12.201
 5653.00    0.78442   0.75382   12.748
 5654.00    0.78034   0.75093   12.815
 5655.00    0.79779   0.74606   12.535
 5656.00    0.76190   0.73977   13.125
 5657.00    0.70111   0.73018   14.263
 5658.00    0.74474   0.71914   13.428
 5659.00    0.78156   0.71421   12.795
 5660.00    0.71316   0.71835   14.022
 5661.00    0.64729   0.72455   15.449
 5662.00    0.66083   0.72671   15.132
 5663.00    0.71029   0.72775   14.079
 5664.00    0.70892   0.73220   14.106
 5665.00    0.69963   0.73833   14.293
 5666.00    0.70987   0.74135   14.087
 5667.00    0.70527   0.73993   14.179
 5668.00    0.70856   0.73701   14.113
 5669.00    0.70463   0.73583   14.192
 5670.00    0.66909   0.73735   14.946
 5671.00    0.68637   0.74109   14.569
 5672.00    0.74060   0.74626   13.503
 5673.00    0.73897   0.75121   13.532
 5674.00    0.70517   0.75380   14.181
 5675.00    0.70075   0.75404   14.270
 5676.00    0.73964   0.75406   13.520
 5677.00    0.76868   0.75461   13.009
 5678.00    0.76399   0.75423   13.089
 5679.00    0.73552   0.75226   13.596
 5680.00    0.69962   0.74935   14.294
 5681.00    0.72106   0.74527   13.868
 5682.00    0.80636   0.73996   12.401
 5683.00    0.84323   0.73586   11.859
 5684.00    0.80215   0.73531   12.467
 5685.00    0.73778   0.73661   13.554
 5686.00    0.70608   0.73590   14.163
 5687.00    0.71697   0.73243   13.948
 5688.00    0.76492   0.72975   13.073
 5689.00    0.83366   0.73145   11.995
 5690.00    0.84473   0.73755   11.838
 5691.00    0.80408   0.74517   12.437
 5692.00    0.80260   0.75134   12.459
 5693.00    0.79265   0.75441   12.616
 5694.00    0.74230   0.75450   13.472
 5695.00    0.72346   0.75308   13.822
 5696.00    0.79370   0.75110   12.599
 5697.00    0.85423   0.74796   11.706
 5698.00    0.78631   0.74335   12.718
 5699.00    0.72724   0.73845   13.751
 5700.00    0.74905   0.73400   13.350
 5701.00    0.79365   0.73015   12.600
 5702.00    0.84622   0.72840   11.817
 5703.00    0.84306   0.73006   11.862
 5704.00    0.76621   0.73311   13.051
 5705.00    0.75474   0.73350   13.250
 5706.00    0.77586   0.72945   12.889
 5707.00    0.73899   0.72239   13.532
 5708.00    0.72326   0.71472   13.826
 5709.00    0.71454   0.70885   13.995
 5710.00    0.68407   0.70680   14.618
 5711.00    0.71452   0.70910   13.995
 5712.00    0.78606   0.71555   12.722
 5713.00    0.81456   0.72530   12.277
 5714.00    0.78467   0.73539   12.744
 5715.00    0.79267   0.74244   12.616
 5716.00    0.84986   0.74578   11.767
 5717.00    0.83569   0.74692   11.966
 5718.00    0.78182   0.74770   12.791
 5719.00    0.75088   0.74946   13.318
 5720.00    0.74144   0.75226   13.487
 5721.00    0.78577   0.75533   12.726
 5722.00    0.84135   0.75792   11.886
 5723.00    0.80985   0.75917   12.348
 5724.00    0.72931   0.75814   13.712
 5725.00    0.70224   0.75428   14.240
 5726.00    0.75965   0.74827   13.164
 5727.00    0.79025   0.74296   12.654
 5728.00    0.76009   0.74164   13.156
 5729.00    0.73424   0.74380   13.620
 5730.00    0.73034   0.74536   13.692
 5731.00    0.75547   0.74459   13.237
 5732.00    0.80737   0.74427   12.386
 5733.00    0.84703   0.74688   11.806
 5734.00    0.83996   0.75095   11.905
 5735.00    0.79880   0.75344   12.519
 5736.00    0.78349   0.75319   12.763
 5737.00    0.80637   0.75142   12.401
 5738.00    0.82443   0.74988   12.130
 5739.00    0.79782   0.74924   12.534
 5740.00    0.76559   0.74913    0.000
 5741.00    0.76961   0.74894    0.000
 5742.00    0.78690   0.74841    0.000
 5743.00    0.80395   0.74829    0.000
 5744.00    0.80282   0.74974    0.000
 5745.00    0.77386   0.75224    0.000
 5746.00    0.79959   0.75303    0.000
 5747.00    0.87124   0.75038    0.000
 5748.00    0.85565   0.74669    0.000
 5749.00    0.76086   0.74604    0.000
 5750.00    0.73388   0.74836    0.000
 5751.00    0.83830   0.74881    0.000
 5752.00    0.82185   0.74393    0.000
 5753.00    0.71169   0.73622    0.000
 5754.00    0.76975   0.73193    0.000
 5755.00    0.83875   0.73490    0.000
 5756.00    0.79745   0.74301    0.000
 5757.00    0.74513   0.75086    0.000
 5758.00    0.76942   0.75447    0.000
 5759.00    0.80199   0.75270    0.000
 5760.00    0.76074   0.74650    0.000
 5761.00    0.74106   0.73817    0.000
 5762.00    0.73895   0.73122    0.000
 5763.00    0.71035   0.72943    0.000
 5764.00    0.73920   0.73409    0.000
 5765.00    0.81729   0.74198    0.000
 5766.00    0.85034   0.74839    0.000
 5767.00    0.80266   0.75143    0.000
 5768.00    0.78689   0.75192    0.000
 5769.00    0.83864   0.75113    0.000
 5770.00    0.81050   0.74970    0.000
 5771.00    0.73481   0.74783    0.000
 5772.00    0.71631   0.74572    0.000
 5773.00    0.75559   0.74379    0.000
 5774.00    0.79817   0.74242    0.000
 5775.00    0.81839   0.74202    0.000
 5776.00    0.82820   0.74283    0.000
 5777.00    0.79872   0.74380    0.000
 5778.00    0.75612   0.74268    0.000
 5779.00    0.75282   0.73757    0.000
 5780.00    0.71204   0.72862    0.000
 5781.00    0.73232   0.71917   -2.000
 5782.00    0.87669   0.71345   -2.000
 5783.00    0.69280   0.71233   -2.000
 5784.00    0.42382   0.71322   -2.000
 5785.00    0.63128   0.71488   -2.000
 5786.00    0.81656   0.71891   -2.000
 5787.00    0.80681   0.72571   -2.000
 5788.00    0.96209   0.73242   -2.000
 5789.00    1.30984   0.73580   -2.000
 5790.00    1.38130   0.73532   -2.000
 5791.00    1.03348   0.73377   -2.000
 5792.00    0.96876   0.73474   -2.000
 5793.00    1.00237   0.73904   -2.000
 5794.00    0.73489   0.74436   -2.000
 5795.00    0.62604   0.74761   -2.000
 5796.00    0.65603   0.74695   -2.000
 5797.00    0.62361   0.74341   -2.000
 5798.00    0.69331   0.74116   -2.000
 5799.00    0.75475   0.74374   -2.000
 5800.00    0.73263   0.75006   -2.000
 5801.00    0.79713   0.75601    0.000
 5802.00    0.80405   0.75844    0.000
 5803.00    0.71857   0.75651    0.000
 5804.00    0.77530   0.75163    0.000
 5805.00    0.86651   0.74692    0.000
 5806.00    0.81278   0.74487    0.000
 5807.00    0.67633   0.74550    0.000
 5808.00    0.70879   0.74721    0.000
 5809.00    0.85605   0.74877    0.000
 5810.00    0.84020   0.74990    0.000
 5811.00    0.75903   0.75042    0.000
 5812.00    0.72686   0.74990    0.000
 5813.00    0.72988   0.74796    0.000
 5814.00    0.78465   0.74439    0.000
 5815.00    0.81518   0.73990    0.000
 5816.00    0.76841   0.73685    0.000
 5817.00    0.77843   0.73766    0.000
 5818.00    0.77501   0.74207    0.000
 5819.00    0.67657   0.74712    0.000
 5820.00    0.70087   0.75025    0.000
 5821.00    0.80853   0.75105    0.000
 5822.00    0.83310   0.75029    0.000
 5823.00    0.82143   0.74909    0.000
 5824.00    0.81471   0.74863    0.000
 5825.00    0.79866   0.74922    0.000
 5826.00    0.76036   0.75011    0.000
 5827.00    0.72874   0.75063    0.000
 5828.00    0.73306   0.75092    0.000
 5829.00    0.76455   0.75132    0.000
 5830.00    0.79867   0.75172    0.000
 5831.00    0.80395   0.75178    0.000
 5832.00    0.77081   0.75131    0.000
 5833.00    0.75569   0.75025    0.000
 5834.00    0.76975   0.74885    0.000
 5835.00    0.77130   0.74799    0.000
 5836.00    0.79739   0.74797    0.000
 5837.00    0.82016   0.74781    0.000
 5838.00    0.75398   0.74687    0.000
 5839.00    0.65030   0.74643    0.000
 5840.00    0.63076   0.74790    0.000
 5841.00    0.71074   0.75074    0.000
 5842.00    0.70952   0.75304    0.000
 5843.00    0.67853   0.75347    0.000
 5844.00    0.75233   0.75185    0.000
 5845.00    0.74590   0.74860    0.000
 5846.00    0.65551   0.74440    0.000
 5847.00    0.64826   0.74038    0.000
 5848.00    0.73028   0.73787    0.000
 5849.00    0.76568   0.73699    0.000
 5850.00    0.68566   0.73605    0.000
 5851.00    0.62072   0.73295    0.000
 5852.00    0.65365   0.72730    0.000
 5853.00    0.74108   0.72140    0.000
 5854.00    0.78243   0.71821    0.000
 5855.00    0.76609   0.71717    0.000
 5856.00    0.73150   0.71449    0.000
 5857.00    0.69537   0.70917    0.000
 5858.00    0.65954   0.70560    0.000
 5859.00    0.66119   0.70783    0.000
 5860.00    0.72800   0.71424    0.000
 5861.00    0.73290   0.71998    0.000
 5862.00    0.66338   0.72252    0.000
 5863.00    0.66156   0.72320    0.000
 5864.00    0.69208   0.72392    0.000
 5865.00    0.70826   0.72408    0.000
 5866.00    0.72600   0.72267    0.000
 5867.00    0.70213   0.72149    0.000
 5868.00    0.65559   0.72328    0.000
 5869.00    0.66929   0.72771    0.000
 5870.00    0.75180   0.73187    0.000
 5871.00    0.80782   0.73347    0.000
 5872.00    0.76619   0.73230    0.000
 5873.00    0.72403   0.72954    0.000
 5874.00    0.76551   0.72627    0.000
 5875.00    0.87452   0.72295    0.000
 5876.00    0.96417   0.72008    0.000
 5877.00    0.96359   0.71817    0.000
 5878.00    0.88728   0.71685    0.000
 5879.00    0.82029   0.71517    0.000
 5880.00    0.75040   0.71334    0.000
 5881.00    0.67873   0.71253    0.000
 5882.00    0.70012   0.71258    0.000
 5883.00    0.74924   0.71198    0.000
 5884.00    0.74851   0.71029    0.000
 5885.00    0.75206   0.70798    0.000
 5886.00    0.77092   0.70298    0.000
 5887.00    0.76639   0.68910    0.000
 5888.00    0.72737   0.66076    0.000
 5889.00    0.73084   0.62301    0.000
 5890.00    0.74464   0.59471    0.000
 5891.00    0.66101   0.59291    0.000
 5892.00    0.61978   0.61329    0.000
 5893.00    0.65825   0.63396    0.000
 5894.00    0.64862   0.63712    0.000
 5895.00    0.64435   0.62336    0.000
 5896.00    0.67089   0.60998    0.000
 5897.00    0.67810   0.61416    0.000
 5898.00    0.69846   0.63542    0.000
 5899.00    0.72071   0.65998    0.000
 5900.00    0.71148   0.67848    0.000
 5901.00    0.72528   0.69065   13.788
 5902.00    0.75219   0.69854   13.295
 5903.00    0.74874   0.70320   13.356
 5904.00    0.74711   0.70540   13.385
 5905.00    0.74028   0.70608   13.508
 5906.00    0.72213   0.70651   13.848
 5907.00    0.74804   0.70774   13.368
 5908.00    0.78423   0.70956   12.751
 5909.00    0.76080   0.71103   13.144
 5910.00    0.69670   0.71200   14.353
 5911.00    0.70658   0.71249   14.153
 5912.00    0.78376   0.71109   12.759
 5913.00    0.75651   0.70651   13.219
 5914.00    0.67241   0.70040   14.872
 5915.00    0.66289   0.69657   15.085
 5916.00    0.72683   0.69714   13.758
 5917.00    0.73765   0.70095   13.557
 5918.00    0.68081   0.70545   14.688
 5919.00    0.68621   0.70881   14.573
 5920.00    0.75138   0.71037   13.309
 5921.00    0.79495   0.71013   12.579
 5922.00    0.77314   0.70909   12.934
 5923.00    0.73322   0.70894   13.639
 5924.00    0.71103   0.71039   14.064
 5925.00    0.71975   0.71254   13.894
 5926.00    0.80163   0.71390   12.475
 5927.00    0.85242   0.71340   11.731
 5928.00    0.77138   0.71079   12.964
 5929.00    0.72725   0.70721   13.750
 5930.00    0.75366   0.70519   13.269
 5931.00    0.75742   0.70663   13.203
 5932.00    0.76299   0.71003   13.106
 5933.00    0.76171   0.71162   13.128
 5934.00    0.71719   0.71018   13.943
 5935.00    0.65460   0.70859   15.277
 5936.00    0.63059   0.70972   15.858
 5937.00    0.66254   0.71302   15.093
 5938.00    0.69812   0.71583   14.324
 5939.00    0.70130   0.71599   14.259
 5940.00    0.69037   0.71306   14.485
 5941.00    0.70569   0.70893   14.170
 5942.00    0.71507   0.70675   13.985
 5943.00    0.70283   0.70795   14.228
 5944.00    0.71207   0.71133   14.044
 5945.00    0.72451   0.71475   13.802
 5946.00    0.71824   0.71618   13.923
 5947.00    0.71315   0.71410   14.022
 5948.00    0.72119   0.70924   13.866
 5949.00    0.72142   0.70503   13.862
 5950.00    0.69888   0.70412   14.309
 5951.00    0.70836   0.70511   14.117
 5952.00    0.74025   0.70509   13.509
 5953.00    0.72176   0.70425   13.855
 5954.00    0.66372   0.70447   15.067
 5955.00    0.65152   0.70501   15.349
 5956.00    0.72704   0.70382   13.754
 5957.00    0.78530   0.70185   12.734
 5958.00    0.76504   0.70219   13.071
 5959.00    0.70288   0.70591   14.227
 5960.00    0.65877   0.71121   15.180
 5961.00    0.65673   0.71570   15.227
 5962.00    0.69712   0.71816   14.345
 5963.00    0.77113   0.71850   12.968
 5964.00    0.79075   0.71704   12.646
 5965.00    0.73375   0.71461   13.629
 5966.00    0.72717   0.71288   13.752
 5967.00    0.75810   0.71326   13.191
 5968.00    0.73014   0.71542   13.696
 5969.00    0.64160   0.71793   15.586
 5970.00    0.63462   0.71989   15.757
 5971.00    0.73685   0.72097   13.571
 5972.00    0.78245   0.72095   12.780
 5973.00    0.75344   0.71960   13.272
 5974.00    0.71672   0.71655   13.952
 5975.00    0.69593   0.71174   14.369
 5976.00    0.66498   0.70621   15.038
 5977.00    0.65019   0.70198   15.380
 5978.00    0.69501   0.70083   14.388
 5979.00    0.70700   0.70311   14.144
 5980.00    0.69680   0.70730   14.351
 5981.00    0.75023   0.71039   13.329
 5982.00    0.76301   0.70975   13.106
 5983.00    0.71775   0.70522   13.932
 5984.00    0.69555   0.69994   14.377
 5985.00    0.66496   0.69801   15.038
 5986.00    0.63431   0.70038   15.765
 5987.00    0.65748   0.70453   15.210
 5988.00    0.71915   0.70799   13.905
 5989.00    0.73466   0.71019   13.612
 5990.00    0.66755   0.71113   14.980
 5991.00    0.61082   0.71136   16.372
 5992.00    0.61031   0.71250   16.385
 5993.00    0.65007   0.71552   15.383
 5994.00    0.70604   0.71878   14.164
 5995.00    0.72844   0.71960   13.728
 5996.00    0.68961   0.71723   14.501
 5997.00    0.62984   0.71335   15.877
 5998.00    0.62586   0.71033   15.978
 5999.00    0.68734   0.70940   14.549
 6000.00    0.73296   0.70976   13.643
 6001.00    0.72506   0.70943   13.792
 6002.00    0.68481   0.70750   14.603
 6003.00    0.65418   0.70550   15.286
 6004.00    0.64891   0.70518   15.411
 6005.00    0.65247   0.70550   15.326
 6006.00    0.65541   0.70374   15.258
 6007.00    0.69654   0.69952   14.357
 6008.00    0.70808   0.69616   14.123
 6009.00    0.60942   0.69729   16.409
 6010.00    0.56489   0.70234   17.703
 6011.00    0.62569   0.70667   15.982
 6012.00    0.67640   0.70697   14.784
 6013.00    0.68390   0.70473   14.622
 6014.00    0.66577   0.70332   15.020
 6015.00    0.64796   0.70343   15.433
 6016.00    0.64863   0.70354   15.417
 6017.00    0.65506   0.70318   15.266
 6018.00    0.64672   0.70278   15.463
 6019.00    0.63529   0.70171   15.741
 6020.00    0.66150   0.69955   15.117
 6021.00    0.71208   0.69773   14.043
 6022.00    0.70011   0.69779   14.284
 6023.00    0.65988   0.69946   15.154
 6024.00    0.64062   0.70195   15.610
 6025.00    0.61043   0.70504   16.382
 6026.00    0.63628   0.70826   15.716
 6027.00    0.71506   0.71108   13.985
 6028.00    0.70795   0.71378   14.125
 6029.00    0.64619   0.71642   15.475
 6030.00    0.63349   0.71826   15.785
 6031.00    0.68218   0.71917   14.659
 6032.00    0.69445   0.72001   14.400
 6033.00    0.66047   0.72116   15.141
 6034.00    0.67298   0.72203   14.859
 6035.00    0.70452   0.72216   14.194
 6036.00    0.70597   0.72169   14.165
 6037.00    0.69520   0.72082   14.384
 6038.00    0.72747   0.71947   13.746
 6039.00    0.76535   0.71766   13.066
 6040.00    0.73734   0.71601   13.562
 6041.00    0.70099   0.71538   14.266
 6042.00    0.69499   0.71625   14.389
 6043.00    0.71267   0.71837   14.032
 6044.00    0.76219   0.72086   13.120
 6045.00    0.78450   0.72279   12.747
 6046.00    0.72862   0.72389   13.725
 6047.00    0.66428   0.72435   15.054
 6048.00    0.67120   0.72434   14.899
 6049.00    0.72985   0.72410   13.701
 6050.00    0.73460   0.72404   13.613
 6051.00    0.72476   0.72389   13.798
 6052.00    0.72816   0.72279   13.733
 6053.00    0.66140   0.72046   15.119
 6054.00    0.66219   0.71746   15.101
 6055.00    0.77686   0.71445   12.872
 6056.00    0.79854   0.71215   12.523
 6057.00    0.75243   0.71151   13.290
 6058.00    0.73677   0.71296   13.573
 6059.00    0.73863   0.71569   13.539
 6060.00    0.74349   0.71807   13.450
 6061.00    0.75537   0.71854   13.239
 6062.00    0.76994   0.71623   12.988
 6063.00    0.75137   0.71104   13.309
 6064.00    0.72516   0.70406   13.790
 6065.00    0.74176   0.69853   13.481
 6066.00    0.74254   0.69861   13.467
 6067.00    0.74302   0.70508   13.459
 6068.00    0.79330   0.71389   12.606
 6069.00    0.78911   0.72057   12.672
 6070.00    0.72088   0.72403   13.872
 6071.00    0.68597   0.72550   14.578
 6072.00    0.70439   0.72616   14.197
 6073.00    0.70486   0.72633   14.187
 6074.00    0.65869   0.72598   15.182
 6075.00    0.66982   0.72489   14.929
 6076.00    0.73140   0.72246   13.672
 6077.00    0.76163   0.71830   13.130
 6078.00    0.74680   0.71327   13.390
 6079.00    0.70765   0.70920   14.131
 6080.00    0.67079   0.70685   14.908
 6081.00    0.65900   0.70523   15.175
 6082.00    0.69039   0.70379   14.485
 6083.00    0.73600   0.70328   13.587
 6084.00    0.73950   0.70394   13.523
 6085.00    0.74240   0.70506   13.470
 6086.00    0.74746   0.70657   13.379
 6087.00    0.69784   0.70854   14.330
 6088.00    0.69547   0.70961   14.379
 6089.00    0.74476   0.70819   13.427
 6090.00    0.72037   0.70497   13.882
 6091.00    0.70028   0.70263   14.280
 6092.00    0.72434   0.70288   13.806
 6093.00    0.72206   0.70544   13.849
 6094.00    0.71870   0.70937   13.914
 6095.00    0.72956   0.71325   13.707
 6096.00    0.72654   0.71537   13.764
 6097.00    0.71105   0.71557   14.064
 6098.00    0.69056   0.71535   14.481
 6099.00    0.69361   0.71511   14.417
 6100.00    0.76702   0.71225   13.037
 6101.00    0.78793   0.70357   12.691
 6102.00    0.67419   0.69084   14.833
 6103.00    0.63099   0.68225   15.848
 6104.00    0.69932   0.68440   14.300
 6105.00    0.75069   0.69434   13.321
 6106.00    0.72871   0.70352   13.723
 6107.00    0.71900   0.70751   13.908
 6108.00    0.76021   0.70828   13.154
 6109.00    0.74443   0.70908   13.433
 6110.00    0.70781   0.71022   14.128
 6111.00    0.72575   0.71070   13.779
 6112.00    0.76076   0.71119   13.145
 6113.00    0.74799   0.71294   13.369
 6114.00    0.70186   0.71508   14.248
 6115.00    0.70195   0.71555   14.246
 6116.00    0.73020   0.71407   13.695
 6117.00    0.75203   0.71217   13.297
 6118.00    0.76910   0.71015   13.002
 6119.00    0.75613   0.70584   13.225
 6120.00    0.70258   0.69736   14.233
 6121.00    0.65083   0.68643   15.365
 6122.00    0.67278   0.67860   14.864
 6123.00    0.73012   0.67911   13.696
 6124.00    0.71907   0.68701   13.907
 6125.00    0.65865   0.69561   15.183
 6126.00    0.64967   0.69994   15.392
 6127.00    0.72293   0.70071   13.833
 6128.00    0.74483   0.70125   13.426
 6129.00    0.70045   0.70368   14.277
 6130.00    0.68808   0.70775   14.533
 6131.00    0.73056   0.71142   13.688
 6132.00    0.75636   0.71265   13.221
 6133.00    0.73166   0.71027   13.668
 6134.00    0.73537   0.70308   13.599
 6135.00    0.73287   0.69027   13.645
 6136.00    0.68074   0.67450   14.690
 6137.00    0.65616   0.66354   15.240
 6138.00    0.67228   0.66475   14.875
 6139.00    0.68495   0.67630   14.600
 6140.00    0.67892   0.68786   14.729
 6141.00    0.70722   0.69234   14.140
 6142.00    0.75910   0.69295   13.174
 6143.00    0.74606   0.69641   13.404
 6144.00    0.71190   0.70361   14.047
 6145.00    0.68986   0.71016   14.496
 6146.00    0.65036   0.71251   15.376
 6147.00    0.66049   0.71033   15.140
 6148.00    0.72794   0.70505   13.737
 6149.00    0.76428   0.69901   13.084
 6150.00    0.74569   0.69504   13.410
 6151.00    0.70979   0.69489   14.089
 6152.00    0.69402   0.69763   14.409
 6153.00    0.68332   0.70013   14.635
 6154.00    0.67606   0.69994   14.792
 6155.00    0.68475   0.69762   14.604
 6156.00    0.69184   0.69518   14.454
 6157.00    0.69689   0.69300   14.349
 6158.00    0.71611   0.68948   13.964
 6159.00    0.74028   0.68212   13.508
 6160.00    0.70932   0.66867   14.098
 6161.00    0.62751   0.65032   15.936
 6162.00    0.61843   0.63409   16.170
 6163.00    0.64823   0.62827   15.427
 6164.00    0.63750   0.63442   15.686
 6165.00    0.63804   0.64637   15.673
 6166.00    0.68825   0.65666   14.530
 6167.00    0.73414   0.66113   13.621
 6168.00    0.68864   0.65890   14.521
 6169.00    0.62655   0.65281   15.960
 6170.00    0.61907   0.64948   16.153
 6171.00    0.61350   0.65350   16.300
 6172.00    0.58622   0.66203   17.058
 6173.00    0.60866   0.66892   16.429
 6174.00    0.72010   0.67189   13.887
 6175.00    0.70947   0.67271   14.095
 6176.00    0.61459   0.67333   16.271
 6177.00    0.68712   0.67476   14.554
 6178.00    0.75457   0.67714   13.252
 6179.00    0.71089   0.67959   14.067
 6180.00    0.66840   0.68134   14.961
 6181.00    0.63551   0.68288   15.735
 6182.00    0.64308   0.68458   15.550
 6183.00    0.71025   0.68559   14.080
 6184.00    0.72308   0.68490   13.830
 6185.00    0.72422   0.68206   -2.000
 6186.00    0.75557   0.67735   -2.000
 6187.00    0.63422   0.67199   -2.000
 6188.00    0.56600   0.66704   -2.000
 6189.00    0.74968   0.66187   -2.000
 6190.00    0.84209   0.65514   -2.000
 6191.00    0.76618   0.64849   -2.000
 6192.00    0.70127   0.64691   -2.000
 6193.00    0.70823   0.65294   -2.000
 6194.00    0.68507   0.66287   -2.000
 6195.00    0.62656   0.67121   -2.000
 6196.00    0.69749   0.67579   -2.000
 6197.00    0.80797   0.67673   12.377
 6198.00    0.82830   0.67420   12.073
 6199.00    0.78767   0.66938   12.696
 6200.00    0.68657   0.66564   14.565
 6201.00    0.61602   0.66615   16.233
 6202.00    0.69690   0.67047   14.349
 6203.00    0.74830   0.67534   13.364
 6204.00    0.68645   0.67841   14.568
 6205.00    0.66189   0.67988   15.108
 6206.00    0.71637   0.68091   13.959
 6207.00    0.74455   0.68188   13.431
 6208.00    0.68012   0.68229   14.703
 6209.00    0.68852   0.68149   14.524
 6210.00    0.76212   0.67900   13.121
 6211.00    0.75166   0.67458   13.304
 6212.00    0.71176   0.66800   14.050
 6213.00    0.69225   0.65959   14.446
 6214.00    0.67459   0.65144   14.824
 6215.00    0.65124   0.64663   15.355
 6216.00    0.61745   0.64661   16.196
 6217.00    0.58917   0.64972   16.973
 6218.00    0.60666   0.65236   16.484
 6219.00    0.64702   0.65233   15.455
 6220.00    0.66190   0.65117   15.108
 6221.00    0.64927   0.65161   15.402
 6222.00    0.63864   0.65385   15.658
 6223.00    0.64717   0.65597   15.452
 6224.00    0.66535   0.65691   15.030
 6225.00    0.70502   0.65743   14.184
 6226.00    0.75264   0.65820   13.287
 6227.00    0.75432   0.65824   13.257
 6228.00    0.70520   0.65552   14.180
 6229.00    0.66182   0.64878   15.110
 6230.00    0.66809   0.63982   14.968
 6231.00    0.64878   0.63370   15.413
 6232.00    0.60943   0.63457   16.409
 6233.00    0.64231   0.64205   15.569
 6234.00    0.68412   0.65222   14.617
 6235.00    0.69471   0.66064   14.394
 6236.00    0.69969   0.66432   14.292
 6237.00    0.66100   0.66287   15.129
 6238.00    0.62819   0.65813   15.919
 6239.00    0.66255   0.65268   15.093
 6240.00    0.65203   0.64863   15.337
 6241.00    0.61603   0.64642   16.233
 6242.00    0.65170   0.64466   15.344
 6243.00    0.69096   0.64240   14.473
 6244.00    0.68059   0.64067   14.693
 6245.00    0.64729   0.64068   15.449
 6246.00    0.64115   0.64266   15.597
 6247.00    0.65537   0.64689   15.259
 6248.00    0.64804   0.65295   15.431
 6249.00    0.61270   0.65837   16.321
 6250.00    0.61737   0.65976   16.198
 6251.00    0.68518   0.65563   14.595
 6252.00    0.73036   0.64794   13.692
 6253.00    0.72069   0.64104   13.876
 6254.00    0.66679   0.63775   14.997
 6255.00    0.58958   0.63689   16.961
 6256.00    0.55710   0.63533   17.950
 6257.00    0.59206   0.63213   16.890
 6258.00    0.63941   0.62979   15.639
 6259.00    0.66718   0.63155   14.988
 6260.00    0.67531   0.63788   14.808
 6261.00    0.67423   0.64638   14.832
 6262.00    0.66554   0.65441   15.025
 6263.00    0.64811   0.66005   15.430
 6264.00    0.63709   0.66184   15.696
 6265.00    0.66813   0.66054   14.967
 6266.00    0.71091   0.65923   14.067
 6267.00    0.70185   0.65962   14.248
 6268.00    0.66188   0.66045   15.108
 6269.00    0.67004   0.66041   14.924
 6270.00    0.74219   0.66026   13.474
 6271.00    0.75761   0.66137   13.199
 6272.00    0.69768   0.66362   14.333
 6273.00    0.64682   0.66559   15.460
 6274.00    0.65066   0.66627   15.369
 6275.00    0.68182   0.66601   14.667
 6276.00    0.69427   0.66565   14.404
 6277.00    0.68445   0.66510   14.610
 6278.00    0.67221   0.66338   14.876
 6279.00    0.66709   0.65990   14.990
 6280.00    0.65970   0.65580    0.000
 6281.00    0.65982   0.65361    0.000
 6282.00    0.65439   0.65486    0.000
 6283.00    0.61057   0.65851    0.000
 6284.00    0.58439   0.66227    0.000
 6285.00    0.62403   0.66518    0.000
 6286.00    0.68175   0.66813    0.000
 6287.00    0.66319   0.67186    0.000
 6288.00    0.61021   0.67535    0.000
 6289.00    0.64371   0.67674    0.000
 6290.00    0.67273   0.67519    0.000
 6291.00    0.66509   0.67176    0.000
 6292.00    0.70141   0.66860    0.000
 6293.00    0.73850   0.66704    0.000
 6294.00    0.73823   0.66643    0.000
 6295.00    0.71170   0.66470    0.000
 6296.00    0.65740   0.66092    0.000
 6297.00    0.63947   0.65701    0.000
 6298.00    0.70917   0.65556    0.000
 6299.00    0.78410   0.65623    0.000
 6300.00    0.83470   0.65616    0.000
 6301.00    0.86670   0.65418    0.000
 6302.00    0.82988   0.65263    0.000
 6303.00    0.75732   0.65417    0.000
 6304.00    0.71282   0.65848    0.000
 6305.00    0.69179   0.66342    0.000
 6306.00    0.69483   0.66807    0.000
 6307.00    0.71817   0.67260    0.000
 6308.00    0.73097   0.67615    0.000
 6309.00    0.72029   0.67706    0.000
 6310.00    0.70888   0.67511    0.000
 6311.00    0.72138   0.67195    0.000
 6312.00    0.71000   0.66936    0.000
 6313.00    0.67304   0.66751    0.000
 6314.00    0.68305   0.66536    0.000
 6315.00    0.71980   0.66267    0.000
 6316.00    0.73276   0.66016    0.000
 6317.00    0.70567   0.65790    0.000
 6318.00    0.64641   0.65611    0.000
 6319.00    0.62179   0.65642    0.000
 6320.00    0.68453   0.65970    0.000
 6321.00    0.74014   0.66410   13.511
 6322.00    0.73312   0.66751   13.640
 6323.00    0.70899   0.67008   14.105
 6324.00    0.70998   0.67268   14.085
 6325.00    0.70626   0.67497   14.159
 6326.00    0.68443   0.67615   14.611
 6327.00    0.73769   0.67632   13.556
 6328.00    0.79906   0.67616   12.515
 6329.00    0.76897   0.67598   13.004
 6330.00    0.74564   0.67595   13.411
 6331.00    0.72935   0.67672   13.711
 6332.00    0.66499   0.67823   15.038
 6333.00    0.60788   0.67827   16.451
 6334.00    0.63138   0.67412   15.838
 6335.00    0.70199   0.66633   14.245
 6336.00    0.69330   0.65949   14.424
 6337.00    0.64775   0.65795   15.438
 6338.00    0.63922   0.66169   15.644
 6339.00    0.63752   0.66765   15.686
 6340.00    0.65203   0.67307   15.337
 6341.00    0.68365   0.67615   14.627
 6342.00    0.69785   0.67561   14.330
 6343.00    0.71537   0.67164   13.979
 6344.00    0.73782   0.66659   13.553
 6345.00    0.72204   0.66333   13.850
 6346.00    0.67049   0.66292   14.914
 6347.00    0.65165   0.66490   15.346
 6348.00    0.69521   0.66864   14.384
 6349.00    0.67010   0.67328   14.923
 6350.00    0.61341   0.67723   16.302
 6351.00    0.66761   0.67903   14.979
 6352.00    0.72782   0.67813   13.740
 6353.00    0.72965   0.67468   13.705
 6354.00    0.69862   0.66975   14.314
 6355.00    0.62020   0.66528   16.124
 6356.00    0.62357   0.66237   16.037
 6357.00    0.74417   0.65985   13.438
 6358.00    0.70454   0.65623   14.194
 6359.00    0.59896   0.65228   16.696
 6360.00    0.63419   0.64968   15.768
 6361.00    0.66384   0.64844   15.064
 6362.00    0.66661   0.64781   15.001
 6363.00    0.69760   0.64828   14.335
 6364.00    0.70689   0.65086   14.147
 6365.00    0.70361   0.65533   14.213
 6366.00    0.70760   0.66052   14.132
 6367.00    0.69094   0.66547   14.473
 6368.00    0.66705   0.66918   14.991
 6369.00    0.65106   0.67072   15.360
 6370.00    0.63257   0.67041   15.809
 6371.00    0.62836   0.67029   15.914
 6372.00    0.64013   0.67212   15.622
 6373.00    0.65593   0.67542   15.245
 6374.00    0.71289   0.67828   14.027
 6375.00    0.76892   0.67949   13.005
 6376.00    0.73427   0.67898   13.619
 6377.00    0.66822   0.67684   14.965
 6378.00    0.65084   0.67319   15.365
 6379.00    0.67978   0.66911   14.711
 6380.00    0.68509   0.66633   14.597
 6381.00    0.65309   0.66585   15.312
 6382.00    0.63485   0.66712   15.752
 6383.00    0.65759   0.66866   15.207
 6384.00    0.68084   0.66944   14.688
 6385.00    0.68121   0.66982   14.680
 6386.00    0.72009   0.67058   13.887
 6387.00    0.73881   0.67159   13.535
 6388.00    0.67167   0.67214   14.888
 6389.00    0.61673   0.67195   16.215
 6390.00    0.64281   0.67085   15.557
 6391.00    0.72450   0.66795   13.803
 6392.00    0.78421   0.66265   12.752
 6393.00    0.77692   0.65705   12.871
 6394.00    0.69422   0.65547   14.405
 6395.00    0.58280   0.65999   17.159
 6396.00    0.60513   0.66750   16.525
 6397.00    0.73023   0.67229   13.694
 6398.00    0.71987   0.67059   13.891
 6399.00    0.65957   0.66335   15.161
 6400.00    0.65077   0.65655   15.367
 6401.00    0.63323   0.65665   15.792
 6402.00    0.65401   0.66425   15.290
 6403.00    0.69706   0.67387   14.346
 6404.00    0.67245   0.68007   14.871
 6405.00    0.64263   0.68124   15.561
 6406.00    0.66018   0.67848   15.147
 6407.00    0.69149   0.67411   14.461
 6408.00    0.69785   0.67087   14.330
 6409.00    0.67708   0.67001   14.769
 6410.00    0.66276   0.66989   15.088
 6411.00    0.68230   0.66848   14.656
 6412.00    0.68135   0.66664   14.677
 6413.00    0.65268   0.66670   15.321
 6414.00    0.72471   0.66895   13.799
 6415.00    0.74527   0.67180   13.418
 6416.00    0.62374   0.67379   16.032
 6417.00    0.67268   0.67409   14.866
 6418.00    0.78839   0.67195   12.684
 6419.00    0.76843   0.66717   13.014
 6420.00    0.76005   0.66137   13.157
 6421.00    0.68625   0.65829   14.572
 6422.00    0.53126   0.66090   18.823
 6423.00    0.54970   0.66801   18.192
 6424.00    0.66693   0.67521   14.994
 6425.00    0.70698   0.67955   14.145
 6426.00    0.68454   0.68143   14.608
 6427.00    0.68204   0.68189   14.662
 6428.00    0.71445   0.68026   13.997
 6429.00    0.73410   0.67527   13.622
 6430.00    0.77001   0.66789   12.987
 6431.00    0.80461   0.66209   12.428
 6432.00    0.75902   0.66154   13.175
 6433.00    0.65592   0.66605   15.246
 6434.00    0.62260   0.67226   16.062
 6435.00    0.69425   0.67676   14.404
 6436.00    0.64222   0.67741   15.571
 6437.00    0.54903   0.67322   18.214
 6438.00    0.64338   0.66567   15.543
 6439.00    0.71713   0.65981   13.944
 6440.00    0.66568   0.66078   15.022
 6441.00    0.61512   0.66848   16.257
 6442.00    0.66392   0.67787   15.062
 6443.00    0.75396   0.68462   13.263
 6444.00    0.75814   0.68795   13.190
 6445.00    0.65752   0.68893   15.209
 6446.00    0.61137   0.68778   16.357
 6447.00    0.69209   0.68305   14.449
 6448.00    0.72030   0.67333   13.883
 6449.00    0.65309   0.66058   15.312
 6450.00    0.58546   0.65106   17.081
 6451.00    0.58519   0.65052   17.089
 6452.00    0.60621   0.65803   16.496
 6453.00    0.64265   0.66681   15.561
 6454.00    0.74264   0.67083   13.465
 6455.00    0.74722   0.66966   13.383
 6456.00    0.65119   0.66768   15.357
 6457.00    0.65518   0.66932   15.263
 6458.00    0.65727   0.67470   15.214
 6459.00    0.58809   0.67961   17.004
 6460.00    0.56903   0.67915   17.574
 6461.00    0.63587   0.67150   15.727
 6462.00    0.70550   0.66023   14.174
 6463.00    0.69108   0.65284   14.470
 6464.00    0.64357   0.65442   15.538
 6465.00    0.62692   0.66305   15.951
 6466.00    0.64809   0.67272   15.430
 6467.00    0.67696   0.67907   14.772
 6468.00    0.67147   0.68102   14.893
 6469.00    0.63148   0.67929   15.836
 6470.00    0.62035   0.67544   16.120
 6471.00    0.63242   0.67155   15.812
 6472.00    0.64310   0.66937   15.550
 6473.00    0.68627   0.66893   14.571
 6474.00    0.69653   0.66868   14.357
 6475.00    0.65256   0.66797   15.324
 6476.00    0.67655   0.66812   14.781
 6477.00    0.69850   0.67006   14.316
 6478.00    0.66057   0.67239   15.138
 6479.00    0.67585   0.67261   14.796
 6480.00    0.66942   0.66926   14.938
 6481.00    0.61656   0.66285   16.219
 6482.00    0.65024   0.65619   15.379
 6483.00    0.65970   0.65295   15.159
 6484.00    0.62376   0.65455   16.032
 6485.00    0.68348   0.65906   14.631
 6486.00    0.66582   0.66351   15.019
 6487.00    0.57718   0.66629   17.325
 6488.00    0.64250   0.66711   15.564
 6489.00    0.69143   0.66592   14.463
 6490.00    0.64516   0.66262   15.500
 6491.00    0.64937   0.65686   15.400
 6492.00    0.69189   0.64769   14.453
 6493.00    0.70411   0.63440   14.202
 6494.00    0.68024   0.61905   14.701
 6495.00    0.67922   0.60687   14.723
 6496.00    0.66642   0.60236   15.006
 6497.00    0.60328   0.60578   16.576
 6498.00    0.60056   0.61390   16.651
 6499.00    0.65237   0.62353   15.329
 6500.00    0.66580   0.63332   15.020
 6501.00    0.64175   0.64286   15.582
 6502.00    0.65305   0.65126   15.313
 6503.00    0.71472   0.65764   13.992
 6504.00    0.72891   0.66194   13.719
 6505.00    0.68528   0.66460   14.593
 6506.00    0.66072   0.66576   15.135
 6507.00    0.69820   0.66535   14.322
 6508.00    0.69087   0.66401   14.475
 6509.00    0.62144   0.66314   16.092
 6510.00    0.63839   0.66362   15.664
 6511.00    0.70272   0.66483   14.230
 6512.00    0.75521   0.66541   13.241
 6513.00    0.81331   0.66444   12.295
 6514.00    0.77943   0.66176   12.830
 6515.00    0.66110   0.65782   15.126
 6516.00    0.61623   0.65366   16.228
 6517.00    0.68381   0.65053   14.624
 6518.00    0.75345   0.64949   13.272
 6519.00    0.71178   0.65110   14.049
 6520.00    0.63293   0.65504   15.800
 6521.00    0.61770   0.65968   16.189
 6522.00    0.67677   0.66311   14.776
 6523.00    0.73542   0.66460   13.598
 6524.00    0.72571   0.66458   13.780
 6525.00    0.66667   0.66347   15.000
 6526.00    0.65823   0.66159   15.192
 6527.00    0.67470   0.65994   14.821
 6528.00    0.65071   0.65971    0.000
 6529.00    0.64669   0.66080    0.000
 6530.00    0.68218   0.66157    0.000
 6531.00    0.72268   0.66068    0.000
 6532.00    0.74169   0.65859    0.000
 6533.00    0.71658   0.65703    0.000
 6534.00    0.66856   0.65730    0.000
 6535.00    0.65762   0.65908    0.000
 6536.00    0.66156   0.66094    0.000
 6537.00    0.65054   0.66195    0.000
 6538.00    0.66286   0.66249    0.000
 6539.00    0.73794   0.66316    0.000
 6540.00    0.80151   0.66351    0.000
 6541.00    0.74259   0.66228    0.000
 6542.00    0.69241   0.65884    0.000
 6543.00    0.71107   0.65358    0.000
 6544.00    0.70011   0.64714    0.000
 6545.00    0.72225   0.64022    0.000
 6546.00    0.87885   0.63444    0.000
 6547.00    1.14691   0.63190    0.000
 6548.00    1.35542   0.63277    0.000
 6549.00    1.44738   0.63446    0.000
 6550.00    1.41912   0.63418    0.000
 6551.00    1.11401   0.63133    0.000
 6552.00    0.72346   0.62676    0.000
 6553.00    0.60121   0.62101    0.000
 6554.00    0.69273   0.61430    0.000
 6555.00    0.75439   0.60755    0.000
 6556.00    0.69339   0.60215    0.000
 6557.00    0.67031   0.59819    0.000
 6558.00    0.60016   0.59318    0.000
 6559.00    0.58331   0.58231    0.000
 6560.00    1.32286   0.56003    0.000
 6561.00    3.19109   0.52453    0.000
 6562.00    5.48984   0.48505    0.000
 6563.00    6.73859   0.46180    0.000
 6564.00    6.50490   0.47026    0.000
 6565.00    5.07178   0.50512    0.000
 6566.00    2.92681   0.54560    0.000
 6567.00    1.27727   0.57549    0.000
 6568.00    0.73377   0.59203    0.000
 6569.00    0.71230   0.60013    0.000
 6570.00    0.70543   0.60459    0.000
 6571.00    0.61063   0.60733    0.000
 6572.00    0.55405   0.60817    0.000
 6573.00    0.54973   0.60761    0.000
 6574.00    0.58563   0.60806    0.000
 6575.00    0.65934   0.61197    0.000
 6576.00    0.69597   0.61941    0.000
 6577.00    0.69331   0.62792    0.000
 6578.00    0.68821   0.63444    0.000
 6579.00    0.63228   0.63740    0.000
 6580.00    0.69961   0.63749    0.000
 6581.00    1.17223   0.63694    0.000
 6582.00    2.01723   0.63775    0.000
 6583.00    2.78322   0.64003    0.000
 6584.00    3.05308   0.64229    0.000
 6585.00    2.87200   0.64341    0.000
 6586.00    2.20638   0.64399    0.000
 6587.00    1.27605   0.64547    0.000
 6588.00    0.79200   0.64818    0.000
 6589.00    0.74165   0.65052    0.000
 6590.00    0.74268   0.64995    0.000
 6591.00    0.73819   0.64475    0.000
 6592.00    0.72406   0.63588    0.000
 6593.00    0.74045   0.62768    0.000
 6594.00    0.84021   0.62522    0.000
 6595.00    0.84087   0.62945    0.000
 6596.00    0.70105   0.63621    0.000
 6597.00    0.65320   0.64081    0.000
 6598.00    0.71935   0.64247    0.000
 6599.00    0.77049   0.64367    0.000
 6600.00    0.72329   0.64640    0.000
 6601.00    0.65083   0.65006    0.000
 6602.00    0.64612   0.65250    0.000
 6603.00    0.70495   0.65241    0.000
 6604.00    0.72859   0.65020    0.000
 6605.00    0.68817   0.64714    0.000
 6606.00    0.65928   0.64411    0.000
 6607.00    0.70020   0.64115    0.000
 6608.00    0.72255   0.63846    0.000
 6609.00    0.65043   0.63734   15.374
 6610.00    0.63863   0.63927   15.658
 6611.00    0.72630   0.64362   13.768
 6612.00    0.78061   0.64767   12.811
 6613.00    0.70632   0.64953   14.158
 6614.00    0.65363   0.65001   15.299
 6615.00    0.73050   0.65079   13.689
 6616.00    0.75263   0.65206   13.287
 6617.00    0.73352   0.65294   13.633
 6618.00    0.76653   0.65315   13.046
 6619.00    0.78283   0.65327   12.774
 6620.00    0.74189   0.65351   13.479
 6621.00    0.68748   0.65325   14.546
 6622.00    0.69121   0.65152   14.467
 6623.00    0.74241   0.64802   13.470
 6624.00    0.77941   0.64376   12.830
 6625.00    0.76162   0.64064   13.130
 6626.00    0.71507   0.63994   13.985
 6627.00    0.69372   0.64117   14.415
 6628.00    0.71143   0.64274   14.056
 6629.00    0.70178   0.64342   14.250
 6630.00    0.67396   0.64284   14.838
 6631.00    0.69204   0.64099   14.450
 6632.00    0.68819   0.63805   14.531
 6633.00    0.67168   0.63494   14.888
 6634.00    0.71525   0.63330   13.981
 6635.00    0.74955   0.63439   13.341
 6636.00    0.76018   0.63766   13.155
 6637.00    0.76987   0.64112   12.989
 6638.00    0.70820   0.64318   14.120
 6639.00    0.67240   0.64377   14.872
 6640.00    0.75278   0.64368   13.284
 6641.00    0.76916   0.64300   13.001
 6642.00    0.71789   0.64097   13.930
 6643.00    0.69620   0.63765   14.364
 6644.00    0.65968   0.63510   15.159
 6645.00    0.63926   0.63538   15.643
 6646.00    0.67136   0.63791   14.895
 6647.00    0.68884   0.64038   14.517
 6648.00    0.67252   0.64150   14.869
 6649.00    0.63862   0.64148   15.659
 6650.00    0.59496   0.64057   16.808
 6651.00    0.57586   0.63887   17.365
 6652.00    0.60027   0.63700   16.659
 6653.00    0.64149   0.63579   15.589
 6654.00    0.65964   0.63552   15.160
 6655.00    0.62152   0.63574   16.090
 6656.00    0.55800   0.63595   17.921
 6657.00    0.60779   0.63602   16.453
 6658.00    0.67365   0.63596   14.845
 6659.00    0.55757   0.63554   17.935
 6660.00    0.50570   0.63426   19.775
 6661.00    0.57359   0.63174   17.434
 6662.00    0.57437   0.62818   17.410
 6663.00    0.61092   0.62481   16.369
 6664.00    0.67440   0.62342   14.828
 6665.00    0.64331   0.62464   15.545
 6666.00    0.60148   0.62725   16.626
 6667.00    0.60800   0.62976   16.447
 6668.00    0.61263   0.63204   16.323
 6669.00    0.56654   0.63467   17.651
 6670.00    0.59683   0.63749   16.755
 6671.00    0.74505   0.63966   13.422
 6672.00    0.76819   0.64061   13.018
 6673.00    0.70971   0.64048   14.090
 6674.00    0.69270   0.63941   14.436
 6675.00    0.61676   0.63664   16.214
 6676.00    0.54768   0.63102   18.259
 6677.00    0.60789   0.62312   16.450
 6678.00    0.73650   0.61633   13.578
 6679.00    0.71376   0.61438   14.010
 6680.00    0.60280   0.61739   16.589
 6681.00    0.72046   0.62197   13.880
 6682.00    0.83433   0.62535   11.986
 6683.00    0.75241   0.62740   13.291
 6684.00    0.66190   0.62887   15.108
 6685.00    0.62340   0.62976   16.041
 6686.00    0.62888   0.62990   15.901
 6687.00    0.67059   0.62958   14.912
 6688.00    0.67921   0.62937   14.723
 6689.00    0.67370   0.62966   14.843
 6690.00    0.70568   0.63032   14.171
 6691.00    0.67075   0.63086   14.909
 6692.00    0.59606   0.63086   16.777
 6693.00    0.59673   0.63010   16.758
 6694.00    0.61546   0.62841   16.248
 6695.00    0.63899   0.62588   15.650
 6696.00    0.67743   0.62337    0.000
 6697.00    0.64496   0.62222    0.000
 6698.00    0.59883   0.62319    0.000
 6699.00    0.61470   0.62581    0.000
 6700.00    0.60057   0.62868    0.000
 6701.00    0.57609   0.63037    0.000
 6702.00    0.62067   0.63008    0.000
 6703.00    0.70511   0.62825    0.000
 6704.00    0.72186   0.62632    0.000
 6705.00    0.66643   0.62570    0.000
 6706.00    0.65255   0.62662    0.000
 6707.00    0.57905   0.62815    0.000
 6708.00    0.41966   0.62914    0.000
 6709.00    0.38177   0.62909    0.000
 6710.00    0.51347   0.62826    0.000
 6711.00    0.67771   0.62717    0.000
 6712.00    0.71243   0.62588    0.000
 6713.00    0.64345   0.62377    0.000
 6714.00    0.70935   0.62017    0.000
 6715.00    1.10119   0.61504    0.000
 6716.00    1.58517   0.60912    0.000
 6717.00    1.93856   0.60410    0.000
 6718.00    2.02406   0.60218    0.000
 6719.00    1.56738   0.60421    0.000
 6720.00    0.92785   0.60847    0.000
 6721.00    0.70948   0.61230    0.000
 6722.00    0.70154   0.61472    0.000
 6723.00    0.59674   0.61629    0.000
 6724.00    0.42765   0.61726    0.000
 6725.00    0.43912   0.61736    0.000
 6726.00    0.54885   0.61698    0.000
 6727.00    0.61973   0.61713    0.000
 6728.00    0.84409   0.61831    0.000
 6729.00    1.08795   0.61993    0.000
 6730.00    1.17683   0.62107    0.000
 6731.00    1.30439   0.62137    0.000
 6732.00    1.49561   0.62103    0.000
 6733.00    1.50816   0.62052    0.000
 6734.00    1.13744   0.62030    0.000
 6735.00    0.71968   0.62042    0.000
 6736.00    0.58503   0.62040    0.000
 6737.00    0.61328   0.61964    0.000
 6738.00    0.60627   0.61802    0.000
 6739.00    0.57899   0.61628    0.000
 6740.00    0.64761   0.61521    0.000
 6741.00    0.57244   0.61473    0.000
 6742.00    0.23626   0.61416    0.000
 6743.00   -0.10697   0.61346   -2.000
 6744.00   -0.15746   0.61336   -2.000
 6745.00    0.15347   0.61405    0.000
 6746.00    0.58017   0.61450    0.000
 6747.00    0.74393   0.61364    0.000
 6748.00    0.66756   0.61148    0.000
 6749.00    0.56709   0.60889    0.000
 6750.00    0.29838   0.60696    0.000
 6751.00    0.07272   0.60637    0.000
 6752.00    0.22106   0.60700    0.000
 6753.00    0.48943   0.60841   20.432
 6754.00    0.57919   0.61051   17.265
 6755.00    0.52291   0.61326   19.124
 6756.00    0.59367   0.61616   16.845
 6757.00    0.62240   0.61869   16.067
 6758.00    0.46506   0.62074   -1.000
 6759.00    0.45472   0.62223   -1.000
 6760.00    0.45488   0.62303   -1.000
 6761.00    0.29062   0.62314   -1.000
 6762.00    0.24262   0.62279   -1.000
 6763.00    0.38787   0.62229   -1.000
 6764.00    0.62261   0.62159   16.061
 6765.00    0.79802   0.62013   12.531
 6766.00    0.63460   0.61758   15.758
 6767.00    0.29601   0.61465   -1.000
 6768.00    0.31989   0.61266   -1.000
 6769.00    0.55450   0.61224   18.034
 6770.00    0.61402   0.61273   16.286
 6771.00    0.49182   0.61345   20.333
 6772.00    0.61771   0.61478   16.189
 6773.00    0.80741   0.61731   12.385
 6774.00    0.56069   0.62065   17.835
 6775.00    0.41252   0.62373   -1.000
 6776.00    0.61214   0.62581   16.336
 6777.00    0.77650   0.62683   12.878
 6778.00    0.70782   0.62710   14.128
 6779.00    0.53908   0.62669   18.550
 6780.00    0.48784   0.62517   20.498
 6781.00    0.55933   0.62197   17.879
 6782.00    0.72324   0.61718   13.827
 6783.00    0.86364   0.61185   -1.000
 6784.00    0.75652   0.60766   13.218
 6785.00    0.57729   0.60583   17.322
 6786.00    0.60511   0.60642   16.526
 6787.00    0.74012   0.60847   13.511
 6788.00    0.71712   0.61079   13.945
 6789.00    0.57446   0.61247   17.408
 6790.00    0.68139   0.61320   14.676
 6791.00    0.86147   0.61318   -1.000
 6792.00    0.82373   0.61273   12.140
 6793.00    0.67325   0.61206   14.853
 6794.00    0.62578   0.61150   15.980
 6795.00    0.67687   0.61150   14.774
 6796.00    0.64665   0.61209   15.464
 6797.00    0.63380   0.61292   15.778
 6798.00    0.67593   0.61383   14.794
 6799.00    0.65424   0.61487   15.285
 6800.00    0.66368   0.61609   15.068
 6801.00    0.73452   0.61725   13.614
 6802.00    0.76390   0.61787   13.091
 6803.00    0.76127   0.61768   13.136
 6804.00    0.74291   0.61681   13.460
 6805.00    0.68524   0.61569   14.593
 6806.00    0.59995   0.61473   16.668
 6807.00    0.59851   0.61411   16.708
 6808.00    0.68191   0.61391   14.665
 6809.00    0.60185   0.61398   16.616
 6810.00    0.56548   0.61411   17.684
 6811.00    0.78117   0.61433   12.801
 6812.00    0.80604   0.61465   12.406
 6813.00    0.59818   0.61455   16.717
 6814.00    0.46919   0.61366   21.313
 6815.00    0.51811   0.61262   19.301
 6816.00    0.58796   0.61250   17.008
 6817.00    0.51544   0.61337   19.401
 6818.00    0.36661   0.61417   -1.000
 6819.00    0.37907   0.61408   -1.000
 6820.00    0.55558   0.61364   17.999
 6821.00    0.60276   0.61401   16.590
 6822.00    0.56825   0.61550   17.598
 6823.00    0.54613   0.61735   18.311
 6824.00    0.46979   0.61865   21.286
 6825.00    0.44005   0.61894   -1.000
 6826.00    0.49982   0.61804   20.007
 6827.00    0.51032   0.61603   19.596
 6828.00    0.37843   0.61378   -1.000
 6829.00    0.30584   0.61272   -1.000
 6830.00    0.49504   0.61352   20.200
 6831.00    0.58623   0.61526   17.058
 6832.00    0.52519   0.61667   19.041
 6833.00    0.53813   0.61743   18.583
 6834.00    0.42119   0.61806   -1.000
 6835.00    0.34802   0.61868   -1.000
 6836.00    0.50100   0.61866   19.960
 6837.00    0.30362   0.61730   -1.000
 6838.00   -0.02886   0.61451   -2.000
 6839.00   -0.01003   0.61069   -2.000
 6840.00    0.00000   0.60660   -2.000
 6841.00    0.00000   0.60331   -2.000
 6842.00    0.00000   0.60206   -2.000
 6843.00    0.00000   0.60354   -2.000
 6844.00    0.00000   0.60713   -2.000
 6845.00    0.00000   0.61108   -2.000
 6846.00    0.00000   0.61383   -2.000
 6847.00    0.00000   0.61496   -2.000
 6848.00    0.00000   0.61504   -2.000
 6849.00    0.00000   0.61470   -2.000
 6850.00    0.00000   0.61414   -2.000
 6851.00    0.00000   0.61341   -2.000
 6852.00    0.00000   0.61241   -2.000
 6853.00    0.00000   0.61068   -2.000
 6854.00    0.00000   0.60799   -2.000
 6855.00    0.00000   0.60508   -2.000
 6856.00    0.00000   0.60333   -2.000
 6857.00    0.00000   0.60335   -2.000
 6858.00    0.00000   0.60428   -2.000
 6859.00    0.00000   0.60476   -2.000
 6860.00    0.00000   0.60423   -2.000
 6861.00    0.00000   0.60337   -2.000
 6862.00    0.00000   0.60375   -2.000
 6863.00    0.00000   0.60627   -2.000
 6864.00    0.00000   0.60977   -2.000
 6865.00    0.00000   0.61186   -2.000
 6866.00    0.00000   0.61131   -2.000
 6867.00    0.00000   0.60904   -2.000
 6868.00    0.00000   0.60688   -2.000
 6869.00    0.00000   0.60590   -2.000
 6870.00    0.00000   0.60590   -2.000
 6871.00    0.00000   0.60599   -2.000
 6872.00    0.00000   0.60582   -2.000
 6873.00    0.00000   0.60600   -2.000
 6874.00    0.00000   0.60714   -2.000
 6875.00    0.00000   0.60908   -2.000
 6876.00    0.00000   0.61143   -2.000
 6877.00    0.00000   0.61391   -2.000
 6878.00    0.00000   0.61595   -2.000
 6879.00    0.00000   0.61670   -2.000
 6880.00    0.00000   0.61557   -2.000
 6881.00    0.00000   0.61279   -2.000
 6882.00    0.00000   0.60957   -2.000
 6883.00    0.00000   0.60751   -2.000
 6884.00    0.00000   0.60738   -2.000
 6885.00    0.00000   0.60864   -2.000
 6886.00    0.00000   0.61035   -2.000
 6887.00    0.00000   0.61226   -2.000
 6888.00    0.00000   0.61448   -2.000
 6889.00    0.00000   0.61673   -2.000
 6890.00    0.00000   0.61844   -2.000
 6891.00    0.00000   0.61941   -2.000
 6892.00    0.00000   0.61973   -2.000
 6893.00    0.00000   0.61943   -2.000
 6894.00    0.00000   0.61865   -2.000
 6895.00    0.00000   0.61773   -2.000
 6896.00    0.00000   0.61704   -2.000
 6897.00    0.00000   0.61671   -2.000
 6898.00    0.00000   0.61656   -2.000
 6899.00    0.00000   0.61626   -2.000
 6900.00    0.00000   0.61573   -2.000
 6901.00    0.00000   0.61547   -2.000
 6902.00    0.00000   0.61615   -2.000
 6903.00    0.00000   0.61757   -2.000
 6904.00    0.00000   0.61884   -2.000
 6905.00    0.00000   0.61967   -2.000
 6906.00    0.00000   0.62068   -2.000
 6907.00    0.00000   0.62224   -2.000
 6908.00    0.00000   0.62375   -2.000
 6909.00    0.00000   0.62422   -2.000
 6910.00    0.00000   0.62340   -2.000
 6911.00    0.00000   0.62160   -2.000
 6912.00    0.00000   0.61918   -2.000
 6913.00    0.00000   0.61640   -2.000
 6914.00    0.00000   0.61380   -2.000
 6915.00    0.00000   0.61229   -2.000
 6916.00    0.00000   0.61231   -2.000
 6917.00    0.00000   0.61323   -2.000
 6918.00    0.00000   0.61432   -2.000
 6919.00    0.00000   0.61551   -2.000
 6920.00    0.00000   0.61686   -2.000
 6921.00    0.00000   0.61810   -2.000
 6922.00    0.00000   0.61842   -2.000
 6923.00    0.00000   0.61706   -2.000
 6924.00    0.00000   0.61448   -2.000
 6925.00    0.00000   0.61235   -2.000
 6926.00    0.00000   0.61233   -2.000
 6927.00    0.00000   0.61461   -2.000
 6928.00    0.00000   0.61784   -2.000
 6929.00    0.00000   0.62030   -2.000
 6930.00    0.00000   0.62114   -2.000
 6931.00    0.00000   0.62046   -2.000
 6932.00    0.00000   0.61897   -2.000
 6933.00    0.00000   0.61767   -2.000
 6934.00    0.00000   0.61745   -2.000
 6935.00    0.00000   0.61840   -2.000
 6936.00    0.00000   0.61962   -2.000
 6937.00    0.00000   0.62033   -2.000
 6938.00    0.00000   0.62072   -2.000
 6939.00    0.00000   0.62133   -2.000
 6940.00    0.00000   0.62226   -2.000
 6941.00    0.00000   0.62289   -2.000
 6942.00    0.00000   0.62233   -2.000
 6943.00    0.00000   0.62019   -2.000
 6944.00    0.00000   0.61724   -2.000
 6945.00    0.00000   0.61520   -2.000
 6946.00    0.00000   0.61572   -2.000
 6947.00    0.00000   0.61883   -2.000
 6948.00    0.00000   0.62249   -2.000
 6949.00    0.00000   0.62457   -2.000
 6950.00    0.00000   0.62440   -2.000
 6951.00    0.00000   0.62267   -2.000
 6952.00    0.00000   0.62054   -2.000
 6953.00    0.00000   0.61903   -2.000
 6954.00    0.00000   0.61854   -2.000
 6955.00    0.00000   0.61917   -2.000
 6956.00    0.00000   0.62076   -2.000
 6957.00    0.00000   0.62261   -2.000
 6958.00    0.00000   0.62397   -2.000
 6959.00    0.00000   0.62467   -2.000
 6960.00    0.00000   0.62510   -2.000
 6961.00    0.00000   0.62564   -2.000
 6962.00    0.00000   0.62632   -2.000
 6963.00    0.00000   0.62683   -2.000
 6964.00    0.00000   0.62692   -2.000
 6965.00    0.00000   0.62669   -2.000
 6966.00    0.00000   0.62661   -2.000
 6967.00    0.00000   0.62718   -2.000
 6968.00    0.00000   0.62824   -2.000
 6969.00    0.00000   0.62896   -2.000
 6970.00    0.00000   0.62879   -2.000
 6971.00    0.00000   0.62810   -2.000
 6972.00    0.00000   0.62760   -2.000
 6973.00    0.00000   0.62728   -2.000
 6974.00    0.00000   0.62621   -2.000
 6975.00    0.00000   0.62334   -2.000
 6976.00    0.00000   0.61837   -2.000
 6977.00    0.00000   0.61205   -2.000
 6978.00    0.00000   0.60632   -2.000
 6979.00    0.00000   0.60392   -2.000
 6980.00    0.00000   0.60669   -2.000
 6981.00    0.00000   0.61347   -2.000
 6982.00    0.00000   0.62089   -2.000
 6983.00    0.00000   0.62647   -2.000
 6984.00    0.00000   0.62965   -2.000
 6985.00    0.00000   0.63092   -2.000
 6986.00    0.00000   0.63075   -2.000
 6987.00    0.00000   0.62932   -2.000
 6988.00    0.00000   0.62687   -2.000
 6989.00    0.00000   0.62429   -2.000
 6990.00    0.00000   0.62294   -2.000
 6991.00    0.00000   0.62348   -2.000
 6992.00    0.00000   0.62511   -2.000
 6993.00    0.00000   0.62643   -2.000
 6994.00    0.00000   0.62674   -2.000
 6995.00    0.00000   0.62651   -2.000
 6996.00    0.00000   0.62644   -2.000
 6997.00    0.00000   0.62621   -2.000
 6998.00    0.00000   0.62497   -2.000
 6999.00    0.00000   0.62273   -2.000
 7000.00    0.00000   0.62074   -2.000
 7001.00    0.00000   0.62034   -2.000
 7002.00    0.00000   0.62128   -2.000
 7003.00    0.00000   0.62189   -2.000
 7004.00    0.00000   0.62105   -2.000
 7005.00    0.00000   0.61948   -2.000
 7006.00    0.00000   0.61877   -2.000
 7007.00    0.00000   0.61962   -2.000
 7008.00    0.00000   0.62151   -2.000
 7009.00    0.00000   0.62345   -2.000
 7010.00    0.00000   0.62467   -2.000
 7011.00    0.00000   0.62504   -2.000
 7012.00    0.00000   0.62488   -2.000
 7013.00    0.00000   0.62409   -2.000
 7014.00    0.00000   0.62166   -2.000
 7015.00    0.00000   0.61714   -2.000
 7016.00    0.00000   0.61250   -2.000
 7017.00    0.00000   0.61119   -2.000
 7018.00    0.00000   0.61485   -2.000
 7019.00    0.00000   0.62130   -2.000
 7020.00    0.00000   0.62664   -2.000
 7021.00    0.00000   0.62862   -2.000
 7022.00    0.00000   0.62721   -2.000
 7023.00    0.00000   0.62383   -2.000
 7024.00    0.00000   0.62070   -2.000
 7025.00    0.00000   0.61968   -2.000
 7026.00    0.00000   0.62096   -2.000
 7027.00    0.00000   0.62328   -2.000
 7028.00    0.00000   0.62542   -2.000
 7029.00    0.00000   0.62725   -2.000
 7030.00    0.00000   0.62892   -2.000
 7031.00    0.00000   0.63014   -2.000
 7032.00    0.00000   0.63051   -2.000
 7033.00    0.00000   0.63016   -2.000
 7034.00    0.00000   0.62971   -2.000
 7035.00    0.00000   0.62935   -2.000
 7036.00    0.00000   0.62846   -2.000
 7037.00    0.00000   0.62645   -2.000
 7038.00    0.00000   0.62424   -2.000
 7039.00    0.00000   0.62438   -2.000
 7040.00    0.00000   0.62867   -2.000
 7041.00    0.00000   0.63558   -2.000
 7042.00    0.00000   0.64163   -2.000
 7043.00    0.00000   0.64467   -2.000
 7044.00    0.00000   0.64489   -2.000
 7045.00    0.00000   0.64393   -2.000
 7046.00    0.00000   0.64367   -2.000
 7047.00    0.00000   0.64478   -2.000
 7048.00    0.00000   0.64627   -2.000
 7049.00    0.00000   0.64652   -2.000
 7050.00    0.00000   0.64444   -2.000
 7051.00    0.00000   0.63968   -2.000
 7052.00    0.00000   0.63241   -2.000
 7053.00    0.00000   0.62357   -2.000
 7054.00    0.00000   0.61519   -2.000
 7055.00    0.00000   0.60939   -2.000
 7056.00    0.00000   0.60700   -2.000
 7057.00    0.00000   0.60701   -2.000
 7058.00    0.00000   0.60706   -2.000
 7059.00    0.00000   0.60551   -2.000
 7060.00    0.00000   0.60278   -2.000
 7061.00    0.00000   0.60069   -2.000
 7062.00    0.00000   0.60052   -2.000
 7063.00    0.00000   0.60194   -2.000
 7064.00    0.00000   0.60357   -2.000
 7065.00    0.00000   0.60412   -2.000
 7066.00    0.00000   0.60293   -2.000
 7067.00    0.00000   0.60057   -2.000
 7068.00    0.00000   0.59870   -2.000
 7069.00    0.00000   0.59887   -2.000
 7070.00    0.00000   0.60159   -2.000
 7071.00    0.00000   0.60583   -2.000
 7072.00    0.00000   0.60983   -2.000
 7073.00    0.00000   0.61253   -2.000
 7074.00    0.00000   0.61383   -2.000
 7075.00    0.00000   0.61405   -2.000
 7076.00    0.00000   0.61367   -2.000
 7077.00    0.00000   0.61331   -2.000
 7078.00    0.00000   0.61338   -2.000
 7079.00    0.00000   0.61381   -2.000
 7080.00    0.00000   0.61405   -2.000
 7081.00    0.00000   0.61321   -2.000
 7082.00    0.00000   0.61031   -2.000
 7083.00    0.00000   0.60502   -2.000
 7084.00    0.00000   0.59838   -2.000
 7085.00    0.00000   0.59224   -2.000
 7086.00    0.00000   0.58765   -2.000
 7087.00    0.00000   0.58393   -2.000
 7088.00    0.00000   0.57991   -2.000
 7089.00    0.00000   0.57590   -2.000
 7090.00    0.00000   0.57318   -2.000
 7091.00    0.00000   0.57230   -2.000
 7092.00    0.00000   0.57274   -2.000
 7093.00    0.00000   0.57350   -2.000
 7094.00    0.00000   0.57376   -2.000
 7095.00    0.00000   0.57373   -2.000
 7096.00    0.00000   0.57399   -2.000
 7097.00    0.00000   0.57530   -2.000
 7098.00    0.00000   0.57805   -2.000
 7099.00    0.00000   0.58179   -2.000
 7100.00    0.00000   0.58518   -2.000
 7101.00    0.00000   0.58674   -2.000
 7102.00    0.00000   0.58668   -2.000
 7103.00    0.00000   0.58641   -2.000
 7104.00    0.00000   0.58710   -2.000
 7105.00    0.00000   0.58869   -2.000
 7106.00    0.00000   0.59019   -2.000
 7107.00    0.00000   0.59084   -2.000
 7108.00    0.00000   0.59065   -2.000
 7109.00    0.00000   0.58977   -2.000
 7110.00    0.00000   0.58818   -2.000
 7111.00    0.00000   0.58645   -2.000
 7112.00    0.00000   0.58577   -2.000
 7113.00    0.00000   0.58685   -2.000
 7114.00    0.00000   0.58912   -2.000
 7115.00    0.00000   0.59150   -2.000
 7116.00    0.00000   0.59352   -2.000
 7117.00    0.00000   0.59515   -2.000
 7118.00    0.00000   0.59614   -2.000
 7119.00    0.00000   0.59624   -2.000
 7120.00    0.00000   0.59546   -2.000
 7121.00    0.00000   0.59416   -2.000
 7122.00    0.00000   0.59281   -2.000
 7123.00    0.00000   0.59155   -2.000
 7124.00    0.00000   0.58976   -2.000
 7125.00    0.00000   0.58634   -2.000
 7126.00    0.00000   0.58143   -2.000
 7127.00    0.00000   0.57676   -2.000
 7128.00    0.00000   0.57347   -2.000
 7129.00    0.00000   0.57101   -2.000
 7130.00    0.00000   0.56867   -2.000
 7131.00    0.00000   0.56708   -2.000
 7132.00    0.00000   0.56760   -2.000
 7133.00    0.00000   0.57040   -2.000
 7134.00    0.00000   0.57413   -2.000
 7135.00    0.00000   0.57734   -2.000
 7136.00    0.00000   0.57928   -2.000
 7137.00    0.00000   0.57985   -2.000
 7138.00    0.00000   0.57949   -2.000
 7139.00    0.00000   0.57887   -2.000
 7140.00    0.00000   0.57893   -2.000
 7141.00    0.00000   0.58010   -2.000
 7142.00    0.00000   0.58174   -2.000
 7143.00    0.00000   0.58294   -2.000
 7144.00    0.00000   0.58335   -2.000
 7145.00    0.00000   0.58260   -2.000
 7146.00    0.00000   0.58026   -2.000
 7147.00    0.00000   0.57662   -2.000
 7148.00    0.00000   0.57315   -2.000
 7149.00    0.00000   0.57216   -2.000
 7150.00    0.00000   0.57487   -2.000
 7151.00    0.00000   0.57985   -2.000
 7152.00    0.00000   0.58485   -2.000
 7153.00    0.00000   0.58876   -2.000
 7154.00    0.00000   0.59133   -2.000
 7155.00    0.00000   0.59292   -2.000
 7156.00    0.00000   0.59418   -2.000
 7157.00    0.00000   0.59517   -2.000
 7158.00    0.00000   0.59504   -2.000
 7159.00    0.00000   0.59335   -2.000
 7160.00    0.00000   0.59100   -2.000
 7161.00    0.00000   0.58897   -2.000
 7162.00    0.00000   0.58687   -2.000
 7163.00    0.00000   0.58344   -2.000
 7164.00    0.00000   0.57876   -2.000
 7165.00    0.00000   0.57531   -2.000
 7166.00    0.00000   0.57554   -2.000
 7167.00    0.00000   0.57916   -2.000
 7168.00    0.00000   0.58355   -2.000
 7169.00    0.00000   0.58660   -2.000
 7170.00    0.00000   0.58838   -2.000
 7171.00    0.00000   0.58999   -2.000
 7172.00    0.00000   0.59172   -2.000
 7173.00    0.00000   0.59283   -2.000
 7174.00    0.00000   0.59256   -2.000
 7175.00    0.00000   0.59107   -2.000
 7176.00    0.00000   0.58943   -2.000
 7177.00    0.00000   0.58851   -2.000
 7178.00    0.00000   0.58803   -2.000
 7179.00    0.00000   0.58676   -2.000
 7180.00    0.00000   0.58429   -2.000
 7181.00    0.00000   0.58222   -2.000
 7182.00    0.00000   0.58264   -2.000
 7183.00    0.00000   0.58574   -2.000
 7184.00    0.00000   0.58928   -2.000
 7185.00    0.00000   0.59030   -2.000
 7186.00    0.00000   0.58763   -2.000
 7187.00    0.00000   0.58261   -2.000
 7188.00    0.00000   0.57806   -2.000
 7189.00    0.00000   0.57662   -2.000
 7190.00    0.00000   0.57870   -2.000
 7191.00    0.00000   0.58254   -2.000
 7192.00    0.00000   0.58606   -2.000
 7193.00    0.00000   0.58819   -2.000
 7194.00    0.00000   0.58928   -2.000
 7195.00    0.00000   0.58966   -2.000
 7196.00    0.00000   0.58910   -2.000
 7197.00    0.00000   0.58772   -2.000
 7198.00    0.00000   0.58654   -2.000
 7199.00    0.00000   0.58623   -2.000
 7200.00    0.00000   0.58591   -2.000
 7201.00    0.00000   0.58482   -2.000
 7202.00    0.00000   0.58369   -2.000
 7203.00    0.00000   0.58394   -2.000
 7204.00    0.00000   0.58550   -2.000
 7205.00    0.00000   0.58593   -2.000
 7206.00    0.00000   0.58315   -2.000
 7207.00    0.00000   0.57818   -2.000
 7208.00    0.00000   0.57449   -2.000
 7209.00    0.00000   0.57499   -2.000
 7210.00    0.00000   0.57927   -2.000
 7211.00    0.00000   0.58470   -2.000
 7212.00    0.00000   0.58869   -2.000
 7213.00    0.00000   0.58999   -2.000
 7214.00    0.00000   0.58948   -2.000
 7215.00    0.00000   0.58891   -2.000
 7216.00    0.00000   0.58948   -2.000
 7217.00    0.00000   0.59134   -2.000
 7218.00    0.00000   0.59375   -2.000
