###################################################################
## OUTPUT of StarlightChains_v04.for    [Cid@UFSC - 01/Apr/2007] ##
###################################################################

## Some input info
1999gi.txt                               [arq_obs]
Base.CB07.vall.4m                        [arq_base]
Masks.EmLines.NEW.gm                     [arq_masks]
StCv04.C11.config                        [arq_config]
   66                                    [N_base]
    0                                    [N_YAV_components = # of components with extra extinction!]
    0                                    [i_FitPowerLaw (1/0 = Yes/No)]
-9.99                                    [alpha_PowerLaw]
CCM                                      [red_law_option]
 1.458241                                [q_norm = A(l_norm)/A(V)]

## (Re)Sampling Parameters
 3741.00                                 [l_ini (A)]
 7218.00                                 [l_fin (A)]
    1.00                                 [dl    (A)]     (OBS: dl_cushion =    50.00 A)

## Normalization info
 4020.00                                 [l_norm (A) - for base]
 4010.00                                 [llow_norm (A) - window for f_obs]
 4060.00                                 [lupp_norm (A) - window for f_obs]
2.752036E-15                             [fobs_norm (in input units)]

## S/N
 3691.00                                 [llow_SN (A) - window for S/N]
 7268.00                                 [lupp_SN (A) - window for S/N]
   6.008                                 [S/N in S/N window]
   5.395                                 [S/N in norm. window]
  10.000                                 [S/N_err in S/N window]
   8.979                                 [S/N_err in norm. window]
  1.0000                                 [fscale_chi2]

## etc...
    -2007245                             [idum_orig]
  2405                                   [NOl_eff]
  2366                                   [Nl_eff]
    39    NSIGMA                         [Ntot_cliped & clip_method]
   857360                                [Nglobal_steps]
   7                                     [N_chains]
  14                                     [NEX0s_base = N_base in EX0s-fits]
 0   0   1      118   2.0   1.334E+01    [Clip-Bug, RC-Crash & Burn-In warning-flags, n_censored_weights, wei_nsig_threshold & wei_limit]
    10     10.103      9.608      0.494  [idt_all, wdt_TotTime, wdt_UsrTime & wdt_SysTime (sec)]

## Synthesis Results - Best model ##

 9.17169E-01                             [chi2/Nl_eff]
     7.73123                             [adev (%)]

   116.09673                             [sum-of-x (%)]
 2.26183E-15                             [Flux_tot (units of input spectrum!)]
 5.93813E-11                             [Mini_tot (???)]
 3.19553E-11                             [Mcor_tot (???)]

-218.59                                  [v0_min  (km/s)]
 492.89                                  [vd_min  (km/s)]
-0.2572                                  [AV_min  (mag)]
 0.0000                                  [YAV_min (mag)]

# j     x_j(%)      Mini_j(%)     Mcor_j(%)     age_j(yr)     Z_j      (L/M)_j    YAV?  Mstars   component_j        a/Fe...       SSP_chi2r SSP_adev(%)   SSP_AV   SSP_x(%)
  1      0.0000     0.0000E+00    0.0000E+00    1.000000E+06  0.00400  1.094E-02    0   1.0000   age020_m42            0.0000     1.6109E+00    10.0683   3.2632    93.5811
  2      0.0000     0.0000E+00    0.0000E+00    3.160000E+06  0.00400  4.007E-02    0   0.9999   age045_m42            0.0000     1.4453E+00     9.4912   2.5145   101.0005
  3      0.0000     0.0000E+00    0.0000E+00    5.010000E+06  0.00400  2.539E-02    0   0.9488   age055_m42            0.0000     1.5173E+00     9.7333   2.8462    98.0129
  4      0.0000     0.0000E+00    0.0000E+00    6.610000E+06  0.00400  2.620E-02    0   0.9220   age061_m42            0.0000     1.4725E+00     9.5275   2.4397   101.2264
  5      0.0000     0.0000E+00    0.0000E+00    1.000000E+07  0.00400  1.322E-02    0   0.8862   age070_m42            0.0000     1.7010E+00    10.2175   2.1641   102.5934
  6      0.0000     0.0000E+00    0.0000E+00    1.445000E+07  0.00400  7.883E-03    0   0.8571   age078_m42            0.0000     1.7099E+00    10.2467   2.4967    99.8053
  7      0.0000     0.0000E+00    0.0000E+00    2.512000E+07  0.00400  5.251E-03    0   0.8174   age090_m42            0.0000     1.7482E+00    10.3678   2.0340   103.0849
  8      0.0000     0.0000E+00    0.0000E+00    4.000000E+07  0.00400  3.649E-03    0   0.7851   age104_m42            0.0000     1.6809E+00    10.1576   1.7997   104.3298
  9      0.0000     0.0000E+00    0.0000E+00    5.500000E+07  0.00400  3.098E-03    0   0.7629   age110_m42            0.0000     1.5830E+00     9.7723   1.9454   104.9160
 10      0.0000     0.0000E+00    0.0000E+00    1.015200E+08  0.00400  2.228E-03    0   0.7207   age116_m42            0.0000     1.5442E+00     9.6236   1.9623   105.4255
 11      0.0000     0.0000E+00    0.0000E+00    2.861200E+08  0.00400  1.093E-03    0   0.6648   age125_m42            0.0000     1.6175E+00     9.9107   1.3807   108.9102
 12      0.0000     0.0000E+00    0.0000E+00    5.088000E+08  0.00400  6.597E-04    0   0.6365   age130_m42            0.0000     1.5146E+00     9.5964   1.3615   110.5723
 13      0.0000     0.0000E+00    0.0000E+00    1.434000E+09  0.00400  2.132E-04    0   0.5798   age139_m42            0.0000     1.2615E+00     8.9296   0.3737   113.8953
 14      0.0000     0.0000E+00    0.0000E+00    4.250000E+09  0.00400  5.895E-05    0   0.5377   age158_m42            0.0000     9.9205E-01     8.0385  -0.0752   110.3597
 15      0.0015     1.4034E-03    1.3592E-03    7.500000E+09  0.00400  3.510E-05    0   0.5212   age171_m42            0.0000     9.6004E-01     7.9020  -0.2707   110.1623
 16      0.0000     0.0000E+00    0.0000E+00    1.300000E+10  0.00400  2.005E-05    0   0.5034   age193_m42            0.0000     9.5591E-01     7.8429  -0.4423   110.0239
 17      0.0000     0.0000E+00    0.0000E+00    1.800000E+10  0.00400  1.525E-05    0   0.4967   age213_m42            0.0000     9.5829E-01     7.8655  -0.4631   109.3978
 18      0.0000     0.0000E+00    0.0000E+00    1.000000E+06  0.00800  1.238E-02    0   1.0000   age020_m52            0.0000     1.6105E+00    10.0680   3.2609    93.7194
 19      0.0000     0.0000E+00    0.0000E+00    3.160000E+06  0.00800  3.074E-02    0   0.9966   age045_m52            0.0000     1.5871E+00    10.0047   3.1829    94.6249
 20      0.0000     0.0000E+00    0.0000E+00    5.010000E+06  0.00800  2.668E-02    0   0.9443   age055_m52            0.0000     1.5421E+00     9.8278   2.9312    97.0131
 21      0.0000     0.0000E+00    0.0000E+00    6.610000E+06  0.00800  2.136E-02    0   0.9177   age061_m52            0.0000     1.5346E+00     9.8204   1.6599   104.1210
 22      0.0000     0.0000E+00    0.0000E+00    1.000000E+07  0.00800  1.215E-02    0   0.8827   age070_m52            0.0000     1.8113E+00    10.6063   2.3474   102.0180
 23      0.0000     0.0000E+00    0.0000E+00    1.445000E+07  0.00800  8.717E-03    0   0.8552   age078_m52            0.0000     1.7011E+00    10.2493   2.4606   101.2505
 24      0.0000     0.0000E+00    0.0000E+00    2.512000E+07  0.00800  5.592E-03    0   0.8162   age090_m52            0.0000     1.7662E+00    10.4564   2.0947   104.4021
 25      0.0000     0.0000E+00    0.0000E+00    4.000000E+07  0.00800  3.896E-03    0   0.7841   age104_m52            0.0000     1.6855E+00    10.1785   1.9993   105.6785
 26      0.0000     0.0000E+00    0.0000E+00    1.015200E+08  0.00800  2.148E-03    0   0.7226   age116_m52            0.0000     1.5505E+00     9.7152   1.9290   106.1795
 27      0.0000     0.0000E+00    0.0000E+00    2.861200E+08  0.00800  9.925E-04    0   0.6683   age125_m52            0.0000     1.5257E+00     9.6115   1.4256   111.6381
 28      0.0000     0.0000E+00    0.0000E+00    9.047900E+08  0.00800  3.141E-04    0   0.6138   age135_m52            0.0000     1.2445E+00     8.8318   0.5951   118.3958
 29      0.0000     0.0000E+00    0.0000E+00    1.434000E+09  0.00800  1.719E-04    0   0.5853   age139_m52            0.0000     1.0929E+00     8.3602   0.0162   116.0150
 30      0.0000     0.0000E+00    0.0000E+00    2.500000E+09  0.00800  7.872E-05    0   0.5600   age150_m52            0.0000     9.5566E-01     7.8616  -0.2606   113.8161
 31      0.0020     1.5131E-03    1.5256E-03    4.250000E+09  0.00800  4.336E-05    0   0.5426   age158_m52            0.0000     9.4611E-01     7.8254  -0.2762   112.8080
 32      0.0000     0.0000E+00    0.0000E+00    6.250000E+09  0.00800  3.159E-05    0   0.5319   age166_m52            0.0000     9.5709E-01     7.8090  -0.4908   113.6693
 33      0.0000     0.0000E+00    0.0000E+00    1.300000E+10  0.00800  1.361E-05    0   0.5073   age193_m52            0.0000     1.0382E+00     7.9655  -0.9744   113.9876
 34      0.0000     0.0000E+00    0.0000E+00    1.800000E+10  0.00800  9.886E-06    0   0.4990   age213_m52            0.0000     1.1681E+00     8.2468  -1.0000   110.3500
 35      2.3551     5.0045E-03    9.2996E-03    1.000000E+06  0.02000  1.544E-02    0   1.0000   age020_m62            0.0000     1.6166E+00    10.0900   3.2572    93.9211
 36      0.0000     0.0000E+00    0.0000E+00    3.160000E+06  0.02000  3.762E-02    0   0.9858   age045_m62            0.0000     1.6064E+00    10.0686   3.1964    94.7583
 37      0.0000     0.0000E+00    0.0000E+00    5.010000E+06  0.02000  3.296E-02    0   0.9342   age055_m62            0.0000     1.4769E+00     9.5965   2.7996    99.5711
 38      0.0000     0.0000E+00    0.0000E+00    8.710000E+06  0.02000  1.154E-02    0   0.8861   age067_m62            0.0000     2.7033E+00    13.5154   1.8143   102.9993
 39      0.0000     0.0000E+00    0.0000E+00    1.445000E+07  0.02000  7.663E-03    0   0.8472   age078_m62            0.0000     2.0030E+00    11.3062   1.9933   104.0170
 40      0.0000     0.0000E+00    0.0000E+00    2.512000E+07  0.02000  4.532E-03    0   0.8099   age090_m62            0.0000     2.0770E+00    11.5101   1.9837   103.7202
 41      0.0000     0.0000E+00    0.0000E+00    5.500000E+07  0.02000  2.733E-03    0   0.7595   age110_m62            0.0000     1.6836E+00    10.1754   1.9846   104.8162
 42      0.0000     0.0000E+00    0.0000E+00    1.609000E+08  0.02000  1.369E-03    0   0.6985   age120_m62            0.0000     1.5896E+00     9.7503   1.8033   108.9532
 43      0.0000     0.0000E+00    0.0000E+00    2.861200E+08  0.02000  9.013E-04    0   0.6714   age125_m62            0.0000     1.5824E+00     9.7157   1.5388   112.9590
 44      0.0000     0.0000E+00    0.0000E+00    5.088000E+08  0.02000  5.028E-04    0   0.6449   age130_m62            0.0000     1.4113E+00     9.2375   1.1396   117.4894
 45      0.0000     0.0000E+00    0.0000E+00    9.047900E+08  0.02000  2.428E-04    0   0.6179   age135_m62            0.0000     1.0935E+00     8.3107   0.5380   117.9198
 46      0.0000     0.0000E+00    0.0000E+00    1.434000E+09  0.02000  1.263E-04    0   0.5908   age139_m62            0.0000     9.7750E-01     7.9211   0.0900   116.5912
 47      0.0000     0.0000E+00    0.0000E+00    2.500000E+09  0.02000  5.985E-05    0   0.5673   age150_m62            0.0000     9.4319E-01     7.7663  -0.2875   115.9295
 48     23.6543     2.3726E+01    2.4108E+01    4.250000E+09  0.02000  3.271E-05    0   0.5468   age158_m62            0.0000     1.0064E+00     7.8796  -0.6084   116.1186
 49      4.9408     1.1919E+01    1.1444E+01    1.000000E+10  0.02000  1.360E-05    0   0.5167   age181_m62            0.0000     1.2007E+00     8.3689  -0.9780   117.0825
 50      0.0000     0.0000E+00    0.0000E+00    1.800000E+10  0.02000  7.124E-06    0   0.5013   age213_m62            0.0000     1.5570E+00     9.1108  -1.0000   108.5986
 51     12.2415     1.5495E-02    2.8788E-02    1.000000E+06  0.05000  2.592E-02    0   0.9998   age020_m72            0.0000     1.6460E+00    10.1784   3.2513    93.8197
 52      0.0000     0.0000E+00    0.0000E+00    3.160000E+06  0.05000  4.845E-02    0   0.9577   age045_m72            0.0000     1.5378E+00     9.8500   3.0711    96.4046
 53      0.0000     0.0000E+00    0.0000E+00    5.010000E+06  0.05000  3.072E-02    0   0.9147   age055_m72            0.0000     1.8516E+00    10.7815   2.5831   100.2602
 54      0.0000     0.0000E+00    0.0000E+00    6.610000E+06  0.05000  1.455E-02    0   0.8877   age061_m72            0.0000     3.5391E+00    15.6200   1.8567   103.3544
 55      0.0000     0.0000E+00    0.0000E+00    1.000000E+07  0.05000  9.074E-03    0   0.8524   age070_m72            0.0000     1.9962E+00    11.1223   2.7621   100.0775
 56      0.0000     0.0000E+00    0.0000E+00    2.512000E+07  0.05000  4.250E-03    0   0.7902   age090_m72            0.0000     1.8965E+00    10.8514   2.4538   102.3092
 57      0.0000     0.0000E+00    0.0000E+00    4.000000E+07  0.05000  3.087E-03    0   0.7618   age104_m72            0.0000     1.9573E+00    11.0239   2.2203   104.1562
 58      0.0000     0.0000E+00    0.0000E+00    1.015200E+08  0.05000  1.700E-03    0   0.7096   age116_m72            0.0000     1.7038E+00    10.1280   1.9504   108.0605
 59      0.0000     0.0000E+00    0.0000E+00    2.861200E+08  0.05000  7.384E-04    0   0.6633   age125_m72            0.0000     1.5080E+00     9.5085   1.3949   115.3257
 60      0.0000     0.0000E+00    0.0000E+00    5.088000E+08  0.05000  3.819E-04    0   0.6372   age130_m72            0.0000     1.2138E+00     8.6927   0.8833   118.6617
 61     30.9706     6.0627E+00    6.8836E+00    9.047900E+08  0.05000  1.676E-04    0   0.6110   age135_m72            0.0000     9.6202E-01     7.8460   0.1699   118.1106
 62      0.0000     0.0000E+00    0.0000E+00    1.434000E+09  0.05000  8.837E-05    0   0.5874   age139_m72            0.0000     9.6489E-01     7.8114  -0.2955   118.0734
 63     34.3773     2.6645E+01    2.7718E+01    2.500000E+09  0.05000  4.233E-05    0   0.5598   age150_m72            0.0000     1.0509E+00     7.9943  -0.6176   117.6582
 64      2.3360     5.3410E+00    5.2096E+00    6.250000E+09  0.05000  1.435E-05    0   0.5249   age166_m72            0.0000     1.2680E+00     8.5161  -1.0000   113.5818
 65      5.2175     2.6283E+01    2.4596E+01    1.300000E+10  0.05000  6.513E-06    0   0.5036   age193_m72            0.0000     2.0541E+00    10.2944  -1.0000   103.1168
 66      0.0000     0.0000E+00    0.0000E+00    1.800000E+10  0.05000  4.527E-06    0   0.4945   age213_m72            0.0000     2.7805E+00    11.9419  -1.0000    96.3895


## Synthesis Results - Average & Chains ##

# j      x_j: min, <> & last-chain-values for 1 ...  7 chains
  1      0.0000      0.6439      2.8281      0.0000      1.4698      0.0000      0.6610      0.5281      0.0000
  2      0.0000      0.1085      0.0000      0.0000      0.0000      0.0000      0.0000      0.0000      0.0000
  3      0.0000      0.1859      0.2024      0.0000      0.0000      1.1630      0.0000      0.0000      0.0000
  4      0.0000      0.1064      0.0000      0.0000      0.0000      0.0000      0.0000      1.0389      0.0000
  5      0.0000      0.3242      0.0000      0.0000      0.0000      0.0000      0.5632      0.0000      0.0000
  6      0.0000      0.1175      0.0000      0.0000      0.0000      0.0000      0.0000      0.1255      0.0000
  7      0.0000      0.1623      0.0000      0.0000      0.0000      0.0000      0.0000      0.0000      0.0000
  8      0.0000      0.1775      0.0000      0.0000      0.0000      0.0000      0.0000      0.0000      1.4832
  9      0.0000      0.1292      0.0000      0.0304      0.0000      0.1676      0.0000      0.0000      0.0000
 10      0.0000      0.1151      0.0563      0.0000      0.0000      0.0000      0.0000      0.0000      0.0000
 11      0.0000      0.1488      0.0000      0.0000      0.0000      0.0000      0.0000      0.0000      0.0000
 12      0.0000      0.0855      0.0000      0.0000      0.0000      0.0000      0.0000      0.0000      0.0000
 13      0.0000      0.1779      0.0000      0.0000      0.0000      0.0000      0.0000      0.0000      0.0000
 14      0.0000      1.3789      0.0000      0.0000      0.0000      0.0000      0.0000      0.0000      1.8218
 15      0.0015      1.6113      0.0000      3.0610      0.0000      2.0992      0.0000     11.9356      0.0000
 16      0.0000      1.9538      0.0000      0.2268      3.3742      0.0000      1.7440      0.0000      0.0000
 17      0.0000      1.2136      0.0000      1.3338      0.0000      0.0000      0.8389      0.0000      2.3894
 18      0.0000      1.1406      4.9050      2.5978      1.6174      1.4019      3.8078      0.0000      0.7050
 19      0.0000      0.5246      0.0000      0.0000      0.0000      0.0000      0.0000      0.0000      0.1243
 20      0.0000      0.2330      0.0000      0.0000      0.0000      0.0000      0.0000      0.9663      0.0000
 21      0.0000      0.4686      0.0000      0.0000      1.8586      1.7212      0.0000      0.0000      0.0000
 22      0.0000      0.2519      0.0000      0.2926      0.0000      0.0000      0.0000      0.4368      0.0000
 23      0.0000      0.2289      0.0000      0.0000      0.0000      0.0000      0.0248      0.1500      0.0000
 24      0.0000      0.0822      0.0416      0.0000      0.3396      0.0000      0.0000      0.0000      0.0000
 25      0.0000      0.1073      0.0000      0.0000      0.0000      0.0000      0.0000      0.0000      0.0000
 26      0.0000      0.0848      0.0000      0.0000      0.0000      0.0000      0.0000      0.0000      0.0000
 27      0.0000      0.1082      0.0000      0.0000      0.0000      0.0000      0.0000      0.0000      0.0000
 28      0.0000      0.1304      0.0000      0.0000      0.0000      0.0000      0.0000      0.0000      0.1597
 29      0.0000      0.2433      0.0000      0.0000      0.0000      0.0000      0.0000      0.0000      0.0000
 30      0.0000      0.9485      0.0000      0.0000      0.0000      0.0000      0.2474      0.0000      0.0000
 31      0.0020      1.4049      0.0000      2.1083      0.0000      1.1231      0.0000      0.0000      1.2536
 32      0.0000      2.5104      0.0000      0.0000      0.0000      0.0000      3.6394      0.0000      0.0000
 33      0.0000      0.1595      0.0000      0.0000      0.0000      0.0000      0.0790      0.0000      0.0000
 34      0.0000      0.1014      0.0000      0.0000      0.0000      0.0000      0.1890      0.0804      0.0000
 35      2.3551      1.2412      2.1321      3.9562      0.0000      3.5238      1.9484      1.7009      1.5729
 36      0.0000      0.2472      0.0000      0.0000      1.4375      0.0000      0.0000      0.0000      0.0000
 37      0.0000      0.1235      0.0000      0.0000      0.0000      0.0000      0.0000      0.0000      0.0000
 38      0.0000      0.4878      0.0000      2.2179      0.4348      0.0000      0.0000      1.0504      0.0000
 39      0.0000      0.3667      0.0000      0.0714      0.0000      0.0000      0.0000      0.0000      0.0000
 40      0.0000      0.1012      0.0000      0.0000      0.0000      0.0000      0.5213      0.0000      0.0000
 41      0.0000      0.1388      0.0000      0.0490      0.0000      0.0000      0.0000      0.0000      0.0000
 42      0.0000      0.0581      0.3741      0.0000      0.0000      0.0000      0.0000      0.0000      0.0000
 43      0.0000      0.0593      0.0000      0.1432      0.0000      0.4070      0.0000      0.0000      0.0000
 44      0.0000      0.0866      0.0244      0.0000      0.0000      0.0000      0.0193      0.0000      0.0000
 45      0.0000      0.2526      0.0000      0.0000      0.0000      0.0000      0.0000      0.0000      0.0889
 46      0.0000      1.4054      0.0000      0.7872      0.0000      0.0000      1.5877      0.0000      0.0000
 47      0.0000     16.2150     26.5310     15.0510     33.3483     16.7542     17.8603     14.2532     16.5746
 48     23.6543      8.6805     10.2676     12.7261     10.5246     12.3784      9.2062     11.0016      7.3032
 49      4.9408      1.7974      0.0000      2.4627      2.8325      1.0493      0.0000      0.0000      3.0042
 50      0.0000      0.4006      0.7460      0.4679      0.0000      0.0000      2.6301      0.0000      0.0000
 51     12.2415      1.7742      1.1432      1.6578      2.3958      2.8025      0.5260      3.8176      4.3561
 52      0.0000      0.5419      0.0000      0.0000      0.0000      0.0000      3.6222      0.0000      2.7450
 53      0.0000      0.2108      0.0000      0.0000      0.0000      0.0000      0.0000      0.0000      0.0000
 54      0.0000      0.0979      0.0000      0.0000      0.0000      0.0000      0.0000      0.0000      0.0000
 55      0.0000      0.1132      0.0000      0.0000      0.0000      0.0000      0.0000      0.0000      0.0000
 56      0.0000      0.0929      0.0000      0.0673      0.0000      0.0000      0.0000      0.3300      0.5887
 57      0.0000      0.0654      0.0000      0.0000      0.0000      0.0000      0.0000      0.0000      0.0000
 58      0.0000      0.1049      0.0000      0.0000      0.0000      0.0000      0.0000      0.0000      0.0000
 59      0.0000      0.0629      0.0000      0.0000      0.0000      0.0000      0.0000      0.0000      0.0000
 60      0.0000      0.1107      0.0000      0.0000      0.0000      0.0000      0.0000      0.0000      0.0000
 61     30.9706     41.5312     44.2094     46.4905     43.0378     45.8946     43.7315     43.0654     44.0725
 62      0.0000      4.0312      0.3394      0.0000      1.7456      4.4043      1.1022      0.8540      4.0217
 63     34.3773     16.6613     21.5836     17.4085     11.3564     20.7236     19.2946     23.2954     21.2471
 64      2.3360      0.7764      0.2766      2.0380      0.0000      0.9451      0.4355      0.0000      0.2019
 65      5.2175      0.4474      0.1979      0.9469      0.0000      0.0000      1.2090      0.0000      1.9802
 66      0.0000      0.1072      0.0000      0.0000      0.0000      0.0000      0.0000      0.8155      0.0000

# j      m_j: min, <> & last-chain-values for 1 ...  7 chains
  1  0.0000E+00  5.4420E-03  2.7183E-02  0.0000E+00  1.3386E-02  0.0000E+00  5.0588E-03  4.5511E-03  0.0000E+00
  2  0.0000E+00  2.5040E-04  0.0000E+00  0.0000E+00  0.0000E+00  0.0000E+00  0.0000E+00  0.0000E+00  0.0000E+00
  3  0.0000E+00  6.4220E-04  7.9533E-04  0.0000E+00  0.0000E+00  4.5414E-03  0.0000E+00  0.0000E+00  0.0000E+00
  4  0.0000E+00  3.4611E-04  0.0000E+00  0.0000E+00  0.0000E+00  0.0000E+00  0.0000E+00  3.4469E-03  0.0000E+00
  5  0.0000E+00  2.0092E-03  0.0000E+00  0.0000E+00  0.0000E+00  0.0000E+00  3.1606E-03  0.0000E+00  0.0000E+00
  6  0.0000E+00  1.1812E-03  0.0000E+00  0.0000E+00  0.0000E+00  0.0000E+00  0.0000E+00  1.2866E-03  0.0000E+00
  7  0.0000E+00  2.3353E-03  0.0000E+00  0.0000E+00  0.0000E+00  0.0000E+00  0.0000E+00  0.0000E+00  0.0000E+00
  8  0.0000E+00  3.5313E-03  0.0000E+00  0.0000E+00  0.0000E+00  0.0000E+00  0.0000E+00  0.0000E+00  2.8149E-02
  9  0.0000E+00  2.9422E-03  0.0000E+00  6.4782E-04  0.0000E+00  4.3126E-03  0.0000E+00  0.0000E+00  0.0000E+00
 10  0.0000E+00  3.4413E-03  1.9164E-03  0.0000E+00  0.0000E+00  0.0000E+00  0.0000E+00  0.0000E+00  0.0000E+00
 11  0.0000E+00  8.3667E-03  0.0000E+00  0.0000E+00  0.0000E+00  0.0000E+00  0.0000E+00  0.0000E+00  0.0000E+00
 12  0.0000E+00  7.6234E-03  0.0000E+00  0.0000E+00  0.0000E+00  0.0000E+00  0.0000E+00  0.0000E+00  0.0000E+00
 13  0.0000E+00  4.4741E-02  0.0000E+00  0.0000E+00  0.0000E+00  0.0000E+00  0.0000E+00  0.0000E+00  0.0000E+00
 14  0.0000E+00  1.1628E+00  0.0000E+00  0.0000E+00  0.0000E+00  0.0000E+00  0.0000E+00  0.0000E+00  1.4657E+00
 15  1.3592E-03  2.2120E+00  0.0000E+00  3.9357E+00  0.0000E+00  3.2573E+00  0.0000E+00  1.6709E+01  0.0000E+00
 16  0.0000E+00  4.5353E+00  0.0000E+00  4.9307E-01  8.4412E+00  0.0000E+00  3.6659E+00  0.0000E+00  0.0000E+00
 17  0.0000E+00  3.6546E+00  0.0000E+00  3.7617E+00  0.0000E+00  0.0000E+00  2.2877E+00  0.0000E+00  6.8645E+00
 18  0.0000E+00  8.5178E-03  4.1662E-02  1.8170E-02  1.3018E-02  1.1833E-02  2.5751E-02  0.0000E+00  5.0229E-03
 19  0.0000E+00  1.5724E-03  0.0000E+00  0.0000E+00  0.0000E+00  0.0000E+00  0.0000E+00  0.0000E+00  3.5537E-04
 20  0.0000E+00  7.6235E-04  0.0000E+00  0.0000E+00  0.0000E+00  0.0000E+00  0.0000E+00  3.2245E-03  0.0000E+00
 21  0.0000E+00  1.8613E-03  0.0000E+00  0.0000E+00  7.9563E-03  7.7277E-03  0.0000E+00  0.0000E+00  0.0000E+00
 22  0.0000E+00  1.6921E-03  0.0000E+00  1.8409E-03  0.0000E+00  0.0000E+00  0.0000E+00  2.9917E-03  0.0000E+00
 23  0.0000E+00  2.0758E-03  0.0000E+00  0.0000E+00  0.0000E+00  0.0000E+00  2.0358E-04  1.3873E-03  0.0000E+00
 24  0.0000E+00  1.1094E-03  6.3809E-04  0.0000E+00  4.9396E-03  0.0000E+00  0.0000E+00  0.0000E+00  0.0000E+00
 25  0.0000E+00  1.9966E-03  0.0000E+00  0.0000E+00  0.0000E+00  0.0000E+00  0.0000E+00  0.0000E+00  0.0000E+00
 26  0.0000E+00  2.6386E-03  0.0000E+00  0.0000E+00  0.0000E+00  0.0000E+00  0.0000E+00  0.0000E+00  0.0000E+00
 27  0.0000E+00  6.7347E-03  0.0000E+00  0.0000E+00  0.0000E+00  0.0000E+00  0.0000E+00  0.0000E+00  0.0000E+00
 28  0.0000E+00  2.3565E-02  0.0000E+00  0.0000E+00  0.0000E+00  0.0000E+00  0.0000E+00  0.0000E+00  2.7531E-02
 29  0.0000E+00  7.6578E-02  0.0000E+00  0.0000E+00  0.0000E+00  0.0000E+00  0.0000E+00  0.0000E+00  0.0000E+00
 30  0.0000E+00  6.2381E-01  0.0000E+00  0.0000E+00  0.0000E+00  0.0000E+00  1.4737E-01  0.0000E+00  0.0000E+00
 31  1.5256E-03  1.6254E+00  0.0000E+00  2.2845E+00  0.0000E+00  1.4686E+00  0.0000E+00  0.0000E+00  1.3838E+00
 32  0.0000E+00  3.9080E+00  0.0000E+00  0.0000E+00  0.0000E+00  0.0000E+00  5.1305E+00  0.0000E+00  0.0000E+00
 33  0.0000E+00  5.4976E-01  0.0000E+00  0.0000E+00  0.0000E+00  0.0000E+00  2.4665E-01  0.0000E+00  0.0000E+00
 34  0.0000E+00  4.7333E-01  0.0000E+00  0.0000E+00  0.0000E+00  0.0000E+00  7.9876E-01  3.8265E-01  0.0000E+00
 35  9.2996E-03  7.4325E-03  1.4521E-02  2.2186E-02  0.0000E+00  2.3849E-02  1.0565E-02  1.0385E-02  8.9860E-03
 36  0.0000E+00  5.9879E-04  0.0000E+00  0.0000E+00  3.7532E-03  0.0000E+00  0.0000E+00  0.0000E+00  0.0000E+00
 37  0.0000E+00  3.2355E-04  0.0000E+00  0.0000E+00  0.0000E+00  0.0000E+00  0.0000E+00  0.0000E+00  0.0000E+00
 38  0.0000E+00  3.4632E-03  0.0000E+00  1.4746E-02  3.3268E-03  0.0000E+00  0.0000E+00  7.6039E-03  0.0000E+00
 39  0.0000E+00  3.7478E-03  0.0000E+00  6.8343E-04  0.0000E+00  0.0000E+00  0.0000E+00  0.0000E+00  0.0000E+00
 40  0.0000E+00  1.6713E-03  0.0000E+00  0.0000E+00  0.0000E+00  0.0000E+00  7.7992E-03  0.0000E+00  0.0000E+00
 41  0.0000E+00  3.5671E-03  0.0000E+00  1.1782E-03  0.0000E+00  0.0000E+00  0.0000E+00  0.0000E+00  0.0000E+00
 42  0.0000E+00  2.7399E-03  2.0070E-02  0.0000E+00  0.0000E+00  0.0000E+00  0.0000E+00  0.0000E+00  0.0000E+00
 43  0.0000E+00  4.0852E-03  0.0000E+00  9.2359E-03  0.0000E+00  3.1684E-02  0.0000E+00  0.0000E+00  0.0000E+00
 44  0.0000E+00  1.0264E-02  3.2924E-03  0.0000E+00  0.0000E+00  0.0000E+00  2.0744E-03  0.0000E+00  0.0000E+00
 45  0.0000E+00  5.9431E-02  0.0000E+00  0.0000E+00  0.0000E+00  0.0000E+00  0.0000E+00  0.0000E+00  1.9953E-02
 46  0.0000E+00  6.0781E-01  0.0000E+00  3.1887E-01  0.0000E+00  0.0000E+00  6.2182E-01  0.0000E+00  0.0000E+00
 47  0.0000E+00  1.4210E+01  2.6444E+01  1.2353E+01  3.1496E+01  1.6595E+01  1.4174E+01  1.2737E+01  1.3858E+01
 48  2.4108E+01  1.3416E+01  1.8049E+01  1.8421E+01  1.7530E+01  2.1623E+01  1.2885E+01  1.7338E+01  1.0769E+01
 49  1.1444E+01  6.3134E+00  0.0000E+00  8.1018E+00  1.0723E+01  4.1658E+00  0.0000E+00  0.0000E+00  1.0068E+01
 50  0.0000E+00  2.6062E+00  5.5204E+00  2.8509E+00  0.0000E+00  0.0000E+00  1.5495E+01  0.0000E+00  0.0000E+00
 51  2.8788E-02  6.3271E-03  4.6370E-03  5.5371E-03  9.2079E-03  1.1296E-02  1.6988E-03  1.3883E-02  1.4821E-02
 52  0.0000E+00  9.9034E-04  0.0000E+00  0.0000E+00  0.0000E+00  0.0000E+00  5.9946E-03  0.0000E+00  4.7860E-03
 53  0.0000E+00  5.8024E-04  0.0000E+00  0.0000E+00  0.0000E+00  0.0000E+00  0.0000E+00  0.0000E+00  0.0000E+00
 54  0.0000E+00  5.5241E-04  0.0000E+00  0.0000E+00  0.0000E+00  0.0000E+00  0.0000E+00  0.0000E+00  0.0000E+00
 55  0.0000E+00  9.8321E-04  0.0000E+00  0.0000E+00  0.0000E+00  0.0000E+00  0.0000E+00  0.0000E+00  0.0000E+00
 56  0.0000E+00  1.5967E-03  0.0000E+00  1.0837E-03  0.0000E+00  0.0000E+00  0.0000E+00  5.7841E-03  9.6554E-03
 57  0.0000E+00  1.4920E-03  0.0000E+00  0.0000E+00  0.0000E+00  0.0000E+00  0.0000E+00  0.0000E+00  0.0000E+00
 58  0.0000E+00  4.0468E-03  0.0000E+00  0.0000E+00  0.0000E+00  0.0000E+00  0.0000E+00  0.0000E+00  0.0000E+00
 59  0.0000E+00  5.2209E-03  0.0000E+00  0.0000E+00  0.0000E+00  0.0000E+00  0.0000E+00  0.0000E+00  0.0000E+00
 60  0.0000E+00  1.7069E-02  0.0000E+00  0.0000E+00  0.0000E+00  0.0000E+00  0.0000E+00  0.0000E+00  0.0000E+00
 61  6.8836E+00  1.3998E+01  1.6948E+01  1.4676E+01  1.5633E+01  1.7484E+01  1.3348E+01  1.4801E+01  1.4172E+01
 62  0.0000E+00  2.4774E+00  2.3725E-01  0.0000E+00  1.1561E+00  3.0593E+00  6.1338E-01  5.3517E-01  2.3580E+00
 63  2.7718E+01  2.0371E+01  3.0015E+01  1.9935E+01  1.4964E+01  2.8639E+01  2.1363E+01  2.9044E+01  2.4785E+01
 64  5.2096E+00  2.6255E+00  1.0638E+00  6.4549E+00  0.0000E+00  3.6125E+00  1.3336E+00  0.0000E+00  6.5149E-01
 65  2.4596E+01  3.1982E+00  1.6087E+00  6.3395E+00  0.0000E+00  0.0000E+00  7.8270E+00  0.0000E+00  1.3506E+01
 66  0.0000E+00  1.0829E+00  0.0000E+00  0.0000E+00  0.0000E+00  0.0000E+00  0.0000E+00  8.3980E+00  0.0000E+00

# AV, chi2 & Mass for <> & i_chain = 1 ...  7 solutions
AV      -0.2572     -0.0824     -0.0523     -0.1082     -0.0825     -0.0842     -0.0868     -0.0971     -0.0872
chi2 9.1717E-01  9.3025E-01  9.2551E-01  9.2530E-01  9.2649E-01  9.2588E-01  9.2626E-01  9.2677E-01  9.2652E-01
Mass 3.1955E-11  2.6649E-11  2.4395E-11  2.7483E-11  2.4724E-11  2.3518E-11  2.9253E-11  2.5623E-11  2.7752E-11
-218.59                                  [v0_min (km/s) before EX0s...]
 492.89                                  [vd_min (km/s) before EX0s...]


## Synthetic spectrum (Best Model) ##l_obs f_obs f_syn wei
 3478    [Nl_obs]
 3741.00    0.53930   0.61644    0.000
 3742.00    0.64305   0.61780    0.000
 3743.00    0.78145   0.61710    0.000
 3744.00    0.89771   0.61816    0.000
 3745.00    0.95420   0.62028   -1.000
 3746.00    0.93901   0.62398   -1.000
 3747.00    0.86312   0.62946   -1.000
 3748.00    0.75346   0.63367   13.272
 3749.00    0.65109   0.63960   13.343
 3750.00    0.60278   0.64601   13.343
 3751.00    0.62911   0.65321   13.343
 3752.00    0.71143   0.66017   13.343
 3753.00    0.79806   0.66498   12.530
 3754.00    0.84473   0.66982   11.838
 3755.00    0.84008   0.67409   11.904
 3756.00    0.80455   0.67811   12.429
 3757.00    0.76620   0.68164   13.051
 3758.00    0.73731   0.68321   13.343
 3759.00    0.71297   0.68465   13.343
 3760.00    0.68159   0.68682   13.343
 3761.00    0.64040   0.68915   13.343
 3762.00    0.59774   0.69253   13.343
 3763.00    0.56868   0.69586   13.343
 3764.00    0.56546   0.69979   13.343
 3765.00    0.59509   0.70516   13.343
 3766.00    0.65802   0.71151   13.343
 3767.00    0.74371   0.71927   13.343
 3768.00    0.82879   0.72768   12.066
 3769.00    0.88134   0.73748   11.346
 3770.00    0.88479   0.74733   11.302
 3771.00    0.85209   0.75731   11.736
 3772.00    0.82304   0.76792   12.150
 3773.00    0.83347   0.77687   11.998
 3774.00    0.88743   0.78679   11.268
 3775.00    0.95629   0.79460   10.457
 3776.00    1.00033   0.79974    9.997
 3777.00    0.99856   0.80439   10.014
 3778.00    0.95252   0.80455   10.498
 3779.00    0.87914   0.80472   11.375
 3780.00    0.79552   0.80216   12.570
 3781.00    0.71557   0.79563   13.343
 3782.00    0.64912   0.78889   13.343
 3783.00    0.59919   0.77819   13.343
 3784.00    0.56102   0.76772   13.343
 3785.00    0.52408   0.75645   13.343
 3786.00    0.48245   0.74369   -1.000
 3787.00    0.44066   0.73217   -1.000
 3788.00    0.41256   0.72022   -1.000
 3789.00    0.41003   0.70950   -1.000
 3790.00    0.43347   0.70053   -1.000
 3791.00    0.47176   0.69395   13.343
 3792.00    0.51163   0.68957   13.343
 3793.00    0.54981   0.68719   13.343
 3794.00    0.59422   0.68661   13.343
 3795.00    0.65457   0.68916   13.343
 3796.00    0.72403   0.69469   13.343
 3797.00    0.77550   0.70143   12.895
 3798.00    0.77419   0.70947   12.917
 3799.00    0.71567   0.71757   13.343
 3800.00    0.63848   0.72738   13.343
 3801.00    0.61144   0.73724   13.343
 3802.00    0.67117   0.74491   13.343
 3803.00    0.79008   0.75181   12.657
 3804.00    0.88416   0.75690   11.310
 3805.00    0.88429   0.76035   11.308
 3806.00    0.79221   0.76199   12.623
 3807.00    0.68003   0.76019   13.343
 3808.00    0.63236   0.75658   13.343
 3809.00    0.67688   0.75282   13.343
 3810.00    0.77758   0.74563   12.860
 3811.00    0.86651   0.73667   11.541
 3812.00    0.90192   0.72720   11.087
 3813.00    0.87934   0.71655   11.372
 3814.00    0.82245   0.70771   12.159
 3815.00    0.75734   0.69614   13.204
 3816.00    0.70449   0.68269   13.343
 3817.00    0.67797   0.67180   13.343
 3818.00    0.68198   0.66088   13.343
 3819.00    0.70921   0.65050   13.343
 3820.00    0.74231   0.63904   13.343
 3821.00    0.76520   0.62604   13.068
 3822.00    0.77133   0.61592   12.965
 3823.00    0.76372   0.60686   13.094
 3824.00    0.74933   0.59640   13.343
 3825.00    0.73276   0.58675   13.343
 3826.00    0.71560   0.57771   13.343
 3827.00    0.69750   0.57028   13.343
 3828.00    0.67782   0.56552   13.343
 3829.00    0.65606   0.56069   13.343
 3830.00    0.63230   0.55731   13.343
 3831.00    0.60878   0.55738   13.343
 3832.00    0.59024   0.55863   13.343
 3833.00    0.58318   0.56276   13.343
 3834.00    0.59244   0.57037   13.343
 3835.00    0.61976   0.57768   13.343
 3836.00    0.66330   0.58796   13.343
 3837.00    0.71471   0.59988   13.343
 3838.00    0.75716   0.61192   13.207
 3839.00    0.76665   0.62779   13.044
 3840.00    0.72898   0.64089   13.343
 3841.00    0.65737   0.65292   13.343
 3842.00    0.59309   0.66609   13.343
 3843.00    0.58168   0.67726   13.343
 3844.00    0.63517   0.68965   13.343
 3845.00    0.72621   0.69767   13.343
 3846.00    0.80477   0.70285   12.426
 3847.00    0.83895   0.70895    0.000
 3848.00    0.82582   0.71312    0.000
 3849.00    0.78587   0.71810    0.000
 3850.00    0.74144   0.71890    0.000
 3851.00    0.70771   0.71781    0.000
 3852.00    0.69270   0.71956    0.000
 3853.00    0.69798   0.71987    0.000
 3854.00    0.71919   0.72169    0.000
 3855.00    0.74664   0.72171    0.000
 3856.00    0.77131   0.72041    0.000
 3857.00    0.79080   0.72253    0.000
 3858.00    0.80956   0.72388    0.000
 3859.00    0.83355   0.72512    0.000
 3860.00    0.86241   0.72608    0.000
 3861.00    0.88838   0.72687    0.000
 3862.00    0.89983   0.72835    0.000
 3863.00    0.88957   0.72894    0.000
 3864.00    0.85686   0.72799    0.000
 3865.00    0.80688   0.72609    0.000
 3866.00    0.74904   0.72662    0.000
 3867.00    0.69632   0.72605    0.000
 3868.00    0.66363   0.72324    0.000
 3869.00    0.65884   0.72001    0.000
 3870.00    0.67737   0.71505    0.000
 3871.00    0.70319   0.71414    0.000
 3872.00    0.72012   0.71243    0.000
 3873.00    0.72221   0.70595    0.000
 3874.00    0.71419   0.70137    0.000
 3875.00    0.70541   0.69634    0.000
 3876.00    0.70134   0.69356    0.000
 3877.00    0.70244   0.69026    0.000
 3878.00    0.70606   0.68229    0.000
 3879.00    0.71027   0.67898    0.000
 3880.00    0.71478   0.67702    0.000
 3881.00    0.72060   0.67430   13.343
 3882.00    0.72873   0.67321   13.343
 3883.00    0.73983   0.67186   13.343
 3884.00    0.75392   0.67537   13.264
 3885.00    0.76931   0.68002   12.999
 3886.00    0.78202   0.68325   12.787
 3887.00    0.78617   0.68909   12.720
 3888.00    0.77784   0.69806   12.856
 3889.00    0.75840   0.70889   13.186
 3890.00    0.73449   0.71802   13.343
 3891.00    0.71400   0.72725   13.343
 3892.00    0.70094   0.73676   13.343
 3893.00    0.69485   0.74912   13.343
 3894.00    0.69218   0.76056   13.343
 3895.00    0.68927   0.76699   13.343
 3896.00    0.68292   0.77758   13.343
 3897.00    0.67162   0.78550   13.343
 3898.00    0.65915   0.79270   13.343
 3899.00    0.65589   0.80252   13.343
 3900.00    0.67618   0.80683   13.343
 3901.00    0.72579   0.81553   13.343
 3902.00    0.79538   0.82222   12.573
 3903.00    0.86204   0.82518   11.600
 3904.00    0.90382   0.83362   11.064
 3905.00    0.91116   0.83669   10.975
 3906.00    0.88730   0.84004   11.270
 3907.00    0.84312   0.84455   11.861
 3908.00    0.79085   0.84308   12.645
 3909.00    0.74326   0.84446   13.343
 3910.00    0.71102   0.84234   13.343
 3911.00    0.69786   0.83654   13.343
 3912.00    0.69964   0.83175   13.343
 3913.00    0.70666   0.82226   13.343
 3914.00    0.71009   0.81247   13.343
 3915.00    0.70406   0.80063   13.343
 3916.00    0.68609   0.78589   13.343
 3917.00    0.65918   0.76978   13.343
 3918.00    0.63281   0.75121   13.343
 3919.00    0.62169   0.73257   13.343
 3920.00    0.63619   0.71134   13.343
 3921.00    0.67520   0.69014   13.343
 3922.00    0.72634   0.66828   13.343
 3923.00    0.77369   0.64527   12.925
 3924.00    0.80652   0.62497   12.399
 3925.00    0.82013   0.60339   12.193
 3926.00    0.81336   0.58450   12.295
 3927.00    0.78429   0.56924   12.750
 3928.00    0.72955   0.55542   13.343
 3929.00    0.64780   0.54712   13.343
 3930.00    0.54883   0.54116   13.343
 3931.00    0.45621   0.53932   13.343
 3932.00    0.40200   0.54323   13.343
 3933.00    0.40444   0.54964   13.343
 3934.00    0.45791   0.56116   13.343
 3935.00    0.53563   0.57542   13.343
 3936.00    0.61033   0.59079   13.343
 3937.00    0.66847   0.61098   13.343
 3938.00    0.71033   0.63302   13.343
 3939.00    0.74211   0.65357   13.343
 3940.00    0.76758   0.67393   13.028
 3941.00    0.78739   0.69389   12.700
 3942.00    0.80143   0.71522   12.478
 3943.00    0.81266   0.73682   12.305
 3944.00    0.82768   0.75101   12.082
 3945.00    0.85306   0.76274   11.723
 3946.00    0.88627   0.77785   11.283
 3947.00    0.91330   0.78799   10.949
 3948.00    0.91352   0.79290   10.947
 3949.00    0.87843   0.79398   11.384
 3950.00    0.81955   0.79214   12.202
 3951.00    0.76526   0.79274   13.067
 3952.00    0.73917   0.78561   13.343
 3953.00    0.74627   0.76902   13.343
 3954.00    0.77339   0.75537   12.930
 3955.00    0.80159   0.74062   12.475
 3956.00    0.81824   0.72205   12.221
 3957.00    0.81811   0.70058   12.223
 3958.00    0.80208   0.67464   12.468
 3959.00    0.77520   0.65298   12.900
 3960.00    0.74637   0.63374    0.000
 3961.00    0.72486   0.61167    0.000
 3962.00    0.71244   0.59363    0.000
 3963.00    0.70141   0.58022    0.000
 3964.00    0.67871   0.57137    0.000
 3965.00    0.64063   0.56668    0.000
 3966.00    0.59855   0.56500    0.000
 3967.00    0.57558   0.57080    0.000
 3968.00    0.58652   0.58260    0.000
 3969.00    0.62573   0.59888    0.000
 3970.00    0.66856   0.61838    0.000
 3971.00    0.69039   0.64067    0.000
 3972.00    0.68410   0.66868    0.000
 3973.00    0.66089   0.69572    0.000
 3974.00    0.63935   0.72315    0.000
 3975.00    0.63023   0.75327    0.000
 3976.00    0.63434   0.78091    0.000
 3977.00    0.64580   0.81043    0.000
 3978.00    0.65892   0.83507    0.000
 3979.00    0.66981   0.85579    0.000
 3980.00    0.67697   0.88069    0.000
 3981.00    0.68325   0.89878   13.343
 3982.00    0.69660   0.91542   13.343
 3983.00    0.72835   0.93201   13.343
 3984.00    0.78439   0.94318   12.749
 3985.00    0.86009   0.95821   11.627
 3986.00    0.94118   0.96738   10.625
 3987.00    1.01268   0.97260    9.875
 3988.00    1.06659   0.98349    9.376
 3989.00    1.10229   0.98906    9.072
 3990.00    1.12335   0.99411    8.902
 3991.00    1.13334   1.00066    8.823
 3992.00    1.13536   1.00406    8.808
 3993.00    1.13242   1.00915    8.831
 3994.00    1.12835   1.01107    8.863
 3995.00    1.12794   1.01269    8.866
 3996.00    1.13494   1.01916    8.811
 3997.00    1.14582   1.02200    8.727
 3998.00    1.14763   1.02291    8.714
 3999.00    1.12138   1.02698    8.918
 4000.00    1.05860   1.03211    9.446
 4001.00    0.97008   1.03542   10.308
 4002.00    0.88388   1.03594   11.314
 4003.00    0.82667   1.03922   12.097
 4004.00    0.80867   1.04709   12.366
 4005.00    0.82341   1.05313   12.145
 4006.00    0.85721   1.05510   11.666
 4007.00    0.90086   1.06019   11.100
 4008.00    0.95087   1.06821   10.517
 4009.00    1.00550   1.07203    9.945
 4010.00    1.05740   1.07540    9.457
 4011.00    1.09223   1.07950    9.156
 4012.00    1.09397   1.08474    9.141
 4013.00    1.06029   1.09002    9.431
 4014.00    1.00737   1.08885    9.927
 4015.00    0.96499   1.09011   10.363
 4016.00    0.95387   1.09388   10.484
 4017.00    0.97461   1.09216   10.261
 4018.00    1.00935   1.09081    9.907
 4019.00    1.03668   1.08760    9.646
 4020.00    1.04286   1.08546    9.589
 4021.00    1.02247   1.08344    9.780
 4022.00    0.97931   1.07528   10.211
 4023.00    0.92732   1.07251   10.784
 4024.00    0.89022   1.07030   11.233
 4025.00    0.89159   1.06488   11.216
 4026.00    0.93741   1.06330   10.668
 4027.00    1.01304   1.05678    9.871
 4028.00    1.09091   1.05358    9.167
 4029.00    1.15130   1.05441    8.686
 4030.00    1.18832   1.04923    8.415
 4031.00    1.20707   1.05072    8.284
 4032.00    1.21114   1.05237    8.257
 4033.00    1.19694   1.05051    8.355
 4034.00    1.15527   1.05284    8.656
 4035.00    1.08330   1.05098    9.231
 4036.00    0.99293   1.05174   10.071
 4037.00    0.90983   1.05299   10.991
 4038.00    0.85706   1.04842   11.668
 4039.00    0.83751   1.05117   11.940
 4040.00    0.83287   1.05228   12.007
 4041.00    0.81904   1.04803   12.209
 4042.00    0.79109   1.04650   -1.000
 4043.00    0.76720   1.04310   -1.000
 4044.00    0.77603   1.04463   -1.000
 4045.00    0.82521   1.04619   12.118
 4046.00    0.89280   1.04009   11.201
 4047.00    0.93700   1.04030   10.672
 4048.00    0.93414   1.04219   10.705
 4049.00    0.89489   1.03763   11.175
 4050.00    0.85930   1.03582   11.637
 4051.00    0.86305   1.03297   11.587
 4052.00    0.91548   1.02798   10.923
 4053.00    1.00000   1.02840   10.000
 4054.00    1.09049   1.02621    9.170
 4055.00    1.16758   1.01954    8.565
 4056.00    1.22007   1.01758    8.196
 4057.00    1.24320   1.01573    8.044
 4058.00    1.23613   1.01350    8.090
 4059.00    1.20154   1.01231    8.323
 4060.00    1.14517   1.00445    8.732
 4061.00    1.07485   1.00189    9.304
 4062.00    1.00023   1.00867    9.998
 4063.00    0.93206   1.00569   10.729
 4064.00    0.87944   1.00157   11.371
 4065.00    0.84878   1.00425   11.782
 4066.00    0.84339   1.00540   11.857
 4067.00    0.86146   1.00754   11.608
 4068.00    0.89474   1.00452   11.176
 4069.00    0.92936   1.00294   10.760
 4070.00    0.95445   1.01283   10.477
 4071.00    0.97008   1.01490   10.308
 4072.00    0.98737   1.01336   10.128
 4073.00    1.01824   1.01878    9.821
 4074.00    1.06095   1.02162    9.426
 4075.00    1.09829   1.02697    9.105
 4076.00    1.10739   1.03316    9.030
 4077.00    1.08094   1.03719    9.251
 4078.00    1.03208   1.04652    9.689
 4079.00    0.98779   1.05277   10.124
 4080.00    0.96666   1.05534   10.345
 4081.00    0.97070   1.06034   10.302
 4082.00    0.98772   1.06378   10.124
 4083.00    1.00517   1.06635    9.949
 4084.00    1.01795   1.06766    9.824
 4085.00    1.02801   1.06744    9.728
 4086.00    1.03791   1.06489    9.635
 4087.00    1.04533   1.05887    9.566
 4088.00    1.04295   1.05329    9.588
 4089.00    1.02485   1.04345    9.758
 4090.00    0.99487   1.03162   10.052
 4091.00    0.96748   1.02393   10.336
 4092.00    0.96013   1.01135    0.000
 4093.00    0.97787   0.99789    0.000
 4094.00    1.01009   0.98917    0.000
 4095.00    1.03645   0.97810    0.000
 4096.00    1.04545   0.96995    0.000
 4097.00    1.04076   0.96464    0.000
 4098.00    1.03816   0.95602    0.000
 4099.00    1.04963   0.95454    0.000
 4100.00    1.07491   0.95844    0.000
 4101.00    1.10245   0.95863    0.000
 4102.00    1.11940   0.96413    0.000
 4103.00    1.11968   0.97316    0.000
 4104.00    1.10440   0.97863    0.000
 4105.00    1.07932   0.98787    0.000
 4106.00    1.05168   0.99730    0.000
 4107.00    1.02980   1.00416    0.000
 4108.00    1.02155   1.01435    0.000
 4109.00    1.03137   1.02276    0.000
 4110.00    1.05971   1.02991    0.000
 4111.00    1.10226   1.03853    0.000
 4112.00    1.14761   1.04198    0.000
 4113.00    1.17661   1.04584    8.499
 4114.00    1.16674   1.05204    8.571
 4115.00    1.11271   1.05118    8.987
 4116.00    1.03655   1.05010    9.647
 4117.00    0.98352   1.05306   10.168
 4118.00    0.98837   1.05237   10.118
 4119.00    1.04991   1.05081    9.525
 4120.00    1.13151   1.04829    8.838
 4121.00    1.18956   1.04627    8.406
 4122.00    1.20620   1.04718    8.291
 4123.00    1.19225   1.04272    8.387
 4124.00    1.17167   1.03961    8.535
 4125.00    1.15416   1.04033    8.664
 4126.00    1.13032   1.03682    8.847
 4127.00    1.08108   1.03734    9.250
 4128.00    1.00344   1.03754    9.966
 4129.00    0.91798   1.03348   10.893
 4130.00    0.86204   1.03713   11.600
 4131.00    0.86004   1.03723   11.627
 4132.00    0.90981   1.03557   10.991
 4133.00    0.98490   1.04098   10.153
 4134.00    1.05308   1.03924    9.496
 4135.00    1.08936   1.03838    9.180
 4136.00    1.07720   1.04188    9.283
 4137.00    1.01420   1.03853    9.860
 4138.00    0.91824   1.03858   10.890
 4139.00    0.82728   1.03974   12.088
 4140.00    0.78159   1.03342   -1.000
 4141.00    0.79459   1.03275   -1.000
 4142.00    0.84808   1.03552   11.791
 4143.00    0.90459   1.03153   11.055
 4144.00    0.93832   1.03046   10.657
 4145.00    0.94360   1.03182   10.598
 4146.00    0.93161   1.02899   10.734
 4147.00    0.91698   1.02865   10.905
 4148.00    0.91207   1.02990   10.964
 4149.00    0.92638   1.03039   10.795
 4150.00    0.96359   1.03261   10.378
 4151.00    1.01966   1.03349    9.807
 4152.00    1.08310   1.03615    9.233
 4153.00    1.13878   1.03965    8.781
 4154.00    1.17188   1.04135    8.533
 4155.00    1.16854   1.04447    8.558
 4156.00    1.12221   1.04840    8.911
 4157.00    1.04340   1.05104    9.584
 4158.00    0.96095   1.04972   10.406
 4159.00    0.91070   1.05117   10.981
 4160.00    0.90892   1.05440   11.002
 4161.00    0.94557   1.04972   10.576
 4162.00    0.99144   1.04761   10.086
 4163.00    1.02430   1.04783    9.763
 4164.00    1.03936   1.04068    9.621
 4165.00    1.04703   1.03664    9.551
 4166.00    1.05808   1.03372    9.451
 4167.00    1.07461   1.02722    9.306
 4168.00    1.09014   1.02376    9.173
 4169.00    1.09498   1.01746    9.133
 4170.00    1.08121   1.01156    9.249
 4171.00    1.04333   1.01178    9.585
 4172.00    0.98173   1.00844   10.186
 4173.00    0.90773   1.00526   11.016
 4174.00    0.84406   1.00725   11.848
 4175.00    0.81586   1.00612   12.257
 4176.00    0.83100   1.00654   12.034
 4177.00    0.87552   1.01117   11.422
 4178.00    0.92042   1.01149   10.865
 4179.00    0.94512   1.01435   10.581
 4180.00    0.94613   1.01973   10.569
 4181.00    0.93503   1.01889   10.695
 4182.00    0.92675   1.02330   10.790
 4183.00    0.93277   1.02953   10.721
 4184.00    0.96043   1.02659   10.412
 4185.00    1.00865   1.02773    9.914
 4186.00    1.06416   1.03252    9.397
 4187.00    1.10215   1.03160    9.073
 4188.00    1.10154   1.03035    9.078
 4189.00    1.06530   1.02935    9.387
 4190.00    1.02259   1.02859    9.779
 4191.00    1.01170   1.02939    9.884
 4192.00    1.04507   1.02454    9.569
 4193.00    1.10180   1.02085    9.076
 4194.00    1.14018   1.02539    8.771
 4195.00    1.13718   1.02221    8.794
 4196.00    1.10212   1.01762    9.073
 4197.00    1.07006   1.02529    9.345
 4198.00    1.06713   1.02642    9.371
 4199.00    1.09203   1.02422    9.157
 4200.00    1.11845   1.03250    8.941
 4201.00    1.12071   1.03602    8.923
 4202.00    1.09463   1.03912    9.135
 4203.00    1.05798   1.04705    9.452
 4204.00    1.03459   1.04922    9.666
 4205.00    1.03464   1.05588    9.665
 4206.00    1.05252   1.06237    9.501
 4207.00    1.07404   1.06193    9.311
 4208.00    1.09013   1.06873    9.173
 4209.00    1.09956   1.07175    9.095
 4210.00    1.10678   1.06849    9.035
 4211.00    1.11537   1.07392    8.966
 4212.00    1.12603   1.07271    8.881
 4213.00    1.13652   1.06610    8.799
 4214.00    1.14176   1.06882    8.758
 4215.00    1.13386   1.06577    8.819
 4216.00    1.10315   1.05762    9.065
 4217.00    1.04609   1.05517    9.559
 4218.00    0.97128   1.04947   10.296
 4219.00    0.89913   1.04310   11.122
 4220.00    0.85228   1.03869   11.733
 4221.00    0.84438   1.03088   11.843
 4222.00    0.87897   1.02986   11.377
 4223.00    0.95066   1.02824   10.519
 4224.00    1.04733   1.02011    9.548
 4225.00    1.15062   1.02549    8.691
 4226.00    1.23910   1.03009    8.070
 4227.00    1.29694   1.02430    7.710
 4228.00    1.31656   1.03216    7.596
 4229.00    1.29851   1.03927    7.701
 4230.00    1.25094   1.03591    7.994
 4231.00    1.18933   1.04511    8.408
 4232.00    1.13517   1.05394    8.809
 4233.00    1.10651   1.05329    9.037
 4234.00    1.11123   1.06086    8.999
 4235.00    1.14665   1.06934    8.721
 4236.00    1.19911   1.07096    8.340
 4237.00    1.24356   1.07524    8.041
 4238.00    1.24433   1.08117    8.036
 4239.00    1.17407   1.08313    8.517
 4240.00    1.04505   1.08408    9.569
 4241.00    0.91407   1.08447   10.940
 4242.00    0.85655   1.08494   11.675
 4243.00    0.90048   1.08620   11.105
 4244.00    1.00830   1.08171    9.918
 4245.00    1.09609   1.07902    9.123
 4246.00    1.11113   1.08229    9.000
 4247.00    1.06548   1.07790    9.385
 4248.00    1.02634   1.07319    9.743
 4249.00    1.04774   1.07555    9.544
 4250.00    1.12523   1.07487    8.887
 4251.00    1.19839   1.07274    8.345
 4252.00    1.20527   1.07210    8.297
 4253.00    1.13748   1.07372    8.791
 4254.00    1.04337   1.07551    9.584
 4255.00    0.98990   1.07311   10.102
 4256.00    1.00352   1.07554    9.965
 4257.00    1.06134   1.07922    9.422
 4258.00    1.11183   1.07619    8.994
 4259.00    1.12412   1.07719    8.896
 4260.00    1.10051   1.08002    9.087
 4261.00    1.06825   1.07716    9.361
 4262.00    1.04833   1.07379    9.539
 4263.00    1.04298   1.07256    9.588
 4264.00    1.03852   1.07159    9.629
 4265.00    1.02432   1.06480    9.763
 4266.00    1.00457   1.05953    9.954
 4267.00    0.99719   1.06232   10.028
 4268.00    1.01727   1.05547    9.830
 4269.00    1.06151   1.04896    9.421
 4270.00    1.10764   1.05444    9.028
 4271.00    1.12909   1.05017    8.857
 4272.00    1.11611   1.04698    8.960
 4273.00    1.07864   1.05168    9.271
 4274.00    1.03830   1.04703    9.631
 4275.00    1.01078   1.04804    9.893
 4276.00    1.00163   1.05039    9.984
 4277.00    1.00774   1.04368    9.923
 4278.00    1.02250   1.04663    9.780
 4279.00    1.03774   1.04514    9.636
 4280.00    1.04483   1.03593    9.571
 4281.00    1.04056   1.03780    9.610
 4282.00    1.03057   1.03293    9.703
 4283.00    1.02835   1.02204    9.724
 4284.00    1.04471   1.01967    9.572
 4285.00    1.07849   1.01145    9.272
 4286.00    1.11635   1.00262    8.958
 4287.00    1.14156   0.99763    8.760
 4288.00    1.14577   0.98450    8.728
 4289.00    1.13052   0.97709    8.846
 4290.00    1.10409   0.97038    9.057
 4291.00    1.07522   0.95472    9.300
 4292.00    1.05164   0.94894    9.509
 4293.00    1.03928   0.93933    9.622
 4294.00    1.03963   0.92346    9.619
 4295.00    1.04885   0.92165    9.534
 4296.00    1.05859   0.91202    9.446
 4297.00    1.06035   0.89920    9.431
 4298.00    1.04781   0.90177    9.544
 4299.00    1.01726   0.89539    9.830
 4300.00    0.97060   0.88982   10.303
 4301.00    0.91777   0.89757   10.896
 4302.00    0.87631   0.89653   11.412
 4303.00    0.86254   0.90016   11.594
 4304.00    0.88042   0.91513   11.358
 4305.00    0.92035   0.92193   10.865
 4306.00    0.96569   0.93307   10.355
 4307.00    1.00518   0.95369    9.948
 4308.00    1.03543   0.96601    9.658
 4309.00    1.05922   0.98031    9.441
 4310.00    1.08027   1.00417    9.257
 4311.00    1.10162   1.01869    9.078
 4312.00    1.12515   1.03087    8.888
 4313.00    1.14967   1.05133    8.698
 4314.00    1.17000   1.06264    8.547
 4315.00    1.17764   1.07012    8.492
 4316.00    1.16673   1.08446    8.571
 4317.00    1.13856   1.09008    8.783
 4318.00    1.10152   1.09300    9.078
 4319.00    1.06632   1.09952    9.378
 4320.00    1.04033   1.09954    9.612
 4321.00    1.02696   1.10146    9.738
 4322.00    1.02633   1.10471    9.743
 4323.00    1.03642   1.10278    9.649
 4324.00    1.05325   1.10140    9.494
 4325.00    1.07181   1.09878    9.330
 4326.00    1.08839   1.09669    9.188
 4327.00    1.10138   1.09521    9.079
 4328.00    1.11113   1.08741    9.000
 4329.00    1.11955   1.08382    8.932
 4330.00    1.12994   1.08318    0.000
 4331.00    1.14676   1.07080    0.000
 4332.00    1.17412   1.06412    0.000
 4333.00    1.21467   1.06623    0.000
 4334.00    1.26944   1.05486    0.000
 4335.00    1.33640   1.04770    0.000
 4336.00    1.40894   1.05404    0.000
 4337.00    1.47591   1.04905    0.000
 4338.00    1.52683   1.04460    0.000
 4339.00    1.56061   1.05328    0.000
 4340.00    1.58697   1.05575    0.000
 4341.00    1.62066   1.05754    0.000
 4342.00    1.66677   1.06662   -2.000
 4343.00    1.71656   1.07348   -2.000
 4344.00    1.75001   1.08249   -2.000
 4345.00    1.74623   1.09118   -2.000
 4346.00    1.68794   1.09714   -2.000
 4347.00    1.56351   1.11017   -2.000
 4348.00    1.37941   1.12093   -2.000
 4349.00    1.16856   1.12608   -2.000
 4350.00    0.98807   1.13777   -2.000
 4351.00    0.88851   1.14871   -2.000
 4352.00    0.88253   1.15445   -2.000
 4353.00    0.94295   1.16328   -2.000
 4354.00    1.02417   1.17205   -2.000
 4355.00    1.09569   1.17835   -2.000
 4356.00    1.14734   1.18536   -2.000
 4357.00    1.18326   1.19073   -2.000
 4358.00    1.20766   1.19425    8.280
 4359.00    1.22113   1.19813    8.189
 4360.00    1.22160   1.20071    8.186
 4361.00    1.20829   1.20005    8.276
 4362.00    1.18333   1.19904    8.451
 4363.00    1.15127   1.19877    8.686
 4364.00    1.11633   1.19483    8.958
 4365.00    1.08066   1.18904    9.254
 4366.00    1.04448   1.18516    9.574
 4367.00    1.00876   1.17895    9.913
 4368.00    0.97770   1.17031   10.228
 4369.00    0.95874   1.16381   10.430
 4370.00    0.95819   1.15624   10.436
 4371.00    0.97487   1.14596   10.258
 4372.00    0.99928   1.13839   10.007
 4373.00    1.01775   1.13084    9.826
 4374.00    1.02168   1.11949    9.788
 4375.00    1.00972   1.11103    9.904
 4376.00    0.98612   1.10536   10.141
 4377.00    0.95466   1.09704   10.475
 4378.00    0.91644   1.08976   10.912
 4379.00    0.87099   1.08591   11.481
 4380.00    0.82319   1.08237   -1.000
 4381.00    0.78727   1.07898   -1.000
 4382.00    0.78519   1.07765   -1.000
 4383.00    0.83038   1.07852   -1.000
 4384.00    0.91313   1.08062   10.951
 4385.00    1.00064   1.08251    9.994
 4386.00    1.05613   1.08512    9.468
 4387.00    1.06499   1.09172    9.390
 4388.00    1.03795   1.09695    9.634
 4389.00    1.00131   1.09890    9.987
 4390.00    0.97645   1.10685   10.241
 4391.00    0.97530   1.11257   10.253
 4392.00    1.00081   1.11148    9.992
 4393.00    1.04861   1.11908    9.536
 4394.00    1.10762   1.12535    9.028
 4395.00    1.16150   1.12064    8.610
 4396.00    1.19615   1.12403    8.360
 4397.00    1.20387   1.13065    8.307
 4398.00    1.18344   1.12718    8.450
 4399.00    1.14012   1.12692    8.771
 4400.00    1.08559   1.13229    9.212
 4401.00    1.03747   1.13290    9.639
 4402.00    1.01217   1.13176    9.880
 4403.00    1.01576   1.13565    9.845
 4404.00    1.04299   1.14108    9.588
 4405.00    1.08166   1.14078    9.245
 4406.00    1.12099   1.14277    8.921
 4407.00    1.15340   1.15162    8.670
 4408.00    1.17464   1.15364    8.513
 4409.00    1.18426   1.15477    8.444
 4410.00    1.18575   1.16413    8.434
 4411.00    1.18550   1.16730    8.435
 4412.00    1.18797   1.16800    8.418
 4413.00    1.19323   1.17555    8.381
 4414.00    1.19727   1.17863    8.352
 4415.00    1.19560   1.17895    8.364
 4416.00    1.18596   1.18440    8.432
 4417.00    1.16849   1.18705    8.558
 4418.00    1.14560   1.18595    8.729
 4419.00    1.12174   1.18916    8.915
 4420.00    1.10333   1.19165    9.064
 4421.00    1.09655   1.18921    9.119
 4422.00    1.10338   1.19054    9.063
 4423.00    1.12080   1.19240    8.922
 4424.00    1.14223   1.18947    8.755
 4425.00    1.16139   1.19043    8.610
 4426.00    1.17342   1.19168    8.522
 4427.00    1.17537   1.18941    8.508
 4428.00    1.16805   1.19083    8.561
 4429.00    1.15686   1.19123    8.644
 4430.00    1.15093   1.19071    8.689
 4431.00    1.15628   1.19312    8.648
 4432.00    1.17081   1.19268    8.541
 4433.00    1.18459   1.19503    8.442
 4434.00    1.18650   1.19873    8.428
 4435.00    1.17155   1.19669    8.536
 4436.00    1.14162   1.20099    8.760
 4437.00    1.10417   1.20527    9.057
 4438.00    1.07014   1.20145    9.345
 4439.00    1.05347   1.20618    9.492
 4440.00    1.06690   1.20938    9.373
 4441.00    1.11113   1.20367    9.000
 4442.00    1.17171   1.20734    8.535
 4443.00    1.22354   1.20760    8.173
 4444.00    1.24918   1.19980    8.005
 4445.00    1.24692   1.20183    8.020
 4446.00    1.22913   1.19842    8.136
 4447.00    1.20942   1.18874    8.268
 4448.00    1.19403   1.18960    8.375
 4449.00    1.18181   1.18348    8.462
 4450.00    1.16928   1.17328    8.552
 4451.00    1.15586   1.17432    8.652
 4452.00    1.14428   1.16779    8.739
 4453.00    1.13806   1.15919    8.787
 4454.00    1.13765   1.16208    8.790
 4455.00    1.13983   1.15789    8.773
 4456.00    1.13956   1.15290    8.775
 4457.00    1.13447   1.15853    8.815
 4458.00    1.12604   1.15851    8.881
 4459.00    1.11879   1.15825    8.938
 4460.00    1.11711   1.16620    8.952
 4461.00    1.12397   1.17034    0.000
 4462.00    1.14086   1.17463    0.000
 4463.00    1.16717   1.18354    0.000
 4464.00    1.19991   1.19032    0.000
 4465.00    1.23367   1.19788    0.000
 4466.00    1.26073   1.20624    0.000
 4467.00    1.27122   1.21338    0.000
 4468.00    1.25346   1.22215    0.000
 4469.00    1.20162   1.22874    0.000
 4470.00    1.12688   1.23416    0.000
 4471.00    1.05877   1.24219    0.000
 4472.00    1.03264   1.24644    0.000
 4473.00    1.06118   1.24894    0.000
 4474.00    1.12767   1.25501    0.000
 4475.00    1.19455   1.25710    0.000
 4476.00    1.23379   1.25668    0.000
 4477.00    1.23858   1.26059    0.000
 4478.00    1.22094   1.26124    0.000
 4479.00    1.19721   1.25877    0.000
 4480.00    1.17941   1.26110    0.000
 4481.00    1.17495   1.26129    0.000
 4482.00    1.18672   1.25811    8.427
 4483.00    1.21316   1.25973    8.243
 4484.00    1.24842   1.26049    8.010
 4485.00    1.28485   1.25804    7.783
 4486.00    1.31626   1.25988    7.597
 4487.00    1.33845   1.26211    7.471
 4488.00    1.34918   1.26186    7.412
 4489.00    1.34813   1.26469    7.418
 4490.00    1.33693   1.26895    7.480
 4491.00    1.31902   1.27192    7.581
 4492.00    1.29941   1.27607    7.696
 4493.00    1.28453   1.28214    7.785
 4494.00    1.28150   1.28827    7.803
 4495.00    1.29440   1.29333    7.726
 4496.00    1.32212   1.30001    7.564
 4497.00    1.35872   1.30782    7.360
 4498.00    1.39649   1.31274    7.161
 4499.00    1.42866   1.31817    7.000
 4500.00    1.44966   1.32525    6.898
 4501.00    1.45647   1.32882    6.866
 4502.00    1.45047   1.33131    6.894
 4503.00    1.43750   1.33546    6.957
 4504.00    1.42491   1.33683    7.018
 4505.00    1.41573   1.33557    7.064
 4506.00    1.40747   1.33582    7.105
 4507.00    1.39453   1.33470    7.171
 4508.00    1.37557   1.32991    7.270
 4509.00    1.35591   1.32666    7.375
 4510.00    1.34557   1.32311    7.432
 4511.00    1.34985   1.31556    7.408
 4512.00    1.36436   1.31002    7.329
 4513.00    1.37623   1.30413    7.266
 4514.00    1.37473   1.29469    7.274
 4515.00    1.35962   1.28814    7.355
 4516.00    1.34109   1.28015    7.457
 4517.00    1.33176   1.26977    7.509
 4518.00    1.33707   1.26333    7.479
 4519.00    1.35427   1.25414    7.384
 4520.00    1.37565   1.24408    7.269
 4521.00    1.39445   1.23889    7.171
 4522.00    1.40595   1.23029    7.113
 4523.00    1.40747   1.22217    7.105
 4524.00    1.39837   1.21936    7.151
 4525.00    1.38001   1.21353    7.246
 4526.00    1.35547   1.20862    7.378
 4527.00    1.32827   1.20889    7.529
 4528.00    1.30178   1.20726    7.682
 4529.00    1.27932   1.20572    7.817
 4530.00    1.26502   1.20875    7.905
 4531.00    1.26448   1.21112    7.908
 4532.00    1.28453   1.21185    7.785
 4533.00    1.32938   1.21624    7.522
 4534.00    1.39641   1.22088    7.161
 4535.00    1.47580   1.22228    6.776
 4536.00    1.55385   1.22642    6.436
 4537.00    1.61844   1.23103    6.179
 4538.00    1.66009   1.23200    6.024
 4539.00    1.67224   1.23505    5.980
 4540.00    1.65209   1.23797    6.053
 4541.00    1.60084   1.23857    6.247
 4542.00    1.52432   1.24095    6.560
 4543.00    1.43558   1.24184    6.966
 4544.00    1.35604   1.24289    7.374
 4545.00    1.31246   1.24578    7.619
 4546.00    1.31639   1.24550    7.597
 4547.00    1.35006   1.24779    7.407
 4548.00    1.36842   1.25215    7.308
 4549.00    1.33073   1.25198    7.515
 4550.00    1.23373   1.25560    0.000
 4551.00    1.11359   1.26138    0.000
 4552.00    1.02224   1.26220    0.000
 4553.00    0.98938   1.26635    0.000
 4554.00    1.01649   1.27259    0.000
 4555.00    1.08448   1.27465    0.000
 4556.00    1.17242   1.27805    0.000
 4557.00    1.26247   1.28352    0.000
 4558.00    1.34086   1.28665    0.000
 4559.00    1.40126   1.28814    0.000
 4560.00    1.44619   1.29190    0.000
 4561.00    1.48549   1.29591    0.000
 4562.00    1.52671   1.29488    0.000
 4563.00    1.56887   1.29643    0.000
 4564.00    1.60288   1.30105    0.000
 4565.00    1.61822   1.29757    0.000
 4566.00    1.60952   1.29676    0.000
 4567.00    1.57703   1.30144    0.000
 4568.00    1.52504   1.29605    0.000
 4569.00    1.45937   1.29307    0.000
 4570.00    1.38707   1.29706    0.000
 4571.00    1.31621   1.29065    0.000
 4572.00    1.25549   1.28629    0.000
 4573.00    1.21412   1.28905    0.000
 4574.00    1.19991   1.28259    0.000
 4575.00    1.21229   1.27807    0.000
 4576.00    1.23970   1.27970    0.000
 4577.00    1.26191   1.27403    0.000
 4578.00    1.26390   1.27058    0.000
 4579.00    1.24405   1.27152    0.000
 4580.00    1.21357   1.26716    0.000
 4581.00    1.18685   1.26545    0.000
 4582.00    1.17275   1.26603    0.000
 4583.00    1.17405   1.26297    0.000
 4584.00    1.18916   1.26300    0.000
 4585.00    1.21459   1.26320    0.000
 4586.00    1.24537   1.26116    0.000
 4587.00    1.27584   1.26268    0.000
 4588.00    1.30156   1.26242    0.000
 4589.00    1.31977   1.26119    0.000
 4590.00    1.32945   1.26416    0.000
 4591.00    1.33187   1.26376    0.000
 4592.00    1.33071   1.26346    0.000
 4593.00    1.33142   1.26813    0.000
 4594.00    1.33757   1.26830    0.000
 4595.00    1.34892   1.26914    0.000
 4596.00    1.36163   1.27576    0.000
 4597.00    1.37149   1.27718    0.000
 4598.00    1.37659   1.27909    0.000
 4599.00    1.37744   1.28745    0.000
 4600.00    1.37550   1.29034    0.000
 4601.00    1.37126   1.29265    0.000
 4602.00    1.36406   1.30204    0.000
 4603.00    1.35381   1.30606    0.000
 4604.00    1.34438   1.30759    0.000
 4605.00    1.34423   1.31702    0.000
 4606.00    1.36319   1.32163    0.000
 4607.00    1.40227   1.32115    0.000
 4608.00    1.45031   1.32970    0.000
 4609.00    1.48695   1.33460    0.000
 4610.00    1.49731   1.33137    0.000
 4611.00    1.47961   1.33830    0.000
 4612.00    1.44439   1.34357    0.000
 4613.00    1.40588   1.33769    0.000
 4614.00    1.37520   1.34230    0.000
 4615.00    1.35980   1.34808    0.000
 4616.00    1.36245   1.34049    0.000
 4617.00    1.37989   1.34206    0.000
 4618.00    1.40289   1.34794    0.000
 4619.00    1.42016   1.34005    0.000
 4620.00    1.42575   1.33821    0.000
 4621.00    1.42043   1.34304    0.000
 4622.00    1.40965   1.33605    0.000
 4623.00    1.39772   1.33117    0.000
 4624.00    1.38598   1.33347    0.000
 4625.00    1.37345   1.32784    0.000
 4626.00    1.35977   1.32118    0.000
 4627.00    1.34666   1.31998    0.000
 4628.00    1.33763   1.31521    0.000
 4629.00    1.33570   1.30846    0.000
 4630.00    1.34169   1.30407    0.000
 4631.00    1.35418   1.29913    0.000
 4632.00    1.37060   1.29362    0.000
 4633.00    1.38832   1.28758    0.000
 4634.00    1.40482   1.28181    0.000
 4635.00    1.41741   1.27809    0.000
 4636.00    1.42285   1.27248    0.000
 4637.00    1.41729   1.26618    0.000
 4638.00    1.39775   1.26418    0.000
 4639.00    1.36613   1.26064    0.000
 4640.00    1.33029   1.25510    0.000
 4641.00    1.30214   1.25456    0.000
 4642.00    1.28955   1.25364    0.000
 4643.00    1.29262   1.25027    0.000
 4644.00    1.30461   1.25106    0.000
 4645.00    1.31871   1.25203    0.000
 4646.00    1.33275   1.25144    0.000
 4647.00    1.34907   1.25333    0.000
 4648.00    1.37006   1.25464    0.000
 4649.00    1.39351   1.25610    0.000
 4650.00    1.41242   1.25853    0.000
 4651.00    1.42000   1.25837    0.000
 4652.00    1.41791   1.26019    0.000
 4653.00    1.41739   1.26240    0.000
 4654.00    1.43318   1.25961    0.000
 4655.00    1.46818   1.26017    0.000
 4656.00    1.50944   1.26168    0.000
 4657.00    1.53329   1.25643    0.000
 4658.00    1.52522   1.25509    0.000
 4659.00    1.48828   1.25613    0.000
 4660.00    1.44079   1.24994    0.000
 4661.00    1.40077   1.24732    0.000
 4662.00    1.37584   1.24862    0.000
 4663.00    1.36335   1.24355    0.000
 4664.00    1.35661   1.24108    0.000
 4665.00    1.35105   1.24322    0.000
 4666.00    1.34472   1.24050    0.000
 4667.00    1.33773   1.23945    0.000
 4668.00    1.33138   1.24245    0.000
 4669.00    1.32801   1.24172    0.000
 4670.00    1.32962   1.24248    0.000
 4671.00    1.33467   1.24602    0.000
 4672.00    1.33731   1.24580    0.000
 4673.00    1.32957   1.24776    0.000
 4674.00    1.30906   1.25166    0.000
 4675.00    1.28209   1.25065    0.000
 4676.00    1.26189   1.25253    0.000
 4677.00    1.25832   1.25683    0.000
 4678.00    1.27162   1.25477    0.000
 4679.00    1.29295   1.25544    0.000
 4680.00    1.31187   1.26009    0.000
 4681.00    1.32316   1.25762    0.000
 4682.00    1.32733   1.25638    0.000
 4683.00    1.32785   1.26087    0.000
 4684.00    1.32749   1.25883    0.000
 4685.00    1.32778   1.25560    0.000
 4686.00    1.32938   1.25896    0.000
 4687.00    1.33283   1.25764    0.000
 4688.00    1.33877   1.25297    0.000
 4689.00    1.34765   1.25446    0.000
 4690.00    1.35904   1.25354    0.000
 4691.00    1.37134   1.24836    0.000
 4692.00    1.38196   1.24792    0.000
 4693.00    1.38848   1.24697    0.000
 4694.00    1.38928   1.24239    0.000
 4695.00    1.38360   1.24096    0.000
 4696.00    1.37165   1.23990    0.000
 4697.00    1.35485   1.23686    0.000
 4698.00    1.33570   1.23593    0.000
 4699.00    1.31724   1.23539    0.000
 4700.00    1.30222   1.23443    0.000
 4701.00    1.29300   1.23528    0.000
 4702.00    1.29175   1.23620    0.000
 4703.00    1.30079   1.23753    0.000
 4704.00    1.32263   1.24065    0.000
 4705.00    1.35890   1.24347    0.000
 4706.00    1.40684   1.24686    0.000
 4707.00    1.45814   1.25210    0.000
 4708.00    1.50040   1.25623    0.000
 4709.00    1.52440   1.26048    0.000
 4710.00    1.52788   1.26713    0.000
 4711.00    1.51508   1.27153    0.000
 4712.00    1.49133   1.27497    0.000
 4713.00    1.45876   1.28187    0.000
 4714.00    1.41642   1.28527    0.000
 4715.00    1.36546   1.28622    0.000
 4716.00    1.31552   1.29211    0.000
 4717.00    1.28516   1.29363    0.000
 4718.00    1.29201   1.29109    0.000
 4719.00    1.33451   1.29539    0.000
 4720.00    1.38851   1.29547    0.000
 4721.00    1.41784   1.28966    0.000
 4722.00    1.40504   1.29231    0.000
 4723.00    1.36099   1.29233    0.000
 4724.00    1.31839   1.28489    0.000
 4725.00    1.30163   1.28634    0.000
 4726.00    1.31212   1.28806    0.000
 4727.00    1.33045   1.28130    0.000
 4728.00    1.33661   1.28203    0.000
 4729.00    1.32506   1.28626    0.000
 4730.00    1.30476   1.28202    0.000
 4731.00    1.28752   1.28247    0.000
 4732.00    1.27479   1.28875    0.000
 4733.00    1.25653   1.28757    0.000
 4734.00    1.21968   1.28797    0.000
 4735.00    1.16288   1.29489    0.000
 4736.00    1.09906   1.29582    0.000
 4737.00    1.04972   1.29601    0.000
 4738.00    1.02988   1.30187    0.000
 4739.00    1.04356   1.30334    0.000
 4740.00    1.08495   1.30349    0.000
 4741.00    1.14335   1.30743    0.000
 4742.00    1.20540   1.30732    0.000
 4743.00    1.25618   1.30682    0.000
 4744.00    1.28657   1.30917    0.000
 4745.00    1.29834   1.30664    0.000
 4746.00    1.30362   1.30431    0.000
 4747.00    1.31490   1.30545    0.000
 4748.00    1.33443   1.30155    0.000
 4749.00    1.35353   1.29712    0.000
 4750.00    1.35982   1.29704    0.000
 4751.00    1.34901   1.29317    0.000
 4752.00    1.32677   1.28716    0.000
 4753.00    1.30488   1.28618    0.000
 4754.00    1.29146   1.28416    0.000
 4755.00    1.28837   1.27781    0.000
 4756.00    1.29247   1.27553    0.000
 4757.00    1.30086   1.27629    0.000
 4758.00    1.31297   1.27233    0.000
 4759.00    1.33008   1.26926    0.000
 4760.00    1.35151   1.27184    0.000
 4761.00    1.37209   1.27213    7.288
 4762.00    1.38269   1.26998    7.232
 4763.00    1.37665   1.27283    7.264
 4764.00    1.35616   1.27687    7.374
 4765.00    1.33255   1.27728    7.504
 4766.00    1.31993   1.27946    7.576
 4767.00    1.32552   1.28448    7.544
 4768.00    1.34821   1.28786    7.417
 4769.00    1.38001   1.28950    7.246
 4770.00    1.40943   1.29210    7.095
 4771.00    1.42231   1.29726    7.031
 4772.00    1.40437   1.29969    7.121
 4773.00    1.35042   1.29778    7.405
 4774.00    1.26788   1.30225    7.887
 4775.00    1.17570   1.30698    8.506
 4776.00    1.09680   1.30127    9.117
 4777.00    1.05359   1.30254    9.491
 4778.00    1.06654   1.30988    9.376
 4779.00    1.14209   1.30357    8.756
 4780.00    1.26142   1.30090    7.928
 4781.00    1.38083   1.31009    7.242
 4782.00    1.45488   1.30682    6.873
 4783.00    1.46910   1.30069    6.807
 4784.00    1.44420   1.30947    6.924
 4785.00    1.41957   1.31123    7.044
 4786.00    1.41755   1.30370    7.054
 4787.00    1.43516   1.31010    6.968
 4788.00    1.45137   1.31622    6.890
 4789.00    1.45161   1.30967    6.889
 4790.00    1.43677   1.31310    6.960
 4791.00    1.42059   1.32046    7.039
 4792.00    1.41431   1.31521    7.071
 4793.00    1.41814   1.31633    7.051
 4794.00    1.42188   1.32264    7.033
 4795.00    1.41437   1.31862    7.070
 4796.00    1.39167   1.31849    7.186
 4797.00    1.35748   1.32304    7.367
 4798.00    1.32063   1.31988    7.572
 4799.00    1.29165   1.31911    7.742
 4800.00    1.28226   1.32248    7.799
 4801.00    1.30118   1.32015    7.685
 4802.00    1.34577   1.31896    7.431
 4803.00    1.40031   1.32223    7.141
 4804.00    1.44174   1.32083    6.936
 4805.00    1.45792   1.31930    6.859
 4806.00    1.45377   1.32332    6.879
 4807.00    1.44794   1.32284    6.906
 4808.00    1.45565   1.32097    6.870
 4809.00    1.47958   1.32558    6.759
 4810.00    1.51065   1.32491    6.620
 4811.00    1.53697   1.32165    6.506
 4812.00    1.55106   1.32614    6.447
 4813.00    1.55028   1.32586    6.450
 4814.00    1.53537   1.32190    6.513
 4815.00    1.50880   1.32432    6.628
 4816.00    1.47448   1.32363    6.782
 4817.00    1.43740   1.31991    6.957
 4818.00    1.40274   1.32001    7.129
 4819.00    1.37579   1.31803    7.269
 4820.00    1.36117   1.31428    7.347
 4821.00    1.36072   1.31353    7.349
 4822.00    1.37283   1.31129    7.284
 4823.00    1.39268   1.30662    7.180
 4824.00    1.41332   1.30578    7.076
 4825.00    1.42616   1.30453    7.012
 4826.00    1.42174   1.29855    7.034
 4827.00    1.39488   1.29731    7.169
 4828.00    1.34859   1.29778    7.415
 4829.00    1.29399   1.29136    7.728
 4830.00    1.24559   1.28870    8.028
 4831.00    1.21594   1.29050    8.224
 4832.00    1.21489   1.28559    8.231
 4833.00    1.24640   1.28166    8.023
 4834.00    1.30292   1.28294    7.675
 4835.00    1.36446   1.27818    7.329
 4836.00    1.40565   1.27257    7.114
 4837.00    1.41479   1.27380    7.068
 4838.00    1.39944   1.26899    7.146
 4839.00    1.38152   1.26003    7.238
 4840.00    1.37600   1.26016    7.267
 4841.00    1.38110   1.25615    7.241
 4842.00    1.38055   1.24345    7.243
 4843.00    1.36080   1.23994    7.349
 4844.00    1.32327   1.23630    7.557
 4845.00    1.28396   1.22056    7.788
 4846.00    1.26090   1.21249    7.931
 4847.00    1.26066   1.20945    7.932
 4848.00    1.27744   1.19228    0.000
 4849.00    1.30240   1.18059    0.000
 4850.00    1.33904   1.17845    0.000
 4851.00    1.40560   1.16047    0.000
 4852.00    1.52642   1.14661    0.000
 4853.00    1.71006   1.14907    0.000
 4854.00    1.94342   1.13538    0.000
 4855.00    2.19604   1.11933    0.000
 4856.00    2.43756   1.12513    0.000
 4857.00    2.64522   1.12088    0.000
 4858.00    2.80354   1.10493    0.000
 4859.00    2.90103   1.11164    0.000
 4860.00    2.92816   1.11873    0.000
 4861.00    2.87761   1.10573    0.000
 4862.00    2.74915   1.11000    0.000
 4863.00    2.55454   1.12705    0.000
 4864.00    2.31763   1.12210    0.000
 4865.00    2.06824   1.12219    0.000
 4866.00    1.83275   1.14255    0.000
 4867.00    1.63264   1.14635    0.000
 4868.00    1.48261   1.14204    0.000
 4869.00    1.38625   1.16077    0.000
 4870.00    1.33501   1.17382    0.000
 4871.00    1.31131   1.16652    0.000
 4872.00    1.30015   1.17626    0.000
 4873.00    1.29376   1.19435    0.000
 4874.00    1.29103   1.18979    0.000
 4875.00    1.29342   1.18995    7.731
 4876.00    1.30251   1.20692    7.677
 4877.00    1.31969   1.20804    7.578
 4878.00    1.34411   1.20232    7.440
 4879.00    1.37078   1.21578    7.295
 4880.00    1.39065   1.22256    7.191
 4881.00    1.39456   1.21342    7.171
 4882.00    1.37899   1.22262    7.252
 4883.00    1.34678   1.23476    7.425
 4884.00    1.30553   1.22840    7.660
 4885.00    1.26394   1.23413    7.912
 4886.00    1.23096   1.24685    8.124
 4887.00    1.21439   1.24445    8.235
 4888.00    1.21610   1.24864    8.223
 4889.00    1.23029   1.26029    8.128
 4890.00    1.24527   1.26041    8.030
 4891.00    1.25361   1.26375    7.977
 4892.00    1.25781   1.27525    7.950
 4893.00    1.26956   1.27598    7.877
 4894.00    1.29957   1.27514    7.695
 4895.00    1.34888   1.28589    7.414
 4896.00    1.40844   1.28850    7.100
 4897.00    1.46515   1.28293    6.825
 4898.00    1.50966   1.28940    6.624
 4899.00    1.53747   1.29254    6.504
 4900.00    1.54812   1.28368    6.459
 4901.00    1.54376   1.28459    6.478
 4902.00    1.52877   1.28800    6.541
 4903.00    1.50888   1.27884    6.627
 4904.00    1.48829   1.27388    6.719
 4905.00    1.46873   1.27669    6.809
 4906.00    1.44971   1.27066    6.898
 4907.00    1.43020   1.26110    6.992
 4908.00    1.40950   1.26027    7.095
 4909.00    1.38736   1.25866    7.208
 4910.00    1.36483   1.24821    7.327
 4911.00    1.34495   1.24297    7.435
 4912.00    1.33257   1.24621    7.504
 4913.00    1.33114   1.24035    7.512
 4914.00    1.33865   1.23142    7.470
 4915.00    1.34735   1.23565    7.422
 4916.00    1.34847   1.23802    7.416
 4917.00    1.34119   1.22963    7.456
 4918.00    1.33442   1.23150    7.494
 4919.00    1.34194   1.24057    7.452
 4920.00    1.36822   1.23577    7.309
 4921.00    1.40380   1.23434    7.124
 4922.00    1.42903   1.24607    6.998
 4923.00    1.43156   1.24512    6.985
 4924.00    1.41501   1.24093    7.067
 4925.00    1.39709   1.25291    7.158
 4926.00    1.39261   1.25703    7.181
 4927.00    1.40049   1.25139    7.140
 4928.00    1.40416   1.25867    7.122
 4929.00    1.38647   1.26562    7.213
 4930.00    1.34717   1.26260    7.423
 4931.00    1.30436   1.26621    7.667
 4932.00    1.28213   1.27222    7.799
 4933.00    1.28875   1.27150    7.759
 4934.00    1.31267   1.27528    7.618
 4935.00    1.33072   1.28038    7.515
 4936.00    1.33030   1.27914    7.517
 4937.00    1.31603   1.28259    7.599
 4938.00    1.30521   1.28847    7.662
 4939.00    1.30784   1.28773    7.646
 4940.00    1.31739   1.29014    0.000
 4941.00    1.31360   1.29579    0.000
 4942.00    1.28388   1.29501    0.000
 4943.00    1.23867   1.29553    0.000
 4944.00    1.21025   1.29973    0.000
 4945.00    1.22818   1.29937    0.000
 4946.00    1.29268   1.29829    0.000
 4947.00    1.37279   1.29718    0.000
 4948.00    1.42704   1.29588    0.000
 4949.00    1.43748   1.29695    0.000
 4950.00    1.41535   1.29248    0.000
 4951.00    1.39022   1.28792    0.000
 4952.00    1.38232   1.29060    0.000
 4953.00    1.39497   1.28902    0.000
 4954.00    1.41751   1.28274    0.000
 4955.00    1.43780   1.28184    0.000
 4956.00    1.44751   1.28336    0.000
 4957.00    1.44243   1.27842    0.000
 4958.00    1.42323   1.27425    0.000
 4959.00    1.39597   1.27776    0.000
 4960.00    1.37145   1.27514    0.000
 4961.00    1.35672   1.26920    0.000
 4962.00    1.34656   1.27222    0.000
 4963.00    1.32326   1.27320    0.000
 4964.00    1.26736   1.26893    0.000
 4965.00    1.17438   1.26657    0.000
 4966.00    1.05732   1.26698    0.000
 4967.00    0.94206   1.26678    0.000
 4968.00    0.85641   1.26055    0.000
 4969.00    0.82730   1.25641    0.000
 4970.00    0.87593   1.25784    0.000
 4971.00    1.00019   1.25258    0.000
 4972.00    1.16745   1.24481    0.000
 4973.00    1.32054   1.24387    0.000
 4974.00    1.41414   1.24234    0.000
 4975.00    1.43729   1.23410    0.000
 4976.00    1.41214   1.22901    0.000
 4977.00    1.37034   1.23095    0.000
 4978.00    1.33078   1.22611    0.000
 4979.00    1.29806   1.21926    0.000
 4980.00    1.26970   1.22173    0.000
 4981.00    1.24652   1.22029    0.000
 4982.00    1.23402   1.21463    0.000
 4983.00    1.23851   1.21505    0.000
 4984.00    1.25861   1.21559    0.000
 4985.00    1.28324   1.21372    0.000
 4986.00    1.29527   1.21168    0.000
 4987.00    1.28414   1.21189    0.000
 4988.00    1.25059   1.21323    0.000
 4989.00    1.20533   1.21015    0.000
 4990.00    1.16131   1.20831    0.000
 4991.00    1.12921   1.20940    0.000
 4992.00    1.11700   1.20566    0.000
 4993.00    1.12765   1.20044    0.000
 4994.00    1.15708   1.19891    0.000
 4995.00    1.19435   1.19651    0.000
 4996.00    1.22737   1.18993    0.000
 4997.00    1.25064   1.18608    0.000
 4998.00    1.26616   1.18474    0.000
 4999.00    1.28032   1.17680    0.000
 5000.00    1.29749   1.17136    0.000
 5001.00    1.31858   1.17240    0.000
 5002.00    1.34165   1.16621    0.000
 5003.00    1.36361   1.15950    0.000
 5004.00    1.38086   1.15932    0.000
 5005.00    1.38968   1.15534    0.000
 5006.00    1.38799   1.15085    0.000
 5007.00    1.37633   1.14962    0.000
 5008.00    1.35764   1.14821    0.000
 5009.00    1.33475   1.14785    0.000
 5010.00    1.30841   1.14700    0.000
 5011.00    1.27731   1.14603    0.000
 5012.00    1.24038   1.14836    0.000
 5013.00    1.19983   1.15157    0.000
 5014.00    1.16140   1.15128    0.000
 5015.00    1.13242   1.15165    0.000
 5016.00    1.11795   1.15844    0.000
 5017.00    1.12008   1.16082    0.000
 5018.00    1.13785   1.16031    0.000
 5019.00    1.16716   1.16937    0.000
 5020.00    1.20079   1.17323    0.000
 5021.00    1.22929   1.17019    0.000
 5022.00    1.24540   1.17780    0.000
 5023.00    1.24629   1.18554    0.000
 5024.00    1.23339   1.18272    0.000
 5025.00    1.21074   1.18360    0.000
 5026.00    1.18373   1.19231    0.000
 5027.00    1.15888   1.19343    0.000
 5028.00    1.14179   1.18846    0.000
 5029.00    1.13479   1.19256    8.812
 5030.00    1.13671   1.19614    8.797
 5031.00    1.14441   1.19001    8.738
 5032.00    1.15550   1.19125    8.654
 5033.00    1.16887   1.19634    8.555
 5034.00    1.18397   1.18921    8.446
 5035.00    1.19897   1.18742    8.341
 5036.00    1.21022   1.19709    8.263
 5037.00    1.21330   1.19654    8.242
 5038.00    1.20778   1.19076    8.280
 5039.00    1.19947   1.19692    8.337
 5040.00    1.19926   1.20307    8.338
 5041.00    1.21486   1.19771    8.231
 5042.00    1.24477   1.19960    8.034
 5043.00    1.27847   1.20980    7.822
 5044.00    1.30285   1.20822    7.676
 5045.00    1.30925   1.20795    7.638
 5046.00    1.29423   1.21979    7.727
 5047.00    1.26047   1.22368    7.934
 5048.00    1.21829   1.22145    8.208
 5049.00    1.18584   1.22827    8.433
 5050.00    1.18279   1.23473    8.455
 5051.00    1.21434   1.23224    8.235
 5052.00    1.26673   1.23325    7.894
 5053.00    1.31271   1.24052    7.618
 5054.00    1.33369   1.23983    7.498
 5055.00    1.32951   1.23632    7.522
 5056.00    1.31595   1.24225    7.599
 5057.00    1.30716   1.24175    7.650
 5058.00    1.30390   1.23275    7.669
 5059.00    1.29406   1.23507    7.728
 5060.00    1.26548   1.23853    7.902
 5061.00    1.21912   1.22840    8.203
 5062.00    1.16983   1.22160    8.548
 5063.00    1.13681   1.22737    8.797
 5064.00    1.12879   1.22318    8.859
 5065.00    1.14173   1.20880    8.759
 5066.00    1.16342   1.21031    8.595
 5067.00    1.18439   1.21347    8.443
 5068.00    1.20078   1.19985    8.328
 5069.00    1.21345   1.19341    8.241
 5070.00    1.22472   1.20083    8.165
 5071.00    1.23699   1.19727    8.084
 5072.00    1.25243   1.18379    7.984
 5073.00    1.27096   1.18531    7.868
 5074.00    1.28904   1.19208    7.758
 5075.00    1.30007   1.18449    7.692
 5076.00    1.29943   1.17944    7.696
 5077.00    1.28922   1.18682    7.757
 5078.00    1.27844   1.18901    7.822
 5079.00    1.27756   1.18371    7.827
 5080.00    1.29065   1.18613    7.748
 5081.00    1.31434   1.19281    7.608
 5082.00    1.34041   1.19107    7.460
 5083.00    1.36155   1.18914    7.345
 5084.00    1.37283   1.19444    7.284
 5085.00    1.37187   1.19824    7.289
 5086.00    1.35968   1.19736    7.355
 5087.00    1.34093   1.19829    7.457
 5088.00    1.32321   1.20125    7.557
 5089.00    1.31262   1.20121    7.618
 5090.00    1.31125   1.19987    7.626
 5091.00    1.31721   1.19981    7.592
 5092.00    1.32592   1.19842    7.542
 5093.00    1.33131   1.19701    7.511
 5094.00    1.32606   1.19782    7.541
 5095.00    1.30504   1.19743    7.663
 5096.00    1.26989   1.19452    7.875
 5097.00    1.22956   1.19411    8.133
 5098.00    1.19661   1.19521    8.357
 5099.00    1.17963   1.19238    8.477
 5100.00    1.18147   1.18972    8.464
 5101.00    1.19995   1.19212    8.334
 5102.00    1.22974   1.19197    8.132
 5103.00    1.26312   1.18819    7.917
 5104.00    1.29084   1.19172    7.747
 5105.00    1.30650   1.19632    7.654
 5106.00    1.30904   1.19192    7.639
 5107.00    1.30237   1.19101    7.678
 5108.00    1.29210   1.19618    7.739
 5109.00    1.28282   1.19465    7.795
 5110.00    1.27786   1.19069    7.826
 5111.00    1.27897   1.19406    7.819
 5112.00    1.28588   1.19508    7.777
 5113.00    1.29631   1.18888    7.714
 5114.00    1.30680   1.18895    7.652
 5115.00    1.31436   1.19112    7.608
 5116.00    1.31679   1.18443    7.594
 5117.00    1.31300   1.18080    7.616
 5118.00    1.30372   1.18236    7.670
 5119.00    1.29178   1.17752    7.741
 5120.00    1.28153   1.17238    7.803
 5121.00    1.27606   1.17340    7.837
 5122.00    1.27582   1.17021    7.838
 5123.00    1.27880   1.16397    7.820
 5124.00    1.28279   1.16432    7.796
 5125.00    1.28710   1.16285    7.769
 5126.00    1.29251   1.15714    7.737
 5127.00    1.29938   1.15756    7.696
 5128.00    1.30534   1.15830    7.661
 5129.00    1.30514   1.15296    7.662
 5130.00    1.29304   1.15280    7.734
 5131.00    1.26710   1.15544    7.892
 5132.00    1.23001   1.14852    8.130
 5133.00    1.18818   1.14675    8.416
 5134.00    1.14927   1.15299    8.701
 5135.00    1.12147   1.14760    8.917
 5136.00    1.11215   1.14202    8.992
 5137.00    1.12215   1.14821    8.911
 5138.00    1.14306   1.14814    8.748
 5139.00    1.15869   1.14007    8.630
 5140.00    1.15629   1.14191    8.648
 5141.00    1.13459   1.14591    8.814
 5142.00    1.10376   1.13953    9.060
 5143.00    1.07755   1.13877    9.280
 5144.00    1.06474   1.14421    9.392
 5145.00    1.06827   1.14017    9.361
 5146.00    1.08608   1.13649    9.207
 5147.00    1.11243   1.13939    8.989
 5148.00    1.13826   1.13757    8.785
 5149.00    1.15379   1.13380    8.667
 5150.00    1.15541   1.13370    8.655
 5151.00    1.14763   1.13012    8.714
 5152.00    1.14090   1.12446    8.765
 5153.00    1.14271   1.12267    8.751
 5154.00    1.15370   1.11727    8.668
 5155.00    1.16824   1.10721    8.560
 5156.00    1.17949   1.10478    8.478
 5157.00    1.18267   1.10121    8.455
 5158.00    1.17531   1.08586    8.508
 5159.00    1.15726   1.07649    8.641
 5160.00    1.13079   1.07678    8.843
 5161.00    1.10053   1.06680    9.087
 5162.00    1.07202   1.05194    9.328
 5163.00    1.04955   1.05207    9.528
 5164.00    1.03576   1.05090    9.655
 5165.00    1.03127   1.03462    9.697
 5166.00    1.03379   1.03027    9.673
 5167.00    1.03791   1.03871    9.635
 5168.00    1.03659   1.03189    9.647
 5169.00    1.02709   1.01947    9.736
 5170.00    1.01328   1.02548    9.869
 5171.00    1.00461   1.03404    9.954
 5172.00    1.00897   1.02836    9.911
 5173.00    1.02826   1.03012    9.725
 5174.00    1.05844   1.04124    9.448
 5175.00    1.09249   1.04097    9.153
 5176.00    1.12320   1.03694    8.903
 5177.00    1.14354   1.04415    8.745
 5178.00    1.14836   1.05432    8.708
 5179.00    1.13689   1.05663    8.796
 5180.00    1.11306   1.05841    8.984
 5181.00    1.08400   1.06436    9.225
 5182.00    1.05656   1.07248    9.465
 5183.00    1.03643   1.07866    9.648
 5184.00    1.02789   1.07768    9.729
 5185.00    1.03255   1.08164    9.685
 5186.00    1.04895   1.09282    9.533
 5187.00    1.07296   1.09366    9.320
 5188.00    1.10011   1.09077    9.090
 5189.00    1.12705   1.10351    8.873
 5190.00    1.15152   1.11392    0.000
 5191.00    1.17199   1.10454    0.000
 5192.00    1.18739   1.10607    0.000
 5193.00    1.19707   1.12193    0.000
 5194.00    1.20100   1.11732    0.000
 5195.00    1.20015   1.10865    0.000
 5196.00    1.19643   1.12187    0.000
 5197.00    1.19222   1.12747    0.000
 5198.00    1.18905   1.11582    0.000
 5199.00    1.18743   1.12056    0.000
 5200.00    1.18713   1.13215    0.000
 5201.00    1.18838   1.12307    0.000
 5202.00    1.19231   1.11942    0.000
 5203.00    1.20047   1.13300    0.000
 5204.00    1.21262   1.13297    0.000
 5205.00    1.22545   1.12522    0.000
 5206.00    1.23306   1.13396    0.000
 5207.00    1.23094   1.14286    0.000
 5208.00    1.21944   1.13655    0.000
 5209.00    1.20373   1.13682    0.000
 5210.00    1.18983   1.14862    0.000
 5211.00    1.17954   1.14872    8.478
 5212.00    1.16991   1.14315    8.548
 5213.00    1.15636   1.14882    8.648
 5214.00    1.13878   1.15710    8.781
 5215.00    1.12284   1.15502    8.906
 5216.00    1.11695   1.15215    8.953
 5217.00    1.12317   1.15986    8.903
 5218.00    1.13431   1.16213    8.816
 5219.00    1.13671   1.15472    8.797
 5220.00    1.12437   1.15616    8.894
 5221.00    1.10613   1.16488    9.041
 5222.00    1.10365   1.16310    9.061
 5223.00    1.13279   1.15869    8.828
 5224.00    1.18906   1.16791    8.410
 5225.00    1.24790   1.17261    8.013
 5226.00    1.28201   1.16654    7.800
 5227.00    1.28208   1.17158    7.800
 5228.00    1.25880   1.18000    7.944
 5229.00    1.23297   1.17638    8.111
 5230.00    1.21739   1.17761    8.214
 5231.00    1.21347   1.18983    8.241
 5232.00    1.21471   1.19165    8.232
 5233.00    1.21656   1.18830    8.220
 5234.00    1.21947   1.19838    8.200
 5235.00    1.22743   1.20257    8.147
 5236.00    1.24148   1.19403    8.055
 5237.00    1.25651   1.19876    7.959
 5238.00    1.26229   1.20938    7.922
 5239.00    1.25121   1.20366    7.992
 5240.00    1.22393   1.19834    8.170
 5241.00    1.18934   1.20744    8.408
 5242.00    1.15904   1.20767    8.628
 5243.00    1.14114   1.19495    8.763
 5244.00    1.13968   1.19511    8.774
 5245.00    1.15471   1.20186    8.660
 5246.00    1.18245   1.19452    8.457
 5247.00    1.21540   1.18538    8.228
 5248.00    1.24428   1.18647    8.037
 5249.00    1.26328   1.18602    7.916
 5250.00    1.27157   1.17605    7.864
 5251.00    1.27212   1.16657    7.861
 5252.00    1.26702   1.16531    7.893
 5253.00    1.25534   1.16422    7.966
 5254.00    1.23373   1.15465    8.105
 5255.00    1.20078   1.14262    8.328
 5256.00    1.15992   1.14222    8.621
 5257.00    1.11929   1.14194    8.934
 5258.00    1.08730   1.12542    9.197
 5259.00    1.06815   1.11555    9.362
 5260.00    1.06144   1.12489    9.421
 5261.00    1.06382   1.12215    9.400
 5262.00    1.07148   1.10390    9.333
 5263.00    1.08066   1.10772    9.254
 5264.00    1.08820   1.12082    9.189
 5265.00    1.09304   1.10846    9.149
 5266.00    1.09659   1.10025    9.119
 5267.00    1.10198   1.11996    9.075
 5268.00    1.11131   1.12837    8.998
 5269.00    1.12440   1.11694    8.894
 5270.00    1.13908   1.12665    8.779
 5271.00    1.15268   1.14688    8.675
 5272.00    1.16306   1.14473    8.598
 5273.00    1.16867   1.14374    8.557
 5274.00    1.16905   1.16447    8.554
 5275.00    1.16532   1.17778    8.581
 5276.00    1.16015   1.17467    8.620
 5277.00    1.15729   1.18283    8.641
 5278.00    1.16070   1.19911    8.616
 5279.00    1.17446   1.20217    8.515
 5280.00    1.20148   1.20272    8.323
 5281.00    1.24052   1.21568    8.061
 5282.00    1.28552   1.22584    7.779
 5283.00    1.32693   1.22411    7.536
 5284.00    1.35647   1.22597    7.372
 5285.00    1.36893   1.23469    7.305
 5286.00    1.36242   1.23619    7.340
 5287.00    1.33927   1.23345    7.467
 5288.00    1.30661   1.23958    7.653
 5289.00    1.27589   1.24506    7.838
 5290.00    1.25751   1.24109    7.952
 5291.00    1.25609   1.23997    7.961
 5292.00    1.27017   1.24568    7.873
 5293.00    1.29435   1.24559    7.726
 5294.00    1.32217   1.24158    7.563
 5295.00    1.34660   1.24620    7.426
 5296.00    1.36136   1.25118    7.346
 5297.00    1.36370   1.24849    7.333
 5298.00    1.35509   1.24805    7.380
 5299.00    1.34052   1.25322    7.460
 5300.00    1.32612   1.25531    7.541
 5301.00    1.31842   1.25379    7.585
 5302.00    1.32319   1.25562    7.557
 5303.00    1.33981   1.25868    7.464
 5304.00    1.35812   1.25935    7.363
 5305.00    1.35979   1.25803    7.354
 5306.00    1.33112   1.25667    7.512
 5307.00    1.27403   1.25813    7.849
 5308.00    1.20608   1.25852    8.291
 5309.00    1.14976   1.25292    8.697
 5310.00    1.11841   1.24744    8.941
 5311.00    1.11462   1.24892    8.972
 5312.00    1.13356   1.24641    8.822
 5313.00    1.16960   1.23528    8.550
 5314.00    1.21773   1.23151    8.212
 5315.00    1.27275   1.23419    7.857
 5316.00    1.32677   1.22573    7.537
 5317.00    1.36843   1.21163    7.308
 5318.00    1.38461   1.21207    7.222
 5319.00    1.36898   1.21494    7.305
 5320.00    1.32642   1.20348    7.539
 5321.00    1.27203   1.19512    7.861
 5322.00    1.22222   1.19991    8.182
 5323.00    1.18755   1.19944    8.421
 5324.00    1.17245   1.18790    8.529
 5325.00    1.17736   1.18663    8.494
 5326.00    1.20131   1.19521    8.324
 5327.00    1.24221   1.19478    8.050
 5328.00    1.29610   1.18870    7.715
 5329.00    1.35579   1.19073    7.376
 5330.00    1.41067   1.19748    7.089
 5331.00    1.44924   1.19753    6.900
 5332.00    1.46644   1.19661    6.819
 5333.00    1.46593   1.20288    6.822
 5334.00    1.45822   1.20943    6.858
 5335.00    1.45199   1.20939    6.887
 5336.00    1.45000   1.20983    6.897
 5337.00    1.44899   1.21609    6.901
 5338.00    1.44025   1.22114    6.943
 5339.00    1.41002   1.22326    7.092
 5340.00    1.34074   1.22865    7.459
 5341.00    1.22649   1.23407    8.153
 5342.00    1.09050   1.23528    9.170
 5343.00    0.98583   1.23924   10.144
 5344.00    0.96769   1.24570   10.334
 5345.00    1.04569   1.24788    9.563
 5346.00    1.17565   1.24997    8.506
 5347.00    1.28272   1.25705    7.796
 5348.00    1.32249   1.26107    7.562
 5349.00    1.29856   1.25921    7.701
 5350.00    1.25271   1.26212    7.983
 5351.00    1.22265   1.26737    8.179
 5352.00    1.22311   1.26613    8.176
 5353.00    1.24749   1.26349    8.016
 5354.00    1.28283   1.26587    7.795
 5355.00    1.32013   1.26766    7.575
 5356.00    1.35469   1.26320    7.382
 5357.00    1.38374   1.26070    7.227
 5358.00    1.40396   1.26103    7.123
 5359.00    1.41131   1.25718    7.086
 5360.00    1.40296   1.25119    7.128
 5361.00    1.38044   1.24966    7.244
 5362.00    1.35009   1.25061    7.407
 5363.00    1.32106   1.24651    7.570
 5364.00    1.30035   1.24331    7.690
 5365.00    1.29143   1.24265    7.743
 5366.00    1.29425   1.23960    7.726
 5367.00    1.30513   1.23624    7.662
 5368.00    1.31662   1.23683    7.595
 5369.00    1.31859   1.23886    7.584
 5370.00    1.30422   1.23763    7.667
 5371.00    1.27395   1.23717    7.850
 5372.00    1.23526   1.23662    8.095
 5373.00    1.19784   1.23598    8.348
 5374.00    1.16894   1.23691    8.555
 5375.00    1.15293   1.23681    8.674
 5376.00    1.15142   1.23610    8.685
 5377.00    1.16338   1.23693    8.596
 5378.00    1.18524   1.23581    8.437
 5379.00    1.21231   1.23000    8.249
 5380.00    1.24216   1.22930    8.050
 5381.00    1.27546   1.23155    7.840
 5382.00    1.31442   1.22529    7.608
 5383.00    1.35725   1.21904    7.368
 5384.00    1.39606   1.22184    7.163
 5385.00    1.41839   1.21796    7.050
 5386.00    1.41680   1.20438    7.058
 5387.00    1.39452   1.20332    7.171
 5388.00    1.36474   1.20781    7.327
 5389.00    1.34077   1.19719    7.458
 5390.00    1.32701   1.18717    7.536
 5391.00    1.31854   1.19277    7.584
 5392.00    1.30694   1.19047    7.651
 5393.00    1.28846   1.17483    7.761
 5394.00    1.26503   1.17314    7.905
 5395.00    1.24259   1.18042    8.048
 5396.00    1.22721   1.17436    8.149
 5397.00    1.22428   1.16663    8.168
 5398.00    1.23737   1.17171    8.082
 5399.00    1.26461   1.17297    7.908
 5400.00    1.29732   1.16595    7.708
 5401.00    1.32165   1.16671    7.566
 5402.00    1.32715   1.17261    7.535
 5403.00    1.31165   1.17340    7.624
 5404.00    1.28085   1.17426    7.807
 5405.00    1.24343   1.17875    8.042
 5406.00    1.20680   1.17993    8.286
 5407.00    1.17675   1.18188    8.498
 5408.00    1.15669   1.18851    8.645
 5409.00    1.14665   1.19211    8.721
 5410.00    1.14327   1.19234    8.747
 5411.00    1.14187   1.19729    8.758
 5412.00    1.14083   1.20345    8.766
 5413.00    1.14245   1.20296    8.753
 5414.00    1.15151   1.20332    8.684
 5415.00    1.17082   1.20975    8.541
 5416.00    1.19967   1.21369    8.336
 5417.00    1.23427   1.21092    8.102
 5418.00    1.26992   1.20997    7.874
 5419.00    1.30211   1.21433    7.680
 5420.00    1.32672   1.21591    7.537
 5421.00    1.34131   1.21217    7.455
 5422.00    1.34608   1.21223    7.429
 5423.00    1.34389   1.21790    7.441
 5424.00    1.33834   1.21736    7.472
 5425.00    1.33152   1.20942    7.510
 5426.00    1.32382   1.20999    7.554
 5427.00    1.31444   1.21887    7.608
 5428.00    1.30254   1.21749    7.677
 5429.00    1.28744   1.21139    7.767
 5430.00    1.26891   1.21536    7.881
 5431.00    1.24795   1.22017    8.013
 5432.00    1.22710   1.21550    8.149
 5433.00    1.21010   1.21407    8.264
 5434.00    1.20061   1.22220    8.329
 5435.00    1.20158   1.22337    8.322
 5436.00    1.21508   1.21740    8.230
 5437.00    1.24095   1.21906    8.058
 5438.00    1.27595   1.22470    7.837
 5439.00    1.31382   1.22331    7.611
 5440.00    1.34834   1.21987    7.417
 5441.00    1.37661   1.22220    7.264
 5442.00    1.39945   1.22318    7.146
 5443.00    1.42022   1.21879   -2.000
 5444.00    1.44286   1.21692   -2.000
 5445.00    1.47149   1.22013   -2.000
 5446.00    1.50772   1.22221   -2.000
 5447.00    1.54336   1.21768   -2.000
 5448.00    1.55835   1.21358   -2.000
 5449.00    1.52624   1.21677   -2.000
 5450.00    1.43744   1.21862   -2.000
 5451.00    1.30979   1.21050   -2.000
 5452.00    1.18476   1.20658   -2.000
 5453.00    1.09898   1.21552   -2.000
 5454.00    1.06448   1.21626   -2.000
 5455.00    1.06875   1.20533   -2.000
 5456.00    1.08935   1.20599   -2.000
 5457.00    1.10933   1.21556   -2.000
 5458.00    1.11875   1.20796    8.939
 5459.00    1.11419   1.19612    8.975
 5460.00    1.09806   1.20548    9.107
 5461.00    1.07842   1.21170    9.273
 5462.00    1.06613   1.19691    9.380
 5463.00    1.06776   1.19320    9.365
 5464.00    1.08374   1.20657    9.227
 5465.00    1.10956   1.20083    9.013
 5466.00    1.14088   1.18481    8.765
 5467.00    1.17557   1.19262    8.507
 5468.00    1.21328   1.20190    8.242
 5469.00    1.25206   1.18728    7.987
 5470.00    1.28607   1.18128    7.776
 5471.00    1.30604   1.19542    7.657
 5472.00    1.30453   1.19192    7.666
 5473.00    1.28116   1.17691    7.805
 5474.00    1.24296   1.18524    8.045
 5475.00    1.20070   1.19706    8.328
 5476.00    1.16343   1.18702    8.595
 5477.00    1.13761   1.18060    8.790
 5478.00    1.12682   1.19168    8.875
 5479.00    1.13105   1.19308    8.841
 5480.00    1.14656   1.18665    8.722
 5481.00    1.16682   1.19356    8.570
 5482.00    1.18614   1.19938    8.431
 5483.00    1.20104   1.19249    8.326
 5484.00    1.21016   1.19283    8.263
 5485.00    1.21327   1.20164    8.242
 5486.00    1.21075   1.19900    8.259
 5487.00    1.20352   1.19587    8.309
 5488.00    1.19276   1.20373    8.384
 5489.00    1.17962   1.20445    8.477
 5490.00    1.16531   1.19602    8.581
 5491.00    1.15158   1.19878    8.684
 5492.00    1.14163   1.20682    8.759
 5493.00    1.14008   1.20083    8.771
 5494.00    1.15051   1.19427    8.692
 5495.00    1.16998   1.20102    8.547
 5496.00    1.18782   1.20439    8.419
 5497.00    1.18970   1.19549    8.405
 5498.00    1.17131   1.19188    8.537
 5499.00    1.14339   1.19855    8.746
 5500.00    1.12832   1.19957    8.863
 5501.00    1.14122   1.19269    8.763
 5502.00    1.17923   1.19049    8.480
 5503.00    1.22283   1.19592    8.178
 5504.00    1.25170   1.19685    7.989
 5505.00    1.25845   1.19147    7.946
 5506.00    1.24911   1.19202    8.006
 5507.00    1.23517   1.19799    8.096
 5508.00    1.22288   1.19674    8.177
 5509.00    1.21208   1.19156    8.250
 5510.00    1.19950   1.19501    8.337
 5511.00    1.18554   1.20186    8.435
 5512.00    1.17572   1.19963    8.505
 5513.00    1.17796   1.19472    8.489
 5514.00    1.19418   1.20052    8.374
 5515.00    1.21737   1.20665    8.214
 5516.00    1.23385   1.20206    8.105
 5517.00    1.23445   1.19905    8.101
 5518.00    1.22046   1.20597    8.194
 5519.00    1.20275   1.20865    8.314
 5520.00    1.19262   1.20208    8.385
 5521.00    1.19456   1.20286    8.371
 5522.00    1.20586   1.21117    8.293
 5523.00    1.22009   1.20942    8.196
 5524.00    1.23117   1.20145    8.122
 5525.00    1.23395   1.20642    8.104
 5526.00    1.22561   1.21525    8.159
 5527.00    1.20824   1.21049    8.276
 5528.00    1.18933   1.20550    8.408
 5529.00    1.17930   1.21348    8.480
 5530.00    1.18419   1.21799    8.445
 5531.00    1.20338   1.21055    8.310
 5532.00    1.23053   1.21165    8.127
 5533.00    1.25801   1.22249    7.949
 5534.00    1.27912   1.22209    7.818
 5535.00    1.28845   1.21516    7.761
 5536.00    1.28389   1.22070    7.789
 5537.00    1.26819   1.23005    7.885
 5538.00    1.24882   1.22607    8.008
 5539.00    1.23379   1.22113    8.105
 5540.00    1.22704   1.22875    8.150
 5541.00    1.22799   1.23425    8.143
 5542.00    1.23345   1.22778    8.107
 5543.00    1.24106   1.22592    8.058
 5544.00    1.24988   1.23406    8.001
 5545.00    1.26000   1.23513    7.937
 5546.00    1.27138   1.22797    7.865
 5547.00    1.28352   1.22758    7.791
 5548.00    1.29618   1.23332    7.715
 5549.00    1.31235   1.23133    7.620
 5550.00    1.33962   1.22365    7.465
 5551.00    1.38819   1.22382    7.204
 5552.00    1.45677   1.22858    6.865
 5553.00    1.52254   1.22455    6.568
 5554.00    1.54348   1.21631    6.479
 5555.00    1.49219   1.21768   -2.000
 5556.00    1.39225   1.22207   -2.000
 5557.00    1.31972   1.21552   -2.000
 5558.00    1.35535   1.20728   -2.000
 5559.00    1.50634   1.21113   -2.000
 5560.00    1.69385   1.21452   -2.000
 5561.00    1.79604   1.20532   -2.000
 5562.00    1.75617   1.20027   -2.000
 5563.00    1.61210   1.20729   -2.000
 5564.00    1.47071   1.20667   -2.000
 5565.00    1.40586   1.19630   -2.000
 5566.00    1.41473   1.19685   -2.000
 5567.00    1.42827   1.20424   -2.000
 5568.00    1.38546   1.19818   -2.000
 5569.00    1.28202   1.18974   -2.000
 5570.00    1.16855   1.19488   -2.000
 5571.00    1.10320   1.19758   -2.000
 5572.00    1.10422   1.18886   -2.000
 5573.00    1.14689   1.18594   -2.000
 5574.00    1.18809   1.19002   -2.000
 5575.00    1.20389   1.18639   -2.000
 5576.00    1.19522   1.18020   -2.000
 5577.00    1.17904   1.18152   -2.000
 5578.00    1.16765   1.18133    8.564
 5579.00    1.16346   1.17392    8.595
 5580.00    1.16110   1.17141    8.613
 5581.00    1.15522   1.17512    8.656
 5582.00    1.14366   1.17141    8.744
 5583.00    1.12728   1.16393    8.871
 5584.00    1.10887   1.16569    9.018
 5585.00    1.09248   1.16882    9.154
 5586.00    1.08312   1.16347    9.233
 5587.00    1.08426   1.16081    9.223
 5588.00    1.09539   1.16678    9.129
 5589.00    1.11202   1.16849    8.993
 5590.00    1.12833   1.16209    8.863
 5591.00    1.14090   1.16328    8.765
 5592.00    1.14931   1.17294    8.701
 5593.00    1.15531   1.17389    8.656
 5594.00    1.16116   1.16852    8.612
 5595.00    1.16925   1.17222    8.552
 5596.00    1.18158   1.18031    8.463
 5597.00    1.19803   1.18062    8.347
 5598.00    1.21572   1.18017    8.226
 5599.00    1.22977   1.18482    8.132
 5600.00    1.23719   1.18830    8.083
 5601.00    1.23925   1.18808    8.069
 5602.00    1.24099   1.19062    8.058
 5603.00    1.24690   1.19421    8.020
 5604.00    1.25702   1.19395    7.955
 5605.00    1.26685   1.19413    7.894
 5606.00    1.27099   1.19614    7.868
 5607.00    1.26788   1.19495    7.887
 5608.00    1.26033   1.19353    7.934
 5609.00    1.25321   1.19702    7.980
 5610.00    1.24854   1.19770    8.009
 5611.00    1.24449   1.19184    8.035
 5612.00    1.23717   1.18982    8.083
 5613.00    1.22630   1.19502    8.155
 5614.00    1.21715   1.19605    8.216
 5615.00    1.21870   1.19056    8.205
 5616.00    1.23437   1.18802    8.101
 5617.00    1.25699   1.19114    7.956
 5618.00    1.27018   1.19231    7.873
 5619.00    1.26144   1.18956    7.927
 5620.00    1.23281   1.18840    8.112
 5621.00    1.20075   1.19026    8.328
 5622.00    1.18385   1.19030    8.447
 5623.00    1.18741   1.18861    8.422
 5624.00    1.20195   1.18964    8.320
 5625.00    1.21201   1.19197    8.251
 5626.00    1.21290   1.19158    8.245
 5627.00    1.21398   1.18992    8.237
 5628.00    1.23233   1.19080    8.115
 5629.00    1.27411   1.19200    7.849
 5630.00    1.32854   1.19130    7.527
 5631.00    1.37176   1.19065    7.290
 5632.00    1.38505   1.19097    7.220
 5633.00    1.36380   1.19032    7.332
 5634.00    1.31685   1.18983    7.594
 5635.00    1.25832   1.19040    7.947
 5636.00    1.20153   1.19008    8.323
 5637.00    1.15837   1.18919    8.633
 5638.00    1.13615   1.18867    8.802
 5639.00    1.13407   1.18747    8.818
 5640.00    1.14298   1.18662    8.749
 5641.00    1.15046   1.18792    8.692
 5642.00    1.14988   1.18637    8.697
 5643.00    1.14202   1.18243    8.756
 5644.00    1.13271   1.18343    8.828
 5645.00    1.12634   1.18674    8.878
 5646.00    1.12395   1.18179    8.897
 5647.00    1.12378   1.17599    8.899
 5648.00    1.12400   1.18153    8.897
 5649.00    1.12386   1.18568    8.898
 5650.00    1.12386   1.17558    8.898
 5651.00    1.12605   1.17000    8.881
 5652.00    1.13426   1.18100    8.816
 5653.00    1.15386   1.18439    8.667
 5654.00    1.18790   1.17192    8.418
 5655.00    1.23304   1.16951    8.110
 5656.00    1.27928   1.18201    7.817
 5657.00    1.31490   1.18380    7.605
 5658.00    1.33457   1.17435    7.493
 5659.00    1.34063   1.17527    7.459
 5660.00    1.33995   1.18540    7.463
 5661.00    1.33579   1.18661    7.486
 5662.00    1.32552   1.18163    7.544
 5663.00    1.30269   1.18369    7.676
 5664.00    1.26508   1.19081    7.905
 5665.00    1.21823   1.19303    8.209
 5666.00    1.17427   1.19074    8.516
 5667.00    1.14402   1.19098    8.741
 5668.00    1.13165   1.19640    8.837
 5669.00    1.13478   1.20112    8.812
 5670.00    1.14774   1.19826    8.713
 5671.00    1.16496   1.19471    8.584
 5672.00    1.18131   1.20004    8.465
 5673.00    1.19338   1.20628    8.380
 5674.00    1.20147   1.20086    8.323
 5675.00    1.20977   1.19477    8.266
 5676.00    1.22372   1.20082    8.172
 5677.00    1.24360   1.20670    8.041
 5678.00    1.26293   1.19949    7.918
 5679.00    1.27096   1.19305    7.868
 5680.00    1.26220   1.19943    7.923
 5681.00    1.24017   1.20369    8.063
 5682.00    1.21609   1.19583    8.223
 5683.00    1.20035   1.19062    8.331
 5684.00    1.19733   1.19710    8.352
 5685.00    1.20532   1.19891    8.297
 5686.00    1.21927   1.19013    8.202
 5687.00    1.23326   1.18710    8.109
 5688.00    1.24086   1.19374    8.059
 5689.00    1.23750   1.19253    8.081
 5690.00    1.22389   1.18259    8.171
 5691.00    1.20645   1.18202    8.289
 5692.00    1.19356   1.18812    8.378
 5693.00    1.18737   1.18384    8.422
 5694.00    1.18191   1.17452    8.461
 5695.00    1.16665   1.17627    8.572
 5696.00    1.13896   1.18066    8.780
 5697.00    1.10878   1.17460    9.019
 5698.00    1.09565   1.16852    9.127
 5699.00    1.11189   1.17217    8.994
 5700.00    1.15297   1.17378    8.673
 5701.00    1.19873   1.16815    8.342
 5702.00    1.22920   1.16770    8.135
 5703.00    1.23851   1.17219    8.074
 5704.00    1.23534   1.17120    8.095
 5705.00    1.23272   1.16928    8.112
 5706.00    1.23433   1.17412    8.102
 5707.00    1.23293   1.17815    8.111
 5708.00    1.21753   1.17679    8.213
 5709.00    1.18839   1.17908    8.415
 5710.00    1.16016   1.18612    8.620
 5711.00    1.15477   1.18913    8.660
 5712.00    1.17872   1.18896    8.484
 5713.00    1.21508   1.19425    8.230
 5714.00    1.22970   1.20121    8.132
 5715.00    1.20316   1.20177    8.311
 5716.00    1.14806   1.20227    8.710
 5717.00    1.10542   1.20996    9.046
 5718.00    1.10887   1.21539    9.018
 5719.00    1.15515   1.21223    8.657
 5720.00    1.20414   1.21294    8.305
 5721.00    1.21003   1.22191    8.264
 5722.00    1.16048   1.22533    8.617
 5723.00    1.08079   1.21966    9.252
 5724.00    1.01516   1.21971    9.851
 5725.00    0.99084   1.22778   10.092
 5726.00    1.01090   1.22940    9.892
 5727.00    1.06011   1.22359    9.433
 5728.00    1.12231   1.22357    8.910
 5729.00    1.18618   1.22934    8.430
 5730.00    1.24468   1.22891    8.034
 5731.00    1.29270   1.22371    7.736
 5732.00    1.32577   1.22419    7.543
 5733.00    1.34023   1.22824    7.461
 5734.00    1.33414   1.22647    7.495
 5735.00    1.30810   1.22147    7.645
 5736.00    1.26545   1.22157    7.902
 5737.00    1.21464   1.22482    8.233
 5738.00    1.17197   1.22356    8.533
 5739.00    1.16146   1.21875    8.610
 5740.00    1.20381   1.21708    0.000
 5741.00    1.29643   1.21922    0.000
 5742.00    1.40998   1.21911    0.000
 5743.00    1.50057   1.21576    0.000
 5744.00    1.54363   1.21389    0.000
 5745.00    1.54411   1.21432    0.000
 5746.00    1.53001   1.21328    0.000
 5747.00    1.52399   1.21140    0.000
 5748.00    1.52998   1.21179    0.000
 5749.00    1.53514   1.21228    0.000
 5750.00    1.52622   1.21030    0.000
 5751.00    1.50130   1.20865    0.000
 5752.00    1.46983   1.21070    0.000
 5753.00    1.44401   1.21174    0.000
 5754.00    1.42944   1.20889    0.000
 5755.00    1.42435   1.20733    0.000
 5756.00    1.42371   1.21100    0.000
 5757.00    1.42605   1.21254    0.000
 5758.00    1.43467   1.20949    0.000
 5759.00    1.45434   1.20865    0.000
 5760.00    1.48296   1.21162    0.000
 5761.00    1.50931   1.21149    0.000
 5762.00    1.51663   1.20854    0.000
 5763.00    1.49728   1.20880    0.000
 5764.00    1.45917   1.21034    0.000
 5765.00    1.42334   1.20790    0.000
 5766.00    1.40713   1.20450    0.000
 5767.00    1.41286   1.20546    0.000
 5768.00    1.42821   1.20590    0.000
 5769.00    1.43698   1.20078    0.000
 5770.00    1.43012   1.19727    0.000
 5771.00    1.40663   1.19967    0.000
 5772.00    1.37160   1.19861    0.000
 5773.00    1.33302   1.19075    0.000
 5774.00    1.30128   1.18812    0.000
 5775.00    1.28619   1.19259    0.000
 5776.00    1.28992   1.19143    0.000
 5777.00    1.30522   1.18359    0.000
 5778.00    1.31841   1.18240    0.000
 5779.00    1.32085   1.18770    0.000
 5780.00    1.31350   1.18738    0.000
 5781.00    1.30557   1.18221    0.000
 5782.00    1.30506   1.18252    0.000
 5783.00    1.31295   1.18790    0.000
 5784.00    1.32347   1.18915    0.000
 5785.00    1.32990   1.18602    0.000
 5786.00    1.33016   1.18755    0.000
 5787.00    1.32707   1.19451    0.000
 5788.00    1.32516   1.19670    0.000
 5789.00    1.32603   1.19369    0.000
 5790.00    1.32770   1.19598    0.000
 5791.00    1.32674   1.20388    0.000
 5792.00    1.32299   1.20564    0.000
 5793.00    1.32074   1.20251    0.000
 5794.00    1.32674   1.20598    0.000
 5795.00    1.34373   1.21354    0.000
 5796.00    1.36788   1.21329    0.000
 5797.00    1.38993   1.21000    0.000
 5798.00    1.40195   1.21448    0.000
 5799.00    1.40115   1.22069    0.000
 5800.00    1.38986   1.21867    0.000
 5801.00    1.37298   1.21614    0.000
 5802.00    1.35584   1.22147    0.000
 5803.00    1.34390   1.22540    0.000
 5804.00    1.34135   1.22157    0.000
 5805.00    1.34914   1.22090    0.000
 5806.00    1.36479   1.22738    0.000
 5807.00    1.38388   1.22875    0.000
 5808.00    1.40328   1.22412    0.000
 5809.00    1.42178   1.22570    0.000
 5810.00    1.43902   1.23211    0.000
 5811.00    1.45196   1.23135    0.000
 5812.00    1.45364   1.22781    0.000
 5813.00    1.43488   1.23163    0.000
 5814.00    1.39346   1.23631    0.000
 5815.00    1.33902   1.23355    0.000
 5816.00    1.29176   1.23180    0.000
 5817.00    1.26939   1.23711    0.000
 5818.00    1.27623   1.23952    0.000
 5819.00    1.30298   1.23554    0.000
 5820.00    1.33449   1.23580    0.000
 5821.00    1.35961   1.24141    0.000
 5822.00    1.37247   1.24093    0.000
 5823.00    1.37260   1.23628    0.000
 5824.00    1.36533   1.23860    0.000
 5825.00    1.36180   1.24345    0.000
 5826.00    1.37392   1.24001    0.000
 5827.00    1.39926   1.23553    0.000
 5828.00    1.41613   1.23923    0.000
 5829.00    1.39042   1.24225    0.000
 5830.00    1.30856   1.23690    0.000
 5831.00    1.19429   1.23346    0.000
 5832.00    1.10392   1.23710    0.000
 5833.00    1.08492   1.23738    0.000
 5834.00    1.14370   1.23129    0.000
 5835.00    1.24560   1.22916    0.000
 5836.00    1.34227   1.23161    0.000
 5837.00    1.40417   1.22898    0.000
 5838.00    1.42406   1.22306    0.000
 5839.00    1.41047   1.22245    0.000
 5840.00    1.37601   1.22321    0.000
 5841.00    1.33517   1.21771    0.000
 5842.00    1.30162   1.21230    0.000
 5843.00    1.28107   1.21344    0.000
 5844.00    1.26902   1.21318    0.000
 5845.00    1.25373   1.20589    0.000
 5846.00    1.22948   1.20087    0.000
 5847.00    1.20281   1.20311    0.000
 5848.00    1.19073   1.20301    0.000
 5849.00    1.20681   1.19647    0.000
 5850.00    1.25100   1.19209    0.000
 5851.00    1.30975   1.19427    0.000
 5852.00    1.36485   1.19504    0.000
 5853.00    1.40313   1.19068    0.000
 5854.00    1.41751   1.18739    0.000
 5855.00    1.40678   1.18922    0.000
 5856.00    1.37542   1.19069    0.000
 5857.00    1.33346   1.18825    0.000
 5858.00    1.29342   1.18635    0.000
 5859.00    1.26240   1.18815    0.000
 5860.00    1.23984   1.18914    0.000
 5861.00    1.22039   1.18698    0.000
 5862.00    1.20556   1.18600    0.000
 5863.00    1.20896   1.18751    0.000
 5864.00    1.25268   1.18670    0.000
 5865.00    1.34272   1.18338    0.000
 5866.00    1.45241   1.18234    0.000
 5867.00    1.52508   1.18258    0.000
 5868.00    1.51516   1.17877    0.000
 5869.00    1.43049   1.17305    0.000
 5870.00    1.33431   1.17085    0.000
 5871.00    1.30168   1.16936    0.000
 5872.00    1.35077   1.16257   -2.000
 5873.00    1.43256   1.15369   -2.000
 5874.00    1.46255   1.14921   -2.000
 5875.00    1.39772   1.14630   -2.000
 5876.00    1.25651   1.13775   -2.000
 5877.00    1.10334   1.12662   -2.000
 5878.00    0.98925   1.12050   -2.000
 5879.00    0.92753   1.11639   -2.000
 5880.00    0.89776   1.10701   -2.000
 5881.00    0.87411   1.09764   -2.000
 5882.00    0.84311   1.09381   -2.000
 5883.00    0.80428   1.08876   -2.000
 5884.00    0.76744   1.07940   -2.000
 5885.00    0.75020   1.07488   -2.000
 5886.00    0.77695   1.07552   -2.000
 5887.00    0.86492   1.07174   -2.000
 5888.00    1.00359   1.06566   -2.000
 5889.00    1.15207   1.06705   -2.000
 5890.00    1.25708   1.07170   -2.000
 5891.00    1.29342   1.07060   -2.000
 5892.00    1.27367   1.06968    0.000
 5893.00    1.23811   1.07621    0.000
 5894.00    1.21897   1.08304    0.000
 5895.00    1.22677   1.08471    0.000
 5896.00    1.25261   1.08888    0.000
 5897.00    1.28280   1.09792    0.000
 5898.00    1.30736   1.10419    0.000
 5899.00    1.32035   1.10776    0.000
 5900.00    1.31873   1.11514    0.000
 5901.00    1.30149   1.12361    7.683
 5902.00    1.26957   1.12761    7.877
 5903.00    1.22680   1.13193    8.151
 5904.00    1.18115   1.14019    8.466
 5905.00    1.14483   1.14597    8.735
 5906.00    1.13025   1.14714    8.848
 5907.00    1.14174   1.15144    8.759
 5908.00    1.17366   1.15900    8.520
 5909.00    1.21298   1.16168    8.244
 5910.00    1.24781   1.16065    8.014
 5911.00    1.27034   1.16458    7.872
 5912.00    1.27668   1.17092    7.833
 5913.00    1.26537   1.17104    7.903
 5914.00    1.23658   1.16845    8.087
 5915.00    1.19220   1.17221    8.388
 5916.00    1.13649   1.17780    8.799
 5917.00    1.07671   1.17615    9.288
 5918.00    1.02294   1.17255    9.776
 5919.00    0.98562   1.17636   10.146
 5920.00    0.97227   1.18150   10.285
 5921.00    0.98706   1.17858   10.131
 5922.00    1.02850   1.17456    9.723
 5923.00    1.08494   1.17879    9.217
 5924.00    1.13371   1.18336    8.821
 5925.00    1.14760   1.17932    8.714
 5926.00    1.11430   1.17567    8.974
 5927.00    1.04292   1.18056    9.588
 5928.00    0.96044   1.18393   10.412
 5929.00    0.89473   1.17879   -1.000
 5930.00    0.86570   1.17653   -1.000
 5931.00    0.88473   1.18226   -1.000
 5932.00    0.95190   1.18353   10.505
 5933.00    1.05383   1.17733    9.489
 5934.00    1.16441   1.17735    8.588
 5935.00    1.25659   1.18375    7.958
 5936.00    1.31648   1.18238    7.596
 5937.00    1.34483   1.17561    7.436
 5938.00    1.35178   1.17821    7.398
 5939.00    1.34738   1.18480    7.422
 5940.00    1.33972   1.18094    7.464
 5941.00    1.33445   1.17431    7.494
 5942.00    1.33336   1.17920    7.500
 5943.00    1.33393   1.18555    7.497
 5944.00    1.33037   1.18006    7.517
 5945.00    1.31821   1.17425    7.586
 5946.00    1.29647   1.18062    7.713
 5947.00    1.26745   1.18643    7.890
 5948.00    1.23479   1.18057    8.099
 5949.00    1.20195   1.17611    8.320
 5950.00    1.17219   1.18287    8.531
 5951.00    1.14905   1.18791    8.703
 5952.00    1.13683   1.18278    8.796
 5953.00    1.14055   1.17975    8.768
 5954.00    1.16292   1.18586    8.599
 5955.00    1.19931   1.18990    8.338
 5956.00    1.23685   1.18596    8.085
 5957.00    1.25825   1.18406    7.948
 5958.00    1.25171   1.18886    7.989
 5959.00    1.21379   1.19159    8.239
 5960.00    1.14977   1.18849    8.697
 5961.00    1.07520   1.18731    9.301
 5962.00    1.01652   1.19066    9.838
 5963.00    1.00693   1.19169    9.931
 5964.00    1.05805   1.18878    9.451
 5965.00    1.14062   1.18816    8.767
 5966.00    1.18769   1.19035    8.420
 5967.00    1.14420   1.18942    8.740
 5968.00    1.01864   1.18616    9.817
 5969.00    0.88562   1.18634   -1.000
 5970.00    0.83539   1.18792   -1.000
 5971.00    0.89351   1.18504   -1.000
 5972.00    1.00857   1.18138    9.915
 5973.00    1.08824   1.18276    9.189
 5974.00    1.08751   1.18424    9.195
 5975.00    1.03189   1.17981    9.691
 5976.00    0.99814   1.17611   10.019
 5977.00    1.03943   1.17895    9.621
 5978.00    1.15443   1.18053    8.662
 5979.00    1.29395   1.17515    7.728
 5980.00    1.40712   1.17191    7.107
 5981.00    1.47065   1.17598    6.800
 5982.00    1.48889   1.17748    6.716
 5983.00    1.47857   1.17176    6.763
 5984.00    1.45406   1.16928    6.877
 5985.00    1.42603   1.17388    7.012
 5986.00    1.40067   1.17495    7.139
 5987.00    1.37864   1.16934    7.254
 5988.00    1.35492   1.16748    7.380
 5989.00    1.32259   1.17180    7.561
 5990.00    1.28129   1.17232    7.805
 5991.00    1.23931   1.16708    8.069
 5992.00    1.21014   1.16530    8.264
 5993.00    1.20036   1.16877    8.331
 5994.00    1.20495   1.16916    8.299
 5995.00    1.20933   1.16439    8.269
 5996.00    1.20151   1.16193    8.323
 5997.00    1.17940   1.16450    8.479
 5998.00    1.15032   1.16559    8.693
 5999.00    1.12391   1.16137    8.898
 6000.00    1.10560   1.15763    9.045
 6001.00    1.09624   1.15965    9.122
 6002.00    1.09350   1.16229    9.145
 6003.00    1.09403   1.15865    9.141
 6004.00    1.09371   1.15361    9.143
 6005.00    1.08928   1.15563    9.180
 6006.00    1.08173   1.16011    9.244
 6007.00    1.07703   1.15711    9.285
 6008.00    1.08356   1.15141    9.229
 6009.00    1.10350   1.15404    9.062
 6010.00    1.12983   1.15995    8.851
 6011.00    1.14850   1.15754    8.707
 6012.00    1.15064   1.15237    8.691
 6013.00    1.13924   1.15603    8.778
 6014.00    1.12809   1.16244    8.865
 6015.00    1.12966   1.16056    8.852
 6016.00    1.14487   1.15708    8.735
 6017.00    1.16292   1.16183    8.599
 6018.00    1.17039   1.16768    8.544
 6019.00    1.16289   1.16629    8.599
 6020.00    1.14646   1.16505    8.723
 6021.00    1.13240   1.17045    8.831
 6022.00    1.12719   1.17502    8.872
 6023.00    1.13035   1.17407    8.847
 6024.00    1.13642   1.17480    8.800
 6025.00    1.14075   1.18004    8.766
 6026.00    1.14156   1.18310    8.760
 6027.00    1.13960   1.18260    8.775
 6028.00    1.13668   1.18436    8.798
 6029.00    1.13486   1.18856    8.812
 6030.00    1.13631   1.19037    8.800
 6031.00    1.14199   1.19032    8.757
 6032.00    1.15067   1.19199    8.691
 6033.00    1.15898   1.19454    8.628
 6034.00    1.16355   1.19562    8.594
 6035.00    1.16361   1.19600    8.594
 6036.00    1.16124   1.19670    8.611
 6037.00    1.16001   1.19741    8.621
 6038.00    1.16254   1.19829    8.602
 6039.00    1.17005   1.19906    8.547
 6040.00    1.18212   1.19835    8.459
 6041.00    1.19610   1.19736    8.360
 6042.00    1.20698   1.19845    8.285
 6043.00    1.20860   1.19960    8.274
 6044.00    1.19943   1.19752    8.337
 6045.00    1.18526   1.19516    8.437
 6046.00    1.17807   1.19665    8.488
 6047.00    1.18642   1.19833    8.429
 6048.00    1.20846   1.19534    8.275
 6049.00    1.23209   1.19196    8.116
 6050.00    1.24354   1.19384    8.042
 6051.00    1.23682   1.19635    8.085
 6052.00    1.21470   1.19314    8.232
 6053.00    1.18533   1.18902    8.436
 6054.00    1.15659   1.19107    8.646
 6055.00    1.13504   1.19464    8.810
 6056.00    1.12491   1.19195    8.890
 6057.00    1.12547   1.18721    8.885
 6058.00    1.13028   1.18893    8.847
 6059.00    1.12914   1.19352    8.856
 6060.00    1.11640   1.19182    8.957
 6061.00    1.09468   1.18646    9.135
 6062.00    1.07381   1.18715    9.313
 6063.00    1.06294   1.19233    9.408
 6064.00    1.06508   1.19180    9.389
 6065.00    1.07706   1.18572    9.285
 6066.00    1.09232   1.18473    9.155
 6067.00    1.10390   1.18996    9.059
 6068.00    1.10478   1.19049    9.052
 6069.00    1.09078   1.18366    9.168
 6070.00    1.06507   1.18070    9.389
 6071.00    1.03879   1.18568    9.627
 6072.00    1.02648   1.18710    9.742
 6073.00    1.03457   1.17959    9.666
 6074.00    1.05840   1.17498    9.448
 6075.00    1.08496   1.17981    9.217
 6076.00    1.10378   1.18202    9.060
 6077.00    1.11151   1.17409    8.997
 6078.00    1.11124   1.16843    8.999
 6079.00    1.10789   1.17345    9.026
 6080.00    1.10519   1.17648    9.048
 6081.00    1.10546   1.16850    9.046
 6082.00    1.10908   1.16232    9.016
 6083.00    1.11391   1.16764    8.977
 6084.00    1.11540   1.17171    8.965
 6085.00    1.10957   1.16420    9.012
 6086.00    1.09756   1.15755    9.111
 6087.00    1.08616   1.16282    9.207
 6088.00    1.08421   1.16819    9.223
 6089.00    1.09408   1.16189    9.140
 6090.00    1.10961   1.15459    9.012
 6091.00    1.11905   1.15889    8.936
 6092.00    1.11550   1.16566    8.965
 6093.00    1.10108   1.16150    9.082
 6094.00    1.08533   1.15359    9.214
 6095.00    1.07614   1.15587    9.293
 6096.00    1.07423   1.16352    9.309
 6097.00    1.07355   1.16223    9.315
 6098.00    1.06742   1.15436    9.368
 6099.00    1.05421   1.15401    9.486
 6100.00    1.03759   1.16132    9.638
 6101.00    1.02374   1.16282    9.768
 6102.00    1.01734   1.15609    9.830
 6103.00    1.02100   1.15332    9.794
 6104.00    1.03487   1.15885    9.663
 6105.00    1.05568   1.16201    9.473
 6106.00    1.07660   1.15726    9.288
 6107.00    1.08937   1.15318    9.180
 6108.00    1.09143   1.15594    9.162
 6109.00    1.08854   1.15905    9.187
 6110.00    1.09259   1.15648    9.153
 6111.00    1.10985   1.15250    9.010
 6112.00    1.13435   1.15239    8.816
 6113.00    1.14910   1.15398    8.702
 6114.00    1.13953   1.15330    8.776
 6115.00    1.10486   1.15057    9.051
 6116.00    1.05839   1.14810    9.448
 6117.00    1.01767   1.14751    9.826
 6118.00    0.99165   1.14844   10.084
 6119.00    0.97922   1.14759   10.212
 6120.00    0.97384   1.14328   10.269
 6121.00    0.97282   1.14045   10.279
 6122.00    0.97923   1.14302   10.212
 6123.00    0.99938   1.14446   10.006
 6124.00    1.03476   1.13871    9.664
 6125.00    1.07938   1.13371    9.265
 6126.00    1.12102   1.13796    8.920
 6127.00    1.14738   1.14212    8.715
 6128.00    1.14944   1.13550    8.700
 6129.00    1.12190   1.12829    8.913
 6130.00    1.06653   1.13373    9.376
 6131.00    0.99481   1.14084   10.052
 6132.00    0.92753   1.13435   10.781
 6133.00    0.88607   1.12504   11.286
 6134.00    0.88194   1.13042   11.339
 6135.00    0.91548   1.13998   10.923
 6136.00    0.97723   1.13470   10.233
 6137.00    1.05031   1.12374    9.521
 6138.00    1.11095   1.12757    9.001
 6139.00    1.13489   1.13822    8.811
 6140.00    1.11553   1.13456    8.964
 6141.00    1.06968   1.12260    9.349
 6142.00    1.03136   1.12396    9.696
 6143.00    1.02327   1.13416    9.773
 6144.00    1.04290   1.13163    9.589
 6145.00    1.06538   1.11917    9.386
 6146.00    1.06780   1.11816    9.365
 6147.00    1.04746   1.12717    9.547
 6148.00    1.02167   1.12498    9.788
 6149.00    1.01094   1.11218    9.892
 6150.00    1.01993   1.10980    9.805
 6151.00    1.03575   1.11806    9.655
 6152.00    1.03869   1.11588    9.628
 6153.00    1.02062   1.10289    9.798
 6154.00    0.98833   1.10034   10.118
 6155.00    0.95792   1.10898   10.439
 6156.00    0.94000   1.10731   10.638
 6157.00    0.93532   1.09462   10.691
 6158.00    0.93703   1.09267   10.672
 6159.00    0.94004   1.10249   10.638
 6160.00    0.94535   1.10219   10.578
 6161.00    0.95897   1.09063   10.428
 6162.00    0.98392   1.08941   10.163
 6163.00    1.01458   1.10015    9.856
 6164.00    1.03723   1.10185    9.641
 6165.00    1.03938   1.09233    9.621
 6166.00    1.01976   1.09126    9.806
 6167.00    0.98900   1.10159   10.111
 6168.00    0.96190   1.10531   10.396
 6169.00    0.94509   1.09849   10.581
 6170.00    0.93503   1.09671   10.695
 6171.00    0.92353   1.10482   10.828
 6172.00    0.91138   1.11008   10.972
 6173.00    0.91208   1.10639   10.964
 6174.00    0.94634   1.10317   10.567
 6175.00    1.02066   1.10754    9.798
 6176.00    1.11830   1.11372    8.942
 6177.00    1.20324   1.11345    8.311
 6178.00    1.24713   1.10869    8.018
 6179.00    1.24677   1.10856    8.021
 6180.00    1.22323   1.11504    8.175
 6181.00    1.20300   1.11840    8.313
 6182.00    1.19934   1.11286    8.338
 6183.00    1.21086   1.10843    8.259
 6184.00    1.22855   1.11446    8.140
 6185.00    1.24612   1.12125    8.025
 6186.00    1.26164   1.11625    7.926
 6187.00    1.27591   1.10858    7.838
 6188.00    1.28870   1.11326    7.760
 6189.00    1.29780   1.12243    7.705
 6190.00    1.29991   1.11909    7.693
 6191.00    1.29368   1.10979    7.730
 6192.00    1.28096   1.11232    7.807
 6193.00    1.26624   1.12202    7.897
 6194.00    1.25338   1.12061    7.978
 6195.00    1.24357   1.11123    8.041
 6196.00    1.23554   1.11134    8.094
 6197.00    1.22801   1.11958    8.143
 6198.00    1.22202   1.11937    8.183
 6199.00    1.22094   1.11098    8.190
 6200.00    1.22788   1.10917    8.144
 6201.00    1.24191   1.11473    8.052
 6202.00    1.25764   1.11454    7.951
 6203.00    1.26779   1.10751    7.888
 6204.00    1.26878   1.10476    7.882
 6205.00    1.26202   1.10765    7.924
 6206.00    1.25240   1.10671    7.985
 6207.00    1.24301   1.10092    8.045
 6208.00    1.23331   1.09814    8.108
 6209.00    1.21985   1.09930    8.198
 6210.00    1.20058   1.09771    8.329
 6211.00    1.17729   1.09296    8.494
 6212.00    1.15541   1.09059    8.655
 6213.00    1.14108   1.09102    8.764
 6214.00    1.13873   1.08936    8.782
 6215.00    1.15084   1.08563    8.689
 6216.00    1.17710   1.08382    8.495
 6217.00    1.21347   1.08396    8.241
 6218.00    1.25206   1.08248    7.987
 6219.00    1.28411   1.07982    7.788
 6220.00    1.30583   1.07880    7.658
 6221.00    1.31968   1.07874    7.578
 6222.00    1.33207   1.07711    7.507
 6223.00    1.34613   1.07535    7.429
 6224.00    1.35929   1.07533    7.357
 6225.00    1.36447   1.07504    7.329
 6226.00    1.35632   1.07287    7.373
 6227.00    1.33448   1.07149    7.494
 6228.00    1.30331   1.07238    7.673
 6229.00    1.26872   1.07221    7.882
 6230.00    1.23555   1.06945    8.094
 6231.00    1.20738   1.06760    8.282
 6232.00    1.18589   1.06882    8.433
 6233.00    1.17001   1.06916    8.547
 6234.00    1.15600   1.06644    8.650
 6235.00    1.13988   1.06392    8.773
 6236.00    1.12219   1.06454    8.911
 6237.00    1.10887   1.06536    9.018
 6238.00    1.10746   1.06370    9.030
 6239.00    1.11610   1.06100    8.960
 6240.00    1.12004   1.06021    8.928
 6241.00    1.09606   1.06119    9.124
 6242.00    1.03300   1.06157    9.681
 6243.00    0.94193   1.05962   10.617
 6244.00    0.85363   1.05708   11.715
 6245.00    0.79742   1.05769   -1.000
 6246.00    0.78522   1.06064   -1.000
 6247.00    0.81110   1.06053   -1.000
 6248.00    0.85904   1.05668   11.641
 6249.00    0.91178   1.05635   10.968
 6250.00    0.95195   1.06148   10.505
 6251.00    0.96657   1.06406   10.346
 6252.00    0.95492   1.06009   10.472
 6253.00    0.92984   1.05850   10.755
 6254.00    0.91185   1.06463   10.967
 6255.00    0.91314   1.06988   10.951
 6256.00    0.93288   1.06701   10.719
 6257.00    0.95972   1.06432   10.420
 6258.00    0.98270   1.07015   10.176
 6259.00    0.99630   1.07713   10.037
 6260.00    1.00022   1.07592    9.998
 6261.00    0.99732   1.07268   10.027
 6262.00    0.99213   1.07727   10.079
 6263.00    0.99054   1.08457   10.096
 6264.00    0.99712   1.08479   10.029
 6265.00    1.01230   1.08164    9.878
 6266.00    1.03214   1.08481    9.689
 6267.00    1.05117   1.09137    9.513
 6268.00    1.06688   1.09222    9.373
 6269.00    1.08052   1.08952    9.255
 6270.00    1.09559   1.09158    9.128
 6271.00    1.11413   1.09663    8.976
 6272.00    1.13575   1.09744    8.805
 6273.00    1.15793   1.09544    8.636
 6274.00    1.17757   1.09692    8.492
 6275.00    1.19156   1.10022    8.392
 6276.00    1.19729   1.09999    8.352
 6277.00    1.19553   1.09864    8.364
 6278.00    1.19233   1.10055    8.387
 6279.00    1.19849   1.10234    8.344
 6280.00    1.22275   1.10030    0.000
 6281.00    1.26492   1.09890    0.000
 6282.00    1.31545   1.10175   -2.000
 6283.00    1.36003   1.10304   -2.000
 6284.00    1.38643   1.09904   -2.000
 6285.00    1.38570   1.09654   -2.000
 6286.00    1.35499   1.10033   -2.000
 6287.00    1.30419   1.10243   -2.000
 6288.00    1.25760   1.09707   -2.000
 6289.00    1.24561   1.09252   -2.000
 6290.00    1.27433   1.09663   -2.000
 6291.00    1.31346   1.10069   -2.000
 6292.00    1.30503   1.09541   -2.000
 6293.00    1.21660   1.08836   -2.000
 6294.00    1.07382   1.09132    0.000
 6295.00    0.95571   1.09786    0.000
 6296.00    0.93220   1.09472    0.000
 6297.00    1.00585   1.08547    0.000
 6298.00    1.10978   1.08559    0.000
 6299.00    1.15965   1.09433    0.000
 6300.00    1.12768   1.09481    0.000
 6301.00    1.05240   1.08421    0.000
 6302.00    1.00662   1.08079    0.000
 6303.00    1.02753   1.09074    0.000
 6304.00    1.10041   1.09516    0.000
 6305.00    1.17385   1.08459    0.000
 6306.00    1.21182   1.07793    0.000
 6307.00    1.21300   1.08764    0.000
 6308.00    1.20539   1.09547    0.000
 6309.00    1.21514   1.08670    0.000
 6310.00    1.24876   1.07751    0.000
 6311.00    1.29394   1.08535    0.000
 6312.00    1.33382   1.09590    0.000
 6313.00    1.35941   1.09013    0.000
 6314.00    1.37024   1.07920    0.000
 6315.00    1.37018   1.08420    0.000
 6316.00    1.36171   1.09662    0.000
 6317.00    1.34525   1.09431    0.000
 6318.00    1.32013   1.08225    0.000
 6319.00    1.28656   1.08386    0.000
 6320.00    1.24608   1.09717    0.000
 6321.00    1.20175   1.09843    8.321
 6322.00    1.15881   1.08574    8.630
 6323.00    1.12490   1.08353    8.890
 6324.00    1.10873   1.09657    9.019
 6325.00    1.11342   1.10088    8.981
 6326.00    1.13296   1.08875    8.826
 6327.00    1.15326   1.08353    8.671
 6328.00    1.16227   1.09490    8.604
 6329.00    1.15823   1.10099    8.634
 6330.00    1.14963   1.09060    8.698
 6331.00    1.14704   1.08334    8.718
 6332.00    1.15298   1.09174    8.673
 6333.00    1.16081   1.09856    8.615
 6334.00    1.16141   1.09114    8.610
 6335.00    1.15558   1.08366    8.654
 6336.00    1.15647   1.08855    8.647
 6337.00    1.18252   1.09423    8.457
 6338.00    1.23656   1.08966    8.087
 6339.00    1.29921   1.08375    7.697
 6340.00    1.33540   1.08597    7.488
 6341.00    1.32518   1.08908    7.546
 6342.00    1.27906   1.08593    7.818
 6343.00    1.23427   1.08278    8.102
 6344.00    1.22199   1.08405    8.183
 6345.00    1.24241   1.08411    8.049
 6346.00    1.26524   1.08110    7.904
 6347.00    1.25707   1.08069    7.955
 6348.00    1.21314   1.08229    8.243
 6349.00    1.16010   1.08021    8.620
 6350.00    1.13608   1.07665    8.802
 6351.00    1.15549   1.07829    8.654
 6352.00    1.20269   1.08147    8.315
 6353.00    1.24338   1.07885    8.043
 6354.00    1.25592   1.07451    7.962
 6355.00    1.24054   1.07738    8.061
 6356.00    1.21490   1.08264    8.231
 6357.00    1.19414   1.08057    8.374
 6358.00    1.18163   1.07561    8.463
 6359.00    1.17038   1.07889    8.544
 6360.00    1.15440   1.08629    8.663
 6361.00    1.13681   1.08576    8.797
 6362.00    1.12939   1.08050    8.854
 6363.00    1.14139   1.08311    8.761
 6364.00    1.16741   1.09149    8.566
 6365.00    1.18676   1.09284    8.426
 6366.00    1.17703   1.08800    8.496
 6367.00    1.13654   1.08897    8.799
 6368.00    1.08791   1.09657    9.192
 6369.00    1.06583   1.09981    9.382
 6370.00    1.08602   1.09621    9.208
 6371.00    1.13661   1.09486    8.798
 6372.00    1.18545   1.10012    8.436
 6373.00    1.20921   1.10465    8.270
 6374.00    1.20608   1.10284    8.291
 6375.00    1.19289   1.09959    8.383
 6376.00    1.18484   1.10166    8.440
 6377.00    1.18208   1.10617    8.460
 6378.00    1.17034   1.10621    8.545
 6379.00    1.13538   1.10233    8.808
 6380.00    1.07773   1.10123    9.279
 6381.00    1.01351   1.10442    9.867
 6382.00    0.96413   1.10590   10.372
 6383.00    0.94048   1.10262   10.633
 6384.00    0.94044   1.10024   10.633
 6385.00    0.95337   1.10214   10.489
 6386.00    0.97040   1.10309   10.305
 6387.00    0.98717   1.09981   10.130
 6388.00    1.00293   1.09856    9.971
 6389.00    1.01733   1.10064    9.830
 6390.00    1.02909   1.09984    9.717
 6391.00    1.03625   1.09598    9.650
 6392.00    1.03753   1.09655    9.638
 6393.00    1.03321   1.09967    9.679
 6394.00    1.02510   1.09725    9.755
 6395.00    1.01586   1.09242    9.844
 6396.00    1.00842   1.09452    9.916
 6397.00    1.00583   1.09926    9.942
 6398.00    1.00994   1.09603    9.902
 6399.00    1.01955   1.08979    9.808
 6400.00    1.03016   1.09201    9.707
 6401.00    1.03634   1.09848    9.649
 6402.00    1.03691   1.09659    9.644
 6403.00    1.03608   1.08937    9.652
 6404.00    1.04129   1.08939    9.603
 6405.00    1.05532   1.09708    9.476
 6406.00    1.07341   1.09890    9.316
 6407.00    1.08494   1.09118    9.217
 6408.00    1.08300   1.08718    9.234
 6409.00    1.06993   1.09471    9.346
 6410.00    1.05669   1.10085    9.464
 6411.00    1.05490   1.09468    9.480
 6412.00    1.06991   1.08780    9.347
 6413.00    1.10032   1.09269    9.088
 6414.00    1.14035   1.10097    8.769
 6415.00    1.18285   1.09885    8.454
 6416.00    1.21979   1.09155    8.198
 6417.00    1.24356   1.09187    8.041
 6418.00    1.24969   1.09885    8.002
 6419.00    1.23744   1.10170    8.081
 6420.00    1.20966   1.09739    8.267
 6421.00    1.17224   1.09317    8.531
 6422.00    1.13400   1.09581    8.818
 6423.00    1.10546   1.10228    9.046
 6424.00    1.09308   1.10257    9.148
 6425.00    1.09607   1.09625    9.124
 6426.00    1.10687   1.09438    9.035
 6427.00    1.11629   1.10132    8.958
 6428.00    1.11773   1.10543    8.947
 6429.00    1.10749   1.09966    9.029
 6430.00    1.08555   1.09428    9.212
 6431.00    1.05655   1.09901    9.465
 6432.00    1.02980   1.10506    9.711
 6433.00    1.01507   1.10237    9.852
 6434.00    1.01480   1.09702    9.854
 6435.00    1.02244   1.09790    9.781
 6436.00    1.02605   1.10169    9.746
 6437.00    1.01881   1.10122    9.815
 6438.00    1.00239   1.09871    9.976
 6439.00    0.98555   1.09817   10.147
 6440.00    0.97720   1.09861   10.233
 6441.00    0.98289   1.09768   10.174
 6442.00    1.00461   1.09758    9.954
 6443.00    1.04002   1.09826    9.615
 6444.00    1.08183   1.09809    9.244
 6445.00    1.11823   1.09614    8.943
 6446.00    1.13959   1.09516    8.775
 6447.00    1.14623   1.09714    8.724
 6448.00    1.14904   1.09826    8.703
 6449.00    1.16246   1.09455    8.602
 6450.00    1.19186   1.09246    8.390
 6451.00    1.23129   1.09776    8.122
 6452.00    1.26719   1.10062    7.891
 6453.00    1.28863   1.09416    7.760
 6454.00    1.29045   1.08974    7.749
 6455.00    1.27294   1.09669    7.856
 6456.00    1.24050   1.10187    8.061
 6457.00    1.20102   1.09647    8.326
 6458.00    1.16510   1.09076    8.583
 6459.00    1.14056   1.09520    8.768
 6460.00    1.12858   1.10112    8.861
 6461.00    1.12384   1.09893    8.898
 6462.00    1.11901   1.09289    8.936
 6463.00    1.10976   1.09350    9.011
 6464.00    1.09520   1.09946    9.131
 6465.00    1.07652   1.09934    9.289
 6466.00    1.05476   1.09319    9.481
 6467.00    1.03048   1.09182    9.704
 6468.00    1.00393   1.09634    9.961
 6469.00    0.97584   1.09585   10.248
 6470.00    0.94753   1.09084   10.554
 6471.00    0.92123   1.08949   10.855
 6472.00    0.90102   1.09068   11.099
 6473.00    0.89332   1.08778   11.194
 6474.00    0.90609   1.08447   11.036
 6475.00    0.94374   1.08462   10.596
 6476.00    1.00373   1.08366    9.963
 6477.00    1.07668   1.07849    9.288
 6478.00    1.15027   1.07495    8.694
 6479.00    1.21311   1.07619    8.243
 6480.00    1.25518   1.07551    7.967
 6481.00    1.26947   1.06862    7.877
 6482.00    1.25442   1.06296    7.972
 6483.00    1.21429   1.06544    8.235
 6484.00    1.15843   1.06777    8.632
 6485.00    1.09926   1.06038    9.097
 6486.00    1.05183   1.05176    9.507
 6487.00    1.03133   1.05418    9.696
 6488.00    1.04374   1.06037    9.581
 6489.00    1.08211   1.05706    9.241
 6490.00    1.12835   1.04778    8.862
 6491.00    1.16456   1.04798    8.587
 6492.00    1.18016   1.05598    8.473
 6493.00    1.17210   1.05734    8.532
 6494.00    1.14382   1.05059    8.743
 6495.00    1.10418   1.04865    9.057
 6496.00    1.06709   1.05559    9.371
 6497.00    1.04545   1.06072    9.565
 6498.00    1.04232   1.05798    9.594
 6499.00    1.04982   1.05483    9.525
 6500.00    1.05482   1.05919    9.480
 6501.00    1.05179   1.06565    9.508
 6502.00    1.04585   1.06673    9.562
 6503.00    1.04861   1.06450    9.536
 6504.00    1.06396   1.06638    9.399
 6505.00    1.08263   1.07109    9.237
 6506.00    1.08547   1.07353    9.213
 6507.00    1.06230   1.07366    9.414
 6508.00    1.02286   1.07472    9.777
 6509.00    0.99512   1.07622   10.049
 6510.00    1.00439   1.07719    9.956
 6511.00    1.05482   1.07937    9.480
 6512.00    1.12860   1.08123    8.861
 6513.00    1.19688   1.08095    8.355
 6514.00    1.23459   1.07983    8.100
 6515.00    1.22256   1.08134    8.180
 6516.00    1.15246   1.08415    8.677
 6517.00    1.03692   1.08448    9.644
 6518.00    0.91173   1.08190   10.968
 6519.00    0.82596   1.08082   12.107
 6520.00    0.80997   1.08326   -1.000
 6521.00    0.86425   1.08565   11.571
 6522.00    0.96306   1.08406   10.384
 6523.00    1.07443   1.08026    9.307
 6524.00    1.17097   1.07956    8.540
 6525.00    1.23103   1.08247    8.123
 6526.00    1.24497   1.08390    8.032
 6527.00    1.22040   1.08025    8.194
 6528.00    1.18163   1.07562    0.000
 6529.00    1.15576   1.07580    0.000
 6530.00    1.15507   1.07910    0.000
 6531.00    1.17502   1.07791    0.000
 6532.00    1.20074   1.07090    0.000
 6533.00    1.21945   1.06628    0.000
 6534.00    1.22310   1.06873    0.000
 6535.00    1.20941   1.07069    0.000
 6536.00    1.18505   1.06367    0.000
 6537.00    1.16666   1.05386    0.000
 6538.00    1.17766   1.05355    0.000
 6539.00    1.23285   1.05794    0.000
 6540.00    1.33055   1.05192    0.000
 6541.00    1.45373   1.03848    0.000
 6542.00    1.58080   1.03478    0.000
 6543.00    1.69393   1.03983    0.000
 6544.00    1.77965   1.03613    0.000
 6545.00    1.82983   1.02181    0.000
 6546.00    1.84274   1.01437    0.000
 6547.00    1.82318   1.01869    0.000
 6548.00    1.78148   1.01852    0.000
 6549.00    1.73168   1.00502    0.000
 6550.00    1.69133   0.99409    0.000
 6551.00    1.68804   0.99896    0.000
 6552.00    1.77787   1.00395    0.000
 6553.00    2.05085   0.99111    0.000
 6554.00    2.61047   0.97656    0.000
 6555.00    3.48316   0.98269    0.000
 6556.00    4.57552   0.99383    0.000
 6557.00    5.68802   0.98643    0.000
 6558.00    6.62400   0.97256    0.000
 6559.00    7.26852   0.97562    0.000
 6560.00    7.58982   0.98832    0.000
 6561.00    7.60134   0.98963    0.000
 6562.00    7.31963   0.98026    0.000
 6563.00    6.76069   0.97894    0.000
 6564.00    5.95575   0.99062    0.000
 6565.00    4.97795   0.99882    0.000
 6566.00    3.94648   0.99360    0.000
 6567.00    3.00161   0.98977    0.000
 6568.00    2.23962   0.99988    0.000
 6569.00    1.69455   1.01138    0.000
 6570.00    1.34793   1.01083    0.000
 6571.00    1.16936   1.00716    0.000
 6572.00    1.13430   1.01283    0.000
 6573.00    1.22356   1.02286    0.000
 6574.00    1.41616   1.02641    0.000
 6575.00    1.68462   1.02420    0.000
 6576.00    1.99512   1.02543    0.000
 6577.00    2.31214   1.03235    0.000
 6578.00    2.60323   1.03780    0.000
 6579.00    2.83957   1.03670    0.000
 6580.00    2.99826   1.03499    0.000
 6581.00    3.06581   1.03943    0.000
 6582.00    3.03877   1.04571    0.000
 6583.00    2.92317   1.04535    0.000
 6584.00    2.73330   1.04105    0.000
 6585.00    2.49134   1.04276    0.000
 6586.00    2.22535   1.04911    0.000
 6587.00    1.96150   1.05028    0.000
 6588.00    1.72087   1.04596    0.000
 6589.00    1.51907   1.04517    0.000
 6590.00    1.36418   1.04954    0.000
 6591.00    1.25548   1.05199    0.000
 6592.00    1.18397   1.04987    0.000
 6593.00    1.13835   1.04830    0.000
 6594.00    1.11088   1.05074    0.000
 6595.00    1.09768   1.05307    0.000
 6596.00    1.09632   1.05165    0.000
 6597.00    1.10205   1.05050    0.000
 6598.00    1.10739   1.05296    0.000
 6599.00    1.10431   1.05461    0.000
 6600.00    1.08921   1.05263    0.000
 6601.00    1.06415   1.05248    0.000
 6602.00    1.03559   1.05594    0.000
 6603.00    1.01020   1.05714    0.000
 6604.00    0.99316   1.05444    0.000
 6605.00    0.98799   1.05387    0.000
 6606.00    0.99551   1.05777    0.000
 6607.00    1.01321   1.05976    0.000
 6608.00    1.03560   1.05713    0.000
 6609.00    1.05774   1.05489    9.454
 6610.00    1.07842   1.05762    9.273
 6611.00    1.10016   1.06044    9.090
 6612.00    1.12565   1.05859    8.884
 6613.00    1.15277   1.05581    8.675
 6614.00    1.17407   1.05695    8.517
 6615.00    1.18068   1.05884    8.470
 6616.00    1.17061   1.05714    8.543
 6617.00    1.15054   1.05526    8.692
 6618.00    1.13270   1.05591    8.828
 6619.00    1.12462   1.05682    8.892
 6620.00    1.12544   1.05461    8.885
 6621.00    1.12732   1.05216    8.871
 6622.00    1.12274   1.05296    8.907
 6623.00    1.10855   1.05493    9.021
 6624.00    1.08586   1.05264    9.209
 6625.00    1.05769   1.04784    9.455
 6626.00    1.02701   1.04819    9.737
 6627.00    0.99664   1.05236   10.034
 6628.00    0.96934   1.05173   10.316
 6629.00    0.94802   1.04572   10.548
 6630.00    0.93571   1.04367   10.687
 6631.00    0.93439   1.04810   10.702
 6632.00    0.94270   1.05145   10.608
 6633.00    0.95550   1.04760   10.466
 6634.00    0.96563   1.04168   10.356
 6635.00    0.96924   1.04308   10.317
 6636.00    0.96756   1.04948   10.335
 6637.00    0.96581   1.04963   10.354
 6638.00    0.96802   1.04257   10.330
 6639.00    0.97434   1.04031   10.263
 6640.00    0.98141   1.04627   10.189
 6641.00    0.98617   1.04974   10.140
 6642.00    0.98885   1.04537   10.113
 6643.00    0.99296   1.04081   10.071
 6644.00    1.00241   1.04293    9.976
 6645.00    1.01812   1.04686    9.822
 6646.00    1.03769   1.04608    9.637
 6647.00    1.05670   1.04189    9.463
 6648.00    1.07117   1.04092    9.336
 6649.00    1.07805   1.04358    9.276
 6650.00    1.07539   1.04395    9.299
 6651.00    1.06303   1.04122    9.407
 6652.00    1.04273   1.04026    9.590
 6653.00    1.01797   1.04165    9.824
 6654.00    0.99269   1.04064   10.074
 6655.00    0.97081   1.03851   10.301
 6656.00    0.95593   1.03885   10.461
 6657.00    0.94990   1.04033   10.527
 6658.00    0.95168   1.03875   10.508
 6659.00    0.95750   1.03551   10.444
 6660.00    0.96303   1.03511   10.384
 6661.00    0.96593   1.03808   10.353
 6662.00    0.96606   1.03924   10.351
 6663.00    0.96485   1.03516   10.364
 6664.00    0.96428   1.03215   10.370
 6665.00    0.96669   1.03519   10.345
 6666.00    0.97389   1.03934   10.268
 6667.00    0.98494   1.03707   10.153
 6668.00    0.99544   1.03185   10.046
 6669.00    0.99867   1.03163   10.013
 6670.00    0.99001   1.03698   10.101
 6671.00    0.96892   1.03969   10.321
 6672.00    0.93880   1.03488   10.652
 6673.00    0.90567   1.03025   11.042
 6674.00    0.87735   1.03366   11.398
 6675.00    0.86305   1.03983   11.587
 6676.00    0.86973   1.03875   11.498
 6677.00    0.89837   1.03313   11.131
 6678.00    0.94366   1.03186   10.597
 6679.00    0.99649   1.03694   10.035
 6680.00    1.04774   1.04021    9.544
 6681.00    1.08898   1.03641    9.183
 6682.00    1.11374   1.03177    8.979
 6683.00    1.12080   1.03365    8.922
 6684.00    1.11494   1.03863    8.969
 6685.00    1.10537   1.03803    9.047
 6686.00    1.09949   1.03346    9.095
 6687.00    1.10028   1.03190    9.089
 6688.00    1.10668   1.03504    9.036
 6689.00    1.11611   1.03673    8.960
 6690.00    1.12615   1.03363    8.880
 6691.00    1.13461   1.03025    8.814
 6692.00    1.14006   1.03111    8.771
 6693.00    1.14234   1.03343    8.754
 6694.00    1.14253   1.03184    8.752
 6695.00    1.14236   1.02839    8.754
 6696.00    1.14326   1.02783    0.000
 6697.00    1.14625   1.02989    0.000
 6698.00    1.15108   1.02917    0.000
 6699.00    1.15442   1.02504    0.000
 6700.00    1.14944   1.02333    0.000
 6701.00    1.12810   1.02576    0.000
 6702.00    1.08926   1.02638    0.000
 6703.00    1.04183   1.02243    0.000
 6704.00    1.00314   1.01967    0.000
 6705.00    0.98911   1.02180    0.000
 6706.00    1.00842   1.02422    0.000
 6707.00    1.06260   1.02130    0.000
 6708.00    1.14859   1.01637    0.000
 6709.00    1.26114   1.01740    0.000
 6710.00    1.39293   1.02210    0.000
 6711.00    1.53272   1.02139    0.000
 6712.00    1.66279   1.01572    0.000
 6713.00    1.75883   1.01458    0.000
 6714.00    1.79718   1.01984    0.000
 6715.00    1.77026   1.02216    0.000
 6716.00    1.69001   1.01783    0.000
 6717.00    1.58255   1.01432    0.000
 6718.00    1.47070   1.01804    0.000
 6719.00    1.36766   1.02239    0.000
 6720.00    1.27836   1.01990    0.000
 6721.00    1.20693   1.01519    0.000
 6722.00    1.16094   1.01684    0.000
 6723.00    1.15068   1.02195    0.000
 6724.00    1.18197   1.02151    0.000
 6725.00    1.24998   1.01705    0.000
 6726.00    1.33922   1.01667    0.000
 6727.00    1.42957   1.02102    0.000
 6728.00    1.50411   1.02187    0.000
 6729.00    1.55012   1.01766    0.000
 6730.00    1.55917   1.01555    0.000
 6731.00    1.52732   1.01908    0.000
 6732.00    1.45517   1.02135    0.000
 6733.00    1.34847   1.01814    0.000
 6734.00    1.22006   1.01460    0.000
 6735.00    1.09052   1.01619    0.000
 6736.00    0.98520   1.01975    0.000
 6737.00    0.91981   1.01872    0.000
 6738.00    0.89297   1.01471    0.000
 6739.00    0.88775   1.01384    0.000
 6740.00    0.88612   1.01730    0.000
 6741.00    0.88036   1.01873    0.000
 6742.00    0.87338   1.01649    0.000
 6743.00    0.87202   1.01408    0.000
 6744.00    0.87898   1.01487    0.000
 6745.00    0.89195   1.01770    0.000
 6746.00    0.90505   1.01884    0.000
 6747.00    0.91139   1.01700    0.000
 6748.00    0.90367   1.01496    0.000
 6749.00    0.87699   1.01685    0.000
 6750.00    0.83686   1.01973    0.000
 6751.00    0.80170   1.02050    0.000
 6752.00    0.79814   1.01853    0.000
 6753.00    0.83975   1.01699   11.908
 6754.00    0.91677   1.01903   10.908
 6755.00    0.99889   1.02283   10.011
 6756.00    1.05781   1.02289    9.453
 6757.00    1.08398   1.01905    9.225
 6758.00    1.08664   1.01879    9.203
 6759.00    1.08154   1.02257    9.246
 6760.00    1.07715   1.02523    9.284
 6761.00    1.07340   1.02310    9.316
 6762.00    1.06618   1.01973    9.379
 6763.00    1.05511   1.02069    9.478
 6764.00    1.04488   1.02505    9.571
 6765.00    1.04265   1.02592    9.591
 6766.00    1.05108   1.02172    9.514
 6767.00    1.06636   1.01999    9.378
 6768.00    1.08001   1.02297    9.259
 6769.00    1.08665   1.02560    9.203
 6770.00    1.08744   1.02373    9.196
 6771.00    1.08929   1.02039    9.180
 6772.00    1.09860   1.02025    9.102
 6773.00    1.11697   1.02327    8.953
 6774.00    1.14097   1.02436    8.765
 6775.00    1.16217   1.02116    8.605
 6776.00    1.16717   1.01905    8.568
 6777.00    1.13808   1.02072    8.787
 6778.00    1.06364   1.02244    9.402
 6779.00    0.95699   1.02092   10.449
 6780.00    0.85828   1.01843   11.651
 6781.00    0.81766   1.01806   12.230
 6782.00    0.85339   1.01991   11.718
 6783.00    0.94075   1.02095   10.630
 6784.00    1.02423   1.01879    9.763
 6785.00    1.06505   1.01703    9.389
 6786.00    1.06106   1.01824    9.425
 6787.00    1.04215   1.01953    9.596
 6788.00    1.03839   1.01842    9.630
 6789.00    1.05959   1.01677    9.438
 6790.00    1.09559   1.01688    9.127
 6791.00    1.13031   1.01820    8.847
 6792.00    1.15549   1.01872    8.654
 6793.00    1.17168   1.01760    8.535
 6794.00    1.18397   1.01731    8.446
 6795.00    1.19557   1.01822    8.364
 6796.00    1.20686   1.01824    8.286
 6797.00    1.21570   1.01752    8.226
 6798.00    1.21834   1.01779    8.208
 6799.00    1.20956   1.01881    8.267
 6800.00    1.18472   1.01863    8.441
 6801.00    1.14680   1.01726    8.720
 6802.00    1.10917   1.01755    9.016
 6803.00    1.09254   1.02020    9.153
 6804.00    1.10685   1.02068    9.035
 6805.00    1.14048   1.01771    8.768
 6806.00    1.16240   1.01648    8.603
 6807.00    1.14822   1.01957    8.709
 6808.00    1.10413   1.02233    9.057
 6809.00    1.06718   1.02014    9.371
 6810.00    1.07698   1.01612    9.285
 6811.00    1.13613   1.01738    8.802
 6812.00    1.20536   1.02276    8.296
 6813.00    1.22838   1.02312    8.141
 6814.00    1.18501   1.01744    8.439
 6815.00    1.10322   1.01499    9.064
 6816.00    1.04248   1.01966    9.593
 6817.00    1.03807   1.02367    9.633
 6818.00    1.08088   1.02006    9.252
 6819.00    1.12491   1.01424    8.890
 6820.00    1.12889   1.01550    8.858
 6821.00    1.07960   1.02149    9.263
 6822.00    0.99122   1.02141   10.089
 6823.00    0.89086   1.01456   11.225
 6824.00    0.80628   1.01148   12.403
 6825.00    0.76440   1.01587   -1.000
 6826.00    0.78210   1.01941   12.786
 6827.00    0.85421   1.01510   11.707
 6828.00    0.95238   1.00910   10.500
 6829.00    1.03808   1.01009    9.633
 6830.00    1.08849   1.01524    9.187
 6831.00    1.10198   1.01465    9.075
 6832.00    1.09261   1.00814    9.152
 6833.00    1.07311   1.00552    9.319
 6834.00    1.04922   1.00916    9.531
 6835.00    1.02091   1.01159    9.795
 6836.00    0.98919   1.00765   10.109
 6837.00    0.95962   1.00285   10.421
 6838.00    0.94158   1.00373   10.620
 6839.00    0.94073   1.00777   10.630
 6840.00    0.95309   1.00733   10.492
 6841.00    0.96543   1.00237   10.358
 6842.00    0.96658   1.00062   10.346
 6843.00    0.96125   1.00321   10.403
 6844.00    0.97109   1.00451   10.298
 6845.00    1.02042   1.00210    9.800
 6846.00    1.10958   0.99943    9.012
 6847.00    1.20984   0.99962    8.266
 6848.00    1.27498   1.00155    7.843
 6849.00    1.27458   1.00132    7.846
 6850.00    1.20440   0.99904    8.303
 6851.00    1.08321   0.99857    9.232
 6852.00    0.93746   0.99933   10.667
 6853.00    0.79391   0.99855   12.596
 6854.00    0.67849   0.99771   -1.000
 6855.00    0.61010   0.99830   -1.000
 6856.00    0.59584   0.99846   -1.000
 6857.00    0.63101   0.99746   -1.000
 6858.00    0.70205   0.99622   -1.000
 6859.00    0.78998   0.99692   12.659
 6860.00    0.87102   0.99904   11.481
 6861.00    0.92467   0.99895   10.815
 6862.00    0.94761   0.99586   10.553
 6863.00    0.95606   0.99489   10.460
 6864.00    0.97678   0.99828   10.238
 6865.00    1.02286   1.00078    9.777
 6866.00    1.08671   0.99912    9.202
 6867.00    1.14487   0.99597    8.735
 6868.00    1.17843   0.99689    8.486
 6869.00    1.18237   1.00115    8.458
 6870.00    1.16452   1.00302    8.587
 6871.00    1.13683   1.00018    8.796
 6872.00    1.10932   0.99774    9.015
 6873.00    1.08955   1.00081    9.178
 6874.00    1.08080   1.00545    9.252
 6875.00    1.08002   1.00612    9.259
 6876.00    1.07797   1.00281    9.277
 6877.00    1.06555   1.00171    9.385
 6878.00    1.04413   1.00547    9.577
 6879.00    1.02708   1.00982    9.736
 6880.00    1.03252   1.00941    9.685
 6881.00    1.06517   1.00592    9.388
 6882.00    1.11144   1.00666    8.997
 6883.00    1.14499   1.01155    8.734
 6884.00    1.14836   1.01446    8.708
 6885.00    1.12221   1.01218    8.911
 6886.00    1.08326   1.00951    9.231
 6887.00    1.05030   1.01165    9.521
 6888.00    1.03506   1.01649    9.661
 6889.00    1.04182   1.01743    9.599
 6890.00    1.06804   1.01372    9.363
 6891.00    1.10493   1.01262    9.050
 6892.00    1.13786   1.01646    8.788
 6893.00    1.15326   1.01983    8.671
 6894.00    1.14905   1.01789    8.703
 6895.00    1.13608   1.01458    8.802
 6896.00    1.13101   1.01552    8.842
 6897.00    1.13986   1.01925    8.773
 6898.00    1.15390   1.01991    8.666
 6899.00    1.15471   1.01663    8.660
 6900.00    1.13264   1.01479    8.829
 6901.00    1.09407   1.01686    9.140
 6902.00    1.05839   1.01934    9.448
 6903.00    1.03958   1.01762    9.619
 6904.00    1.03501   1.01495    9.662
 6905.00    1.02667   1.01493    9.740
 6906.00    0.99788   1.01651   10.021
 6907.00    0.94885   1.01683   10.539
 6908.00    0.89708   1.01508   11.147
 6909.00    0.86269   1.01337   11.592
 6910.00    0.84769   1.01324   11.797
 6911.00    0.83346   1.01425   11.998
 6912.00    0.79530   1.01367   12.574
 6913.00    0.73398   1.01286   -1.000
 6914.00    0.68288   1.01195   -1.000
 6915.00    0.69284   1.01125   -1.000
 6916.00    0.78087   1.01185   12.806
 6917.00    0.91140   1.01227   10.972
 6918.00    1.00761   1.01135    9.925
 6919.00    1.01437   1.00915    9.858
 6920.00    0.93388   1.00877   10.708
 6921.00    0.82202   1.01003   12.165
 6922.00    0.74273   1.01097   -1.000
 6923.00    0.72865   1.00942   -1.000
 6924.00    0.77897   1.00737   12.838
 6925.00    0.87200   1.00830   11.468
 6926.00    0.98175   1.00996   10.186
 6927.00    1.08024   1.00964    9.257
 6928.00    1.14275   1.00680    8.751
 6929.00    1.15840   1.00604    8.633
 6930.00    1.13240   1.00815    8.831
 6931.00    1.08324   1.00905    9.232
 6932.00    1.03391   1.00734    9.672
 6933.00    1.00889   1.00573    9.912
 6934.00    1.02999   1.00666    9.709
 6935.00    1.09589   1.00803    9.125
 6936.00    1.17130   1.00780    8.538
 6937.00    1.19257   1.00582    8.385
 6938.00    1.11751   1.00554    8.948
 6939.00    0.96549   1.00712   10.357
 6940.00    0.81639   1.00705   12.249
 6941.00    0.75533   1.00591   -1.000
 6942.00    0.80466   1.00572   12.428
 6943.00    0.91714   1.00659   10.903
 6944.00    1.01222   1.00761    9.879
 6945.00    1.04422   1.00765    9.577
 6946.00    1.01566   1.00620    9.846
 6947.00    0.96405   1.00603   10.373
 6948.00    0.92343   1.00745   10.829
 6949.00    0.91211   1.00804   10.964
 6950.00    0.93364   1.00763   10.711
 6951.00    0.98157   1.00697   10.188
 6952.00    1.04181   1.00700    9.599
 6953.00    1.09420   1.00866    9.139
 6954.00    1.12382   1.01006    8.898
 6955.00    1.12950   1.00841    8.853
 6956.00    1.12355   1.00649    8.900
 6957.00    1.12091   1.00721    8.921
 6958.00    1.12676   1.00961    8.875
 6959.00    1.13541   1.01023    8.807
 6960.00    1.13626   1.00733    8.801
 6961.00    1.12441   1.00502    8.894
 6962.00    1.10250   1.00722    9.070
 6963.00    1.07884   1.01042    9.269
 6964.00    1.06237   1.00878    9.413
 6965.00    1.06109   1.00455    9.424
 6966.00    1.08034   1.00371    9.256
 6967.00    1.11523   1.00713    8.967
 6968.00    1.14722   1.00924    8.717
 6969.00    1.14721   1.00588    8.717
 6970.00    1.09804   1.00209    9.107
 6971.00    1.01029   1.00357    9.898
 6972.00    0.92097   1.00740   10.858
 6973.00    0.86723   1.00699   11.531
 6974.00    0.85824   1.00301   11.652
 6975.00    0.87320   1.00148   11.452
 6976.00    0.87996   1.00414   11.364
 6977.00    0.86551   1.00719   11.554
 6978.00    0.84091   1.00650   11.892
 6979.00    0.83108   1.00353   12.033
 6980.00    0.84891   1.00251   11.780
 6981.00    0.88832   1.00454   11.257
 6982.00    0.92884   1.00663   10.766
 6983.00    0.95428   1.00605   10.479
 6984.00    0.96062   1.00381   10.410
 6985.00    0.95488   1.00274   10.472
 6986.00    0.94622   1.00458   10.568
 6987.00    0.94009   1.00686   10.637
 6988.00    0.93819   1.00612   10.659
 6989.00    0.94105   1.00303   10.626
 6990.00    0.95057   1.00173   10.520
 6991.00    0.97010   1.00377   10.308
 6992.00    1.00125   1.00536    9.987
 6993.00    1.03896   1.00376    9.625
 6994.00    1.07089   1.00075    9.338
 6995.00    1.08316   1.00022    9.232
 6996.00    1.07380   1.00175    9.313
 6997.00    1.05613   1.00157    9.469
 6998.00    1.05284   0.99960    9.498
 6999.00    1.07421   0.99855    9.309
 7000.00    1.10948   0.99890    9.013
 7001.00    1.13078   0.99850   -2.000
 7002.00    1.11762   0.99725   -2.000
 7003.00    1.07187   0.99687   -2.000
 7004.00    1.01641   0.99742   -2.000
 7005.00    0.97500   0.99660   -2.000
 7006.00    0.95346   0.99413   -2.000
 7007.00    0.93887   0.99396   -2.000
 7008.00    0.91346   0.99660   -2.000
 7009.00    0.87440   0.99755   -2.000
 7010.00    0.83641   0.99457   -2.000
 7011.00    0.00000   0.99174   -2.000
 7012.00    0.00000   0.99408   -2.000
 7013.00    0.00000   0.99804   -2.000
 7014.00    0.00000   0.99704   -2.000
 7015.00    0.00000   0.99309   -2.000
 7016.00    0.00000   0.99371   -2.000
 7017.00    0.00000   0.99896   -2.000
 7018.00    0.00000   1.00080   -2.000
 7019.00    0.00000   0.99642   -2.000
 7020.00    0.00000   0.99355   -2.000
 7021.00    0.00000   0.99823   -2.000
 7022.00    0.00000   1.00412   -2.000
 7023.00    0.00000   1.00325   -2.000
 7024.00    0.00000   0.99872   -2.000
 7025.00    0.00000   0.99911   -2.000
 7026.00    0.00000   1.00522   -2.000
 7027.00    0.00000   1.00844   -2.000
 7028.00    0.00000   1.00459   -2.000
 7029.00    0.00000   1.00121   -2.000
 7030.00    0.00000   1.00489   -2.000
 7031.00    0.00000   1.01126   -2.000
 7032.00    0.00000   1.01205   -2.000
 7033.00    0.00000   1.00666   -2.000
 7034.00    0.00000   1.00402   -2.000
 7035.00    0.00000   1.00822   -2.000
 7036.00    0.00000   1.01268   -2.000
 7037.00    0.00000   1.01166   -2.000
 7038.00    0.00000   1.00748   -2.000
 7039.00    0.00000   1.00594   -2.000
 7040.00    0.00000   1.00826   -2.000
 7041.00    0.00000   1.01013   -2.000
 7042.00    0.00000   1.00762   -2.000
 7043.00    0.00000   1.00361   -2.000
 7044.00    0.00000   1.00223   -2.000
 7045.00    0.00000   1.00342   -2.000
 7046.00    0.00000   1.00451   -2.000
 7047.00    0.00000   1.00215   -2.000
 7048.00    0.00000   0.99751   -2.000
 7049.00    0.00000   0.99438   -2.000
 7050.00    0.00000   0.99442   -2.000
 7051.00    0.00000   0.99571   -2.000
 7052.00    0.00000   0.99422   -2.000
 7053.00    0.00000   0.98972   -2.000
 7054.00    0.00000   0.98645   -2.000
 7055.00    0.00000   0.98682   -2.000
 7056.00    0.00000   0.98762   -2.000
 7057.00    0.00000   0.98530   -2.000
 7058.00    0.00000   0.98073   -2.000
 7059.00    0.00000   0.97866   -2.000
 7060.00    0.00000   0.98038   -2.000
 7061.00    0.00000   0.98132   -2.000
 7062.00    0.00000   0.97862   -2.000
 7063.00    0.00000   0.97436   -2.000
 7064.00    0.00000   0.97269   -2.000
 7065.00    0.00000   0.97409   -2.000
 7066.00    0.00000   0.97470   -2.000
 7067.00    0.00000   0.97253   -2.000
 7068.00    0.00000   0.96970   -2.000
 7069.00    0.00000   0.96814   -2.000
 7070.00    0.00000   0.96814   -2.000
 7071.00    0.00000   0.96819   -2.000
 7072.00    0.00000   0.96655   -2.000
 7073.00    0.00000   0.96373   -2.000
 7074.00    0.00000   0.96110   -2.000
 7075.00    0.00000   0.96080   -2.000
 7076.00    0.00000   0.96192   -2.000
 7077.00    0.00000   0.96071   -2.000
 7078.00    0.00000   0.95639   -2.000
 7079.00    0.00000   0.95279   -2.000
 7080.00    0.00000   0.95316   -2.000
 7081.00    0.00000   0.95512   -2.000
 7082.00    0.00000   0.95359   -2.000
 7083.00    0.00000   0.94805   -2.000
 7084.00    0.00000   0.94565   -2.000
 7085.00    0.00000   0.94799   -2.000
 7086.00    0.00000   0.94947   -2.000
 7087.00    0.00000   0.94602   -2.000
 7088.00    0.00000   0.94051   -2.000
 7089.00    0.00000   0.94095   -2.000
 7090.00    0.00000   0.94517   -2.000
 7091.00    0.00000   0.94525   -2.000
 7092.00    0.00000   0.93980   -2.000
 7093.00    0.00000   0.93616   -2.000
 7094.00    0.00000   0.93954   -2.000
 7095.00    0.00000   0.94381   -2.000
 7096.00    0.00000   0.94173   -2.000
 7097.00    0.00000   0.93551   -2.000
 7098.00    0.00000   0.93466   -2.000
 7099.00    0.00000   0.94016   -2.000
 7100.00    0.00000   0.94290   -2.000
 7101.00    0.00000   0.93823   -2.000
 7102.00    0.00000   0.93260   -2.000
 7103.00    0.00000   0.93463   -2.000
 7104.00    0.00000   0.94082   -2.000
 7105.00    0.00000   0.94124   -2.000
 7106.00    0.00000   0.93486   -2.000
 7107.00    0.00000   0.93063   -2.000
 7108.00    0.00000   0.93472   -2.000
 7109.00    0.00000   0.94030   -2.000
 7110.00    0.00000   0.93844   -2.000
 7111.00    0.00000   0.93161   -2.000
 7112.00    0.00000   0.92910   -2.000
 7113.00    0.00000   0.93461   -2.000
 7114.00    0.00000   0.93905   -2.000
 7115.00    0.00000   0.93478   -2.000
 7116.00    0.00000   0.92808   -2.000
 7117.00    0.00000   0.92833   -2.000
 7118.00    0.00000   0.93481   -2.000
 7119.00    0.00000   0.93713   -2.000
 7120.00    0.00000   0.93115   -2.000
 7121.00    0.00000   0.92567   -2.000
 7122.00    0.00000   0.92901   -2.000
 7123.00    0.00000   0.93528   -2.000
 7124.00    0.00000   0.93466   -2.000
 7125.00    0.00000   0.92846   -2.000
 7126.00    0.00000   0.92581   -2.000
 7127.00    0.00000   0.93119   -2.000
 7128.00    0.00000   0.93588   -2.000
 7129.00    0.00000   0.93265   -2.000
 7130.00    0.00000   0.92741   -2.000
 7131.00    0.00000   0.92826   -2.000
 7132.00    0.00000   0.93394   -2.000
 7133.00    0.00000   0.93607   -2.000
 7134.00    0.00000   0.93200   -2.000
 7135.00    0.00000   0.92852   -2.000
 7136.00    0.00000   0.93144   -2.000
 7137.00    0.00000   0.93610   -2.000
 7138.00    0.00000   0.93615   -2.000
 7139.00    0.00000   0.93301   -2.000
 7140.00    0.00000   0.93113   -2.000
 7141.00    0.00000   0.93345   -2.000
 7142.00    0.00000   0.93739   -2.000
 7143.00    0.00000   0.93803   -2.000
 7144.00    0.00000   0.93561   -2.000
 7145.00    0.00000   0.93319   -2.000
 7146.00    0.00000   0.93429   -2.000
 7147.00    0.00000   0.93896   -2.000
 7148.00    0.00000   0.94110   -2.000
 7149.00    0.00000   0.93809   -2.000
 7150.00    0.00000   0.93406   -2.000
 7151.00    0.00000   0.93506   -2.000
 7152.00    0.00000   0.94094   -2.000
 7153.00    0.00000   0.94403   -2.000
 7154.00    0.00000   0.93980   -2.000
 7155.00    0.00000   0.93412   -2.000
 7156.00    0.00000   0.93599   -2.000
 7157.00    0.00000   0.94303   -2.000
 7158.00    0.00000   0.94587   -2.000
 7159.00    0.00000   0.94078   -2.000
 7160.00    0.00000   0.93485   -2.000
 7161.00    0.00000   0.93715   -2.000
 7162.00    0.00000   0.94404   -2.000
 7163.00    0.00000   0.94610   -2.000
 7164.00    0.00000   0.94094   -2.000
 7165.00    0.00000   0.93570   -2.000
 7166.00    0.00000   0.93728   -2.000
 7167.00    0.00000   0.94283   -2.000
 7168.00    0.00000   0.94472   -2.000
 7169.00    0.00000   0.94027   -2.000
 7170.00    0.00000   0.93562   -2.000
 7171.00    0.00000   0.93635   -2.000
 7172.00    0.00000   0.94020   -2.000
 7173.00    0.00000   0.94152   -2.000
 7174.00    0.00000   0.93805   -2.000
 7175.00    0.00000   0.93495   -2.000
 7176.00    0.00000   0.93598   -2.000
 7177.00    0.00000   0.93746   -2.000
 7178.00    0.00000   0.93663   -2.000
 7179.00    0.00000   0.93454   -2.000
 7180.00    0.00000   0.93410   -2.000
 7181.00    0.00000   0.93562   -2.000
 7182.00    0.00000   0.93488   -2.000
 7183.00    0.00000   0.93227   -2.000
 7184.00    0.00000   0.93216   -2.000
 7185.00    0.00000   0.93470   -2.000
 7186.00    0.00000   0.93530   -2.000
 7187.00    0.00000   0.93167   -2.000
 7188.00    0.00000   0.92938   -2.000
 7189.00    0.00000   0.93264   -2.000
 7190.00    0.00000   0.93704   -2.000
 7191.00    0.00000   0.93545   -2.000
 7192.00    0.00000   0.92917   -2.000
 7193.00    0.00000   0.92838   -2.000
 7194.00    0.00000   0.93492   -2.000
 7195.00    0.00000   0.94004   -2.000
 7196.00    0.00000   0.93654   -2.000
 7197.00    0.00000   0.92907   -2.000
 7198.00    0.00000   0.92987   -2.000
 7199.00    0.00000   0.93749   -2.000
 7200.00    0.00000   0.94146   -2.000
 7201.00    0.00000   0.93788   -2.000
 7202.00    0.00000   0.93284   -2.000
 7203.00    0.00000   0.93495   -2.000
 7204.00    0.00000   0.94092   -2.000
 7205.00    0.00000   0.94280   -2.000
 7206.00    0.00000   0.93950   -2.000
 7207.00    0.00000   0.93789   -2.000
 7208.00    0.00000   0.94129   -2.000
 7209.00    0.00000   0.94494   -2.000
 7210.00    0.00000   0.94560   -2.000
 7211.00    0.00000   0.94368   -2.000
 7212.00    0.00000   0.94422   -2.000
 7213.00    0.00000   0.94700   -2.000
 7214.00    0.00000   0.94879   -2.000
 7215.00    0.00000   0.94980   -2.000
 7216.00    0.00000   0.94976   -2.000
 7217.00    0.00000   0.95130   -2.000
 7218.00    0.00000   0.95283   -2.000
