###################################################################
## OUTPUT of StarlightChains_v04.for    [Cid@UFSC - 01/Apr/2007] ##
###################################################################

## Some input info
1999aa.txt                               [arq_obs]
Base.CB07.vall.4m                        [arq_base]
Masks.EmLines.NEW.gm                     [arq_masks]
StCv04.C11.config                        [arq_config]
   66                                    [N_base]
    0                                    [N_YAV_components = # of components with extra extinction!]
    0                                    [i_FitPowerLaw (1/0 = Yes/No)]
-9.99                                    [alpha_PowerLaw]
CCM                                      [red_law_option]
 1.458241                                [q_norm = A(l_norm)/A(V)]

## (Re)Sampling Parameters
 3741.00                                 [l_ini (A)]
 7218.00                                 [l_fin (A)]
    1.00                                 [dl    (A)]     (OBS: dl_cushion =    50.00 A)

## Normalization info
 4020.00                                 [l_norm (A) - for base]
 4010.00                                 [llow_norm (A) - window for f_obs]
 4060.00                                 [lupp_norm (A) - window for f_obs]
8.218929E-17                             [fobs_norm (in input units)]

## S/N
 3691.00                                 [llow_SN (A) - window for S/N]
 7268.00                                 [lupp_SN (A) - window for S/N]
   7.068                                 [S/N in S/N window]
   8.124                                 [S/N in norm. window]
   8.572                                 [S/N_err in S/N window]
   9.853                                 [S/N_err in norm. window]
  1.0000                                 [fscale_chi2]

## etc...
    -2007234                             [idum_orig]
  2384                                   [NOl_eff]
  2383                                   [Nl_eff]
     1    NSIGMA                         [Ntot_cliped & clip_method]
  1160950                                [Nglobal_steps]
   7                                     [N_chains]
  19                                     [NEX0s_base = N_base in EX0s-fits]
 0   0   1        1   2.0   1.594E+01    [Clip-Bug, RC-Crash & Burn-In warning-flags, n_censored_weights, wei_nsig_threshold & wei_limit]
    11     11.362     10.866      0.495  [idt_all, wdt_TotTime, wdt_UsrTime & wdt_SysTime (sec)]

## Synthesis Results - Best model ##

 3.49881E-01                             [chi2/Nl_eff]
     5.46132                             [adev (%)]

   111.90537                             [sum-of-x (%)]
 7.70847E-17                             [Flux_tot (units of input spectrum!)]
 5.64069E-13                             [Mini_tot (???)]
 3.25362E-13                             [Mcor_tot (???)]

  75.08                                  [v0_min  (km/s)]
 159.56                                  [vd_min  (km/s)]
-0.1315                                  [AV_min  (mag)]
 0.0000                                  [YAV_min (mag)]

# j     x_j(%)      Mini_j(%)     Mcor_j(%)     age_j(yr)     Z_j      (L/M)_j    YAV?  Mstars   component_j        a/Fe...       SSP_chi2r SSP_adev(%)   SSP_AV   SSP_x(%)
  1      0.0000     0.0000E+00    0.0000E+00    1.000000E+06  0.00400  1.094E-02    0   1.0000   age020_m42            0.0000     8.3849E-01     8.9520   2.6141    95.9593
  2      0.0000     0.0000E+00    0.0000E+00    3.160000E+06  0.00400  4.007E-02    0   0.9999   age045_m42            0.0000     6.5405E-01     7.4990   1.9157   100.9940
  3      0.0000     0.0000E+00    0.0000E+00    5.010000E+06  0.00400  2.539E-02    0   0.9488   age055_m42            0.0000     7.3040E-01     8.0501   2.2231    99.1938
  4      0.0000     0.0000E+00    0.0000E+00    6.610000E+06  0.00400  2.620E-02    0   0.9220   age061_m42            0.0000     6.4187E-01     7.3384   1.8426   101.1377
  5      0.0000     0.0000E+00    0.0000E+00    1.000000E+07  0.00400  1.322E-02    0   0.8862   age070_m42            0.0000     6.2961E-01     7.1829   1.5484   103.4032
  6      0.0000     0.0000E+00    0.0000E+00    1.445000E+07  0.00400  7.883E-03    0   0.8571   age078_m42            0.0000     6.7939E-01     7.5610   1.8691   101.2080
  7      0.0000     0.0000E+00    0.0000E+00    2.512000E+07  0.00400  5.251E-03    0   0.8174   age090_m42            0.0000     6.2608E-01     7.1141   1.4183   103.8532
  8      0.0000     0.0000E+00    0.0000E+00    4.000000E+07  0.00400  3.649E-03    0   0.7851   age104_m42            0.0000     5.8330E-01     6.8694   1.1953   104.5188
  9      0.0000     0.0000E+00    0.0000E+00    5.500000E+07  0.00400  3.098E-03    0   0.7629   age110_m42            0.0000     5.7146E-01     6.7471   1.3598   104.1675
 10      0.0000     0.0000E+00    0.0000E+00    1.015200E+08  0.00400  2.228E-03    0   0.7207   age116_m42            0.0000     5.7106E-01     6.7101   1.3881   104.0785
 11      0.0000     0.0000E+00    0.0000E+00    2.861200E+08  0.00400  1.093E-03    0   0.6648   age125_m42            0.0000     5.3959E-01     6.5420   0.8198   106.9388
 12      0.0000     0.0000E+00    0.0000E+00    5.088000E+08  0.00400  6.597E-04    0   0.6365   age130_m42            0.0000     5.1566E-01     6.5111   0.8203   107.4943
 13      0.0000     0.0000E+00    0.0000E+00    1.434000E+09  0.00400  2.132E-04    0   0.5798   age139_m42            0.0000     3.9547E-01     5.7924  -0.1466   109.3938
 14      0.0000     0.0000E+00    0.0000E+00    4.250000E+09  0.00400  5.895E-05    0   0.5377   age158_m42            0.0000     4.1592E-01     6.0292  -0.5948   106.0626
 15      0.0000     0.0000E+00    0.0000E+00    7.500000E+09  0.00400  3.510E-05    0   0.5212   age171_m42            0.0000     4.4958E-01     6.3205  -0.7802   105.4035
 16      0.0000     0.0000E+00    0.0000E+00    1.300000E+10  0.00400  2.005E-05    0   0.5034   age193_m42            0.0000     4.9813E-01     6.6867  -0.9431   104.8990
 17      0.0000     0.0000E+00    0.0000E+00    1.800000E+10  0.00400  1.525E-05    0   0.4967   age213_m42            0.0000     4.9281E-01     6.6456  -0.9682   104.4926
 18      0.0000     0.0000E+00    0.0000E+00    1.000000E+06  0.00800  1.238E-02    0   1.0000   age020_m52            0.0000     8.3926E-01     8.9566   2.6105    96.1525
 19      0.0000     0.0000E+00    0.0000E+00    3.160000E+06  0.00800  3.074E-02    0   0.9966   age045_m52            0.0000     8.2959E-01     8.8478   2.5351    96.9383
 20      0.0000     0.0000E+00    0.0000E+00    5.010000E+06  0.00800  2.668E-02    0   0.9443   age055_m52            0.0000     7.4835E-01     8.1953   2.3008    98.5444
 21      0.0000     0.0000E+00    0.0000E+00    6.610000E+06  0.00800  2.136E-02    0   0.9177   age061_m52            0.0000     5.5170E-01     7.0684   1.0400   105.1029
 22      0.0000     0.0000E+00    0.0000E+00    1.000000E+07  0.00800  1.215E-02    0   0.8827   age070_m52            0.0000     6.5958E-01     7.4006   1.7198   103.4498
 23      0.0000     0.0000E+00    0.0000E+00    1.445000E+07  0.00800  8.717E-03    0   0.8552   age078_m52            0.0000     6.5508E-01     7.3880   1.8367   102.4616
 24      0.0000     0.0000E+00    0.0000E+00    2.512000E+07  0.00800  5.592E-03    0   0.8162   age090_m52            0.0000     6.0589E-01     6.9826   1.4835   104.9509
 25      0.0000     0.0000E+00    0.0000E+00    4.000000E+07  0.00800  3.896E-03    0   0.7841   age104_m52            0.0000     5.6805E-01     6.7417   1.4027   105.4709
 26      0.0003     1.6669E-05    2.0882E-05    1.015200E+08  0.00800  2.148E-03    0   0.7226   age116_m52            0.0000     5.4134E-01     6.5629   1.3511   105.0201
 27      0.0000     0.0000E+00    0.0000E+00    2.861200E+08  0.00800  9.925E-04    0   0.6683   age125_m52            0.0000     4.9327E-01     6.3718   0.8852   108.4292
 28     42.8775     1.6670E+01    1.7739E+01    9.047900E+08  0.00800  3.141E-04    0   0.6138   age135_m52            0.0000     3.9826E-01     5.9021   0.1013   112.3280
 29      0.0000     0.0000E+00    0.0000E+00    1.434000E+09  0.00800  1.719E-04    0   0.5853   age139_m52            0.0000     3.7802E-01     5.7062  -0.4877   110.6741
 30      0.0000     0.0000E+00    0.0000E+00    2.500000E+09  0.00800  7.872E-05    0   0.5600   age150_m52            0.0000     4.3451E-01     6.2380  -0.7539   108.0372
 31      0.0056     1.5687E-02    1.4756E-02    4.250000E+09  0.00800  4.336E-05    0   0.5426   age158_m52            0.0000     4.5254E-01     6.3811  -0.7704   107.1343
 32      0.0093     3.5987E-02    3.3185E-02    6.250000E+09  0.00800  3.159E-05    0   0.5319   age166_m52            0.0000     5.2884E-01     6.9261  -0.9675   107.0616
 33      0.0000     0.0000E+00    0.0000E+00    1.300000E+10  0.00800  1.361E-05    0   0.5073   age193_m52            0.0000     1.3667E+00    10.6153  -1.0000    89.7622
 34      0.0000     0.0000E+00    0.0000E+00    1.800000E+10  0.00800  9.886E-06    0   0.4990   age213_m52            0.0000     1.8203E+00    12.1327  -1.0000    85.4575
 35      0.0000     0.0000E+00    0.0000E+00    1.000000E+06  0.02000  1.544E-02    0   1.0000   age020_m62            0.0000     8.4676E-01     9.0035   2.6045    96.4664
 36      0.0000     0.0000E+00    0.0000E+00    3.160000E+06  0.02000  3.762E-02    0   0.9858   age045_m62            0.0000     8.4926E-01     8.9829   2.5433    97.3577
 37      0.0000     0.0000E+00    0.0000E+00    5.010000E+06  0.02000  3.296E-02    0   0.9342   age055_m62            0.0000     7.0236E-01     7.7874   2.1870   100.2467
 38     16.3738     1.7327E-01    2.6618E-01    8.710000E+06  0.02000  1.154E-02    0   0.8861   age067_m62            0.0000     9.0253E-01     8.9448   1.1391   107.0130
 39      0.0000     0.0000E+00    0.0000E+00    1.445000E+07  0.02000  7.663E-03    0   0.8472   age078_m62            0.0000     6.7014E-01     7.5714   1.3575   105.9468
 40      0.0000     0.0000E+00    0.0000E+00    2.512000E+07  0.02000  4.532E-03    0   0.8099   age090_m62            0.0000     6.9255E-01     7.5736   1.3519   105.4621
 41      0.0000     0.0000E+00    0.0000E+00    5.500000E+07  0.02000  2.733E-03    0   0.7595   age110_m62            0.0000     5.7751E-01     6.8004   1.3821   104.9168
 42      0.0000     0.0000E+00    0.0000E+00    1.609000E+08  0.02000  1.369E-03    0   0.6985   age120_m62            0.0000     5.3866E-01     6.5261   1.2401   106.9843
 43      0.0000     0.0000E+00    0.0000E+00    2.861200E+08  0.02000  9.013E-04    0   0.6714   age125_m62            0.0000     5.1635E-01     6.5452   1.0007   109.5043
 44      0.0000     0.0000E+00    0.0000E+00    5.088000E+08  0.02000  5.028E-04    0   0.6449   age130_m62            0.0000     4.7295E-01     6.5430   0.6382   111.9010
 45      0.0000     0.0000E+00    0.0000E+00    9.047900E+08  0.02000  2.428E-04    0   0.6179   age135_m62            0.0000     4.0410E-01     6.0102   0.0492   111.6171
 46      0.4824     4.6646E-01    4.7777E-01    1.434000E+09  0.02000  1.263E-04    0   0.5908   age139_m62            0.0000     4.1760E-01     6.0908  -0.3999   110.3905
 47      6.0657     1.2377E+01    1.2173E+01    2.500000E+09  0.02000  5.985E-05    0   0.5673   age150_m62            0.0000     5.1054E-01     6.8327  -0.7639   109.1209
 48      0.0000     0.0000E+00    0.0000E+00    4.250000E+09  0.02000  3.271E-05    0   0.5468   age158_m62            0.0000     6.7888E-01     7.8926  -1.0000   105.6526
 49      0.0000     0.0000E+00    0.0000E+00    1.000000E+10  0.02000  1.360E-05    0   0.5167   age181_m62            0.0000     1.4795E+00    11.1706  -1.0000    91.8515
 50      0.0000     0.0000E+00    0.0000E+00    1.800000E+10  0.02000  7.124E-06    0   0.5013   age213_m62            0.0000     2.3534E+00    13.6927  -1.0000    83.4775
 51      0.0000     0.0000E+00    0.0000E+00    1.000000E+06  0.05000  2.592E-02    0   0.9998   age020_m72            0.0000     8.7020E-01     9.1350   2.5935    96.6091
 52      0.0000     0.0000E+00    0.0000E+00    3.160000E+06  0.05000  4.845E-02    0   0.9577   age045_m72            0.0000     8.0027E-01     8.5519   2.4355    98.2030
 53      0.0000     0.0000E+00    0.0000E+00    5.010000E+06  0.05000  3.072E-02    0   0.9147   age055_m72            0.0000     7.2154E-01     7.9892   1.9468   102.3437
 54      7.1228     5.9783E-02    9.2004E-02    6.610000E+06  0.05000  1.455E-02    0   0.8877   age061_m72            0.0000     1.3397E+00    11.0086   1.1780   108.2710
 55      0.0000     0.0000E+00    0.0000E+00    1.000000E+07  0.05000  9.074E-03    0   0.8524   age070_m72            0.0000     8.2391E-01     8.5722   2.1354   102.0241
 56      0.0000     0.0000E+00    0.0000E+00    2.512000E+07  0.05000  4.250E-03    0   0.7902   age090_m72            0.0000     7.0596E-01     7.6588   1.8426   103.2069
 57      0.0000     0.0000E+00    0.0000E+00    4.000000E+07  0.05000  3.087E-03    0   0.7618   age104_m72            0.0000     6.9464E-01     7.4871   1.6173   104.6029
 58      0.0000     0.0000E+00    0.0000E+00    1.015200E+08  0.05000  1.700E-03    0   0.7096   age116_m72            0.0000     5.6917E-01     6.6390   1.3776   106.6462
 59      0.0000     0.0000E+00    0.0000E+00    2.861200E+08  0.05000  7.384E-04    0   0.6633   age125_m72            0.0000     4.8107E-01     6.4802   0.8768   110.6752
 60     11.2148     3.5861E+00    3.9616E+00    5.088000E+08  0.05000  3.819E-04    0   0.6372   age130_m72            0.0000     4.2340E-01     6.1800   0.3899   112.4644
 61      0.0000     0.0000E+00    0.0000E+00    9.047900E+08  0.05000  1.676E-04    0   0.6110   age135_m72            0.0000     4.9473E-01     6.7322  -0.3061   111.0455
 62      8.9490     1.2367E+01    1.2594E+01    1.434000E+09  0.05000  8.837E-05    0   0.5874   age139_m72            0.0000     5.4280E-01     6.9772  -0.7616   110.5395
 63     18.8042     5.4249E+01    5.2649E+01    2.500000E+09  0.05000  4.233E-05    0   0.5598   age150_m72            0.0000     7.3199E-01     8.2349  -1.0000   106.5918
 64      0.0000     0.0000E+00    0.0000E+00    6.250000E+09  0.05000  1.435E-05    0   0.5249   age166_m72            0.0000     1.8381E+00    12.2775  -1.0000    87.8867
 65      0.0000     0.0000E+00    0.0000E+00    1.300000E+10  0.05000  6.513E-06    0   0.5036   age193_m72            0.0000     3.1896E+00    15.5960  -1.0000    78.6193
 66      0.0000     0.0000E+00    0.0000E+00    1.800000E+10  0.05000  4.527E-06    0   0.4945   age213_m72            0.0000     4.1171E+00    17.4014  -1.0000    72.9668


## Synthesis Results - Average & Chains ##

# j      x_j: min, <> & last-chain-values for 1 ...  7 chains
  1      0.0000      0.3001      0.0000      0.0000      0.0000      0.0251      0.0000      0.0000      0.0000
  2      0.0000      0.3159      0.0000      0.0000      0.0000      0.0000      0.0000      0.3877      0.6411
  3      0.0000      0.2360      0.0000      0.0000      0.0000      0.0000      0.7602      0.0000      0.1984
  4      0.0000      0.4691      0.9484      0.5334      0.0000      0.1620      0.0000      2.2698      0.3825
  5      0.0000      0.5065      0.0000      0.0000      0.0000      0.0000      3.3854      0.0000      0.0000
  6      0.0000      0.8220      0.1722      0.0000      1.4518      0.0000      0.0000      0.0000      0.8837
  7      0.0000      0.8161      4.0385      0.3899      0.0000      1.2771      0.0000      0.0000      0.0000
  8      0.0000      0.5015      0.0000      0.0000      0.1923      0.0000      0.0000      0.0000      0.0000
  9      0.0000      0.4810      0.4463      0.0000      0.0000      0.0000      0.0000      2.3262      0.0000
 10      0.0000      0.4081      0.0000      0.0000      0.0000      0.0000      0.0000      0.0000      0.0000
 11      0.0000      0.5759      0.0000      0.0000      0.0000      0.2664      0.0000      0.0000      0.0000
 12      0.0000      0.6054      0.0000      0.1522      0.0000      0.0000      0.0312      0.0000      0.0000
 13      0.0000      2.2807      0.0000      1.4088      0.0000      0.8312      0.0000      0.0000      2.7987
 14      0.0000      0.6060      0.0000      1.7231      0.0000      0.0000      0.4447      0.0000      0.0000
 15      0.0000      0.2883      0.0000      0.0892      0.0000      0.0000      0.0000      0.0000      0.0000
 16      0.0000      0.3868      0.7296      0.2043      0.0000      0.5076      0.4147      0.0000      0.0000
 17      0.0000      0.1772      0.0000      0.0000      0.0000      0.0000      0.0000      0.0000      0.0000
 18      0.0000      0.4188      0.2787      0.0000      0.0000      0.0000      0.0000      0.0000      0.0000
 19      0.0000      0.3965      0.0000      0.0000      0.0000      0.0000      0.0257      0.0000      0.0000
 20      0.0000      0.3031      0.0000      0.0740      0.0000      1.4531      0.0000      0.0000      1.3269
 21      0.0000      0.6503      1.5843      0.0000      0.0765      0.0000      0.0000      0.0000      0.0000
 22      0.0000      0.8284      3.3542      1.5314      0.0000      1.6973      2.1064      1.7751      0.0000
 23      0.0000      0.5196      0.0000      0.0000      0.8224      0.0000      3.2716      0.0000      0.0000
 24      0.0000      0.4230      3.0506      0.0000      0.0000      1.2648      1.0768      0.0000      0.0000
 25      0.0000      0.7829      0.0000      0.1221      0.0000      0.0000      0.0385      0.4713      0.0000
 26      0.0003      0.7038      0.0000      0.0000      0.0000      0.0000      1.0619      2.2279      1.2478
 27      0.0000      0.9317      0.0000      0.0756      5.3483      0.0000      0.4663      0.0000      0.0000
 28     42.8775     24.3671     29.3800     22.2851     29.0398     27.7564     34.5640     32.1796     28.2460
 29      0.0000      1.1679      2.0132      0.0000      0.0000      1.9314      0.0000      0.0000      0.0000
 30      0.0000      0.7653      2.9399      1.1525      0.0000      0.6301      0.0000      0.0000      0.0000
 31      0.0056      1.2979      0.0000      2.1450      0.1574      0.6922      0.0000      3.9432      0.0000
 32      0.0093      0.5820      0.0000      0.5598      0.9067      0.5813      0.0000      2.3823      0.0494
 33      0.0000      0.2870      0.1756      0.4873      1.4501      0.0000      0.0000      0.0000      0.0000
 34      0.0000      0.3478      0.0000      0.0000      0.2325      0.0000      3.3441      0.0000      0.0000
 35      0.0000      0.2954      0.0000      0.0000      0.0000      0.7580      0.0000      0.0000      0.9666
 36      0.0000      0.3122      0.0000      0.0000      1.4902      0.0000      0.0000      0.0000      0.0000
 37      0.0000      0.5598      0.0000      1.1452      5.4401      0.0000      0.0000      0.0000      0.0000
 38     16.3738      1.4361      3.1608      3.6719      2.4478      0.2414      4.8977      0.9882      1.6940
 39      0.0000      1.4247      0.0000      1.8706      0.0000      1.3857      3.8494      0.0000      1.4470
 40      0.0000      2.3603      0.0000      5.1396      0.0000      9.6370      3.0376      0.0000      0.5031
 41      0.0000      0.3525      0.0000      0.0000      0.0000      1.4451      1.7428      0.9904      0.0000
 42      0.0000      0.5048      0.0000      0.0000      0.0000      0.0000      0.0000      0.0000      0.0000
 43      0.0000      0.5575      0.0000      0.0000      0.0000      1.2908      0.0000      0.0000      1.7182
 44      0.0000      1.1459      0.0000      0.9166      0.0000      3.6624      0.0000      0.1524      1.0917
 45      0.0000      6.8346      0.0000      2.2712      0.0000      2.7679      1.1225      0.0000      5.2506
 46      0.4824     11.6428     13.9343     11.9322     13.8343     13.3420     12.3461     11.2894      6.1686
 47      6.0657      3.7494      6.3614      5.6347      3.9876      3.3528      5.1988      1.7605      6.1873
 48      0.0000      0.2993      0.0000      0.0000      1.0061      0.0000      0.0000      0.0000      0.0000
 49      0.0000      0.1780      0.0000      0.5299      0.0000      0.7267      0.8677      0.4539      0.0000
 50      0.0000      0.1632      0.0000      1.0226      1.1474      0.0000      0.0000      0.0000      0.2695
 51      0.0000      0.3279      0.0000      0.4558      0.0000      0.0000      0.0000      1.3749      0.0000
 52      0.0000      0.5090      0.0000      0.0000      1.2014      0.0000      1.0779      0.0000      2.5355
 53      0.0000      0.8730      1.2897      0.0000      0.0000      0.0000      0.2132      2.5690      2.2168
 54      7.1228      2.5700      3.9545      3.3483      4.4598      3.3668      0.8431      8.5470      2.0277
 55      0.0000      0.5701      1.0972      1.4341      1.3292      0.2491      0.0603      2.1593      0.0000
 56      0.0000      0.3954      0.0000      0.0000      0.0000      0.5403      0.0000      0.0000      0.0000
 57      0.0000      1.0087      3.2418      4.7554      0.5993      0.0000      0.0000      0.0000      7.3966
 58      0.0000      0.4699      0.0000      0.0000      0.1758      0.0000      0.0000      0.0000      0.0000
 59      0.0000      1.7926      1.3417      2.2425      3.7418      2.6672      1.0205      0.0000      1.2677
 60     11.2148      7.6020      9.3038     15.8316      7.3319      6.5323      8.6558     11.0435      8.9413
 61      0.0000      9.7368     10.3553      8.2382     14.9151     10.3381     10.1072      9.3714     11.4326
 62      8.9490      6.8402      4.2524      6.4964      6.3658      9.0080      4.0537      9.2367      8.3965
 63     18.8042      1.6229      3.1112      0.0000      1.3768      0.0000      0.0000      2.7851      5.5418
 64      0.0000      0.1541      0.2518      0.9386      0.0583      0.0000      0.0000      0.6697      0.0000
 65      0.0000      0.0962      0.0000      0.0000      0.4548      0.9164      0.9302      0.0000      0.0000
 66      0.0000      0.0423      0.0000      0.0000      0.0000      0.0000      0.0000      0.0000      0.3768

# j      m_j: min, <> & last-chain-values for 1 ...  7 chains
  1  0.0000E+00  6.6168E-03  0.0000E+00  0.0000E+00  0.0000E+00  5.4885E-04  0.0000E+00  0.0000E+00  0.0000E+00
  2  0.0000E+00  1.9017E-03  0.0000E+00  0.0000E+00  0.0000E+00  0.0000E+00  0.0000E+00  2.3177E-03  3.8342E-03
  3  0.0000E+00  2.1279E-03  0.0000E+00  0.0000E+00  0.0000E+00  0.0000E+00  5.1816E-03  0.0000E+00  1.7770E-03
  4  0.0000E+00  3.9820E-03  8.9808E-03  3.9121E-03  0.0000E+00  1.3624E-03  0.0000E+00  1.9135E-02  3.2264E-03
  5  0.0000E+00  8.1906E-03  0.0000E+00  0.0000E+00  0.0000E+00  0.0000E+00  4.1394E-02  0.0000E+00  0.0000E+00
  6  0.0000E+00  2.1561E-02  5.0389E-03  0.0000E+00  3.0798E-02  0.0000E+00  0.0000E+00  0.0000E+00  2.3028E-02
  7  0.0000E+00  3.0646E-02  1.6917E-01  1.2650E-02  0.0000E+00  4.7519E-02  0.0000E+00  0.0000E+00  0.0000E+00
  8  0.0000E+00  2.6029E-02  0.0000E+00  0.0000E+00  8.0726E-03  0.0000E+00  0.0000E+00  0.0000E+00  0.0000E+00
  9  0.0000E+00  2.8576E-02  2.9574E-02  0.0000E+00  0.0000E+00  0.0000E+00  0.0000E+00  1.3723E-01  0.0000E+00
 10  0.0000E+00  3.1849E-02  0.0000E+00  0.0000E+00  0.0000E+00  0.0000E+00  0.0000E+00  0.0000E+00  0.0000E+00
 11  0.0000E+00  8.4505E-02  0.0000E+00  0.0000E+00  0.0000E+00  3.8736E-02  0.0000E+00  0.0000E+00  0.0000E+00
 12  0.0000E+00  1.4091E-01  0.0000E+00  3.0604E-02  0.0000E+00  0.0000E+00  5.4956E-03  0.0000E+00  0.0000E+00
 13  0.0000E+00  1.4963E+00  0.0000E+00  7.9850E-01  0.0000E+00  5.4027E-01  0.0000E+00  0.0000E+00  1.8241E+00
 14  0.0000E+00  1.3334E+00  0.0000E+00  3.2757E+00  0.0000E+00  0.0000E+00  7.3990E-01  0.0000E+00  0.0000E+00
 15  0.0000E+00  1.0327E+00  0.0000E+00  2.7592E-01  0.0000E+00  0.0000E+00  0.0000E+00  0.0000E+00  0.0000E+00
 16  0.0000E+00  2.3431E+00  4.9290E+00  1.0689E+00  0.0000E+00  3.0464E+00  1.8990E+00  0.0000E+00  0.0000E+00
 17  0.0000E+00  1.3926E+00  0.0000E+00  0.0000E+00  0.0000E+00  0.0000E+00  0.0000E+00  0.0000E+00  0.0000E+00
 18  0.0000E+00  8.1615E-03  6.0580E-03  0.0000E+00  0.0000E+00  0.0000E+00  0.0000E+00  0.0000E+00  0.0000E+00
 19  0.0000E+00  3.1010E-03  0.0000E+00  0.0000E+00  0.0000E+00  0.0000E+00  1.5227E-04  0.0000E+00  0.0000E+00
 20  0.0000E+00  2.5879E-03  0.0000E+00  5.4588E-04  0.0000E+00  1.2293E-02  0.0000E+00  0.0000E+00  1.1255E-02
 21  0.0000E+00  6.7403E-03  1.8316E-02  0.0000E+00  6.4142E-04  0.0000E+00  0.0000E+00  0.0000E+00  0.0000E+00
 22  0.0000E+00  1.4518E-02  6.5574E-02  2.3187E-02  0.0000E+00  2.9474E-02  2.7914E-02  3.0894E-02  0.0000E+00
 23  0.0000E+00  1.2298E-02  0.0000E+00  0.0000E+00  1.5742E-02  0.0000E+00  5.8546E-02  0.0000E+00  0.0000E+00
 24  0.0000E+00  1.4894E-02  1.1982E-01  0.0000E+00  0.0000E+00  4.4127E-02  2.8669E-02  0.0000E+00  0.0000E+00
 25  0.0000E+00  3.8011E-02  0.0000E+00  5.1229E-03  0.0000E+00  0.0000E+00  1.4138E-03  2.2725E-02  0.0000E+00
 26  2.0882E-05  5.7114E-02  0.0000E+00  0.0000E+00  0.0000E+00  0.0000E+00  6.5157E-02  1.7955E-01  1.0060E-01
 27  0.0000E+00  1.5134E-01  0.0000E+00  1.0612E-02  7.0263E-01  0.0000E+00  5.7275E-02  0.0000E+00  0.0000E+00
 28  1.7739E+01  1.1487E+01  1.5449E+01  9.0762E+00  1.1072E+01  1.2965E+01  1.2320E+01  1.5064E+01  1.3229E+01
 29  0.0000E+00  9.5935E-01  1.8446E+00  0.0000E+00  0.0000E+00  1.5718E+00  0.0000E+00  0.0000E+00  0.0000E+00
 30  0.0000E+00  1.3133E+00  5.6278E+00  1.7088E+00  0.0000E+00  1.0713E+00  0.0000E+00  0.0000E+00  0.0000E+00
 31  1.4756E-02  3.9183E+00  0.0000E+00  5.5942E+00  3.8419E-01  2.0703E+00  0.0000E+00  1.1821E+01  0.0000E+00
 32  3.3185E-02  2.3641E+00  0.0000E+00  1.9645E+00  2.9787E+00  2.3394E+00  0.0000E+00  9.6093E+00  1.9949E-01
 33  0.0000E+00  2.5806E+00  1.7615E+00  3.7854E+00  1.0545E+01  0.0000E+00  0.0000E+00  0.0000E+00  0.0000E+00
 34  0.0000E+00  4.2350E+00  0.0000E+00  0.0000E+00  2.2900E+00  0.0000E+00  3.0788E+01  0.0000E+00  0.0000E+00
 35  0.0000E+00  4.6158E-03  0.0000E+00  0.0000E+00  0.0000E+00  1.1734E-02  0.0000E+00  0.0000E+00  1.5003E-02
 36  0.0000E+00  1.9736E-03  0.0000E+00  0.0000E+00  7.6189E-03  0.0000E+00  0.0000E+00  0.0000E+00  0.0000E+00
 37  0.0000E+00  3.8280E-03  0.0000E+00  6.7651E-03  3.0083E-02  0.0000E+00  0.0000E+00  0.0000E+00  0.0000E+00
 38  2.6618E-01  2.6603E-02  6.5310E-02  5.8763E-02  3.6671E-02  4.4306E-03  6.8596E-02  1.8177E-02  3.1174E-02
 39  0.0000E+00  3.7997E-02  0.0000E+00  4.3103E-02  0.0000E+00  3.6617E-02  7.7626E-02  0.0000E+00  3.8339E-02
 40  0.0000E+00  1.0176E-01  0.0000E+00  1.9143E-01  0.0000E+00  4.1164E-01  9.9014E-02  0.0000E+00  2.1547E-02
 41  0.0000E+00  2.3632E-02  0.0000E+00  0.0000E+00  0.0000E+00  9.5991E-02  8.8342E-02  6.5936E-02  0.0000E+00
 42  0.0000E+00  6.2135E-02  0.0000E+00  0.0000E+00  0.0000E+00  0.0000E+00  0.0000E+00  0.0000E+00  0.0000E+00
 43  0.0000E+00  1.0020E-01  0.0000E+00  0.0000E+00  0.0000E+00  2.2983E-01  0.0000E+00  0.0000E+00  3.0675E-01
 44  0.0000E+00  3.5458E-01  0.0000E+00  2.4502E-01  0.0000E+00  1.1228E+00  0.0000E+00  4.6826E-02  3.3560E-01
 45  0.0000E+00  4.1960E+00  0.0000E+00  1.2046E+00  0.0000E+00  1.6837E+00  5.2105E-01  0.0000E+00  3.2024E+00
 46  4.7777E-01  1.3139E+01  1.7540E+01  1.1633E+01  1.2626E+01  1.4917E+01  1.0534E+01  1.2651E+01  6.9155E+00
 47  1.2173E+01  8.5737E+00  1.6226E+01  1.1131E+01  7.3744E+00  7.5962E+00  8.9884E+00  3.9975E+00  1.4056E+01
 48  0.0000E+00  1.2071E+00  0.0000E+00  0.0000E+00  3.2814E+00  0.0000E+00  0.0000E+00  0.0000E+00  0.0000E+00
 49  0.0000E+00  1.6315E+00  0.0000E+00  4.1955E+00  0.0000E+00  6.5989E+00  6.0134E+00  4.1312E+00  0.0000E+00
 50  0.0000E+00  2.7713E+00  0.0000E+00  1.4997E+01  1.5753E+01  0.0000E+00  0.0000E+00  0.0000E+00  4.5450E+00
 51  0.0000E+00  3.0508E-03  0.0000E+00  3.6644E-03  0.0000E+00  0.0000E+00  0.0000E+00  1.2705E-02  0.0000E+00
 52  0.0000E+00  2.4273E-03  0.0000E+00  0.0000E+00  4.6332E-03  0.0000E+00  3.8862E-03  0.0000E+00  1.2011E-02
 53  0.0000E+00  6.2707E-03  1.0333E-02  0.0000E+00  0.0000E+00  0.0000E+00  1.1579E-03  1.8325E-02  1.5819E-02
 54  9.2004E-02  3.7825E-02  6.4922E-02  4.2575E-02  5.3087E-02  4.9098E-02  9.3819E-03  1.2492E-01  2.9649E-02
 55  0.0000E+00  1.2919E-02  2.7736E-02  2.8078E-02  2.4361E-02  5.5934E-03  1.0328E-03  4.8592E-02  0.0000E+00
 56  0.0000E+00  1.7734E-02  0.0000E+00  0.0000E+00  0.0000E+00  2.4011E-02  0.0000E+00  0.0000E+00  0.0000E+00
 57  0.0000E+00  6.0049E-02  2.1527E-01  2.4458E-01  2.8853E-02  0.0000E+00  0.0000E+00  0.0000E+00  4.3746E-01
 58  0.0000E+00  4.7313E-02  0.0000E+00  0.0000E+00  1.4317E-02  0.0000E+00  0.0000E+00  0.0000E+00  0.0000E+00
 59  0.0000E+00  3.8847E-01  3.2432E-01  4.1984E-01  6.5580E-01  5.7267E-01  1.6720E-01  0.0000E+00  2.7292E-01
 60  3.9616E+00  3.0599E+00  4.1772E+00  5.5053E+00  2.3868E+00  2.6051E+00  2.6343E+00  4.4141E+00  3.5754E+00
 61  0.0000E+00  8.5632E+00  1.0159E+01  6.2594E+00  1.0609E+01  9.0084E+00  6.7209E+00  8.1844E+00  9.9888E+00
 62  1.2594E+01  1.0969E+01  7.6062E+00  8.9998E+00  8.2557E+00  1.4312E+01  4.9148E+00  1.4708E+01  1.3376E+01
 63  5.2649E+01  5.1776E+00  1.1072E+01  0.0000E+00  3.5524E+00  0.0000E+00  0.0000E+00  8.8234E+00  1.7565E+01
 64  0.0000E+00  1.3598E+00  2.4782E+00  7.1556E+00  4.1622E-01  0.0000E+00  0.0000E+00  5.8683E+00  0.0000E+00
 65  0.0000E+00  1.7940E+00  0.0000E+00  0.0000E+00  6.8613E+00  1.6936E+01  1.3119E+01  0.0000E+00  0.0000E+00
 66  0.0000E+00  1.1135E+00  0.0000E+00  0.0000E+00  0.0000E+00  0.0000E+00  0.0000E+00  0.0000E+00  9.8643E+00

# AV, chi2 & Mass for <> & i_chain = 1 ...  7 solutions
AV      -0.1315      0.0333      0.0309      0.0160     -0.0091      0.0303      0.0275      0.0050      0.0272
chi2 3.4988E-01  3.5903E-01  3.5777E-01  3.5678E-01  3.5671E-01  3.5748E-01  3.5670E-01  3.5615E-01  3.5767E-01
Mass 3.2536E-13  3.5629E-13  3.1838E-13  4.0291E-13  4.1612E-13  3.5815E-13  4.6752E-13  3.4538E-13  3.5569E-13
  75.08                                  [v0_min (km/s) before EX0s...]
 159.56                                  [vd_min (km/s) before EX0s...]


## Synthetic spectrum (Best Model) ##l_obs f_obs f_syn wei
 3478    [Nl_obs]
 3741.00    0.83148   0.69436    0.000
 3742.00    0.80826   0.70888    0.000
 3743.00    0.74025   0.70540    0.000
 3744.00    0.64115   0.68794    0.000
 3745.00    0.54986   0.66133    4.760
 3746.00    0.49223   0.62878    4.595
 3747.00    0.45308   0.59338    4.391
 3748.00    0.41730   0.55886    4.430
 3749.00    0.39953   0.53038    4.627
 3750.00    0.40788   0.51696    4.790
 3751.00    0.42068   0.52666    4.820
 3752.00    0.42614   0.55918    4.779
 3753.00    0.44528   0.60602    4.839
 3754.00    0.49235   0.65590    5.039
 3755.00    0.55258   0.69831    5.137
 3756.00    0.61170   0.72499    4.992
 3757.00    0.67152   0.73291    4.815
 3758.00    0.73002   0.72693    4.755
 3759.00    0.77260   0.71762    4.756
 3760.00    0.78998   0.71341    4.739
 3761.00    0.78648   0.71569    4.678
 3762.00    0.77151   0.72101    4.627
 3763.00    0.75465   0.72485    4.684
 3764.00    0.74392   0.72364    4.863
 3765.00    0.74237   0.71582    5.040
 3766.00    0.73723   0.70041    5.115
 3767.00    0.70390   0.67740    5.106
 3768.00    0.64105   0.65068    5.095
 3769.00    0.57540   0.62584    5.158
 3770.00    0.52403   0.60734    5.294
 3771.00    0.48654   0.60056    5.402
 3772.00    0.47043   0.61037    5.370
 3773.00    0.49167   0.63521    5.155
 3774.00    0.54584   0.66779    4.846
 3775.00    0.61062   0.70173    4.578
 3776.00    0.68403   0.73429    4.417
 3777.00    0.78284   0.76477    4.366
 3778.00    0.90251   0.79315    4.371
 3779.00    1.01238   0.81976    4.363
 3780.00    1.07622   0.84466    4.381
 3781.00    1.06969   0.86602    4.539
 3782.00    1.00880   0.88096    4.853
 3783.00    0.93656   0.88815    5.188
 3784.00    0.87423   0.88726    5.348
 3785.00    0.81876   0.87693    5.245
 3786.00    0.76435   0.85647    5.124
 3787.00    0.71105   0.82982    5.270
 3788.00    0.67154   0.80379    5.535
 3789.00    0.65951   0.78189    5.501
 3790.00    0.66484   0.76433    5.296
 3791.00    0.66569   0.74965    5.326
 3792.00    0.65936   0.73392    5.575
 3793.00    0.65671   0.71185    5.759
 3794.00    0.66260   0.68111    5.806
 3795.00    0.67404   0.64387    5.846
 3796.00    0.68309   0.60503    5.933
 3797.00    0.68184   0.57063    6.036
 3798.00    0.66927   0.54800    6.114
 3799.00    0.65161   0.54534    6.150
 3800.00    0.64121   0.56659    6.174
 3801.00    0.65077   0.60718    6.236
 3802.00    0.68596   0.65707    6.353
 3803.00    0.74284   0.70643    6.490
 3804.00    0.80645   0.74788    6.538
 3805.00    0.85774   0.77717    6.423
 3806.00    0.88231   0.79528    6.239
 3807.00    0.87642   0.80791    6.132
 3808.00    0.85151   0.82212    6.200
 3809.00    0.82357   0.84071    6.441
 3810.00    0.80182   0.85961    6.667
 3811.00    0.79171   0.87177    6.682
 3812.00    0.79776   0.87203    6.559
 3813.00    0.81306   0.85969    6.491
 3814.00    0.81282   0.83963    6.608
 3815.00    0.78544   0.81979    6.900
 3816.00    0.75459   0.80559    7.111
 3817.00    0.73896   0.79787    7.037
 3818.00    0.72339   0.79328    6.855
 3819.00    0.69711   0.78640    6.801
 3820.00    0.67966   0.77580    6.950
 3821.00    0.68883   0.76595    7.170
 3822.00    0.71892   0.76072    7.111
 3823.00    0.75564   0.75720    6.795
 3824.00    0.78691   0.74914    6.761
 3825.00    0.80305   0.73455    7.170
 3826.00    0.79741   0.71677    7.436
 3827.00    0.77146   0.69916    7.211
 3828.00    0.73545   0.68250    7.077
 3829.00    0.69602   0.66556    7.328
 3830.00    0.65178   0.64591    7.586
 3831.00    0.60557   0.62077    7.595
 3832.00    0.56841   0.58861    7.653
 3833.00    0.54807   0.55199    7.900
 3834.00    0.54364   0.51759    8.042
 3835.00    0.54709   0.49231    7.895
 3836.00    0.54725   0.48111    7.644
 3837.00    0.54309   0.48572    7.496
 3838.00    0.54515   0.50381    7.528
 3839.00    0.56018   0.53179    7.632
 3840.00    0.58642   0.56723    7.570
 3841.00    0.61935   0.60800    7.384
 3842.00    0.65430   0.65162    7.351
 3843.00    0.68795   0.69455    7.463
 3844.00    0.71926   0.73239    7.449
 3845.00    0.75061   0.76290    7.372
 3846.00    0.78630   0.78609    7.548
 3847.00    0.82694   0.80328    0.000
 3848.00    0.86863   0.81591    0.000
 3849.00    0.90520   0.82430    0.000
 3850.00    0.93145   0.82969    0.000
 3851.00    0.94953   0.83554    0.000
 3852.00    0.96523   0.84346    0.000
 3853.00    0.97549   0.85037    0.000
 3854.00    0.97238   0.85259    0.000
 3855.00    0.95892   0.84974    0.000
 3856.00    0.94599   0.84334    0.000
 3857.00    0.93818   0.83594    0.000
 3858.00    0.93330   0.82993    0.000
 3859.00    0.92745   0.82594    0.000
 3860.00    0.91936   0.82607    0.000
 3861.00    0.91595   0.83347    0.000
 3862.00    0.92438   0.84735    0.000
 3863.00    0.93704   0.86260    0.000
 3864.00    0.94257   0.87411    0.000
 3865.00    0.94711   0.87978    0.000
 3866.00    0.96171   0.88034    0.000
 3867.00    0.97848   0.87772    0.000
 3868.00    0.98126   0.87310    0.000
 3869.00    0.96583   0.86605    0.000
 3870.00    0.93735   0.85524    0.000
 3871.00    0.90274   0.84063    0.000
 3872.00    0.86613   0.82563    0.000
 3873.00    0.82499   0.81528    0.000
 3874.00    0.77735   0.81268    0.000
 3875.00    0.73030   0.81519    0.000
 3876.00    0.69111   0.81593    0.000
 3877.00    0.65728   0.80966    0.000
 3878.00    0.62627   0.79626    0.000
 3879.00    0.60560   0.78013    0.000
 3880.00    0.60013   0.76635    0.000
 3881.00    0.60025   0.75453    8.528
 3882.00    0.59739   0.74044    8.694
 3883.00    0.59762   0.72244    8.583
 3884.00    0.60640   0.70035    8.010
 3885.00    0.61590   0.67203    7.546
 3886.00    0.61684   0.63631    7.553
 3887.00    0.60857   0.59803    7.900
 3888.00    0.59646   0.56582    8.247
 3889.00    0.58866   0.54735    8.220
 3890.00    0.59006   0.54839    7.884
 3891.00    0.59897   0.57030    7.801
 3892.00    0.61223   0.60692    8.168
 3893.00    0.62916   0.64825    8.471
 3894.00    0.65365   0.68643    8.330
 3895.00    0.69299   0.71822    8.178
 3896.00    0.74409   0.74405    8.325
 3897.00    0.78911   0.76597    8.557
 3898.00    0.81562   0.78490    8.645
 3899.00    0.82569   0.80084    8.635
 3900.00    0.82492   0.81525    8.576
 3901.00    0.81726   0.82949    8.423
 3902.00    0.80859   0.84216    8.305
 3903.00    0.80722   0.84994    8.516
 3904.00    0.81802   0.85271    9.017
 3905.00    0.84047   0.85409    9.256
 3906.00    0.87174   0.85758    9.052
 3907.00    0.90797   0.86717    8.928
 3908.00    0.94379   0.88484    9.154
 3909.00    0.97308   0.90711    9.550
 3910.00    0.99209   0.92823    9.796
 3911.00    1.00042   0.94394    9.656
 3912.00    1.00041   0.95272    9.334
 3913.00    0.99607   0.95457    9.263
 3914.00    0.99025   0.95066    9.468
 3915.00    0.98450   0.94342    9.581
 3916.00    0.98095   0.93439    9.347
 3917.00    0.98074   0.92322    8.864
 3918.00    0.97794   0.91024    8.470
 3919.00    0.96338   0.89636    8.459
 3920.00    0.93857   0.88319    8.774
 3921.00    0.91425   0.87344    9.057
 3922.00    0.89800   0.86869    9.010
 3923.00    0.89198   0.86744    8.658
 3924.00    0.89518   0.86536    8.421
 3925.00    0.90306   0.85765    8.669
 3926.00    0.90585   0.84047    9.092
 3927.00    0.89251   0.81302    8.976
 3928.00    0.85921   0.77678    8.591
 3929.00    0.80897   0.73338    8.639
 3930.00    0.74757   0.68519    9.010
 3931.00    0.67991   0.63485    9.137
 3932.00    0.60560   0.58615    9.059
 3933.00    0.52770   0.54542    9.178
 3934.00    0.46722   0.52078    9.389
 3935.00    0.44543   0.51950    9.376
 3936.00    0.45403   0.54315    9.360
 3937.00    0.47352   0.58620    9.659
 3938.00    0.50516   0.63928    9.887
 3939.00    0.55729   0.69312    9.509
 3940.00    0.62135   0.74075    8.953
 3941.00    0.67975   0.77757    8.755
 3942.00    0.72033   0.80226    8.804
 3943.00    0.74189   0.81765    8.766
 3944.00    0.75760   0.82850    8.524
 3945.00    0.78202   0.83951    8.247
 3946.00    0.81643   0.85346    8.299
 3947.00    0.85073   0.86827    8.831
 3948.00    0.86852   0.87970    9.287
 3949.00    0.86176   0.88723    9.027
 3950.00    0.84316   0.89304    8.502
 3951.00    0.83105   0.89766    8.305
 3952.00    0.83426   0.89978    8.498
 3953.00    0.85225   0.89876    8.831
 3954.00    0.87689   0.89593    8.795
 3955.00    0.89750   0.89148    8.301
 3956.00    0.90541   0.88332    8.011
 3957.00    0.89786   0.87154    8.306
 3958.00    0.87972   0.85846    8.946
 3959.00    0.85549   0.84352    9.399
 3960.00    0.82424   0.82251    0.000
 3961.00    0.78490   0.79168    0.000
 3962.00    0.73922   0.75154    0.000
 3963.00    0.68719   0.70631    0.000
 3964.00    0.62577   0.65870    0.000
 3965.00    0.55942   0.60822    0.000
 3966.00    0.50384   0.55468    0.000
 3967.00    0.47198   0.50026    0.000
 3968.00    0.46634   0.45034    0.000
 3969.00    0.48052   0.41292    0.000
 3970.00    0.50179   0.39598    0.000
 3971.00    0.51875   0.40383    0.000
 3972.00    0.52610   0.43507    0.000
 3973.00    0.52919   0.48322    0.000
 3974.00    0.54292   0.54021    0.000
 3975.00    0.57929   0.59969    0.000
 3976.00    0.64112   0.65728    0.000
 3977.00    0.71941   0.71014    0.000
 3978.00    0.79571   0.75753    0.000
 3979.00    0.85414   0.79912    0.000
 3980.00    0.88621   0.83351    0.000
 3981.00    0.89120   0.85924    9.171
 3982.00    0.87658   0.87624    9.465
 3983.00    0.85873   0.88744    9.266
 3984.00    0.85809   0.89752    8.766
 3985.00    0.88417   0.90943    8.385
 3986.00    0.93257   0.92352    8.341
 3987.00    0.98968   0.93841    8.162
 3988.00    1.03787   0.95310    7.296
 3989.00    1.06484   0.96672    6.544
 3990.00    1.06785   0.97766    6.769
 3991.00    1.05723   0.98657    7.930
 3992.00    1.04888   0.99485    8.978
 3993.00    1.04555   1.00149    9.181
 3994.00    1.03928   1.00427    9.232
 3995.00    1.02596   1.00199    9.308
 3996.00    1.00909   0.99633    9.059
 3997.00    1.00020   0.99114    8.820
 3998.00    1.01073   0.99051    9.127
 3999.00    1.03680   0.99732    9.673
 4000.00    1.06483   1.01073    9.599
 4001.00    1.08630   1.02489    9.026
 4002.00    1.09823   1.03362    8.668
 4003.00    1.09963   1.03435    8.726
 4004.00    1.09145   1.02702    9.036
 4005.00    1.07745   1.01364    9.123
 4006.00    1.06138   1.00034    8.675
 4007.00    1.04294   0.99541    8.243
 4008.00    1.02099   1.00143    8.353
 4009.00    0.99856   1.01389    8.826
 4010.00    0.98093   1.02753    9.133
 4011.00    0.97206   1.03980    9.076
 4012.00    0.97188   1.04969    8.872
 4013.00    0.97415   1.05702    8.856
 4014.00    0.97454   1.06280    9.172
 4015.00    0.97908   1.06769    9.501
 4016.00    0.99203   1.07211    9.452
 4017.00    1.00346   1.07592    9.203
 4018.00    1.00282   1.07906    9.036
 4019.00    0.99304   1.08273    8.883
 4020.00    0.98381   1.08636    8.684
 4021.00    0.98346   1.08638    8.651
 4022.00    0.99225   1.08088    8.957
 4023.00    0.99921   1.07153    9.474
 4024.00    1.00000   1.06120    9.836
 4025.00    1.00849   1.05291    9.635
 4026.00    1.03078   1.04970    9.036
 4027.00    1.04814   1.05169    8.770
 4028.00    1.04435   1.05396    9.133
 4029.00    1.02410   1.05005    9.701
 4030.00    0.99826   1.03657    9.899
 4031.00    0.97327   1.01588    9.699
 4032.00    0.95326   0.99613    9.421
 4033.00    0.94138   0.98533    9.359
 4034.00    0.93811   0.98707    9.591
 4035.00    0.94092   1.00155    9.924
 4036.00    0.94819   1.02551   10.080
 4037.00    0.96057   1.05312    9.891
 4038.00    0.97677   1.07757    9.507
 4039.00    0.99230   1.09306    9.294
 4040.00    1.00431   1.09742    9.416
 4041.00    1.01275   1.09186    9.773
 4042.00    1.01465   1.07921   10.115
 4043.00    1.00461   1.06144   10.144
 4044.00    0.98777   1.03882    9.903
 4045.00    0.98055   1.01428    9.771
 4046.00    0.99143   0.99605    9.897
 4047.00    1.01543   0.99313   10.105
 4048.00    1.04268   1.00717   10.133
 4049.00    1.06327   1.02982    9.832
 4050.00    1.07221   1.05093    9.424
 4051.00    1.07076   1.06447    9.312
 4052.00    1.06509   1.06756    9.639
 4053.00    1.06237   1.06080   10.277
 4054.00    1.06094   1.04818   10.773
 4055.00    1.05317   1.03429   10.559
 4056.00    1.04188   1.02284    9.972
 4057.00    1.03810   1.01576    9.783
 4058.00    1.04298   1.01277   10.003
 4059.00    1.04802   1.01335   10.123
 4060.00    1.04774   1.01604   10.016
 4061.00    1.04017   1.01653    9.944
 4062.00    1.02072   1.01060    9.878
 4063.00    0.98690   0.99827    9.634
 4064.00    0.95125   0.98512    9.421
 4065.00    0.93239   0.97881    9.571
 4066.00    0.93165   0.98206    9.968
 4067.00    0.93808   0.99063   10.154
 4068.00    0.94706   0.99991    9.960
 4069.00    0.95931   1.00762    9.619
 4070.00    0.97261   1.01095    9.456
 4071.00    0.98251   1.00756    9.676
 4072.00    0.98592   0.99925   10.155
 4073.00    0.98053   0.99108   10.505
 4074.00    0.96317   0.98476   10.392
 4075.00    0.93393   0.97632    9.882
 4076.00    0.90207   0.96280    9.507
 4077.00    0.88001   0.94732    9.654
 4078.00    0.87388   0.93741   10.152
 4079.00    0.88413   0.93978   10.541
 4080.00    0.90797   0.95466   10.616
 4081.00    0.94036   0.97523   10.465
 4082.00    0.97495   0.99251   10.236
 4083.00    1.00571   1.00043   10.079
 4084.00    1.02849   0.99917   10.132
 4085.00    1.04048   0.99408   10.411
 4086.00    1.03943   0.99089   10.669
 4087.00    1.02552   0.99250   10.632
 4088.00    1.00309   0.99788   10.364
 4089.00    0.98038   1.00295   10.135
 4090.00    0.96780   1.00338   10.223
 4091.00    0.96663   0.99724   10.700
 4092.00    0.96137   0.98483    0.000
 4093.00    0.94005   0.96706    0.000
 4094.00    0.90949   0.94481    0.000
 4095.00    0.87904   0.91778    0.000
 4096.00    0.84839   0.88504    0.000
 4097.00    0.81634   0.84757    0.000
 4098.00    0.78708   0.80736    0.000
 4099.00    0.76457   0.76553    0.000
 4100.00    0.74892   0.72382    0.000
 4101.00    0.73965   0.68656    0.000
 4102.00    0.73782   0.66139    0.000
 4103.00    0.74483   0.65680    0.000
 4104.00    0.76092   0.67557    0.000
 4105.00    0.78133   0.71189    0.000
 4106.00    0.79638   0.75592    0.000
 4107.00    0.80348   0.79845    0.000
 4108.00    0.81142   0.83325    0.000
 4109.00    0.83106   0.85860    0.000
 4110.00    0.86887   0.87665    0.000
 4111.00    0.92046   0.89141    0.000
 4112.00    0.97111   0.90679    0.000
 4113.00    1.01071   0.92470   10.039
 4114.00    1.03837   0.94432    9.907
 4115.00    1.05489   0.96268    9.741
 4116.00    1.05998   0.97631    9.692
 4117.00    1.05394   0.98309    9.818
 4118.00    1.03921   0.98265   10.079
 4119.00    1.02370   0.97692   10.324
 4120.00    1.01734   0.97053   10.352
 4121.00    1.01774   0.96800   10.177
 4122.00    1.01212   0.97042   10.032
 4123.00    0.99779   0.97648   10.072
 4124.00    0.98155   0.98441   10.331
 4125.00    0.96026   0.99187   10.738
 4126.00    0.92461   0.99583   11.106
 4127.00    0.88381   0.99421   11.154
 4128.00    0.86074   0.98751   10.738
 4129.00    0.86359   0.97824   10.217
 4130.00    0.88555   0.96904   10.063
 4131.00    0.92121   0.96123   10.330
 4132.00    0.96646   0.95568   10.770
 4133.00    1.00988   0.95456   11.060
 4134.00    1.03706   0.96086   10.980
 4135.00    1.04328   0.97537   10.683
 4136.00    1.03331   0.99568   10.505
 4137.00    1.01590   1.01730   10.621
 4138.00    0.99876   1.03531   11.021
 4139.00    0.98192   1.04661   11.451
 4140.00    0.96289   1.04908   11.536
 4141.00    0.94680   1.04106   11.235
 4142.00    0.93944   1.02348   10.845
 4143.00    0.93421   1.00102   10.718
 4144.00    0.92304   0.98176   11.017
 4145.00    0.91467   0.97380   11.453
 4146.00    0.91969   0.97922   11.511
 4147.00    0.92755   0.99220   11.138
 4148.00    0.92304   1.00489   10.674
 4149.00    0.91088   1.01250   10.460
 4150.00    0.90437   1.01391   10.654
 4151.00    0.90806   1.01091   11.114
 4152.00    0.92104   1.00594   11.539
 4153.00    0.94272   1.00005   11.718
 4154.00    0.96950   0.99389   11.584
 4155.00    0.99137   0.98890   11.200
 4156.00    1.00025   0.98720   10.798
 4157.00    0.99831   0.99013   10.735
 4158.00    0.99143   0.99768   11.136
 4159.00    0.98277   1.00880   11.586
 4160.00    0.97634   1.02120   11.642
 4161.00    0.97966   1.03242   11.526
 4162.00    0.99471   1.04126   11.487
 4163.00    1.01148   1.04776   11.278
 4164.00    1.01839   1.05142   10.882
 4165.00    1.01078   1.05119   10.861
 4166.00    0.99062   1.04723   11.479
 4167.00    0.96520   1.04056   12.185
 4168.00    0.94264   1.03226   12.301
 4169.00    0.92889   1.02316   11.966
 4170.00    0.92769   1.01252   11.567
 4171.00    0.94000   0.99822   11.226
 4172.00    0.95961   0.98004   11.049
 4173.00    0.97333   0.96171   11.209
 4174.00    0.97615   0.94882   11.634
 4175.00    0.97687   0.94449   11.840
 4176.00    0.98156   0.94722   11.573
 4177.00    0.98645   0.95314   11.177
 4178.00    0.98668   0.95952   10.985
 4179.00    0.98136   0.96603   11.095
 4180.00    0.97509   0.97346   11.441
 4181.00    0.97559   0.98146   11.811
 4182.00    0.98079   0.98840   11.984
 4183.00    0.97821   0.99345   11.844
 4184.00    0.96459   0.99726   11.411
 4185.00    0.95006   1.00011   10.846
 4186.00    0.94283   1.00133   10.487
 4187.00    0.94463   1.00047   10.682
 4188.00    0.95552   0.99875   11.339
 4189.00    0.97476   0.99966   11.808
 4190.00    0.99775   1.00554   11.670
 4191.00    1.01766   1.01506   11.190
 4192.00    1.03326   1.02498   10.756
 4193.00    1.04762   1.03263   10.593
 4194.00    1.05757   1.03534   10.720
 4195.00    1.05470   1.03011   11.017
 4196.00    1.03637   1.01632   11.360
 4197.00    1.00695   0.99760   11.633
 4198.00    0.97319   0.97938   11.687
 4199.00    0.94318   0.96556   11.459
 4200.00    0.92668   0.95815   11.188
 4201.00    0.92982   0.95730   11.185
 4202.00    0.94409   0.96099   11.422
 4203.00    0.95463   0.96741   11.644
 4204.00    0.96207   0.97662   11.782
 4205.00    0.97612   0.98848   11.889
 4206.00    0.99478   1.00164   11.771
 4207.00    1.00948   1.01470   11.290
 4208.00    1.02131   1.02615   10.903
 4209.00    1.03622   1.03456   11.095
 4210.00    1.05217   1.03953   11.678
 4211.00    1.06440   1.04160   12.039
 4212.00    1.07670   1.04139   11.944
 4213.00    1.09318   1.03838   11.591
 4214.00    1.10411   1.03167   11.167
 4215.00    1.09789   1.02241   10.818
 4216.00    1.08010   1.01460   10.735
 4217.00    1.06597   1.01332   11.039
 4218.00    1.06688   1.02087   11.600
 4219.00    1.08562   1.03376   12.082
 4220.00    1.11331   1.04485   12.142
 4221.00    1.13570   1.04826   11.723
 4222.00    1.14128   1.04061   11.201
 4223.00    1.12508   1.02057   10.945
 4224.00    1.09140   0.98990   11.060
 4225.00    1.04923   0.95433   11.519
 4226.00    1.00732   0.92246   12.188
 4227.00    0.97428   0.90352   12.740
 4228.00    0.95856   0.90434   12.665
 4229.00    0.96312   0.92521   11.920
 4230.00    0.98132   0.95753   11.181
 4231.00    1.00224   0.98810   10.914
 4232.00    1.01593   1.00730   11.112
 4233.00    1.01713   1.01264   11.581
 4234.00    1.00757   1.00741   11.984
 4235.00    0.99305   0.99822   12.061
 4236.00    0.98077   0.99057   11.892
 4237.00    0.97599   0.98650   11.704
 4238.00    0.97999   0.98680   11.663
 4239.00    0.99048   0.99174   11.797
 4240.00    1.00261   1.00035   11.993
 4241.00    1.01243   1.01176   12.194
 4242.00    1.01904   1.02501   12.484
 4243.00    1.02405   1.03770   12.718
 4244.00    1.03016   1.04686   12.414
 4245.00    1.03498   1.05038   11.660
 4246.00    1.03037   1.04685   11.163
 4247.00    1.01557   1.03603   11.232
 4248.00    1.00074   1.02061   11.703
 4249.00    0.99278   1.00521   12.228
 4250.00    0.98990   0.99338   12.377
 4251.00    0.98778   0.98625   12.039
 4252.00    0.98283   0.98380   11.528
 4253.00    0.97431   0.98553   11.078
 4254.00    0.96519   0.98950   10.757
 4255.00    0.96244   0.99373   10.675
 4256.00    0.97462   0.99799   10.986
 4257.00    1.00326   1.00182   11.558
 4258.00    1.04102   1.00284   11.908
 4259.00    1.07580   0.99905   11.884
 4260.00    1.09605   0.99250   11.830
 4261.00    1.10206   0.98908   11.840
 4262.00    1.10444   0.99429   11.720
 4263.00    1.10938   1.00939   11.540
 4264.00    1.11596   1.03004   11.595
 4265.00    1.12098   1.04841   11.938
 4266.00    1.11971   1.05800   12.355
 4267.00    1.10456   1.05599   12.578
 4268.00    1.06941   1.04252   12.439
 4269.00    1.02034   1.02001   12.045
 4270.00    0.97193   0.99262   11.670
 4271.00    0.93357   0.96487   11.533
 4272.00    0.90933   0.94116   11.728
 4273.00    0.90407   0.92618   12.114
 4274.00    0.92016   0.92345   12.416
 4275.00    0.94892   0.93269   12.609
 4276.00    0.97683   0.95032   12.801
 4277.00    0.99951   0.97237   12.761
 4278.00    1.01872   0.99412   12.260
 4279.00    1.03290   1.01020   11.720
 4280.00    1.03921   1.01753   11.641
 4281.00    1.03911   1.01678   11.988
 4282.00    1.03536   1.01121   12.417
 4283.00    1.02644   1.00439   12.617
 4284.00    1.01094   0.99778   12.426
 4285.00    0.99454   0.99093   11.907
 4286.00    0.98457   0.98244   11.341
 4287.00    0.98196   0.97088   11.122
 4288.00    0.98438   0.95651   11.444
 4289.00    0.99143   0.94135   -2.000
 4290.00    1.00487   0.92880   -2.000
 4291.00    1.02770   0.92297   -2.000
 4292.00    1.06057   0.92641   -2.000
 4293.00    1.09795   0.93694   -2.000
 4294.00    1.12763   0.94792   -2.000
 4295.00    1.13209   0.95271   -2.000
 4296.00    1.10227   0.94830   -2.000
 4297.00    1.04931   0.93524   -2.000
 4298.00    0.98965   0.91509   -2.000
 4299.00    0.93104   0.89033   -2.000
 4300.00    0.87558   0.86530   -2.000
 4301.00    0.82364   0.84494   -2.000
 4302.00    0.77815   0.83307   -2.000
 4303.00    0.74681   0.82979   -2.000
 4304.00    0.73476   0.83140   11.898
 4305.00    0.73971   0.83403   12.015
 4306.00    0.75653   0.83482   12.239
 4307.00    0.78074   0.83231   12.540
 4308.00    0.80866   0.82831   12.823
 4309.00    0.83730   0.82693   12.948
 4310.00    0.86326   0.83201   12.834
 4311.00    0.88301   0.84528   12.526
 4312.00    0.89768   0.86513   12.103
 4313.00    0.91411   0.88846   11.644
 4314.00    0.93562   0.91348   11.386
 4315.00    0.95857   0.94015   11.683
 4316.00    0.98020   0.96838   12.486
 4317.00    1.00155   0.99621   13.025
 4318.00    1.02140   1.01910   12.845
 4319.00    1.03424   1.03160   12.503
 4320.00    1.03406   1.03146   12.386
 4321.00    1.01703   1.01989   12.376
 4322.00    0.98539   0.99906   12.364
 4323.00    0.94737   0.97155   12.407
 4324.00    0.91081   0.94114   12.619
 4325.00    0.88127   0.91282   13.075
 4326.00    0.86380   0.89328   13.527
 4327.00    0.86228   0.88826   13.428
 4328.00    0.87454   0.89854   12.764
 4329.00    0.89296   0.91834   12.078
 4330.00    0.91138   0.93806    0.000
 4331.00    0.92689   0.95043    0.000
 4332.00    0.93875   0.95355    0.000
 4333.00    0.94746   0.94890    0.000
 4334.00    0.95345   0.93717    0.000
 4335.00    0.95694   0.91656    0.000
 4336.00    0.95868   0.88475    0.000
 4337.00    0.96125   0.84129    0.000
 4338.00    0.97162   0.78922    0.000
 4339.00    0.99582   0.73636    0.000
 4340.00    1.02632   0.69392    0.000
 4341.00    1.04674   0.67112    0.000
 4342.00    1.04783   0.67197    0.000
 4343.00    1.02925   0.69509    0.000
 4344.00    0.99633   0.73372    0.000
 4345.00    0.95864   0.77826    0.000
 4346.00    0.92843   0.82143    0.000
 4347.00    0.91637   0.85929    0.000
 4348.00    0.92483   0.88888    0.000
 4349.00    0.94566   0.90807    0.000
 4350.00    0.95950   0.91662    0.000
 4351.00    0.95148   0.91639   11.749
 4352.00    0.93411   0.91180   12.239
 4353.00    0.93039   0.90956   12.510
 4354.00    0.94550   0.91581   12.428
 4355.00    0.97223   0.93171   12.139
 4356.00    1.00342   0.95257   11.802
 4357.00    1.03203   0.97248   11.555
 4358.00    1.04972   0.98822   11.538
 4359.00    1.05341   0.99958   11.800
 4360.00    1.05217   1.00859   12.165
 4361.00    1.05646   1.01835   12.366
 4362.00    1.06570   1.03072   12.310
 4363.00    1.07192   1.04445   12.102
 4364.00    1.06567   1.05614   11.959
 4365.00    1.04463   1.06276   12.005
 4366.00    1.02002   1.06291   12.128
 4367.00    1.00273   1.05676   12.165
 4368.00    0.99127   1.04620   12.099
 4369.00    0.98098   1.03472   12.105
 4370.00    0.97239   1.02557   12.514
 4371.00    0.96792   1.01939   13.288
 4372.00    0.96865   1.01408   13.463
 4373.00    0.97296   1.00748   12.627
 4374.00    0.97650   0.99971   11.926
 4375.00    0.97752   0.99338   11.929
 4376.00    0.97992   0.99222   12.115
 4377.00    0.98770   0.99844   12.084
 4378.00    1.00119   1.00996   12.217
 4379.00    1.01656   1.02020   12.701
 4380.00    1.02644   1.02150   12.972
 4381.00    1.02438   1.00933   12.740
 4382.00    1.00800   0.98448   12.573
 4383.00    0.98162   0.95265   12.775
 4384.00    0.95609   0.92244   12.993
 4385.00    0.94098   0.90252   12.870
 4386.00    0.94021   0.89844   12.472
 4387.00    0.95085   0.90952   12.174
 4388.00    0.96504   0.92912   12.411
 4389.00    0.98070   0.94939   13.144
 4390.00    1.00243   0.96591   13.649
 4391.00    1.02569   0.97830   13.422
 4392.00    1.03654   0.98764   12.783
 4393.00    1.03615   0.99500   12.148
 4394.00    1.04175   1.00139   11.720
 4395.00    1.05597   1.00764   11.667
 4396.00    1.06435   1.01430   12.137
 4397.00    1.06485   1.02136   12.917
 4398.00    1.07006   1.02741   13.342
 4399.00    1.08216   1.02983   13.247
 4400.00    1.09061   1.02671   13.170
 4401.00    1.08966   1.01876   13.256
 4402.00    1.08143   1.00843   13.215
 4403.00    1.06977   0.99782   13.067
 4404.00    1.05835   0.98787   13.101
 4405.00    1.05009   0.97911   13.287
 4406.00    1.04602   0.97314   13.339
 4407.00    1.04280   0.97284   13.257
 4408.00    1.03583   0.98007   13.272
 4409.00    1.02712   0.99364   13.374
 4410.00    1.02323   1.01038   13.362
 4411.00    1.02694   1.02689   13.191
 4412.00    1.03724   1.03927   12.973
 4413.00    1.05274   1.04349   12.826
 4414.00    1.07087   1.03811   12.835
 4415.00    1.08528   1.02614   13.047
 4416.00    1.09070   1.01378   13.425
 4417.00    1.09160   1.00752   13.731
 4418.00    1.09616   1.01105   13.678
 4419.00    1.10419   1.02278   13.316
 4420.00    1.10966   1.03676   12.924
 4421.00    1.10775   1.04710   12.733
 4422.00    1.09795   1.05097   12.825
 4423.00    1.08644   1.04913   13.044
 4424.00    1.07948   1.04489   13.190
 4425.00    1.07461   1.04167   13.334
 4426.00    1.06990   1.04093   13.581
 4427.00    1.07568   1.04176   13.689
 4428.00    1.09825   1.04230   13.426
 4429.00    1.12084   1.04144   13.047
 4430.00    1.12598   1.03891   12.891
 4431.00    1.12082   1.03467   12.988
 4432.00    1.11554   1.02868   13.193
 4433.00    1.10047   1.02143   13.294
 4434.00    1.06890   1.01459   13.231
 4435.00    1.03890   1.01047   13.261
 4436.00    1.02840   1.01159   13.510
 4437.00    1.03246   1.01963   13.603
 4438.00    1.03966   1.03319   13.293
 4439.00    1.04719   1.04724   12.994
 4440.00    1.05504   1.05540   13.016
 4441.00    1.06073   1.05404   13.132
 4442.00    1.06247   1.04483   13.053
 4443.00    1.06145   1.03366   12.804
 4444.00    1.05976   1.02723   12.565
 4445.00    1.05858   1.02940   12.506
 4446.00    1.05732   1.03936   12.631
 4447.00    1.05363   1.05269   12.724
 4448.00    1.04612   1.06416   12.604
 4449.00    1.03598   1.07022   12.311
 4450.00    1.02589   1.07022   11.986
 4451.00    1.01896   1.06522   11.761
 4452.00    1.01675   1.05584   11.652
 4453.00    1.01858   1.04233   11.572
 4454.00    1.02401   1.02582   11.551
 4455.00    1.03251   1.00826   11.779
 4456.00    1.03629   0.99219   12.266
 4457.00    1.02152   0.98001   12.713
 4458.00    0.98867   0.97284   12.961
 4459.00    0.95639   0.97007   13.197
 4460.00    0.93905   0.97009   13.458
 4461.00    0.93867   0.97212    0.000
 4462.00    0.95107   0.97669    0.000
 4463.00    0.96906   0.98433    0.000
 4464.00    0.98478   0.99408    0.000
 4465.00    0.99236   1.00376    0.000
 4466.00    0.99379   1.01090    0.000
 4467.00    0.99782   1.01372    0.000
 4468.00    1.00991   1.01261    0.000
 4469.00    1.03040   1.01016    0.000
 4470.00    1.05874   1.00972    0.000
 4471.00    1.09343   1.01401    0.000
 4472.00    1.12821   1.02421    0.000
 4473.00    1.15389   1.03950    0.000
 4474.00    1.16572   1.05715    0.000
 4475.00    1.16473   1.07366    0.000
 4476.00    1.15585   1.08590    0.000
 4477.00    1.14478   1.09139    0.000
 4478.00    1.13203   1.08852    0.000
 4479.00    1.11459   1.07718    0.000
 4480.00    1.09246   1.05969    0.000
 4481.00    1.06959   1.04106    0.000
 4482.00    1.05293   1.02790   12.915
 4483.00    1.05006   1.02550   13.033
 4484.00    1.06520   1.03470   13.314
 4485.00    1.09634   1.05103   13.161
 4486.00    1.13189   1.06698   12.721
 4487.00    1.15780   1.07585   12.522
 4488.00    1.16990   1.07503   12.676
 4489.00    1.17113   1.06677   13.025
 4490.00    1.16425   1.05607   13.377
 4491.00    1.15299   1.04754   13.575
 4492.00    1.14485   1.04323   13.596
 4493.00    1.14500   1.04234   13.517
 4494.00    1.14802   1.04288   13.407
 4495.00    1.14636   1.04375   13.292
 4496.00    1.14179   1.04571   13.146
 4497.00    1.13764   1.05023   12.981
 4498.00    1.12868   1.05789   12.934
 4499.00    1.11094   1.06766   13.094
 4500.00    1.09291   1.07775   13.320
 4501.00    1.08398   1.08728   13.442
 4502.00    1.08190   1.09693   13.503
 4503.00    1.08222   1.10764   13.603
 4504.00    1.08788   1.11906   13.711
 4505.00    1.10141   1.12920   13.766
 4506.00    1.11770   1.13572   13.795
 4507.00    1.13199   1.13742   13.776
 4508.00    1.14655   1.13510   13.561
 4509.00    1.16584   1.13097   13.175
 4510.00    1.19147   1.12669   12.947
 4511.00    1.21857   1.12230   13.034
 4512.00    1.23481   1.11670   13.185
 4513.00    1.23223   1.10909   13.235
 4514.00    1.21478   1.09991   13.406
 4515.00    1.19155   1.09079   13.766
 4516.00    1.17094   1.08369   13.890
 4517.00    1.15549   1.07981   13.583
 4518.00    1.14059   1.07908   13.282
 4519.00    1.12495   1.08043   13.284
 4520.00    1.11523   1.08219   13.446
 4521.00    1.11643   1.08242   13.537
 4522.00    1.12691   1.07945   13.435
 4523.00    1.14044   1.07235   13.255
 4524.00    1.14809   1.06105   13.279
 4525.00    1.14112   1.04627   13.558
 4526.00    1.11423   1.02932   13.825
 4527.00    1.07331   1.01206   14.028
 4528.00    1.03532   0.99671   14.417
 4529.00    1.01313   0.98539   14.603
 4530.00    1.00852   0.97944   13.761
 4531.00    1.01048   0.97870   13.088
 4532.00    1.00326   0.98156   14.581
 4533.00    0.99688   0.98609   15.751
 4534.00    1.01872   0.99166   10.651
 4535.00    1.04792   0.99933    6.686
 4536.00    1.02577   1.01070    5.540
 4537.00    0.96014   1.02587    5.714
 4538.00    0.92808   1.04238    6.052
 4539.00    0.98115   1.05640    5.985
 4540.00    1.10493   1.06502    5.832
 4541.00    1.19160   1.06791    5.798
 4542.00    1.11313   1.06688    5.814
 4543.00    0.92567   1.06417    5.850
 4544.00    0.82283   1.06094    5.927
 4545.00    0.89005   1.05706    5.976
 4546.00    1.05980   1.05187    5.892
 4547.00    1.15646   1.04505    5.772
 4548.00    1.03618   1.03704    5.795
 4549.00    0.85096   1.02896    5.943
 4550.00    0.87245   1.02225    0.000
 4551.00    1.03546   1.01786    0.000
 4552.00    1.08668   1.01570    0.000
 4553.00    1.03056   1.01510    0.000
 4554.00    1.02685   1.01573    0.000
 4555.00    1.06660   1.01842    0.000
 4556.00    1.04580   1.02462    0.000
 4557.00    0.97772   1.03514    0.000
 4558.00    0.94177   1.04909    0.000
 4559.00    0.95206   1.06390    0.000
 4560.00    0.98524   1.07633    0.000
 4561.00    1.04726   1.08370    0.000
 4562.00    1.13340   1.08484    0.000
 4563.00    1.16720   1.08045    0.000
 4564.00    1.09332   1.07313    0.000
 4565.00    0.99716   1.06659    0.000
 4566.00    0.98259   1.06411    0.000
 4567.00    1.01610   1.06678    0.000
 4568.00    1.02147   1.07290    0.000
 4569.00    1.00205   1.07904    0.000
 4570.00    0.99298   1.08224    0.000
 4571.00    0.99865   1.08184    0.000
 4572.00    1.00699   1.07956    0.000
 4573.00    1.01029   1.07802    0.000
 4574.00    1.01220   1.07869    0.000
 4575.00    1.02954   1.08094    0.000
 4576.00    1.06673   1.08258    0.000
 4577.00    1.09689   1.08126    0.000
 4578.00    1.09352   1.07569    0.000
 4579.00    1.05662   1.06610    0.000
 4580.00    1.00506   1.05404    0.000
 4581.00    0.96759   1.04186    0.000
 4582.00    0.97152   1.03179    0.000
 4583.00    1.03096   1.02530    0.000
 4584.00    1.12064   1.02288    0.000
 4585.00    1.17061   1.02434    0.000
 4586.00    1.14167   1.02913    0.000
 4587.00    1.06516   1.03632    0.000
 4588.00    0.99153   1.04442    0.000
 4589.00    0.95653   1.05143    0.000
 4590.00    0.97256   1.05545    0.000
 4591.00    1.02759   1.05553    0.000
 4592.00    1.10116   1.05216    0.000
 4593.00    1.17199   1.04700    0.000
 4594.00    1.21436   1.04203    0.000
 4595.00    1.20398   1.03867    0.000
 4596.00    1.15247   1.03738    0.000
 4597.00    1.10596   1.03787    0.000
 4598.00    1.07444   1.03937    0.000
 4599.00    1.02654   1.04105    0.000
 4600.00    0.98797   1.04234    0.000
 4601.00    1.03568   1.04319    0.000
 4602.00    1.13323   1.04405    0.000
 4603.00    1.13986   1.04560    0.000
 4604.00    1.05160   1.04844    0.000
 4605.00    1.00759   1.05310    0.000
 4606.00    1.03831   1.06002    0.000
 4607.00    1.04981   1.06920    0.000
 4608.00    1.02634   1.07979    0.000
 4609.00    1.03831   1.08993    0.000
 4610.00    1.08836   1.09740    0.000
 4611.00    1.11350   1.10073    0.000
 4612.00    1.10729   1.10006    0.000
 4613.00    1.11697   1.09696    0.000
 4614.00    1.15489   1.09342    0.000
 4615.00    1.18975   1.09072    0.000
 4616.00    1.17931   1.08901    0.000
 4617.00    1.10625   1.08776    0.000
 4618.00    1.03509   1.08650    0.000
 4619.00    1.05549   1.08547    0.000
 4620.00    1.14591   1.08539    0.000
 4621.00    1.20820   1.08685    0.000
 4622.00    1.18632   1.08964    0.000
 4623.00    1.09485   1.09271    0.000
 4624.00    1.02445   1.09474    0.000
 4625.00    1.05279   1.09487    0.000
 4626.00    1.10294   1.09305    0.000
 4627.00    1.06360   1.08995    0.000
 4628.00    1.00421   1.08652    0.000
 4629.00    1.04263   1.08356    0.000
 4630.00    1.11202   1.08142    0.000
 4631.00    1.08482   1.07984    0.000
 4632.00    0.98341   1.07804    0.000
 4633.00    0.91623   1.07509    0.000
 4634.00    0.95619   1.07054    0.000
 4635.00    1.09241   1.06464    0.000
 4636.00    1.20071   1.05811    0.000
 4637.00    1.17630   1.05179    0.000
 4638.00    1.07824   1.04639    0.000
 4639.00    1.01910   1.04257    0.000
 4640.00    1.03284   1.04077    0.000
 4641.00    1.08926   1.04078    0.000
 4642.00    1.12689   1.04144    0.000
 4643.00    1.10845   1.04078    0.000
 4644.00    1.06424   1.03690    0.000
 4645.00    1.03768   1.02912    0.000
 4646.00    1.03584   1.01863    0.000
 4647.00    1.04281   1.00836    0.000
 4648.00    1.03581   1.00175    0.000
 4649.00    1.00021   1.00118    0.000
 4650.00    0.94131   1.00685    0.000
 4651.00    0.89233   1.01662    0.000
 4652.00    0.90905   1.02707    0.000
 4653.00    0.99778   1.03515    0.000
 4654.00    1.08037   1.03954    0.000
 4655.00    1.08473   1.04123    0.000
 4656.00    1.00640   1.04286    0.000
 4657.00    0.92069   1.04717    0.000
 4658.00    0.95219   1.05524    0.000
 4659.00    1.07842   1.06558    0.000
 4660.00    1.09180   1.07472    0.000
 4661.00    0.97066   1.07890    0.000
 4662.00    0.97455   1.07582    0.000
 4663.00    1.15241   1.06536    0.000
 4664.00    1.21541   1.04912    0.000
 4665.00    1.07311   1.02946    0.000
 4666.00    0.97182   1.00912    0.000
 4667.00    1.01577   0.99119    0.000
 4668.00    1.04650   0.97901    0.000
 4669.00    1.00059   0.97512    0.000
 4670.00    0.98770   0.98002    0.000
 4671.00    1.03334   0.99162    0.000
 4672.00    1.03735   1.00623    0.000
 4673.00    0.97262   1.02029    0.000
 4674.00    0.91474   1.03173    0.000
 4675.00    0.90615   1.03991    0.000
 4676.00    0.92804   1.04487    0.000
 4677.00    0.95477   1.04653    0.000
 4678.00    0.97311   1.04480    0.000
 4679.00    0.98666   1.04022    0.000
 4680.00    1.00746   1.03431    0.000
 4681.00    1.03118   1.02926    0.000
 4682.00    1.04192   1.02691    0.000
 4683.00    1.04000   1.02793    0.000
 4684.00    1.03553   1.03154    0.000
 4685.00    1.01757   1.03607    0.000
 4686.00    0.97016   1.03984    0.000
 4687.00    0.92154   1.04180    0.000
 4688.00    0.92528   1.04180    0.000
 4689.00    0.99955   1.04039    0.000
 4690.00    1.11200   1.03845    0.000
 4691.00    1.17817   1.03696    0.000
 4692.00    1.13196   1.03674    0.000
 4693.00    1.04592   1.03819    0.000
 4694.00    1.03789   1.04095    0.000
 4695.00    1.08390   1.04373    0.000
 4696.00    1.09450   1.04467    0.000
 4697.00    1.07945   1.04220    0.000
 4698.00    1.08851   1.03581    0.000
 4699.00    1.09044   1.02647    0.000
 4700.00    1.03305   1.01613    0.000
 4701.00    0.94729   1.00680    0.000
 4702.00    0.90652   0.99991    0.000
 4703.00    0.95303   0.99605    0.000
 4704.00    1.05928   0.99500    0.000
 4705.00    1.10272   0.99592    0.000
 4706.00    1.00433   0.99764    0.000
 4707.00    0.87599   0.99925    0.000
 4708.00    0.85575   1.00060    0.000
 4709.00    0.92319   1.00237    0.000
 4710.00    0.99153   1.00532    0.000
 4711.00    1.01841   1.00949    0.000
 4712.00    1.00464   1.01406    0.000
 4713.00    0.97957   1.01808    0.000
 4714.00    0.96598   1.02152    0.000
 4715.00    0.95422   1.02546    0.000
 4716.00    0.93972   1.03138    0.000
 4717.00    0.95065   1.03997    0.000
 4718.00    1.00663   1.05052    0.000
 4719.00    1.08676   1.06128    0.000
 4720.00    1.14481   1.07040    0.000
 4721.00    1.13020   1.07673    0.000
 4722.00    1.04517   1.08005    0.000
 4723.00    0.96873   1.08067    0.000
 4724.00    0.96301   1.07871    0.000
 4725.00    1.01696   1.07370    0.000
 4726.00    1.07928   1.06492    0.000
 4727.00    1.08938   1.05230    0.000
 4728.00    1.02796   1.03726    0.000
 4729.00    0.93747   1.02259    0.000
 4730.00    0.88201   1.01143    0.000
 4731.00    0.91170   1.00588    0.000
 4732.00    0.99800   1.00621    0.000
 4733.00    1.03558   1.01095    0.000
 4734.00    0.99305   1.01774    0.000
 4735.00    0.95096   1.02444    0.000
 4736.00    0.96221   1.02989    0.000
 4737.00    1.00594   1.03409    0.000
 4738.00    1.05186   1.03764    0.000
 4739.00    1.08237   1.04110    0.000
 4740.00    1.07361   1.04452    0.000
 4741.00    1.00476   1.04770    0.000
 4742.00    0.91538   1.05054    0.000
 4743.00    0.88982   1.05317    0.000
 4744.00    0.94199   1.05582    0.000
 4745.00    1.01040   1.05859    0.000
 4746.00    1.06079   1.06138    0.000
 4747.00    1.09868   1.06391    0.000
 4748.00    1.11250   1.06576    0.000
 4749.00    1.07849   1.06643    0.000
 4750.00    1.01778   1.06544    0.000
 4751.00    0.98448   1.06244    0.000
 4752.00    0.99746   1.05746    0.000
 4753.00    1.03436   1.05104    0.000
 4754.00    1.05969   1.04425    0.000
 4755.00    1.04474   1.03836    0.000
 4756.00    0.99533   1.03443    0.000
 4757.00    0.94512   1.03284    0.000
 4758.00    0.92889   1.03297    0.000
 4759.00    0.96656   1.03332    0.000
 4760.00    1.04384   1.03198    0.000
 4761.00    1.11015   1.02747    6.440
 4762.00    1.08547   1.01944    6.530
 4763.00    0.94182   1.00901    6.638
 4764.00    0.82863   0.99837    6.673
 4765.00    0.90075   0.99002    6.579
 4766.00    1.02703   0.98596    6.437
 4767.00    1.00121   0.98704    6.366
 4768.00    0.90922   0.99271    6.395
 4769.00    0.93500   1.00126    6.487
 4770.00    1.02668   1.01055    6.586
 4771.00    1.04627   1.01898    6.631
 4772.00    1.01664   1.02604    6.603
 4773.00    1.02563   1.03227    6.522
 4774.00    1.07394   1.03841    6.441
 4775.00    1.11783   1.04464    6.410
 4776.00    1.13786   1.05039    6.444
 4777.00    1.13075   1.05468    6.525
 4778.00    1.09409   1.05665    6.606
 4779.00    1.04373   1.05594    6.633
 4780.00    1.02702   1.05273    6.588
 4781.00    1.06176   1.04756    6.504
 4782.00    1.08716   1.04115    6.459
 4783.00    1.05928   1.03428    6.499
 4784.00    1.03004   1.02769    6.585
 4785.00    1.05895   1.02192    6.645
 4786.00    1.13425   1.01732    6.642
 4787.00    1.17800   1.01415    6.622
 4788.00    1.07716   1.01267    6.716
 4789.00    0.85327   1.01325    6.938
 4790.00    0.73837   1.01634    7.048
 4791.00    0.83822   1.02223    6.910
 4792.00    0.95216   1.03077    6.757
 4793.00    0.94482   1.04109    6.730
 4794.00    0.94295   1.05148    6.701
 4795.00    1.01703   1.05973    6.602
 4796.00    1.03080   1.06392    6.574
 4797.00    0.92721   1.06323    6.684
 4798.00    0.84791   1.05847    6.809
 4799.00    0.87609   1.05184    6.820
 4800.00    0.93052   1.04592    6.707
 4801.00    0.94045   1.04242    6.583
 4802.00    0.92424   1.04144    6.598
 4803.00    0.93295   1.04161    6.705
 4804.00    1.00442   1.04108    6.646
 4805.00    1.08926   1.03869    6.428
 4806.00    1.06907   1.03460    6.360
 4807.00    0.95425   1.02998    6.506
 4808.00    0.89558   1.02632    6.621
 4809.00    0.92347   1.02457    6.575
 4810.00    0.91973   1.02492    6.495
 4811.00    0.87302   1.02693    6.478
 4812.00    0.89803   1.02993    6.518
 4813.00    0.99485   1.03346    6.589
 4814.00    1.04158   1.03740    6.661
 4815.00    1.02140   1.04179    6.680
 4816.00    1.02870   1.04659    6.597
 4817.00    1.07983   1.05136    6.473
 4818.00    1.10207   1.05526    6.430
 4819.00    1.05598   1.05713    6.480
 4820.00    0.96375   1.05583    6.550
 4821.00    0.89216   1.05071    6.614
 4822.00    0.90695   1.04219    6.686
 4823.00    0.97953   1.03190    6.700
 4824.00    1.02070   1.02226    6.585
 4825.00    1.00338   1.01541    6.473
 4826.00    0.96386   1.01220    6.548
 4827.00    0.94623   1.01185    6.725
 4828.00    0.97761   1.01258    6.755
 4829.00    1.04434   1.01271    6.639
 4830.00    1.10031   1.01150    6.569
 4831.00    1.09243   1.00926    6.626
 4832.00    1.00480   1.00692    6.759
 4833.00    0.92075   1.00536    6.808
 4834.00    0.93712   1.00490    6.669
 4835.00    1.01603   1.00509    6.548
 4836.00    1.05834   1.00494    6.652
 4837.00    1.04597   1.00344    6.787
 4838.00    1.01133   1.00004    6.670
 4839.00    0.96627   0.99495    6.516
 4840.00    0.91908   0.98909    6.625
 4841.00    0.90604   0.98363    6.860
 4842.00    0.94010   0.97951    6.919
 4843.00    0.95096   0.97712    6.822
 4844.00    0.89475   0.97611    6.754
 4845.00    0.87463   0.97555    6.761
 4846.00    0.96861   0.97422    6.807
 4847.00    1.04750   0.97118    6.853
 4848.00    0.99207   0.96622    0.000
 4849.00    0.91233   0.95981    0.000
 4850.00    0.92968   0.95252    0.000
 4851.00    0.96819   0.94438    0.000
 4852.00    0.94090   0.93455    0.000
 4853.00    0.91603   0.92182    0.000
 4854.00    0.95925   0.90538    0.000
 4855.00    1.00483   0.88524    0.000
 4856.00    0.98478   0.86195    0.000
 4857.00    0.92848   0.83594    0.000
 4858.00    0.88395   0.80735    0.000
 4859.00    0.85984   0.77680    0.000
 4860.00    0.86596   0.74666    0.000
 4861.00    0.93340   0.72144    0.000
 4862.00    1.04472   0.70650    0.000
 4863.00    1.10787   0.70573    0.000
 4864.00    1.08086   0.71951    0.000
 4865.00    1.02749   0.74449    0.000
 4866.00    0.99133   0.77494    0.000
 4867.00    0.93934   0.80488    0.000
 4868.00    0.85789   0.82976    0.000
 4869.00    0.79227   0.84731    0.000
 4870.00    0.77677   0.85769    0.000
 4871.00    0.80413   0.86309    0.000
 4872.00    0.85289   0.86684    0.000
 4873.00    0.90298   0.87207    0.000
 4874.00    0.94333   0.88062    0.000
 4875.00    0.97384   0.89264    7.046
 4876.00    1.00004   0.90703    6.998
 4877.00    1.02685   0.92223    7.019
 4878.00    1.04419   0.93675    7.064
 4879.00    1.02994   0.94928    7.016
 4880.00    0.97975   0.95868    6.924
 4881.00    0.91323   0.96413    6.971
 4882.00    0.85821   0.96539    7.140
 4883.00    0.84070   0.96296    7.209
 4884.00    0.87104   0.95789    7.131
 4885.00    0.93076   0.95150    7.088
 4886.00    0.94907   0.94499    7.188
 4887.00    0.85401   0.93919    7.405
 4888.00    0.72465   0.93454    7.592
 4889.00    0.72684   0.93145    7.561
 4890.00    0.84818   0.93072    7.355
 4891.00    0.93609   0.93386    7.182
 4892.00    0.94995   0.94252    7.101
 4893.00    0.95656   0.95730    7.054
 4894.00    0.98295   0.97690    6.992
 4895.00    1.00592   0.99811    6.917
 4896.00    1.00150   1.01695    6.893
 4897.00    0.96971   1.03025    6.971
 4898.00    0.95923   1.03656    7.022
 4899.00    1.01311   1.03644    6.887
 4900.00    1.06575   1.03194    6.719
 4901.00    1.02394   1.02568    6.742
 4902.00    0.93286   1.02000    6.850
 4903.00    0.89584   1.01645    6.814
 4904.00    0.90447   1.01555    6.714
 4905.00    0.90906   1.01666    6.730
 4906.00    0.95960   1.01817    6.748
 4907.00    1.11124   1.01812    6.595
 4908.00    1.26912   1.01511    6.426
 4909.00    1.30171   1.00919    6.434
 4910.00    1.21451   1.00205    6.509
 4911.00    1.08750   0.99630    6.484
 4912.00    0.96983   0.99413    6.487
 4913.00    0.87928   0.99603    6.656
 4914.00    0.81791   1.00029    6.779
 4915.00    0.79274   1.00357    6.638
 4916.00    0.83175   1.00215    6.472
 4917.00    0.93187   0.99355    6.525
 4918.00    1.01229   0.97780    6.673
 4919.00    1.00396   0.95769    6.711
 4920.00    0.93385   0.93784    6.677
 4921.00    0.86326   0.92305    6.687
 4922.00    0.82602   0.91650    6.733
 4923.00    0.83405   0.91900    6.759
 4924.00    0.88514   0.92928    6.733
 4925.00    0.95231   0.94513    6.679
 4926.00    0.98361   0.96413    6.682
 4927.00    0.96926   0.98401    6.772
 4928.00    0.97613   1.00250    6.855
 4929.00    1.03466   1.01742    6.860
 4930.00    1.07641   1.02690    6.835
 4931.00    1.05849   1.03000    6.809
 4932.00    1.03184   1.02695    6.714
 4933.00    1.03814   1.01916    6.568
 4934.00    1.05289   1.00870    6.523
 4935.00    1.03981   0.99758    6.647
 4936.00    0.98593   0.98719    6.847
 4937.00    0.91041   0.97849    6.996
 4938.00    0.85849   0.97239    7.040
 4939.00    0.85228   0.97014    7.000
 4940.00    0.87357   0.97288    0.000
 4941.00    0.90111   0.98080    0.000
 4942.00    0.92864   0.99253    0.000
 4943.00    0.96300   1.00566    0.000
 4944.00    1.01356   1.01770    0.000
 4945.00    1.05460   1.02708    0.000
 4946.00    1.03698   1.03357    0.000
 4947.00    0.99020   1.03796    0.000
 4948.00    1.01231   1.04126    0.000
 4949.00    1.09368   1.04395    0.000
 4950.00    1.11506   1.04575    0.000
 4951.00    1.05582   1.04584    0.000
 4952.00    1.00814   1.04310    0.000
 4953.00    0.99821   1.03648    0.000
 4954.00    0.97353   1.02541    0.000
 4955.00    0.93489   1.01056    0.000
 4956.00    0.93554   0.99398    0.000
 4957.00    0.97095   0.97880    0.000
 4958.00    0.98112   0.96857    0.000
 4959.00    0.93627   0.96581    0.000
 4960.00    0.86112   0.97066    0.000
 4961.00    0.83582   0.98060    0.000
 4962.00    0.93195   0.99154    0.000
 4963.00    1.07435   0.99970    0.000
 4964.00    1.11689   1.00295    0.000
 4965.00    1.06308   1.00121    0.000
 4966.00    1.01520   0.99614    0.000
 4967.00    0.98414   0.99018    0.000
 4968.00    0.92672   0.98562    0.000
 4969.00    0.88146   0.98397    0.000
 4970.00    0.91592   0.98574    0.000
 4971.00    0.99562   0.99056    0.000
 4972.00    1.03572   0.99736    0.000
 4973.00    1.02012   1.00466    0.000
 4974.00    0.98745   1.01080    0.000
 4975.00    0.97891   1.01420    0.000
 4976.00    1.00468   1.01374    0.000
 4977.00    1.01185   1.00891    0.000
 4978.00    0.95230   0.99969    0.000
 4979.00    0.87371   0.98650    0.000
 4980.00    0.84679   0.97036    0.000
 4981.00    0.86266   0.95286    0.000
 4982.00    0.87456   0.93614    0.000
 4983.00    0.86188   0.92287    0.000
 4984.00    0.83850   0.91562    0.000
 4985.00    0.84904   0.91581    0.000
 4986.00    0.91177   0.92297    0.000
 4987.00    0.96794   0.93485    0.000
 4988.00    0.96721   0.94818    0.000
 4989.00    0.94726   0.95998    0.000
 4990.00    0.95395   0.96843    0.000
 4991.00    0.96758   0.97331    0.000
 4992.00    0.95419   0.97573    0.000
 4993.00    0.91445   0.97704    0.000
 4994.00    0.88168   0.97816    0.000
 4995.00    0.90716   0.97920    0.000
 4996.00    0.98077   0.97937    0.000
 4997.00    0.99537   0.97753    0.000
 4998.00    0.91559   0.97278    0.000
 4999.00    0.86584   0.96499    0.000
 5000.00    0.90638   0.95497    0.000
 5001.00    0.91889   0.94408    0.000
 5002.00    0.84522   0.93356    0.000
 5003.00    0.80267   0.92425    0.000
 5004.00    0.86342   0.91675    0.000
 5005.00    0.95092   0.91158    0.000
 5006.00    0.99928   0.90925    0.000
 5007.00    1.02854   0.91008    0.000
 5008.00    1.06756   0.91365    0.000
 5009.00    1.11258   0.91832    0.000
 5010.00    1.12852   0.92170    0.000
 5011.00    1.06891   0.92164    0.000
 5012.00    0.95522   0.91742    0.000
 5013.00    0.87918   0.91004    0.000
 5014.00    0.86734   0.90154    0.000
 5015.00    0.85709   0.89409    0.000
 5016.00    0.82565   0.88926    0.000
 5017.00    0.81443   0.88759    0.000
 5018.00    0.83127   0.88877    0.000
 5019.00    0.83624   0.89205    0.000
 5020.00    0.81694   0.89691    0.000
 5021.00    0.80330   0.90298    0.000
 5022.00    0.83038   0.90989    0.000
 5023.00    0.90302   0.91714    0.000
 5024.00    0.93168   0.92405    0.000
 5025.00    0.80338   0.93003    0.000
 5026.00    0.62232   0.93488    0.000
 5027.00    0.62404   0.93886    0.000
 5028.00    0.78612   0.94269    0.000
 5029.00    0.88718   0.94734    7.328
 5030.00    0.89352   0.95345    7.239
 5031.00    0.92886   0.96062    7.180
 5032.00    0.99187   0.96736    7.167
 5033.00    0.98414   0.97167    7.251
 5034.00    0.90639   0.97199    7.371
 5035.00    0.84026   0.96760    7.407
 5036.00    0.82807   0.95864    7.378
 5037.00    0.85571   0.94594    7.389
 5038.00    0.86884   0.93096    7.439
 5039.00    0.82327   0.91576    7.469
 5040.00    0.76315   0.90308    7.480
 5041.00    0.76088   0.89570    7.505
 5042.00    0.80030   0.89575    7.515
 5043.00    0.82729   0.90383    7.463
 5044.00    0.85303   0.91823    7.383
 5045.00    0.90857   0.93496    7.342
 5046.00    0.96033   0.94939    7.364
 5047.00    0.95549   0.95807    7.419
 5048.00    0.89810   0.95977    7.420
 5049.00    0.83813   0.95571    7.338
 5050.00    0.84043   0.94898    7.315
 5051.00    0.91987   0.94314    7.458
 5052.00    0.97998   0.94079    7.595
 5053.00    0.94914   0.94289    7.519
 5054.00    0.92403   0.94895    7.328
 5055.00    0.99228   0.95760    7.207
 5056.00    1.05094   0.96722    7.187
 5057.00    1.00880   0.97651    7.225
 5058.00    0.97910   0.98475    7.278
 5059.00    1.05669   0.99153    7.307
 5060.00    1.12112   0.99628    7.281
 5061.00    1.05425   0.99807    7.232
 5062.00    0.92506   0.99597    7.278
 5063.00    0.84393   0.98980    7.451
 5064.00    0.83678   0.98043    7.576
 5065.00    0.87504   0.96935    7.536
 5066.00    0.91122   0.95859    7.487
 5067.00    0.92195   0.95011    7.546
 5068.00    0.92902   0.94487    7.610
 5069.00    0.94359   0.94248    7.587
 5070.00    0.93682   0.94194    7.551
 5071.00    0.89562   0.94232    7.558
 5072.00    0.85267   0.94279    7.559
 5073.00    0.85010   0.94280    7.521
 5074.00    0.90912   0.94231    7.491
 5075.00    0.98813   0.94113    7.505
 5076.00    0.98935   0.93844    7.542
 5077.00    0.90452   0.93330    7.554
 5078.00    0.85009   0.92571    7.497
 5079.00    0.87619   0.91667    7.424
 5080.00    0.90594   0.90785    7.472
 5081.00    0.88353   0.90122    7.634
 5082.00    0.83060   0.89861    7.719
 5083.00    0.79364   0.90081    7.661
 5084.00    0.80960   0.90714    7.617
 5085.00    0.86537   0.91611    7.671
 5086.00    0.90281   0.92608    7.771
 5087.00    0.89346   0.93575    7.853
 5088.00    0.85910   0.94428    7.891
 5089.00    0.84535   0.95152    7.890
 5090.00    0.88979   0.95779    7.882
 5091.00    0.95436   0.96328    7.905
 5092.00    0.95561   0.96768    7.988
 5093.00    0.91636   0.97021    8.091
 5094.00    0.94009   0.96983    8.143
 5095.00    1.01464   0.96561    8.189
 5096.00    1.02945   0.95737    8.342
 5097.00    0.96477   0.94622    8.491
 5098.00    0.89464   0.93459    8.385
 5099.00    0.87031   0.92520    8.101
 5100.00    0.89401   0.91993    7.919
 5101.00    0.92802   0.91928    7.898
 5102.00    0.93012   0.92231    7.926
 5103.00    0.92185   0.92697    7.926
 5104.00    0.95396   0.93094    7.887
 5105.00    1.00985   0.93251    7.869
 5106.00    1.02771   0.93128    7.944
 5107.00    0.97866   0.92796    8.098
 5108.00    0.88414   0.92386    8.233
 5109.00    0.81690   0.92080    8.204
 5110.00    0.83798   0.92014    7.962
 5111.00    0.89784   0.92241    7.710
 5112.00    0.91099   0.92753    7.656
 5113.00    0.89175   0.93479    7.749
 5114.00    0.89575   0.94320    7.817
 5115.00    0.90886   0.95180    7.797
 5116.00    0.89485   0.95954    7.722
 5117.00    0.87804   0.96532    7.627
 5118.00    0.89551   0.96818    7.548
 5119.00    0.92567   0.96735    7.528
 5120.00    0.92819   0.96240    7.576
 5121.00    0.90103   0.95340    7.626
 5122.00    0.86663   0.94141    7.609
 5123.00    0.84777   0.92822    7.543
 5124.00    0.84949   0.91566    7.478
 5125.00    0.84682   0.90523    7.428
 5126.00    0.82745   0.89783    7.382
 5127.00    0.82891   0.89368    7.316
 5128.00    0.87792   0.89262    7.245
 5129.00    0.93711   0.89427    7.254
 5130.00    0.96109   0.89798    7.379
 5131.00    0.94681   0.90307    7.528
 5132.00    0.91426   0.90905    7.605
 5133.00    0.88641   0.91534    7.632
 5134.00    0.87979   0.92068    7.645
 5135.00    0.89710   0.92386    7.608
 5136.00    0.91839   0.92420    7.525
 5137.00    0.90296   0.92153    7.492
 5138.00    0.84368   0.91687    7.557
 5139.00    0.79285   0.91136    7.643
 5140.00    0.79411   0.90570    7.677
 5141.00    0.84273   0.90101    7.664
 5142.00    0.91252   0.89811    7.632
 5143.00    0.97326   0.89660    7.583
 5144.00    0.99136   0.89581    7.528
 5145.00    0.93927   0.89537    7.494
 5146.00    0.84263   0.89506    7.493
 5147.00    0.78378   0.89496    7.518
 5148.00    0.80182   0.89491    7.558
 5149.00    0.85756   0.89470    7.613
 5150.00    0.89754   0.89433    7.705
 5151.00    0.89381   0.89378    7.859
 5152.00    0.88190   0.89333    7.989
 5153.00    0.93574   0.89386    7.925
 5154.00    1.01189   0.89631    7.732
 5155.00    0.96200   0.90132    7.686
 5156.00    0.80255   0.90877    7.833
 5157.00    0.72628   0.91769    7.954
 5158.00    0.79587   0.92667    7.923
 5159.00    0.89691   0.93383    7.823
 5160.00    0.93602   0.93732    7.762
 5161.00    0.90485   0.93611    7.783
 5162.00    0.86974   0.92952    7.802
 5163.00    0.90991   0.91673    7.694
 5164.00    0.96065   0.89738    7.585
 5165.00    0.87913   0.87225    7.719
 5166.00    0.72773   0.84380    7.986
 5167.00    0.70495   0.81586    8.005
 5168.00    0.79486   0.79192    7.847
 5169.00    0.81909   0.77364    7.904
 5170.00    0.75510   0.76134    8.177
 5171.00    0.71185   0.75561    8.343
 5172.00    0.71777   0.75720    8.287
 5173.00    0.72604   0.76591    8.158
 5174.00    0.71930   0.78080    8.081
 5175.00    0.71474   0.80055    8.062
 5176.00    0.73213   0.82284    7.952
 5177.00    0.77627   0.84420    7.660
 5178.00    0.81866   0.86090    7.473
 5179.00    0.82790   0.86974    7.668
 5180.00    0.82292   0.86868    7.982
 5181.00    0.83446   0.85781    7.929
 5182.00    0.83499   0.84071    7.690
 5183.00    0.78989   0.82335    7.686
 5184.00    0.74348   0.81108    7.839
 5185.00    0.75532   0.80730    7.880
 5186.00    0.80053   0.81269    7.881
 5187.00    0.82584   0.82549    8.021
 5188.00    0.83561   0.84198    8.183
 5189.00    0.85820   0.85712    8.164
 5190.00    0.89298   0.86721    0.000
 5191.00    0.91334   0.87166    0.000
 5192.00    0.88221   0.87179    0.000
 5193.00    0.81634   0.86956    0.000
 5194.00    0.83508   0.86748    0.000
 5195.00    0.97115   0.86767    0.000
 5196.00    1.01206   0.87101    0.000
 5197.00    0.84624   0.87732    0.000
 5198.00    0.74842   0.88545    0.000
 5199.00    0.90380   0.89360    0.000
 5200.00    1.03116   0.89991    0.000
 5201.00    0.91162   0.90282    0.000
 5202.00    0.78659   0.90093    0.000
 5203.00    0.86513   0.89366    0.000
 5204.00    0.97336   0.88205    0.000
 5205.00    0.94187   0.86820    0.000
 5206.00    0.86607   0.85431    0.000
 5207.00    0.84477   0.84298    0.000
 5208.00    0.82015   0.83676    0.000
 5209.00    0.76230   0.83705    0.000
 5210.00    0.76190   0.84388    0.000
 5211.00    0.84554   0.85589    7.945
 5212.00    0.89835   0.87037    7.872
 5213.00    0.86510   0.88420    7.703
 5214.00    0.83091   0.89523    7.676
 5215.00    0.84159   0.90291    7.827
 5216.00    0.83719   0.90810    7.882
 5217.00    0.79816   0.91229    7.764
 5218.00    0.79027   0.91674    7.760
 5219.00    0.83503   0.92188    7.949
 5220.00    0.87506   0.92697    8.058
 5221.00    0.88458   0.93014    7.968
 5222.00    0.89527   0.92919    7.878
 5223.00    0.90711   0.92260    7.882
 5224.00    0.87792   0.91021    7.885
 5225.00    0.81862   0.89412    7.856
 5226.00    0.79525   0.87855    7.871
 5227.00    0.81171   0.86753    7.930
 5228.00    0.80953   0.86323    7.951
 5229.00    0.79987   0.86578    7.930
 5230.00    0.85197   0.87316    7.952
 5231.00    0.92810   0.88217    8.014
 5232.00    0.91168   0.89037    8.027
 5233.00    0.82736   0.89677    7.975
 5234.00    0.81387   0.90182    7.920
 5235.00    0.88632   0.90676    7.894
 5236.00    0.94089   0.91270    7.888
 5237.00    0.92601   0.91995    7.897
 5238.00    0.87148   0.92810    7.910
 5239.00    0.85177   0.93620    7.890
 5240.00    0.92314   0.94309    7.806
 5241.00    1.01229   0.94797    7.728
 5242.00    0.99789   0.95088    7.753
 5243.00    0.91993   0.95196    7.847
 5244.00    0.90068   0.95076    7.894
 5245.00    0.91747   0.94690    7.872
 5246.00    0.87556   0.94089    7.839
 5247.00    0.81072   0.93355    7.844
 5248.00    0.81526   0.92542    7.896
 5249.00    0.85869   0.91756    7.945
 5250.00    0.86134   0.91149    7.933
 5251.00    0.85187   0.90804    7.876
 5252.00    0.89663   0.90708    7.813
 5253.00    0.96416   0.90819    7.726
 5254.00    0.98018   0.91142    7.621
 5255.00    0.92947   0.91691    7.632
 5256.00    0.84971   0.92398    7.844
 5257.00    0.80210   0.93124    8.048
 5258.00    0.81873   0.93676    7.989
 5259.00    0.84979   0.93835    7.811
 5260.00    0.84532   0.93402    7.753
 5261.00    0.84726   0.92281    7.796
 5262.00    0.89748   0.90532    7.824
 5263.00    0.93774   0.88353    7.807
 5264.00    0.90352   0.86046    7.764
 5265.00    0.82243   0.83961    7.705
 5266.00    0.75978   0.82315    7.639
 5267.00    0.75642   0.81099    7.572
 5268.00    0.80510   0.80284    7.478
 5269.00    0.84397   0.79969    7.294
 5270.00    0.84079   0.80209    7.038
 5271.00    0.84857   0.80912    6.861
 5272.00    0.88774   0.81953    6.837
 5273.00    0.87383   0.83218    6.872
 5274.00    0.78562   0.84622    6.848
 5275.00    0.75869   0.86138    6.737
 5276.00    0.85692   0.87704    6.595
 5277.00    0.94831   0.89181    6.525
 5278.00    0.94236   0.90424    6.555
 5279.00    0.91763   0.91316    6.602
 5280.00    0.94099   0.91810    6.613
 5281.00    0.97106   0.91933    6.641
 5282.00    0.95364   0.91814    6.716
 5283.00    0.88100   0.91709    6.790
 5284.00    0.80355   0.91880    6.833
 5285.00    0.80867   0.92429    6.886
 5286.00    0.89712   0.93310    6.977
 5287.00    0.96032   0.94410    7.082
 5288.00    0.95472   0.95573    7.157
 5289.00    0.94942   0.96620    7.165
 5290.00    0.98042   0.97385    7.132
 5291.00    1.00833   0.97772    7.142
 5292.00    1.00746   0.97771    7.209
 5293.00    0.99046   0.97401    7.266
 5294.00    0.96162   0.96657    7.298
 5295.00    0.91253   0.95547    7.361
 5296.00    0.86944   0.94191    7.428
 5297.00    0.88418   0.92836    7.401
 5298.00    0.95073   0.91730    7.320
 5299.00    1.00415   0.91009    7.336
 5300.00    1.00218   0.90743    7.423
 5301.00    0.94764   0.90981    7.411
 5302.00    0.87762   0.91689    7.334
 5303.00    0.84253   0.92722    7.386
 5304.00    0.86044   0.93871    7.551
 5305.00    0.91319   0.94950    7.617
 5306.00    0.96824   0.95857    7.517
 5307.00    0.99517   0.96574    7.376
 5308.00    0.99013   0.97110    7.332
 5309.00    0.97095   0.97476    7.455
 5310.00    0.95370   0.97674    7.636
 5311.00    0.94156   0.97702    7.681
 5312.00    0.91421   0.97562    7.642
 5313.00    0.85661   0.97263    7.701
 5314.00    0.81527   0.96805    7.809
 5315.00    0.84874   0.96228    7.790
 5316.00    0.92267   0.95645    7.691
 5317.00    0.95811   0.95155    7.670
 5318.00    0.94312   0.94788    7.707
 5319.00    0.91460   0.94532    7.697
 5320.00    0.89957   0.94323    7.663
 5321.00    0.90628   0.94040    7.676
 5322.00    0.92522   0.93546    7.712
 5323.00    0.93706   0.92789    7.724
 5324.00    0.92401   0.91800    7.768
 5325.00    0.88081   0.90558    7.890
 5326.00    0.82584   0.89053    7.955
 5327.00    0.78533   0.87519    7.853
 5328.00    0.77190   0.86365    7.771
 5329.00    0.77745   0.85857    7.873
 5330.00    0.77147   0.86025    7.971
 5331.00    0.74314   0.86791    7.863
 5332.00    0.74064   0.88034    7.755
 5333.00    0.80282   0.89537    7.836
 5334.00    0.89181   0.91006    7.901
 5335.00    0.94905   0.92189    7.754
 5336.00    0.95386   0.92951    7.602
 5337.00    0.91906   0.93225    7.633
 5338.00    0.87880   0.93023    7.716
 5339.00    0.85489   0.92510    7.701
 5340.00    0.83479   0.91970    7.687
 5341.00    0.81505   0.91606    7.755
 5342.00    0.82769   0.91471    7.785
 5343.00    0.87388   0.91536    7.697
 5344.00    0.88833   0.91735    7.615
 5345.00    0.84231   0.91992    7.663
 5346.00    0.79885   0.92226    7.835
 5347.00    0.79784   0.92366    8.016
 5348.00    0.79755   0.92457    8.015
 5349.00    0.78448   0.92637    7.835
 5350.00    0.81943   0.93006    7.741
 5351.00    0.90941   0.93591    7.823
 5352.00    0.96153   0.94383    7.871
 5353.00    0.93191   0.95356    7.813
 5354.00    0.88585   0.96412    7.861
 5355.00    0.89509   0.97414    8.043
 5356.00    0.97805   0.98264    8.055
 5357.00    1.07179   0.98888    7.838
 5358.00    1.06269   0.99216    7.714
 5359.00    0.96592   0.99205    7.787
 5360.00    0.93566   0.98847    7.845
 5361.00    0.99414   0.98192    7.779
 5362.00    0.99630   0.97327    7.709
 5363.00    0.91587   0.96333    7.719
 5364.00    0.88377   0.95301    7.789
 5365.00    0.93514   0.94312    7.864
 5366.00    0.97175   0.93385    7.891
 5367.00    0.94102   0.92492    7.883
 5368.00    0.87358   0.91583    7.906
 5369.00    0.81015   0.90666    7.986
 5370.00    0.77561   0.89895    8.083
 5371.00    0.77343   0.89497    8.105
 5372.00    0.79008   0.89608    7.981
 5373.00    0.81073   0.90210    7.835
 5374.00    0.82266   0.91190    7.858
 5375.00    0.81325   0.92366    7.983
 5376.00    0.78072   0.93542   -2.000
 5377.00    0.75940   0.94556   -2.000
 5378.00    0.79663   0.95261   -2.000
 5379.00    0.89042   0.95582   -2.000
 5380.00    1.00791   0.95566   -2.000
 5381.00    1.15022   0.95334   -2.000
 5382.00    1.31072   0.95027   -2.000
 5383.00    1.37390   0.94784   -2.000
 5384.00    1.22594   0.94661   -2.000
 5385.00    0.98190   0.94613   -2.000
 5386.00    0.85347   0.94575   -2.000
 5387.00    0.86070   0.94476   -2.000
 5388.00    0.89920   0.94238   -2.000
 5389.00    0.92360   0.93828   -2.000
 5390.00    0.93925   0.93280   -2.000
 5391.00    0.94632   0.92639    7.609
 5392.00    0.94104   0.91957    7.706
 5393.00    0.92845   0.91296    7.678
 5394.00    0.91632   0.90667    7.647
 5395.00    0.90526   0.90038    7.724
 5396.00    0.89446   0.89478    7.919
 5397.00    0.88961   0.89135    8.047
 5398.00    0.89448   0.89023    7.963
 5399.00    0.90093   0.89059    7.880
 5400.00    0.89852   0.89192    8.002
 5401.00    0.88589   0.89322    8.174
 5402.00    0.86889   0.89251    8.170
 5403.00    0.85683   0.88863    8.067
 5404.00    0.85434   0.88228    8.019
 5405.00    0.85471   0.87515    8.011
 5406.00    0.84705   0.86906    8.002
 5407.00    0.82458   0.86506    8.051
 5408.00    0.79570   0.86352    8.169
 5409.00    0.78844   0.86507    8.213
 5410.00    0.81472   0.87049    8.134
 5411.00    0.84791   0.87918    8.144
 5412.00    0.86988   0.88939    8.335
 5413.00    0.89942   0.89968    8.460
 5414.00    0.93831   0.90954    8.379
 5415.00    0.94423   0.91894    8.361
 5416.00    0.90775   0.92740    8.548
 5417.00    0.88673   0.93400    8.682
 5418.00    0.90371   0.93804    8.584
 5419.00    0.90139   0.93952    8.455
 5420.00    0.85492   0.93925    8.452
 5421.00    0.81932   0.93781    8.506
 5422.00    0.83171   0.93504    8.529
 5423.00    0.86820   0.93139    8.518
 5424.00    0.89896   0.92850    8.488
 5425.00    0.91566   0.92710    8.447
 5426.00    0.92440   0.92622    8.406
 5427.00    0.93750   0.92406    8.390
 5428.00    0.95540   0.91979    8.417
 5429.00    0.96357   0.91458    8.495
 5430.00    0.95218   0.90952    8.596
 5431.00    0.92418   0.90423    8.658
 5432.00    0.89420   0.89861    8.638
 5433.00    0.88103   0.89370    8.547
 5434.00    0.88366   0.89100    8.474
 5435.00    0.88115   0.89182    8.527
 5436.00    0.86063   0.89682    8.643
 5437.00    0.82927   0.90543    8.616
 5438.00    0.82057   0.91620    8.450
 5439.00    0.87033   0.92791    8.347
 5440.00    0.94434   0.93916    8.356
 5441.00    0.96355   0.94815    8.384
 5442.00    0.92778   0.95313    8.414
 5443.00    0.90568   0.95269    8.497
 5444.00    0.92304   0.94656    8.589
 5445.00    0.95623   0.93611    8.582
 5446.00    0.98627   0.92456    8.506
 5447.00    1.00609   0.91527    8.482
 5448.00    1.00698   0.90954    8.534
 5449.00    0.97952   0.90724    8.596
 5450.00    0.92225   0.90756    8.622
 5451.00    0.85551   0.90917    8.612
 5452.00    0.84180   0.91031    8.624
 5453.00    0.92391   0.90932    8.696
 5454.00    1.01085   0.90586    8.723
 5455.00    0.97939   0.90168    8.590
 5456.00    0.87706   0.89910    8.439
 5457.00    0.83296   0.89897    8.468
 5458.00    0.86253   0.90088    8.596
 5459.00    0.90349   0.90389    8.626
 5460.00    0.91703   0.90677    8.570
 5461.00    0.89878   0.90839    8.554
 5462.00    0.87139   0.90863    8.609
 5463.00    0.85959   0.90820    8.675
 5464.00    0.85969   0.90745    8.660
 5465.00    0.85481   0.90681    8.542
 5466.00    0.83896   0.90730    8.475
 5467.00    0.82331   0.90913    8.570
 5468.00    0.83692   0.91126    8.676
 5469.00    0.88817   0.91271    8.628
 5470.00    0.92809   0.91299    8.564
 5471.00    0.91296   0.91125    8.648
 5472.00    0.86771   0.90711    8.794
 5473.00    0.83859   0.90139    8.860
 5474.00    0.84165   0.89433    8.876
 5475.00    0.85968   0.88591    8.914
 5476.00    0.85044   0.87814    8.956
 5477.00    0.80865   0.87341    8.955
 5478.00    0.80385   0.87162    8.903
 5479.00    0.86291   0.87165    8.815
 5480.00    0.89514   0.87327    8.716
 5481.00    0.85276   0.87687    8.607
 5482.00    0.82950   0.88238    8.470
 5483.00    0.88052   0.88927    8.345
 5484.00    0.91791   0.89621    8.355
 5485.00    0.88561   0.90143    8.505
 5486.00    0.85469   0.90455   -2.000
 5487.00    0.87482   0.90670   -2.000
 5488.00    0.89883   0.90844   -2.000
 5489.00    0.89533   0.90937   -2.000
 5490.00    0.90434   0.90974   -2.000
 5491.00    0.97270   0.90984   -2.000
 5492.00    1.12171   0.90969   -2.000
 5493.00    1.36853   0.90990   -2.000
 5494.00    1.71939   0.91060   -2.000
 5495.00    2.08621   0.91073   -2.000
 5496.00    2.29172   0.90990   -2.000
 5497.00    2.26205   0.90916   -2.000
 5498.00    2.05939   0.90887   -2.000
 5499.00    1.66588   0.90804   -2.000
 5500.00    0.99531   0.90612   -2.000
 5501.00    0.27643   0.90351   -2.000
 5502.00    0.00646   0.90079   -2.000
 5503.00    0.26197   0.89823   -2.000
 5504.00    0.63001   0.89551   -2.000
 5505.00    0.81969   0.89234   -2.000
 5506.00    0.82695   0.88980   -2.000
 5507.00    0.77999   0.88882   -2.000
 5508.00    0.82150   0.88869   -2.000
 5509.00    0.92304   0.88848   -2.000
 5510.00    0.93144   0.88759   10.857
 5511.00    0.84106   0.88588   11.987
 5512.00    0.78056   0.88429   12.639
 5513.00    0.78573   0.88364   12.565
 5514.00    0.79729   0.88412   12.930
 5515.00    0.79796   0.88613   12.947
 5516.00    0.81383   0.89023   11.081
 5517.00    0.84253   0.89646    9.178
 5518.00    0.86208   0.90387    8.630
 5519.00    0.88282   0.91114    8.950
 5520.00    0.92522   0.91722    9.123
 5521.00    0.95699   0.92143    8.941
 5522.00    0.93433   0.92339    8.873
 5523.00    0.89708   0.92286    8.941
 5524.00    0.91238   0.91967    8.907
 5525.00    0.95094   0.91416    8.859
 5526.00    0.94337   0.90705    9.010
 5527.00    0.90237   0.89974    9.222
 5528.00    0.88076   0.89421    9.216
 5529.00    0.88001   0.89147    9.084
 5530.00    0.87428   0.89098    9.086
 5531.00    0.86328   0.89214    9.249
 5532.00    0.86190   0.89443    9.431
 5533.00    0.87644   0.89709    9.455
 5534.00    0.90053   0.89970    9.265
 5535.00    0.91510   0.90231    9.058
 5536.00    0.90418   0.90449    9.030
 5537.00    0.87289   0.90632    9.158
 5538.00    0.84161   0.90869    9.297
 5539.00    0.83560   0.91187    9.304
 5540.00    0.86478   0.91519    9.171
 5541.00    0.90673   0.91776    9.094
 5542.00    0.93551   0.91902    9.177
 5543.00    0.94961   0.91925    9.206
 5544.00    0.95615   0.91901    9.038
 5545.00    0.95504   0.91867    8.933
 5546.00    0.94532   0.91894    9.108
 5547.00    0.93065   0.92037    9.416
 5548.00    0.91062   0.92277    9.599
 5549.00    0.87704   0.92574    9.561
 5550.00    0.84166   0.92855    9.405
 5551.00    0.84763   0.93022    9.345
 5552.00    0.90065   0.93033    9.443
 5553.00    0.93499   0.92898    9.493
 5554.00    0.91506   0.92665    9.395
 5555.00    0.88962   0.92391    9.362
 5556.00    0.90050   0.92105    9.510
 5557.00    0.93112   0.91846    9.672
 5558.00    0.94945   0.91644    9.684
 5559.00    0.93799   0.91478    9.581
 5560.00    0.91142   0.91306    9.496
 5561.00    0.91258   0.91078    9.545
 5562.00    0.94840   0.90785    9.695
 5563.00    0.97241   0.90474    9.749
 5564.00    0.95691   0.90143    9.678
 5565.00    0.91946   0.89794    9.694
 5566.00    0.88398   0.89490    9.817
 5567.00    0.86264   0.89251    9.793
 5568.00    0.85602   0.89068    9.631
 5569.00    0.85750   0.88984    9.642
 5570.00    0.86853   0.88990    9.807
 5571.00    0.89630   0.88983    9.731
 5572.00    0.92481   0.89007    9.455
 5573.00    0.92091   0.89159    9.443
 5574.00    0.88961   0.89371    9.726
 5575.00    0.87271   0.89594    9.864
 5576.00    0.88522   0.89864    9.697
 5577.00    0.90779   0.90123    9.497
 5578.00    0.92540   0.90370    9.418
 5579.00    0.93468   0.90618    9.426
 5580.00    0.93156   0.90731    9.477
 5581.00    0.91291   0.90656    9.541
 5582.00    0.88964   0.90460    9.564
 5583.00    0.87966   0.90093    9.500
 5584.00    0.88321   0.89485    9.414
 5585.00    0.88233   0.88637    9.425
 5586.00    0.85412   0.87616    9.533
 5587.00    0.79389   0.86595    9.631
 5588.00    0.75453   0.85745    9.613
 5589.00    0.79428   0.85167    9.449
 5590.00    0.86107   0.84894    9.259
 5591.00    0.85606   0.84906    9.200
 5592.00    0.79084   0.85164    9.298
 5593.00    0.74838   0.85614    9.460
 5594.00    0.76464   0.86212    9.519
 5595.00    0.81951   0.86854    9.374
 5596.00    0.85849   0.87301    9.201
 5597.00    0.84049   0.87447    9.188
 5598.00    0.80178   0.87407    9.186
 5599.00    0.80793   0.87263    8.985
 5600.00    0.87217   0.87037    8.738
 5601.00    0.96202   0.86793    8.659
 5602.00    1.02555   0.86657    8.645
 5603.00    1.02127   0.86829    8.527
 5604.00    0.95134   0.87384    8.392
 5605.00    0.86100   0.88201    8.356
 5606.00    0.82706   0.89129    8.321
 5607.00    0.87835   0.90071    8.208
 5608.00    0.92108   0.90934    8.209
 5609.00    0.87546   0.91611    8.468
 5610.00    0.81280   0.92004    8.758
 5611.00    0.81622   0.92075    8.812
 5612.00    0.84335   0.91812    8.785
 5613.00    0.83866   0.91170    8.907
 5614.00    0.83768   0.90226    9.125
 5615.00    0.87601   0.89280    9.283
 5616.00    0.91260   0.88542    9.339
 5617.00    0.90469   0.87985    9.361
 5618.00    0.86779   0.87582    9.484
 5619.00    0.83457   0.87385    9.703
 5620.00    0.82079   0.87450    9.755
 5621.00    0.82882   0.87720    9.555
 5622.00    0.85176   0.87928    9.442
 5623.00    0.87445   0.87873    9.591
 5624.00    0.87721   0.87703    9.759
 5625.00    0.85614   0.87642    9.767
 5626.00    0.83065   0.87713    9.803
 5627.00    0.81444   0.87888    9.981
 5628.00    0.80240   0.88200   10.115
 5629.00    0.79463   0.88659   10.066
 5630.00    0.80485   0.89226    9.924
 5631.00    0.83462   0.89762    9.804
 5632.00    0.86662   0.90100    9.734
 5633.00    0.89653   0.90194    9.690
 5634.00    0.93708   0.90083    9.633
 5635.00    0.96758   0.89777    9.590
 5636.00    0.93422   0.89325    9.655
 5637.00    0.84486   0.88851    9.841
 5638.00    0.77883   0.88441   10.041
 5639.00    0.76930   0.88090   10.126
 5640.00    0.77893   0.87798   10.040
 5641.00    0.78248   0.87636    9.926
 5642.00    0.78691   0.87627   10.015
 5643.00    0.79359   0.87735   10.235
 5644.00    0.79379   0.87925   10.236
 5645.00    0.79638   0.88158   10.048
 5646.00    0.82392   0.88434   10.054
 5647.00    0.87441   0.88735   10.301
 5648.00    0.92054   0.88988   10.487
 5649.00    0.93954   0.89175   10.482
 5650.00    0.92401   0.89341   10.423
 5651.00    0.88673   0.89464   10.426
 5652.00    0.85305   0.89462   10.502
 5653.00    0.83947   0.89271   10.546
 5654.00    0.84427   0.88939   10.441
 5655.00    0.83969   0.88552   10.284
 5656.00    0.80264   0.88018   10.265
 5657.00    0.78065   0.87268   10.342
 5658.00    0.83627   0.86541   10.353
 5659.00    0.91274   0.86064   10.360
 5660.00    0.90752   0.85783   10.492
 5661.00    0.85506   0.85616   10.522
 5662.00    0.85405   0.85608   10.235
 5663.00    0.88438   0.85859   10.154
 5664.00    0.87103   0.86340   10.863
 5665.00    0.83771   0.86831   11.868
 5666.00    0.85026   0.87165   11.882
 5667.00    0.89391   0.87433   11.202
 5668.00    0.91208   0.87749   10.928
 5669.00    0.88899   0.88085   11.244
 5670.00    0.85295   0.88399   11.739
 5671.00    0.86064   0.88749   11.621
 5672.00    0.93427   0.89180   10.699
 5673.00    0.99279   0.89635   10.072
 5674.00    0.95961   0.90038   10.424
 5675.00    0.89218   0.90383   11.209
 5676.00    0.87703   0.90647   11.397
 5677.00    0.90189   0.90748   11.088
 5678.00    0.91980   0.90656   10.885
 5679.00    0.92704   0.90425   10.786
 5680.00    0.92967   0.90082   10.722
 5681.00    0.90636   0.89622   11.038
 5682.00    0.84043   0.89107   12.017
 5683.00    0.75079   0.88637   13.289
 5684.00    0.67540   0.88252   14.315
 5685.00    0.65168   0.87915   -1.000
 5686.00    0.68982   0.87612   15.939
 5687.00    0.75635   0.87435   12.769
 5688.00    0.80641   0.87479    8.950
 5689.00    0.81232   0.87717    7.614
 5690.00    0.78522   0.88047    8.334
 5691.00    0.77792   0.88448    9.876
 5692.00    0.80847   0.88895   10.358
 5693.00    0.82302   0.89327   10.100
 5694.00    0.78792   0.89680   10.171
 5695.00    0.73885   0.89892   10.456
 5696.00    0.71853   0.89902   10.646
 5697.00    0.73929   0.89697   10.800
 5698.00    0.78974   0.89350   10.878
 5699.00    0.84231   0.88917   10.583
 5700.00    0.86773   0.88412   10.211
 5701.00    0.84862   0.87909   10.605
 5702.00    0.80768   0.87487   11.886
 5703.00    0.80149   0.87146   12.645
 5704.00    0.83390   0.86812   12.127
 5705.00    0.84270   0.86410   11.807
 5706.00    0.80804   0.85971   12.312
 5707.00    0.77886   0.85520   12.887
 5708.00    0.79264   0.85064   12.682
 5709.00    0.84592   0.84680   11.754
 5710.00    0.90731   0.84411   10.917
 5711.00    0.93351   0.84350   10.864
 5712.00    0.90494   0.84627   11.347
 5713.00    0.83777   0.85179   11.296
 5714.00    0.78150   0.85905   10.576
 5715.00    0.79186   0.86738   10.057
 5716.00    0.85553   0.87570    9.999
 5717.00    0.90343   0.88352   10.155
 5718.00    0.91085   0.89070   10.282
 5719.00    0.90321   0.89664   10.272
 5720.00    0.89559   0.90146   10.174
 5721.00    0.88782   0.90553   10.128
 5722.00    0.89250   0.90871   10.198
 5723.00    0.92491   0.91094   10.347
 5724.00    0.96522   0.91214   10.459
 5725.00    0.97689   0.91178   10.424
 5726.00    0.96390   0.90999   10.345
 5727.00    0.95926   0.90788   10.399
 5728.00    0.97685   0.90599   10.515
 5729.00    1.00489   0.90390   10.498
 5730.00    1.01353   0.90139   10.397
 5731.00    0.98134   0.89956   10.393
 5732.00    0.93697   0.89954   10.484
 5733.00    0.92171   0.90079   10.552
 5734.00    0.91807   0.90210   10.571
 5735.00    0.88838   0.90294   10.561
 5736.00    0.85067   0.90378   10.480
 5737.00    0.84610   0.90487   10.314
 5738.00    0.87589   0.90560   10.214
 5739.00    0.91520   0.90559   10.305
 5740.00    0.94447   0.90502    0.000
 5741.00    0.95517   0.90415    0.000
 5742.00    0.95107   0.90333    0.000
 5743.00    0.93804   0.90311    0.000
 5744.00    0.91263   0.90347    0.000
 5745.00    0.87351   0.90369    0.000
 5746.00    0.83485   0.90285    0.000
 5747.00    0.81364   0.90114    0.000
 5748.00    0.81509   0.89976    0.000
 5749.00    0.83588   0.89878    0.000
 5750.00    0.86866   0.89696    0.000
 5751.00    0.90100   0.89363    0.000
 5752.00    0.91567   0.88968    0.000
 5753.00    0.90609   0.88680    0.000
 5754.00    0.88798   0.88593    0.000
 5755.00    0.88386   0.88634    0.000
 5756.00    0.90778   0.88709    0.000
 5757.00    0.95101   0.88816    0.000
 5758.00    0.97714   0.88947    0.000
 5759.00    0.96038   0.89046    0.000
 5760.00    0.91120   0.89028    0.000
 5761.00    0.85986   0.88853    0.000
 5762.00    0.83985   0.88639    0.000
 5763.00    0.86100   0.88562    0.000
 5764.00    0.89849   0.88654    0.000
 5765.00    0.92663   0.88873    0.000
 5766.00    0.93741   0.89212    0.000
 5767.00    0.93006   0.89641    0.000
 5768.00    0.90693   0.90074    0.000
 5769.00    0.88586   0.90388    0.000
 5770.00    0.89724   0.90500    0.000
 5771.00    0.93948   0.90444    0.000
 5772.00    0.96938   0.90304    0.000
 5773.00    0.95710   0.90106    0.000
 5774.00    0.90943   0.89882    0.000
 5775.00    0.85889   0.89672    0.000
 5776.00    0.84654   0.89464    0.000
 5777.00    0.87559   0.89216    0.000
 5778.00    0.90956   0.88855    0.000
 5779.00    0.93268   0.88305    0.000
 5780.00    0.96015   0.87600    0.000
 5781.00    0.99391   0.86870    0.000
 5782.00    1.01333   0.86194    0.000
 5783.00    0.99661   0.85570    0.000
 5784.00    0.93989   0.85039    0.000
 5785.00    0.89115   0.84782    0.000
 5786.00    0.92073   0.84909    0.000
 5787.00    1.01222   0.85296    0.000
 5788.00    1.07400   0.85781    0.000
 5789.00    1.05240   0.86265    0.000
 5790.00    0.95835   0.86767    0.000
 5791.00    0.85489   0.87315    0.000
 5792.00    0.81320   0.87819    0.000
 5793.00    0.82223   0.88241    0.000
 5794.00    0.82075   0.88601    0.000
 5795.00    0.81046   0.88893    0.000
 5796.00    0.83271   0.89118    0.000
 5797.00    0.87265   0.89318    0.000
 5798.00    0.88444   0.89569    0.000
 5799.00    0.87487   0.89860    0.000
 5800.00    0.88410   0.90107   -2.000
 5801.00    0.92372   0.90289   -2.000
 5802.00    0.98138   0.90426   -2.000
 5803.00    1.04659   0.90506   -2.000
 5804.00    1.10215   0.90493   -2.000
 5805.00    1.10631   0.90383   -2.000
 5806.00    1.03386   0.90225   -2.000
 5807.00    0.93627   0.90061   -2.000
 5808.00    0.88516   0.89926   -2.000
 5809.00    0.88529   0.89887   -2.000
 5810.00    0.90412   0.89937   -2.000
 5811.00    0.92409   0.89998   -2.000
 5812.00    0.93170   0.90021   -2.000
 5813.00    0.89963   0.89975   -2.000
 5814.00    0.82631   0.89853   -2.000
 5815.00    0.77668   0.89692   -2.000
 5816.00    0.80615   0.89587   -2.000
 5817.00    0.88076   0.89608   -2.000
 5818.00    0.93805   0.89721   -2.000
 5819.00    0.95514   0.89890    0.000
 5820.00    0.94306   0.90126    0.000
 5821.00    0.93188   0.90412    0.000
 5822.00    0.93594   0.90679    0.000
 5823.00    0.92979   0.90863    0.000
 5824.00    0.89649   0.90972    0.000
 5825.00    0.86359   0.91022    0.000
 5826.00    0.85921   0.91029    0.000
 5827.00    0.87858   0.91028    0.000
 5828.00    0.90389   0.91051    0.000
 5829.00    0.92089   0.91078    0.000
 5830.00    0.92259   0.91067    0.000
 5831.00    0.91041   0.91027    0.000
 5832.00    0.88981   0.90965    0.000
 5833.00    0.86786   0.90857    0.000
 5834.00    0.85562   0.90717    0.000
 5835.00    0.86504   0.90603    0.000
 5836.00    0.88367   0.90522    0.000
 5837.00    0.87357   0.90438    0.000
 5838.00    0.83882   0.90391    0.000
 5839.00    0.83928   0.90448    0.000
 5840.00    0.88419   0.90589    0.000
 5841.00    0.90547   0.90720    0.000
 5842.00    0.87701   0.90794    0.000
 5843.00    0.84874   0.90825    0.000
 5844.00    0.85357   0.90793    0.000
 5845.00    0.87710   0.90642    0.000
 5846.00    0.90223   0.90362    0.000
 5847.00    0.92403   0.90004    0.000
 5848.00    0.93600   0.89620    0.000
 5849.00    0.92945   0.89226    0.000
 5850.00    0.91004   0.88804    0.000
 5851.00    0.89706   0.88329    0.000
 5852.00    0.90228   0.87818    0.000
 5853.00    0.92333   0.87346    0.000
 5854.00    0.94574   0.86924    0.000
 5855.00    0.95044   0.86462    0.000
 5856.00    0.93257   0.85927    0.000
 5857.00    0.90498   0.85472    0.000
 5858.00    0.89247   0.85271    0.000
 5859.00    0.91375   0.85284    0.000
 5860.00    0.94232   0.85368    0.000
 5861.00    0.93058   0.85471    0.000
 5862.00    0.88722   0.85705    0.000
 5863.00    0.86165   0.86107    0.000
 5864.00    0.87087   0.86519    0.000
 5865.00    0.89668   0.86805    0.000
 5866.00    0.91397   0.86994    0.000
 5867.00    0.90753   0.87225    0.000
 5868.00    0.89161   0.87521    0.000
 5869.00    0.89241   0.87780    0.000
 5870.00    0.91074   0.87955    0.000
 5871.00    0.92922   0.88085    0.000
 5872.00    0.93575   0.88199    0.000
 5873.00    0.92838   0.88256    0.000
 5874.00    0.91605   0.88207    0.000
 5875.00    0.91002   0.88044    0.000
 5876.00    0.91156   0.87810    0.000
 5877.00    0.91891   0.87555    0.000
 5878.00    0.93835   0.87269    0.000
 5879.00    0.96922   0.86941    0.000
 5880.00    0.98466   0.86617    0.000
 5881.00    0.96180   0.86335    0.000
 5882.00    0.91927   0.86014    0.000
 5883.00    0.89195   0.85554    0.000
 5884.00    0.89630   0.84948    0.000
 5885.00    0.91964   0.84186    0.000
 5886.00    0.91740   0.83152    0.000
 5887.00    0.86476   0.81659    0.000
 5888.00    0.80330   0.79662    0.000
 5889.00    0.78309   0.77484    0.000
 5890.00    0.80603   0.75631    0.000
 5891.00    0.84597   0.74243    0.000
 5892.00    0.87278   0.73172    0.000
 5893.00    0.86926   0.72386    0.000
 5894.00    0.84215   0.71999    0.000
 5895.00    0.80901   0.72193    0.000
 5896.00    0.78633   0.72942    0.000
 5897.00    0.78191   0.73967    0.000
 5898.00    0.79118   0.75054    0.000
 5899.00    0.80652   0.76209    0.000
 5900.00    0.82394   0.77656    0.000
 5901.00    0.84345   0.79431   11.173
 5902.00    0.86715   0.81129   11.105
 5903.00    0.88806   0.82458   11.063
 5904.00    0.88854   0.83472   11.082
 5905.00    0.86890   0.84253   11.166
 5906.00    0.85571   0.84833   11.286
 5907.00    0.86006   0.85249   11.391
 5908.00    0.86281   0.85510   11.423
 5909.00    0.85316   0.85649   11.374
 5910.00    0.84290   0.85747   11.299
 5911.00    0.84204   0.85807   11.262
 5912.00    0.84880   0.85732   11.290
 5913.00    0.85749   0.85500   11.318
 5914.00    0.86415   0.85246   11.216
 5915.00    0.87450   0.85059   11.005
 5916.00    0.89969   0.84927   10.858
 5917.00    0.92913   0.84831   10.840
 5918.00    0.93268   0.84834   10.884
 5919.00    0.90382   0.85008   10.963
 5920.00    0.86644   0.85263   11.103
 5921.00    0.84574   0.85506   11.220
 5922.00    0.85273   0.85718   11.160
 5923.00    0.86850   0.85901   11.037
 5924.00    0.85990   0.86049   11.136
 5925.00    0.83674   0.86122   11.389
 5926.00    0.83916   0.86115   11.437
 5927.00    0.86069   0.86058   11.275
 5928.00    0.85856   0.85938   11.223
 5929.00    0.83162   0.85767   11.338
 5930.00    0.81561   0.85637   11.446
 5931.00    0.82511   0.85570   11.516
 5932.00    0.84857   0.85506   11.640
 5933.00    0.86845   0.85425   11.787
 5934.00    0.87355   0.85416   11.835
 5935.00    0.87382   0.85566   11.786
 5936.00    0.88627   0.85756   11.757
 5937.00    0.90305   0.85863   11.841
 5938.00    0.90666   0.85930   12.033
 5939.00    0.90739   0.86000   12.110
 5940.00    0.92314   0.86045   11.892
 5941.00    0.93541   0.86040   11.697
 5942.00    0.91574   0.86021   11.882
 5943.00    0.87768   0.86007   12.164
 5944.00    0.85368   0.85977   12.055
 5945.00    0.84928   0.85957   11.807
 5946.00    0.85193   0.85958   11.862
 5947.00    0.85265   0.85899   12.010
 5948.00    0.84829   0.85765   11.908
 5949.00    0.84069   0.85653   11.861
 5950.00    0.83650   0.85552   12.207
 5951.00    0.84632   0.85352   12.494
 5952.00    0.87302   0.85099   12.162
 5953.00    0.90011   0.84980   11.648
 5954.00    0.91335   0.85014   11.484
 5955.00    0.92280   0.85015   11.543
 5956.00    0.93558   0.84943   11.542
 5957.00    0.92954   0.84969   11.495
 5958.00    0.88975   0.85166   11.551
 5959.00    0.84152   0.85412   11.783
 5960.00    0.81281   0.85628   12.159
 5961.00    0.80115   0.85870   12.494
 5962.00    0.80132   0.86155   12.526
 5963.00    0.82655   0.86421   12.094
 5964.00    0.87440   0.86596   11.425
 5965.00    0.90590   0.86692   11.040
 5966.00    0.90097   0.86775   11.097
 5967.00    0.89191   0.86861   11.214
 5968.00    0.90274   0.86942   11.094
 5969.00    0.91300   0.87024   10.943
 5970.00    0.90625   0.87127   10.982
 5971.00    0.89741   0.87229   11.185
 5972.00    0.89852   0.87256   11.468
 5973.00    0.90008   0.87174   11.791
 5974.00    0.88957   0.86976   12.092
 5975.00    0.86362   0.86671   12.251
 5976.00    0.83344   0.86313   12.183
 5977.00    0.82195   0.85965   11.914
 5978.00    0.83706   0.85659   11.622
 5979.00    0.86288   0.85415   11.539
 5980.00    0.88138   0.85243   11.645
 5981.00    0.88250   0.85119   11.657
 5982.00    0.86280   0.84972   11.565
 5983.00    0.82719   0.84787   11.704
 5984.00    0.79867   0.84641   12.104
 5985.00    0.80876   0.84562   12.338
 5986.00    0.84796   0.84494   12.244
 5987.00    0.86730   0.84460   12.132
 5988.00    0.84999   0.84567   12.195
 5989.00    0.82204   0.84831   12.358
 5990.00    0.80091   0.85108   12.482
 5991.00    0.78484   0.85337   12.461
 5992.00    0.77434   0.85594   12.372
 5993.00    0.77436   0.85856   12.404
 5994.00    0.78074   0.86007   12.566
 5995.00    0.78369   0.86024   12.702
 5996.00    0.78756   0.85974   12.744
 5997.00    0.80446   0.85893   12.752
 5998.00    0.82515   0.85759   12.760
 5999.00    0.82766   0.85585   12.766
 6000.00    0.81497   0.85399   12.800
 6001.00    0.80904   0.85198   12.898
 6002.00    0.81779   0.85016   13.017
 6003.00    0.83316   0.84907   13.075
 6004.00    0.84306   0.84827   13.082
 6005.00    0.84273   0.84684   13.099
 6006.00    0.85070   0.84456   13.074
 6007.00    0.88612   0.84233   12.918
 6008.00    0.92382   0.84134   12.686
 6009.00    0.92455   0.84142   12.501
 6010.00    0.89856   0.84146   12.414
 6011.00    0.88095   0.84096   12.376
 6012.00    0.87576   0.84064   12.246
 6013.00    0.86552   0.84145   11.996
 6014.00    0.83932   0.84243   11.952
 6015.00    0.80201   0.84181   12.368
 6016.00    0.77940   0.84012   12.819
 6017.00    0.79141   0.83903   12.681
 6018.00    0.81784   0.83853   12.232
 6019.00    0.82719   0.83745   12.051
 6020.00    0.81681   0.83615   12.238
 6021.00    0.80406   0.83588   12.523
 6022.00    0.80915   0.83649   12.364
 6023.00    0.83700   0.83724   11.643
 6024.00    0.86272   0.83877   11.105
 6025.00    0.86642   0.84157   11.195
 6026.00    0.86648   0.84481   11.488
 6027.00    0.87870   0.84824   11.505
 6028.00    0.87892   0.85210   11.573
 6029.00    0.84749   0.85606   12.036
 6030.00    0.80830   0.85940   12.474
 6031.00    0.79300   0.86237   12.455
 6032.00    0.80848   0.86539   12.408
 6033.00    0.83987   0.86789   12.715
 6034.00    0.85875   0.86949   13.019
 6035.00    0.85182   0.87059   12.933
 6036.00    0.83775   0.87150   12.694
 6037.00    0.83713   0.87193   12.623
 6038.00    0.85188   0.87166   12.771
 6039.00    0.87377   0.87099   13.012
 6040.00    0.89231   0.87030   13.109
 6041.00    0.90358   0.86970   12.973
 6042.00    0.91342   0.86950   12.786
 6043.00    0.92587   0.86980   12.678
 6044.00    0.93744   0.87044   12.592
 6045.00    0.94339   0.87141   12.439
 6046.00    0.94126   0.87277   12.189
 6047.00    0.93113   0.87421   11.922
 6048.00    0.91546   0.87508   11.790
 6049.00    0.89826   0.87541   11.822
 6050.00    0.88351   0.87529   11.895
 6051.00    0.87031   0.87430   11.939
 6052.00    0.85426   0.87224   11.998
 6053.00    0.84153   0.86981   12.069
 6054.00    0.84704   0.86740   12.066
 6055.00    0.86619   0.86468   11.977
 6056.00    0.87436   0.86198   11.891
 6057.00    0.86423   0.86019   11.925
 6058.00    0.85117   0.85951   12.153
 6059.00    0.84555   0.85924   12.455
 6060.00    0.84620   0.85892   12.567
 6061.00    0.84976   0.85861   12.541
 6062.00    0.85473   0.85825   12.689
 6063.00    0.86391   0.85734   12.930
 6064.00    0.87996   0.85562   12.859
 6065.00    0.89181   0.85431   12.593
 6066.00    0.88336   0.85473   12.612
 6067.00    0.86444   0.85647   12.852
 6068.00    0.86159   0.85877   12.834
 6069.00    0.87790   0.86204   12.548
 6070.00    0.89566   0.86666   12.359
 6071.00    0.90431   0.87137   12.335
 6072.00    0.90412   0.87471   12.320
 6073.00    0.90032   0.87649   12.316
 6074.00    0.89864   0.87711   12.409
 6075.00    0.89939   0.87650   12.498
 6076.00    0.89846   0.87437   12.413
 6077.00    0.89146   0.87065   12.243
 6078.00    0.87743   0.86621   12.169
 6079.00    0.86346   0.86203   12.121
 6080.00    0.85940   0.85783   11.953
 6081.00    0.86807   0.85336   11.790
 6082.00    0.88472   0.84978   11.821
 6083.00    0.89897   0.84790   11.983
 6084.00    0.90130   0.84669   12.119
 6085.00    0.89139   0.84540   12.257
 6086.00    0.87451   0.84490   12.489
 6087.00    0.85528   0.84543   12.718
 6088.00    0.83948   0.84564   12.793
 6089.00    0.83640   0.84504   12.767
 6090.00    0.84839   0.84478   12.777
 6091.00    0.85996   0.84518   12.870
 6092.00    0.85887   0.84538   13.022
 6093.00    0.85849   0.84562   13.167
 6094.00    0.87382   0.84690   13.251
 6095.00    0.89621   0.84887   13.284
 6096.00    0.91129   0.85029   13.292
 6097.00    0.91744   0.85106   13.264
 6098.00    0.91440   0.85160   13.221
 6099.00    0.89353   0.85138   13.261
 6100.00    0.85589   0.84921   13.372
 6101.00    0.82509   0.84478   13.308
 6102.00    0.82042   0.83992   12.965
 6103.00    0.83673   0.83700   12.618
 6104.00    0.86130   0.83567   12.466
 6105.00    0.88695   0.83449   12.429
 6106.00    0.90830   0.83424   12.422
 6107.00    0.91925   0.83685   12.511
 6108.00    0.91850   0.84174   12.671
 6109.00    0.91226   0.84621   12.658
 6110.00    0.90862   0.84900   12.365
 6111.00    0.91207   0.85113   11.997
 6112.00    0.91293   0.85371   11.794
 6113.00    0.88841   0.85605   11.885
 6114.00    0.83942   0.85681   12.212
 6115.00    0.80134   0.85605   12.498
 6116.00    0.79701   0.85505   12.607
 6117.00    0.81737   0.85386   12.708
 6118.00    0.84560   0.85129   12.899
 6119.00    0.86929   0.84708   13.046
 6120.00    0.88110   0.84211   13.075
 6121.00    0.87913   0.83718   13.077
 6122.00    0.86810   0.83322   13.155
 6123.00    0.85690   0.83090   13.344
 6124.00    0.84786   0.82958   13.539
 6125.00    0.83402   0.82908   13.547
 6126.00    0.80451   0.83036   13.391
 6127.00    0.75456   0.83328   13.304
 6128.00    0.71083   0.83622   13.311
 6129.00    0.71781   0.83853   13.221
 6130.00    0.76995   0.84037   12.973
 6131.00    0.81528   0.84125   12.692
 6132.00    0.82953   0.84073   12.539
 6133.00    0.82540   0.83884   12.610
 6134.00    0.81644   0.83522   12.775
 6135.00    0.80636   0.82922   12.771
 6136.00    0.78913   0.82169   12.615
 6137.00    0.75889   0.81546   12.565
 6138.00    0.73277   0.81227   12.753
 6139.00    0.73798   0.81094   13.104
 6140.00    0.77122   0.81052   13.277
 6141.00    0.80729   0.81296   12.890
 6142.00    0.83649   0.81944   12.107
 6143.00    0.86218   0.82687   11.362
 6144.00    0.88029   0.83200   10.821
 6145.00    0.88311   0.83552   10.480
 6146.00    0.87341   0.83906   10.328
 6147.00    0.85913   0.84159   10.371
 6148.00    0.83998   0.84169   10.623
 6149.00    0.81357   0.84016   11.066
 6150.00    0.78856   0.83850   11.539
 6151.00    0.77779   0.83702   11.842
 6152.00    0.78473   0.83544   12.023
 6153.00    0.80432   0.83359   12.266
 6154.00    0.82753   0.83176   12.571
 6155.00    0.84631   0.83006   12.819
 6156.00    0.85903   0.82745   12.951
 6157.00    0.86476   0.82289   13.004
 6158.00    0.85596   0.81694   13.094
 6159.00    0.82929   0.81008   13.272
 6160.00    0.79797   0.80133   13.370
 6161.00    0.77571   0.79120   13.261
 6162.00    0.75899   0.78254   13.150
 6163.00    0.74556   0.77649   13.115
 6164.00    0.75277   0.77182   12.713
 6165.00    0.78774   0.76887   11.786
 6166.00    0.82085   0.76960   10.932
 6167.00    0.82585   0.77308   10.551
 6168.00    0.81532   0.77588   10.555
 6169.00    0.80888   0.77775   10.741
 6170.00    0.80527   0.78104   10.957
 6171.00    0.79730   0.78513   11.160
 6172.00    0.78504   0.78766   11.461
 6173.00    0.77069   0.78993   11.896
 6174.00    0.75549   0.79419   12.236
 6175.00    0.74930   0.79900   12.323
 6176.00    0.77247   0.80245   12.362
 6177.00    0.82099   0.80559   12.534
 6178.00    0.85214   0.80913   12.761
 6179.00    0.83996   0.81196   12.950
 6180.00    0.80429   0.81413   13.146
 6181.00    0.77472   0.81640   13.355
 6182.00    0.76752   0.81809   13.444
 6183.00    0.78109   0.81846   13.393
 6184.00    0.79813   0.81801   13.371
 6185.00    0.80648   0.81654   13.396
 6186.00    0.80700   0.81331   13.265
 6187.00    0.79988   0.80899   13.015
 6188.00    0.78118   0.80463   12.975
 6189.00    0.75703   0.79981   13.204
 6190.00    0.74403   0.79424   13.380
 6191.00    0.74460   0.78995   13.322
 6192.00    0.74417   0.78879   13.163
 6193.00    0.74078   0.78938   12.897
 6194.00    0.74934   0.79017   12.355
 6195.00    0.77494   0.79248   11.667
 6196.00    0.80695   0.79711   11.161
 6197.00    0.83317   0.80163   10.966
 6198.00    0.84562   0.80411   11.035
 6199.00    0.84261   0.80556   11.288
 6200.00    0.82745   0.80740   11.656
 6201.00    0.80316   0.80924   12.157
 6202.00    0.77394   0.81033   12.848
 6203.00    0.75345   0.81129   13.468
 6204.00    0.75995   0.81319   13.467
 6205.00    0.79792   0.81567   -2.000
 6206.00    0.85608   0.81750   -2.000
 6207.00    0.91465   0.81825   -2.000
 6208.00    0.95159   0.81808   -2.000
 6209.00    0.95239   0.81682   -2.000
 6210.00    0.91629   0.81417   -2.000
 6211.00    0.86379   0.81016   -2.000
 6212.00    0.82312   0.80483   -2.000
 6213.00    0.80087   0.79856   -2.000
 6214.00    0.79121   0.79223   -2.000
 6215.00    0.80287   0.78658   -2.000
 6216.00    0.84122   0.78195   -2.000
 6217.00    0.87005   0.77857   10.587
 6218.00    0.84521   0.77630   10.829
 6219.00    0.77863   0.77521   11.386
 6220.00    0.71529   0.77570   12.060
 6221.00    0.68204   0.77719   12.731
 6222.00    0.68346   0.77843   13.329
 6223.00    0.70788   0.77940   13.667
 6224.00    0.73800   0.78086   13.611
 6225.00    0.76373   0.78231   13.373
 6226.00    0.78051   0.78263   13.224
 6227.00    0.78533   0.78182   13.164
 6228.00    0.78189   0.78023   13.072
 6229.00    0.78576   0.77757   12.896
 6230.00    0.80627   0.77450   12.682
 6231.00    0.82727   0.77249   12.554
 6232.00    0.82735   0.77149   12.626
 6233.00    0.80327   0.77132   12.925
 6234.00    0.77278   0.77285   13.296
 6235.00    0.77174   0.77578   13.319
 6236.00    0.81799   0.77847   12.774
 6237.00    0.88224   0.78029   12.035
 6238.00    0.92210   0.78084   11.491
 6239.00    0.91435   0.77961   11.243
 6240.00    0.86090   0.77727   11.318
 6241.00    0.78900   0.77439   11.776
 6242.00    0.73011   0.77074   12.569
 6243.00    0.70319   0.76746   13.333
 6244.00    0.71060   0.76593   13.694
 6245.00    0.73767   0.76528   13.725
 6246.00    0.76443   0.76497   13.673
 6247.00    0.77518   0.76615   13.649
 6248.00    0.76864   0.76843   13.667
 6249.00    0.76023   0.77024   13.683
 6250.00    0.75972   0.77136   13.654
 6251.00    0.76049   0.77152   13.560
 6252.00    0.75344   0.77017   13.438
 6253.00    0.73500   0.76769   13.367
 6254.00    0.70726   0.76455   13.366
 6255.00    0.67801   0.76077   13.375
 6256.00    0.66130   0.75717   13.358
 6257.00    0.67367   0.75478   13.346
 6258.00    0.71668   0.75422   13.369
 6259.00    0.77256   0.75554   13.427
 6260.00    0.81938   0.75805   13.508
 6261.00    0.84101   0.76167   13.574
 6262.00    0.83954   0.76713   13.499
 6263.00    0.83281   0.77330   13.145
 6264.00    0.82799   0.77795   12.685
 6265.00    0.81767   0.78172   12.477
 6266.00    0.79982   0.78576   12.595
 6267.00    0.78183   0.78855   12.826
 6268.00    0.77074   0.78933   12.926
 6269.00    0.76920   0.79002   12.758
 6270.00    0.77333   0.79147   12.429
 6271.00    0.77564   0.79259   12.164
 6272.00    0.77460   0.79320   12.025
 6273.00    0.77377   0.79395   11.959
 6274.00    0.77233   0.79493   12.060
 6275.00    0.76590   0.79564   12.498
 6276.00    0.75419   0.79573   13.143
 6277.00    0.74199   0.79524   13.580
 6278.00    0.73668   0.79439   13.682
 6279.00    0.74432   0.79311   13.681
 6280.00    0.76286   0.79175    0.000
 6281.00    0.78298   0.79107    0.000
 6282.00    0.79314   0.79117    0.000
 6283.00    0.78816   0.79185    0.000
 6284.00    0.78261   0.79335    0.000
 6285.00    0.79560   0.79579    0.000
 6286.00    0.82077   0.79877    0.000
 6287.00    0.83803   0.80169    0.000
 6288.00    0.84146   0.80392    0.000
 6289.00    0.83618   0.80533    0.000
 6290.00    0.82661   0.80597    0.000
 6291.00    0.81632   0.80568    0.000
 6292.00    0.81026   0.80429    0.000
 6293.00    0.81122   0.80207    0.000
 6294.00    0.81500   0.79948    0.000
 6295.00    0.81543   0.79640    0.000
 6296.00    0.81132   0.79287    0.000
 6297.00    0.80560   0.78969    0.000
 6298.00    0.80279   0.78716    0.000
 6299.00    0.80492   0.78467    0.000
 6300.00    0.80773   0.78215    0.000
 6301.00    0.80537   0.78059    0.000
 6302.00    0.79604   0.78078    0.000
 6303.00    0.78299   0.78205    0.000
 6304.00    0.77427   0.78336    0.000
 6305.00    0.77394   0.78536    0.000
 6306.00    0.77562   0.78900    0.000
 6307.00    0.77706   0.79308    0.000
 6308.00    0.79014   0.79590    0.000
 6309.00    0.81336   0.79764    0.000
 6310.00    0.81495   0.79879    0.000
 6311.00    0.78245   0.79889    0.000
 6312.00    0.75395   0.79768    0.000
 6313.00    0.76061   0.79500    0.000
 6314.00    0.78819   0.79120    0.000
 6315.00    0.80833   0.78786    0.000
 6316.00    0.80297   0.78531    0.000
 6317.00    0.77452   0.78200    0.000
 6318.00    0.74633   0.77902    0.000
 6319.00    0.73271   0.77885    0.000
 6320.00    0.72590   0.78030    0.000
 6321.00    0.72291   0.78139   14.217
 6322.00    0.73586   0.78376   14.194
 6323.00    0.76594   0.78834   14.155
 6324.00    0.79436   0.79296   13.954
 6325.00    0.80587   0.79641   13.680
 6326.00    0.80006   0.79959   13.620
 6327.00    0.78860   0.80289   13.749
 6328.00    0.78821   0.80546   13.685
 6329.00    0.79759   0.80659   13.467
 6330.00    0.79701   0.80663   13.608
 6331.00    0.78475   0.80645   14.128
 6332.00    0.78184   0.80593   14.390
 6333.00    0.79570   0.80408   14.232
 6334.00    0.81222   0.80092   14.220
 6335.00    0.81657   0.79765   14.547
 6336.00    0.80294   0.79524   14.870
 6337.00    0.78127   0.79307   15.013
 6338.00    0.77156   0.79048   15.110
 6339.00    0.78057   0.78899   15.144
 6340.00    0.79997   0.78957   14.953
 6341.00    0.82106   0.79045   14.702
 6342.00    0.83759   0.79018   14.734
 6343.00    0.84153   0.78995   14.975
 6344.00    0.82663   0.79052   15.029
 6345.00    0.79958   0.79080   14.857
 6346.00    0.77701   0.79045   14.725
 6347.00    0.77220   0.79084   14.650
 6348.00    0.78783   0.79277   14.481
 6349.00    0.80804   0.79483   14.299
 6350.00    0.81208   0.79627   14.270
 6351.00    0.80428   0.79780   14.260
 6352.00    0.80162   0.79903   14.063
 6353.00    0.79964   0.79849   13.940
 6354.00    0.78600   0.79626   14.239
 6355.00    0.77505   0.79356   14.630
 6356.00    0.78945   0.79020   14.480
 6357.00    0.82053   0.78516   13.967
 6358.00    0.84211   0.77947   13.685
 6359.00    0.84212   0.77501   13.830
 6360.00    0.82538   0.77115   14.270
 6361.00    0.80953   0.76690   14.577
 6362.00    0.80924   0.76397   14.435
 6363.00    0.81662   0.76380   14.279
 6364.00    0.81784   0.76519   14.567
 6365.00    0.81662   0.76737   14.880
 6366.00    0.82119   0.77116   14.612
 6367.00    0.82605   0.77659   14.083
 6368.00    0.82497   0.78226   13.779
 6369.00    0.82673   0.78725   13.543
 6370.00    0.83953   0.79190   13.098
 6371.00    0.85436   0.79661   12.515
 6372.00    0.86285   0.80068   12.010
 6373.00    0.87437   0.80346   11.734
 6374.00    0.89417   0.80551   11.709
 6375.00    0.90429   0.80757   11.798
 6376.00    0.89048   0.80897   11.859
 6377.00    0.86471   0.80880   11.884
 6378.00    0.84407   0.80780   11.970
 6379.00    0.83228   0.80692   12.261
 6380.00    0.82319   0.80572   12.764
 6381.00    0.80638   0.80412   13.198
 6382.00    0.78120   0.80307   13.370
 6383.00    0.76331   0.80259   13.523
 6384.00    0.76204   0.80231   13.817
 6385.00    0.76726   0.80280   13.993
 6386.00    0.76642   0.80373   13.959
 6387.00    0.75639   0.80412   14.121
 6388.00    0.74525   0.80415   14.653
 6389.00    0.74913   0.80419   15.134
 6390.00    0.77020   0.80365   15.272
 6391.00    0.78944   0.80193   15.367
 6392.00    0.79259   0.79929   15.510
 6393.00    0.78284   0.79682   15.292
 6394.00    0.77421   0.79524   14.749
 6395.00    0.78336   0.79360   14.495
 6396.00    0.80923   0.79173   14.692
 6397.00    0.83145   0.79142   14.887
 6398.00    0.84213   0.79203   14.797
 6399.00    0.85380   0.79152   14.570
 6400.00    0.87522   0.79144   14.199
 6401.00    0.90275   0.79303   13.474
 6402.00    0.92548   0.79405   12.503
 6403.00    0.93053   0.79428   11.633
 6404.00    0.91382   0.79639   11.077
 6405.00    0.88283   0.79923   10.905
 6406.00    0.85281   0.79990   11.095
 6407.00    0.83883   0.79911   11.543
 6408.00    0.83648   0.79890   12.069
 6409.00    0.82779   0.79858   12.450
 6410.00    0.81400   0.79644   12.712
 6411.00    0.81133   0.79410   13.102
 6412.00    0.81511   0.79388   13.612
 6413.00    0.80445   0.79389   13.979
 6414.00    0.77762   0.79263   14.236
 6415.00    0.75324   0.79215   14.664
 6416.00    0.75159   0.79267   15.116
 6417.00    0.78075   0.79234   15.134
 6418.00    0.81720   0.79151   14.856
 6419.00    0.82482   0.79088   14.771
 6420.00    0.80111   0.79010   14.846
 6421.00    0.76997   0.79003   14.735
 6422.00    0.74990   0.79129   14.440
 6423.00    0.74857   0.79288   14.203
 6424.00    0.76434   0.79483   14.108
 6425.00    0.78799   0.79805   14.068
 6426.00    0.80544   0.80143   13.890
 6427.00    0.80440   0.80313   13.498
 6428.00    0.78410   0.80345   13.188
 6429.00    0.75559   0.80283   13.237
 6430.00    0.73929   0.80108   13.444
 6431.00    0.75118   0.79907   13.482
 6432.00    0.78501   0.79733   13.488
 6433.00    0.82064   0.79547   13.767
 6434.00    0.83895   0.79418   14.284
 6435.00    0.83706   0.79455   14.671
 6436.00    0.84167   0.79567   14.401
 6437.00    0.87359   0.79606   13.437
 6438.00    0.90853   0.79598   12.524
 6439.00    0.91091   0.79707   12.196
 6440.00    0.87412   0.79919   12.418
 6441.00    0.81622   0.80061   12.995
 6442.00    0.76955   0.80214   13.738
 6443.00    0.75777   0.80548   14.400
 6444.00    0.77688   0.80874   14.674
 6445.00    0.81083   0.80973   14.454
 6446.00    0.84653   0.80925   14.010
 6447.00    0.87188   0.80771   13.606
 6448.00    0.87429   0.80396   13.265
 6449.00    0.84904   0.79858   12.981
 6450.00    0.80520   0.79394   12.839
 6451.00    0.75922   0.79013   12.891
 6452.00    0.72819   0.78633   13.087
 6453.00    0.71735   0.78439   13.349
 6454.00    0.71516   0.78535   13.605
 6455.00    0.71515   0.78696   13.697
 6456.00    0.72724   0.78892   13.385
 6457.00    0.76010   0.79157   12.729
 6458.00    0.80952   0.79337   12.116
 6459.00    0.85549   0.79446   11.801
 6460.00    0.86726   0.79589   11.836
 6461.00    0.83621   0.79614   12.232
 6462.00    0.78755   0.79501   13.005
 6463.00    0.75240   0.79476   14.001
 6464.00    0.74987   0.79498   14.761
 6465.00    0.77084   0.79418   15.040
 6466.00    0.78228   0.79459   15.141
 6467.00    0.77538   0.79720   15.171
 6468.00    0.77473   0.79923   14.847
 6469.00    0.79165   0.80031   14.269
 6470.00    0.81189   0.80132   13.904
 6471.00    0.82248   0.80175   13.810
 6472.00    0.82087   0.80168   13.653
 6473.00    0.81009   0.80148   13.327
 6474.00    0.79740   0.80060   13.032
 6475.00    0.79562   0.79999   12.882
 6476.00    0.81743   0.80052   12.866
 6477.00    0.85693   0.80019   12.982
 6478.00    0.89368   0.79869   13.209
 6479.00    0.92014   0.79779   13.294
 6480.00    0.94094   0.79677   12.920
 6481.00    0.94967   0.79411   12.323
 6482.00    0.93216   0.79136   12.003
 6483.00    0.88997   0.78984   12.053
 6484.00    0.83841   0.78831   12.309
 6485.00    0.78767   0.78665   12.765
 6486.00    0.74184   0.78620   13.528
 6487.00    0.70650   0.78649   14.403
 6488.00    0.68916   0.78582   14.909
 6489.00    0.69631   0.78345   14.989
 6490.00    0.72758   0.77948   15.013
 6491.00    0.76638   0.77401   15.169
 6492.00    0.79001   0.76643   15.383
 6493.00    0.79064   0.75663   15.430
 6494.00    0.77419   0.74664   15.149
 6495.00    0.75155   0.73822   14.758
 6496.00    0.73213   0.73124   14.541
 6497.00    0.71657   0.72633   14.433
 6498.00    0.70270   0.72528   14.254
 6499.00    0.69574   0.72818   14.075
 6500.00    0.70184   0.73386   14.000
 6501.00    0.71729   0.74151   13.849
 6502.00    0.73362   0.74986   13.518
 6503.00    0.74601   0.75847   13.381
 6504.00    0.75472   0.76670   13.747
 6505.00    0.76484   0.77359   14.255
 6506.00    0.77816   0.77905   14.339
 6507.00    0.78512   0.78301   14.105
 6508.00    0.77895   0.78570   13.944
 6509.00    0.77008   0.78764   13.954
 6510.00    0.76553   0.78868   14.114
 6511.00    0.74968   0.78855   14.484
 6512.00    0.71620   0.78808   15.057
 6513.00    0.69553   0.78759   15.582
 6514.00    0.71237   0.78619   15.808
 6515.00    0.74933   0.78398   15.813
 6516.00    0.77832   0.78219   15.743
 6517.00    0.78884   0.78057   15.550
 6518.00    0.78488   0.77875   15.234
 6519.00    0.77892   0.77799   14.974
 6520.00    0.77752   0.77868   14.843
 6521.00    0.77324   0.77961   14.677
 6522.00    0.76054   0.78076   14.438
 6523.00    0.74551   0.78276   14.362
 6524.00    0.73539   0.78464   14.482
 6525.00    0.73191   0.78545   14.442
 6526.00    0.73441   0.78550   14.187
 6527.00    0.74194   0.78553   14.209
 6528.00    0.75266   0.78531    0.000
 6529.00    0.76347   0.78428    0.000
 6530.00    0.76999   0.78313    0.000
 6531.00    0.76741   0.78256    0.000
 6532.00    0.75476   0.78215    0.000
 6533.00    0.73693   0.78172    0.000
 6534.00    0.72364   0.78169    0.000
 6535.00    0.72656   0.78201    0.000
 6536.00    0.74956   0.78239    0.000
 6537.00    0.78436   0.78297    0.000
 6538.00    0.81081   0.78378    0.000
 6539.00    0.80529   0.78415    0.000
 6540.00    0.77081   0.78350    0.000
 6541.00    0.73812   0.78205    0.000
 6542.00    0.72932   0.77988    0.000
 6543.00    0.74611   0.77684    0.000
 6544.00    0.77532   0.77286    0.000
 6545.00    0.79743   0.76808    0.000
 6546.00    0.80602   0.76334    0.000
 6547.00    0.81057   0.75936    0.000
 6548.00    0.82678   0.75555    0.000
 6549.00    0.86620   0.75157    0.000
 6550.00    0.91746   0.74819    0.000
 6551.00    0.95178   0.74512    0.000
 6552.00    0.95003   0.74131    0.000
 6553.00    0.90953   0.73648    0.000
 6554.00    0.84326   0.73056    0.000
 6555.00    0.77537   0.72370    0.000
 6556.00    0.73164   0.71589    0.000
 6557.00    0.73220   0.70619    0.000
 6558.00    0.78158   0.69385    0.000
 6559.00    0.87676   0.68024    0.000
 6560.00    1.02596   0.66653    0.000
 6561.00    1.23413   0.65097    0.000
 6562.00    1.47076   0.63511    0.000
 6563.00    1.67926   0.62500    0.000
 6564.00    1.80370   0.62066    0.000
 6565.00    1.80763   0.61869    0.000
 6566.00    1.69595   0.62325    0.000
 6567.00    1.50572   0.63676    0.000
 6568.00    1.28663   0.65185    0.000
 6569.00    1.08606   0.66545    0.000
 6570.00    0.93255   0.67988    0.000
 6571.00    0.83504   0.69258    0.000
 6572.00    0.78562   0.70143    0.000
 6573.00    0.76670   0.70859    0.000
 6574.00    0.75975   0.71486    0.000
 6575.00    0.75026   0.71985    0.000
 6576.00    0.73235   0.72444    0.000
 6577.00    0.71116   0.72914    0.000
 6578.00    0.70382   0.73379    0.000
 6579.00    0.72856   0.73843    0.000
 6580.00    0.79370   0.74250    0.000
 6581.00    0.89890   0.74594    0.000
 6582.00    1.03678   0.74898    0.000
 6583.00    1.18709   0.75144    0.000
 6584.00    1.31347   0.75342    0.000
 6585.00    1.38246   0.75529    0.000
 6586.00    1.37950   0.75704    0.000
 6587.00    1.30606   0.75846    0.000
 6588.00    1.17719   0.75910    0.000
 6589.00    1.02619   0.75869    0.000
 6590.00    0.90273   0.75801    0.000
 6591.00    0.83382   0.75649    0.000
 6592.00    0.80266   0.75343    0.000
 6593.00    0.78709   0.75059    0.000
 6594.00    0.78301   0.74875    0.000
 6595.00    0.78754   0.74696    0.000
 6596.00    0.79032   0.74597    0.000
 6597.00    0.78736   0.74721    0.000
 6598.00    0.78645   0.74970    0.000
 6599.00    0.79179   0.75235    0.000
 6600.00    0.79774   0.75532    0.000
 6601.00    0.79901   0.75811    0.000
 6602.00    0.79564   0.76022    0.000
 6603.00    0.79119   0.76163    0.000
 6604.00    0.79009   0.76180    0.000
 6605.00    0.79057   0.76080    0.000
 6606.00    0.78465   0.75948    0.000
 6607.00    0.77049   0.75784    0.000
 6608.00    0.75543   0.75584    0.000
 6609.00    0.74803   0.75460   13.441
 6610.00    0.75276   0.75473   13.244
 6611.00    0.76288   0.75554   13.080
 6612.00    0.76368   0.75670   13.117
 6613.00    0.75159   0.75897   13.329
 6614.00    0.73595   0.76211   13.553
 6615.00    0.72449   0.76482   13.750
 6616.00    0.71972   0.76686   14.015
 6617.00    0.72196   0.76886   14.250
 6618.00    0.72949   0.77076   14.217
 6619.00    0.73629   0.77166   14.023
 6620.00    0.73587   0.77155   14.019
 6621.00    0.73231   0.77114   14.265
 6622.00    0.73469   0.77029   14.557
 6623.00    0.73784   0.76854   14.785
 6624.00    0.73039   0.76627   14.987
 6625.00    0.72218   0.76422   15.230
 6626.00    0.73348   0.76220   15.531
 6627.00    0.76024   0.75994   15.751
 6628.00    0.78083   0.75805   15.729
 6629.00    0.78322   0.75663   15.603
 6630.00    0.76899   0.75489   15.602
 6631.00    0.75008   0.75309   15.605
 6632.00    0.74198   0.75142   15.355
 6633.00    0.75300   0.74965   14.960
 6634.00    0.78063   0.74843   14.669
 6635.00    0.80917   0.74791   14.478
 6636.00    0.82028   0.74775   14.278
 6637.00    0.80923   0.74847   14.094
 6638.00    0.78416   0.74998   14.009
 6639.00    0.76095   0.75119   14.017
 6640.00    0.75051   0.75233   14.063
 6641.00    0.74425   0.75359   14.101
 6642.00    0.73055   0.75380   14.145
 6643.00    0.71647   0.75338   14.313
 6644.00    0.71619   0.75364   14.640
 6645.00    0.73401   0.75377   14.835
 6646.00    0.76032   0.75312   14.685
 6647.00    0.77117   0.75318   14.533
 6648.00    0.75278   0.75410   14.762
 6649.00    0.72415   0.75450   15.311
 6650.00    0.71108   0.75448   15.830
 6651.00    0.71969   0.75482   15.897
 6652.00    0.74232   0.75507   15.488
 6653.00    0.76576   0.75472   15.198
 6654.00    0.77851   0.75426   15.347
 6655.00    0.77661   0.75384   15.497
 6656.00    0.76633   0.75312   15.270
 6657.00    0.76316   0.75226   15.001
 6658.00    0.77201   0.75132   14.947
 6659.00    0.77612   0.74970   14.841
 6660.00    0.76460   0.74781   14.537
 6661.00    0.74922   0.74609   14.348
 6662.00    0.74445   0.74372   14.403
 6663.00    0.75324   0.74118   14.385
 6664.00    0.76493   0.73969   14.196
 6665.00    0.76001   0.73869   14.230
 6666.00    0.74185   0.73781   14.628
 6667.00    0.74371   0.73837   14.961
 6668.00    0.76878   0.74015   15.012
 6669.00    0.77283   0.74194   15.166
 6670.00    0.74136   0.74403   15.590
 6671.00    0.71476   0.74647   15.891
 6672.00    0.71995   0.74841   15.846
 6673.00    0.74377   0.74922   15.733
 6674.00    0.76277   0.74896   15.749
 6675.00    0.76113   0.74805   15.803
 6676.00    0.74640   0.74602   15.763
 6677.00    0.74338   0.74269   15.577
 6678.00    0.74748   0.73974   15.343
 6679.00    0.72550   0.73771   15.233
 6680.00    0.68285   0.73558   15.240
 6681.00    0.66555   0.73439   15.170
 6682.00    0.68530   0.73543   14.877
 6683.00    0.71189   0.73712   14.400
 6684.00    0.73020   0.73854   14.034
 6685.00    0.74944   0.74073   14.105
 6686.00    0.77583   0.74311   14.448
 6687.00    0.80431   0.74459   14.528
 6688.00    0.81930   0.74563   14.366
 6689.00    0.80628   0.74647   14.462
 6690.00    0.77980   0.74679   14.852
 6691.00    0.77050   0.74655   15.127
 6692.00    0.77742   0.74601   15.147
 6693.00    0.77454   0.74520   15.123
 6694.00    0.75133   0.74401   15.234
 6695.00    0.71701   0.74243   15.506
 6696.00    0.68933   0.74095    0.000
 6697.00    0.68519   0.73984    0.000
 6698.00    0.70723   0.73879    0.000
 6699.00    0.74267   0.73810    0.000
 6700.00    0.76702   0.73820    0.000
 6701.00    0.76191   0.73858    0.000
 6702.00    0.74326   0.73893    0.000
 6703.00    0.73913   0.73939    0.000
 6704.00    0.74730   0.73975    0.000
 6705.00    0.74895   0.73996    0.000
 6706.00    0.73953   0.73991    0.000
 6707.00    0.72538   0.73965    0.000
 6708.00    0.71247   0.73949    0.000
 6709.00    0.70750   0.73899    0.000
 6710.00    0.72065   0.73791    0.000
 6711.00    0.75313   0.73667    0.000
 6712.00    0.78341   0.73487    0.000
 6713.00    0.79814   0.73212    0.000
 6714.00    0.82648   0.72920    0.000
 6715.00    0.89538   0.72634    0.000
 6716.00    0.97956   0.72316    0.000
 6717.00    1.04015   0.72044    0.000
 6718.00    1.06822   0.71898    0.000
 6719.00    1.06637   0.71848    0.000
 6720.00    1.02861   0.71859    0.000
 6721.00    0.95787   0.71977    0.000
 6722.00    0.88109   0.72194    0.000
 6723.00    0.82725   0.72412    0.000
 6724.00    0.80770   0.72602    0.000
 6725.00    0.81758   0.72789    0.000
 6726.00    0.84094   0.72967    0.000
 6727.00    0.87193   0.73101    0.000
 6728.00    0.92528   0.73188    0.000
 6729.00    0.99778   0.73275    0.000
 6730.00    1.04711   0.73376    0.000
 6731.00    1.03526   0.73445    0.000
 6732.00    0.95929   0.73479    0.000
 6733.00    0.85740   0.73511    0.000
 6734.00    0.79870   0.73515    0.000
 6735.00    0.80951   0.73472    0.000
 6736.00    0.84366   0.73405    0.000
 6737.00    0.85402   0.73312    0.000
 6738.00    0.82953   0.73188    0.000
 6739.00    0.77833   0.73058    0.000
 6740.00    0.71750   0.72936    0.000
 6741.00    0.66884   0.72806    0.000
 6742.00    0.65219   0.72676    0.000
 6743.00    0.66475   0.72581    0.000
 6744.00    0.68045   0.72502    0.000
 6745.00    0.68478   0.72391    0.000
 6746.00    0.68462   0.72285    0.000
 6747.00    0.68864   0.72221    0.000
 6748.00    0.69943   0.72127    0.000
 6749.00    0.71367   0.72003    0.000
 6750.00    0.72373   0.71948    0.000
 6751.00    0.72220   0.71937    0.000
 6752.00    0.70682   0.71915    0.000
 6753.00    0.69031   0.71972   14.386
 6754.00    0.69238   0.72131   14.542
 6755.00    0.70780   0.72295   14.491
 6756.00    0.71281   0.72493   14.540
 6757.00    0.70839   0.72777   14.762
 6758.00    0.71749   0.73034   14.960
 6759.00    0.74652   0.73248   14.992
 6760.00    0.78304   0.73467   14.739
 6761.00    0.81518   0.73618   13.835
 6762.00    0.83779   0.73685   12.216
 6763.00    0.85514   0.73697   10.652
 6764.00    0.87126   0.73639    9.667
 6765.00    0.86947   0.73519    9.056
 6766.00    0.82423   0.73361    8.561
 6767.00    0.73351   0.73182    8.415
 6768.00    0.62436   0.73025    8.945
 6769.00    0.54986   0.72905    9.855
 6770.00    0.55714   0.72818   10.213
 6771.00    0.63456   0.72820    9.883
 6772.00    0.72793   0.72918    9.543
 6773.00    0.78337   0.73048    9.511
 6774.00    0.77790   0.73224    9.818
 6775.00    0.75222   0.73466   10.435
 6776.00    0.76074   0.73687   11.240
 6777.00    0.79579   0.73844   11.902
 6778.00    0.82655   0.73961   12.077
 6779.00    0.86273   0.73997   11.918
 6780.00    0.91678   0.73912   11.799
 6781.00    0.94982   0.73739   11.839
 6782.00    0.92390   0.73493   11.991
 6783.00    0.86709   0.73180   12.193
 6784.00    0.82079   0.72871   12.404
 6785.00    0.77729   0.72598   12.635
 6786.00    0.72808   0.72370   12.769
 6787.00    0.71423   0.72250   12.435
 6788.00    0.75793   0.72222   11.621
 6789.00    0.79970   0.72228   10.950
 6790.00    0.78680   0.72296   10.764
 6791.00    0.75126   0.72402   10.832
 6792.00    0.73482   0.72453   10.935
 6793.00    0.72479   0.72482   11.265
 6794.00    0.70605   0.72529   11.976
 6795.00    0.70075   0.72535   12.713
 6796.00    0.71944   0.72521   13.009
 6797.00    0.72969   0.72559   12.930
 6798.00    0.71308   0.72614   12.704
 6799.00    0.69939   0.72664   12.346
 6800.00    0.71285   0.72745   11.917
 6801.00    0.73944   0.72845   11.615
 6802.00    0.75700   0.72920   11.526
 6803.00    0.75518   0.72970   11.565
 6804.00    0.73485   0.73022   11.749
 6805.00    0.70721   0.73053   12.294
 6806.00    0.69408   0.73026   13.127
 6807.00    0.72084   0.73006   13.542
 6808.00    0.78024   0.73006   13.196
 6809.00    0.82727   0.72950   12.668
 6810.00    0.84243   0.72897   12.159
 6811.00    0.85020   0.72891   11.347
 6812.00    0.86433   0.72853   10.476
 6813.00    0.86964   0.72807   10.164
 6814.00    0.85188   0.72802   10.500
 6815.00    0.81155   0.72798   11.075
 6816.00    0.76613   0.72803   11.662
 6817.00    0.74342   0.72830   12.467
 6818.00    0.75541   0.72869   13.399
 6819.00    0.79336   0.72932   13.702
 6820.00    0.84420   0.73003   12.995
 6821.00    0.89579   0.73075   11.795
 6822.00    0.93473   0.73161   10.678
 6823.00    0.94767   0.73237    9.930
 6824.00    0.92725   0.73292    9.625
 6825.00    0.87627   0.73332    9.768
 6826.00    0.81381   0.73344   10.322
 6827.00    0.76714   0.73315   11.176
 6828.00    0.74681   0.73268   12.111
 6829.00    0.74413   0.73229   12.813
 6830.00    0.74168   0.73187   13.208
 6831.00    0.72747   0.73148   13.487
 6832.00    0.71979   0.73138   13.629
 6833.00    0.74637   0.73145   13.482
 6834.00    0.78946   0.73134   13.270
 6835.00    0.80626   0.73083   13.304
 6836.00    0.79245   0.72991   13.305
 6837.00    0.77311   0.72849   12.801
 6838.00    0.76194   0.72634   12.085
 6839.00    0.75621   0.72367   11.657
 6840.00    0.74272   0.72101   11.454
 6841.00    0.71785   0.71855   11.284
 6842.00    0.71620   0.71659   11.429
 6843.00    0.76867   0.71565   12.213
 6844.00    0.83474   0.71576   13.059
 6845.00    0.86187   0.71675   12.793
 6846.00    0.88130   0.71849   11.554
 6847.00    0.93854   0.72063   10.289
 6848.00    0.98614   0.72267    9.431
 6849.00    0.95538   0.72429    9.051
 6850.00    0.86167   0.72535    9.094
 6851.00    0.76274   0.72560    9.496
 6852.00    0.69382   0.72515   10.200
 6853.00    0.66872   0.72412   11.129
 6854.00    0.68863   0.72237   12.169
 6855.00    0.73273   0.72048   13.102
 6856.00    0.75229   0.71884   13.585
 6857.00    0.72171   0.71692   13.558
 6858.00    0.68297   0.71535   13.563
 6859.00    0.68114   0.71483   13.945
 6860.00    0.70534   0.71439   14.221
 6861.00    0.72776   0.71412   13.925
 6862.00    0.74074   0.71487   13.482
 6863.00    0.74748   0.71575   13.319
 6864.00    0.75187   0.71621   13.308
 6865.00    0.75599   0.71698   13.247
 6866.00    0.75866   0.71772   13.178
 6867.00    0.75491   0.71770   13.243
 6868.00    0.73802   0.71740   13.549
 6869.00    0.71612   0.71728   13.956
 6870.00    0.71695   0.71687   13.954
 6871.00    0.74839   0.71627   13.388
 6872.00    0.78024   0.71625   12.800
 6873.00    0.78524   0.71665   12.667
 6874.00    0.76420   0.71702   13.142
 6875.00    0.74572   0.71772   13.632
 6876.00    0.77168   0.71895   12.747
 6877.00    0.82840   0.72009   10.997
 6878.00    0.83807   0.72087   10.057
 6879.00    0.78710   0.72162   10.156
 6880.00    0.75659   0.72221   10.651
 6881.00    0.77775   0.72220   11.132
 6882.00    0.79341   0.72187   11.831
 6883.00    0.77717   0.72185   12.816
 6884.00    0.76401   0.72201   13.508
 6885.00    0.76726   0.72219   13.606
 6886.00    0.76122   0.72310   13.593
 6887.00    0.74104   0.72482   13.729
 6888.00    0.73107   0.72649   13.801
 6889.00    0.73586   0.72831   13.726
 6890.00    0.73641   0.73055   13.656
 6891.00    0.73317   0.73228   13.583
 6892.00    0.74426   0.73341   13.366
 6893.00    0.75844   0.73448   13.175
 6894.00    0.74414   0.73505   13.325
 6895.00    0.71382   0.73502   13.611
 6896.00    0.71239   0.73499   13.450
 6897.00    0.73946   0.73497   12.992
 6898.00    0.75423   0.73478   12.870
 6899.00    0.73842   0.73469   13.138
 6900.00    0.70539   0.73485   13.382
 6901.00    0.68358   0.73515   13.341
 6902.00    0.69591   0.73545   13.081
 6903.00    0.72548   0.73588   12.852
 6904.00    0.73631   0.73649   12.875
 6905.00    0.72901   0.73706   13.104
 6906.00    0.72901   0.73761   13.290
 6907.00    0.74339   0.73810   13.197
 6908.00    0.76213   0.73840   12.761
 6909.00    0.77509   0.73850   12.188
 6910.00    0.77769   0.73812   11.736
 6911.00    0.77484   0.73731   11.494
 6912.00    0.77117   0.73635   11.472
 6913.00    0.75606   0.73487   11.702
 6914.00    0.71959   0.73326   12.201
 6915.00    0.67797   0.73214   12.862
 6916.00    0.65787   0.73103   13.474
 6917.00    0.67012   0.73026   13.858
 6918.00    0.70676   0.73039   13.943
 6919.00    0.74292   0.73063   13.793
 6920.00    0.75400   0.73088   13.595
 6921.00    0.73586   0.73142   13.612
 6922.00    0.70443   0.73162   13.945
 6923.00    0.68991   0.73128   14.266
 6924.00    0.70345   0.73073   14.247
 6925.00    0.70803   0.72999   14.131
 6926.00    0.67663   0.72916   14.185
 6927.00    0.64641   0.72851   14.177
 6928.00    0.65507   0.72818   13.891
 6929.00    0.68240   0.72817   13.601
 6930.00    0.70017   0.72845   13.541
 6931.00    0.71612   0.72893   13.550
 6932.00    0.73935   0.72934   13.422
 6933.00    0.75292   0.72976   13.190
 6934.00    0.74478   0.73037   13.020
 6935.00    0.73023   0.73082   13.070
 6936.00    0.73076   0.73123   13.242
 6937.00    0.75487   0.73201   13.083
 6938.00    0.77914   0.73268   12.553
 6939.00    0.74991   0.73309   12.285
 6940.00    0.67005   0.73355   12.544
 6941.00    0.63079   0.73359   12.885
 6942.00    0.67246   0.73314   12.890
 6943.00    0.72286   0.73259   12.691
 6944.00    0.72403   0.73161   12.503
 6945.00    0.69478   0.73050   12.353
 6946.00    0.67579   0.72990   12.168
 6947.00    0.69293   0.72926   11.888
 6948.00    0.72881   0.72879   11.675
 6949.00    0.72994   0.72902   11.845
 6950.00    0.69796   0.72906   12.299
 6951.00    0.70168   0.72890   12.389
 6952.00    0.75198   0.72914   12.034
 6953.00    0.78003   0.72915   11.931
 6954.00    0.76523   0.72901   12.258
 6955.00    0.75855   0.72946   12.514
 6956.00    0.77683   0.73015   12.487
 6957.00    0.78410   0.73096   12.518
 6958.00    0.76676   0.73229   12.710
 6959.00    0.74729   0.73380   12.798
 6960.00    0.74146   0.73524   12.716
 6961.00    0.74632   0.73669   12.683
 6962.00    0.74803   0.73793   12.814
 6963.00    0.73357   0.73901   13.045
 6964.00    0.71537   0.73998   13.226
 6965.00    0.72100   0.74059   13.213
 6966.00    0.74815   0.74118   13.082
 6967.00    0.76735   0.74182   13.038
 6968.00    0.75885   0.74208   13.108
 6969.00    0.72539   0.74225   13.143
 6970.00    0.69862   0.74231   13.019
 6971.00    0.71230   0.74173   12.733
 6972.00    0.74317   0.74071   12.460
 6973.00    0.74140   0.73916   12.365
 6974.00    0.71632   0.73665   12.305
 6975.00    0.71015   0.73361   12.069
 6976.00    0.71614   0.73039   11.881
 6977.00    0.70294   0.72681   12.063
 6978.00    0.68404   0.72351   12.393
 6979.00    0.69395   0.72153   12.391
 6980.00    0.72889   0.72070   12.130
 6981.00    0.76130   0.72089   11.995
 6982.00    0.77784   0.72287   12.073
 6983.00    0.77625   0.72599   12.251
 6984.00    0.75284   0.72922   12.442
 6985.00    0.71369   0.73261   12.577
 6986.00    0.69050   0.73573   12.591
 6987.00    0.71156   0.73794   12.495
 6988.00    0.76279   0.73933   12.448
 6989.00    0.80342   0.74011   12.586
 6990.00    0.79336   0.74043   12.817
 6991.00    0.72762   0.74039   12.944
 6992.00    0.66592   0.74023   12.869
 6993.00    0.66431   0.74007   12.625
 6994.00    0.70327   0.73981   12.359
 6995.00    0.73416   0.73941   12.214
 6996.00    0.73302   0.73875   12.258
 6997.00    0.70426   0.73781   12.430
 6998.00    0.67645   0.73665   12.509
 6999.00    0.67397   0.73511   12.388
 7000.00    0.69409   0.73349   12.302
 7001.00    0.72216   0.73199   -2.000
 7002.00    0.74540   0.73044   -2.000
 7003.00    0.75079   0.72909   -2.000
 7004.00    0.72557   0.72817   -2.000
 7005.00    0.67903   0.72754   -2.000
 7006.00    0.65173   0.72718   -2.000
 7007.00    0.66999   0.72721   -2.000
 7008.00    0.71842   0.72760   -2.000
 7009.00    0.76642   0.72812   -2.000
 7010.00    0.78854   0.72857   -2.000
 7011.00    0.77789   0.72893   -2.000
 7012.00    0.74996   0.72897   -2.000
 7013.00    0.72213   0.72847   -2.000
 7014.00    0.70316   0.72773   -2.000
 7015.00    0.69939   0.72669   -2.000
 7016.00    0.71383   0.72556   -2.000
 7017.00    0.72507   0.72502   -2.000
 7018.00    0.69258   0.72483   -2.000
 7019.00    0.62718   0.72488   -2.000
 7020.00    0.59885   0.72573   -2.000
 7021.00    0.63217   0.72670   -2.000
 7022.00    0.68041   0.72722   -2.000
 7023.00    0.70513   0.72767   -2.000
 7024.00    0.70465   0.72794   -2.000
 7025.00    0.69631   0.72783   -2.000
 7026.00    0.70199   0.72772   -2.000
 7027.00    0.72354   0.72793   -2.000
 7028.00    0.74139   0.72852   -2.000
 7029.00    0.73830   0.72939   -2.000
 7030.00    0.71081   0.73051   -2.000
 7031.00    0.67887   0.73173   -2.000
 7032.00    0.67306   0.73283   -2.000
 7033.00    0.69127   0.73379   -2.000
 7034.00    0.70544   0.73430   -2.000
 7035.00    0.71235   0.73461   -2.000
 7036.00    0.72976   0.73516   -2.000
 7037.00    0.75287   0.73546   -2.000
 7038.00    0.75739   0.73600   -2.000
 7039.00    0.73274   0.73759   -2.000
 7040.00    0.69035   0.73940   -2.000
 7041.00    0.66326   0.74145   -2.000
 7042.00    0.68131   0.74446   -2.000
 7043.00    0.72246   0.74742   -2.000
 7044.00    0.73570   0.74978   -2.000
 7045.00    0.70356   0.75210   -2.000
 7046.00    0.64726   0.75382   -2.000
 7047.00    0.61234   0.75440   -2.000
 7048.00    0.63368   0.75423   -2.000
 7049.00    0.68380   0.75309   -2.000
 7050.00    0.71333   0.75065   -2.000
 7051.00    0.72618   0.74709   -2.000
 7052.00    0.74879   0.74238   -2.000
 7053.00    0.76909   0.73683   -2.000
 7054.00    0.76063   0.73079   -2.000
 7055.00    0.72705   0.72453   -2.000
 7056.00    0.68627   0.71872   -2.000
 7057.00    0.64337   0.71356   -2.000
 7058.00    0.60644   0.70917   -2.000
 7059.00    0.60708   0.70563   -2.000
 7060.00    0.66117   0.70292   -2.000
 7061.00    0.72588   0.70097   -2.000
 7062.00    0.75194   0.69936   -2.000
 7063.00    0.74194   0.69818   -2.000
 7064.00    0.72006   0.69749   -2.000
 7065.00    0.69644   0.69663   -2.000
 7066.00    0.67549   0.69597   -2.000
 7067.00    0.66613   0.69573   -2.000
 7068.00    0.67532   0.69538   -2.000
 7069.00    0.70226   0.69558   -2.000
 7070.00    0.74333   0.69652   -2.000
 7071.00    0.79422   0.69770   -2.000
 7072.00    0.83018   0.69957   -2.000
 7073.00    0.80106   0.70195   -2.000
 7074.00    0.71178   0.70422   -2.000
 7075.00    0.66039   0.70648   -2.000
 7076.00    0.69051   0.70851   -2.000
 7077.00    0.71283   0.70997   -2.000
 7078.00    0.66873   0.71080   -2.000
 7079.00    0.61863   0.71094   -2.000
 7080.00    0.61691   0.71030   -2.000
 7081.00    0.64457   0.70863   -2.000
 7082.00    0.67578   0.70602   -2.000
 7083.00    0.71073   0.70259   -2.000
 7084.00    0.73898   0.69814   -2.000
 7085.00    0.72868   0.69334   -2.000
 7086.00    0.67276   0.68837   -2.000
 7087.00    0.60645   0.68313   -2.000
 7088.00    0.57978   0.67866   -2.000
 7089.00    0.62990   0.67480   -2.000
 7090.00    0.72184   0.67122   -2.000
 7091.00    0.75795   0.66891   -2.000
 7092.00    0.71597   0.66728   -2.000
 7093.00    0.67126   0.66603   -2.000
 7094.00    0.66778   0.66584   -2.000
 7095.00    0.68551   0.66604   -2.000
 7096.00    0.70255   0.66661   -2.000
 7097.00    0.71454   0.66774   -2.000
 7098.00    0.72261   0.66905   -2.000
 7099.00    0.72691   0.67053   -2.000
 7100.00    0.72014   0.67206   -2.000
 7101.00    0.69416   0.67360   -2.000
 7102.00    0.66383   0.67497   -2.000
 7103.00    0.65732   0.67605   -2.000
 7104.00    0.67261   0.67697   -2.000
 7105.00    0.68349   0.67756   -2.000
 7106.00    0.68446   0.67775   -2.000
 7107.00    0.68941   0.67769   -2.000
 7108.00    0.70151   0.67732   -2.000
 7109.00    0.70882   0.67667   -2.000
 7110.00    0.69156   0.67591   -2.000
 7111.00    0.64140   0.67519   -2.000
 7112.00    0.59563   0.67464   -2.000
 7113.00    0.60017   0.67434   -2.000
 7114.00    0.62759   0.67442   -2.000
 7115.00    0.62309   0.67490   -2.000
 7116.00    0.61290   0.67560   -2.000
 7117.00    0.65247   0.67639   -2.000
 7118.00    0.70908   0.67720   -2.000
 7119.00    0.71932   0.67775   -2.000
 7120.00    0.70797   0.67801   -2.000
 7121.00    0.72840   0.67788   -2.000
 7122.00    0.75060   0.67721   -2.000
 7123.00    0.72734   0.67631   -2.000
 7124.00    0.70341   0.67489   -2.000
 7125.00    0.72982   0.67296   -2.000
 7126.00    0.74072   0.67104   -2.000
 7127.00    0.67020   0.66873   -2.000
 7128.00    0.60321   0.66630   -2.000
 7129.00    0.62978   0.66428   -2.000
 7130.00    0.67152   0.66239   -2.000
 7131.00    0.65715   0.66116   -2.000
 7132.00    0.70998   0.66067   -2.000
 7133.00    0.89493   0.66074   -2.000
 7134.00    0.97979   0.66181   -2.000
 7135.00    0.81695   0.66326   -2.000
 7136.00    0.67906   0.66491   -2.000
 7137.00    0.78854   0.66701   -2.000
 7138.00    0.92261   0.66870   -2.000
 7139.00    0.87124   0.67004   -2.000
 7140.00    0.80120   0.67138   -2.000
 7141.00    0.86874   0.67204   -2.000
 7142.00    0.93254   0.67223   -2.000
 7143.00    0.85497   0.67251   -2.000
 7144.00    0.71433   0.67213   -2.000
 7145.00    0.62459   0.67131   -2.000
 7146.00    0.60722   0.67083   -2.000
 7147.00    0.63538   0.66987   -2.000
 7148.00    0.67226   0.66889   -2.000
 7149.00    0.70021   0.66883   -2.000
 7150.00    0.73087   0.66881   -2.000
 7151.00    0.76828   0.66937   -2.000
 7152.00    0.79171   0.67100   -2.000
 7153.00    0.77843   0.67270   -2.000
 7154.00    0.72139   0.67462   -2.000
 7155.00    0.65277   0.67676   -2.000
 7156.00    0.63470   0.67848   -2.000
 7157.00    0.66516   0.67962   -2.000
 7158.00    0.66451   0.68015   -2.000
 7159.00    0.60781   0.68020   -2.000
 7160.00    0.55705   0.67944   -2.000
 7161.00    0.55358   0.67802   -2.000
 7162.00    0.58474   0.67654   -2.000
 7163.00    0.63007   0.67477   -2.000
 7164.00    0.67080   0.67295   -2.000
 7165.00    0.65976   0.67182   -2.000
 7166.00    0.55571   0.67126   -2.000
 7167.00    0.46813   0.67133   -2.000
 7168.00    0.59273   0.67250   -2.000
 7169.00    0.87013   0.67430   -2.000
 7170.00    1.03765   0.67644   -2.000
 7171.00    1.08329   0.67892   -2.000
 7172.00    1.20192   0.68120   -2.000
 7173.00    1.31996   0.68293   -2.000
 7174.00    1.16597   0.68416   -2.000
 7175.00    0.77588   0.68465   -2.000
 7176.00    0.46019   0.68437   -2.000
 7177.00    0.41612   0.68366   -2.000
 7178.00    0.63576   0.68240   -2.000
 7179.00    0.92067   0.68084   -2.000
 7180.00    1.02812   0.67943   -2.000
 7181.00    0.95773   0.67786   -2.000
 7182.00    0.86748   0.67650   -2.000
 7183.00    0.79729   0.67552   -2.000
 7184.00    0.70447   0.67440   -2.000
 7185.00    0.62512   0.67357   -2.000
 7186.00    0.62985   0.67267   -2.000
 7187.00    0.70055   0.67151   -2.000
 7188.00    0.76834   0.67076   -2.000
 7189.00    0.80686   0.66985   -2.000
 7190.00    0.81903   0.66914   -2.000
 7191.00    0.79638   0.66924   -2.000
 7192.00    0.74115   0.66947   -2.000
 7193.00    0.70206   0.67018   -2.000
 7194.00    0.71739   0.67143   -2.000
 7195.00    0.73968   0.67266   -2.000
 7196.00    0.71947   0.67395   -2.000
 7197.00    0.71314   0.67529   -2.000
 7198.00    0.78364   0.67643   -2.000
 7199.00    0.87759   0.67721   -2.000
 7200.00    0.90727   0.67800   -2.000
 7201.00    0.85354   0.67853   -2.000
 7202.00    0.75435   0.67855   -2.000
 7203.00    0.67634   0.67849   -2.000
 7204.00    0.65230   0.67798   -2.000
 7205.00    0.63510   0.67716   -2.000
 7206.00    0.60663   0.67617   -2.000
 7207.00    0.65977   0.67498   -2.000
 7208.00    0.82043   0.67418   -2.000
 7209.00    0.92579   0.67352   -2.000
 7210.00    0.90853   0.67342   -2.000
 7211.00    0.97562   0.67419   -2.000
 7212.00    1.19190   0.67502   -2.000
 7213.00    1.23642   0.67645   -2.000
 7214.00    0.94460   0.67825   -2.000
 7215.00    0.62076   0.67968   -2.000
 7216.00    0.52006   0.68123   -2.000
 7217.00    0.54592   0.68271   -2.000
 7218.00    0.56291   0.68375   -2.000
