###################################################################
## OUTPUT of StarlightChains_v04.for    [Cid@UFSC - 01/Apr/2007] ##
###################################################################

## Some input info
1999dk.txt                               [arq_obs]
Base.CB07.vall.4m                        [arq_base]
Masks.EmLines.NEW.gm                     [arq_masks]
StCv04.C11.config                        [arq_config]
   66                                    [N_base]
    0                                    [N_YAV_components = # of components with extra extinction!]
    0                                    [i_FitPowerLaw (1/0 = Yes/No)]
-9.99                                    [alpha_PowerLaw]
CCM                                      [red_law_option]
 1.458241                                [q_norm = A(l_norm)/A(V)]

## (Re)Sampling Parameters
 3741.00                                 [l_ini (A)]
 7218.00                                 [l_fin (A)]
    1.00                                 [dl    (A)]     (OBS: dl_cushion =    50.00 A)

## Normalization info
 4020.00                                 [l_norm (A) - for base]
 4010.00                                 [llow_norm (A) - window for f_obs]
 4060.00                                 [lupp_norm (A) - window for f_obs]
3.256471E-17                             [fobs_norm (in input units)]

## S/N
 3691.00                                 [llow_SN (A) - window for S/N]
 7268.00                                 [lupp_SN (A) - window for S/N]
   4.779                                 [S/N in S/N window]
   6.106                                 [S/N in norm. window]
  10.000                                 [S/N_err in S/N window]
  12.778                                 [S/N_err in norm. window]
  1.0000                                 [fscale_chi2]

## etc...
    -2007238                             [idum_orig]
  2232                                   [NOl_eff]
  2035                                   [Nl_eff]
   197    NSIGMA                         [Ntot_cliped & clip_method]
   852180                                [Nglobal_steps]
   7                                     [N_chains]
  16                                     [NEX0s_base = N_base in EX0s-fits]
 0   0   1        6   2.0   5.607E+01    [Clip-Bug, RC-Crash & Burn-In warning-flags, n_censored_weights, wei_nsig_threshold & wei_limit]
    12     11.263     10.772      0.491  [idt_all, wdt_TotTime, wdt_UsrTime & wdt_SysTime (sec)]

## Synthesis Results - Best model ##

 1.58163E+00                             [chi2/Nl_eff]
    10.02209                             [adev (%)]

    93.73642                             [sum-of-x (%)]
 2.02822E-17                             [Flux_tot (units of input spectrum!)]
 2.91308E-13                             [Mini_tot (???)]
 1.55533E-13                             [Mcor_tot (???)]

 134.85                                  [v0_min  (km/s)]
 121.41                                  [vd_min  (km/s)]
-0.3044                                  [AV_min  (mag)]
 0.0000                                  [YAV_min (mag)]

# j     x_j(%)      Mini_j(%)     Mcor_j(%)     age_j(yr)     Z_j      (L/M)_j    YAV?  Mstars   component_j        a/Fe...       SSP_chi2r SSP_adev(%)   SSP_AV   SSP_x(%)
  1      0.0000     0.0000E+00    0.0000E+00    1.000000E+06  0.00400  1.094E-02    0   1.0000   age020_m42            0.0000     2.7960E+00    12.1489   2.7872    74.6443
  2      0.0000     0.0000E+00    0.0000E+00    3.160000E+06  0.00400  4.007E-02    0   0.9999   age045_m42            0.0000     2.3511E+00    11.3422   2.0399    80.6737
  3      0.0000     0.0000E+00    0.0000E+00    5.010000E+06  0.00400  2.539E-02    0   0.9488   age055_m42            0.0000     2.5742E+00    11.7090   2.3733    78.1718
  4      0.0000     0.0000E+00    0.0000E+00    6.610000E+06  0.00400  2.620E-02    0   0.9220   age061_m42            0.0000     2.3751E+00    11.3048   1.9691    80.7886
  5      0.0000     0.0000E+00    0.0000E+00    1.000000E+07  0.00400  1.322E-02    0   0.8862   age070_m42            0.0000     2.5620E+00    11.6045   1.7000    82.1573
  6      0.0000     0.0000E+00    0.0000E+00    1.445000E+07  0.00400  7.883E-03    0   0.8571   age078_m42            0.0000     2.6664E+00    11.7946   2.0326    79.8190
  7      0.0000     0.0000E+00    0.0000E+00    2.512000E+07  0.00400  5.251E-03    0   0.8174   age090_m42            0.0000     2.5751E+00    11.6372   1.5690    82.6745
  8      0.0000     0.0000E+00    0.0000E+00    4.000000E+07  0.00400  3.649E-03    0   0.7851   age104_m42            0.0000     2.4398E+00    11.4128   1.3324    83.7539
  9      0.0000     0.0000E+00    0.0000E+00    5.500000E+07  0.00400  3.098E-03    0   0.7629   age110_m42            0.0000     2.3538E+00    11.1938   1.4832    83.8252
 10      0.0000     0.0000E+00    0.0000E+00    1.015200E+08  0.00400  2.228E-03    0   0.7207   age116_m42            0.0000     2.3094E+00    11.0664   1.5013    84.0430
 11      0.0000     0.0000E+00    0.0000E+00    2.861200E+08  0.00400  1.093E-03    0   0.6648   age125_m42            0.0000     2.2136E+00    10.9813   0.9273    87.0236
 12      0.0000     0.0000E+00    0.0000E+00    5.088000E+08  0.00400  6.597E-04    0   0.6365   age130_m42            0.0000     2.0758E+00    10.7485   0.9039    88.2361
 13      0.0014     4.8201E-04    5.2343E-04    1.434000E+09  0.00400  2.132E-04    0   0.5798   age139_m42            0.0000     1.7147E+00    10.2332  -0.1076    91.6921
 14      0.0638     8.0449E-02    8.1019E-02    4.250000E+09  0.00400  5.895E-05    0   0.5377   age158_m42            0.0000     1.6267E+00    10.1350  -0.5755    89.1934
 15     11.8584     2.5094E+01    2.4497E+01    7.500000E+09  0.00400  3.510E-05    0   0.5212   age171_m42            0.0000     1.6644E+00    10.2714  -0.7709    88.9211
 16      1.4324     5.3065E+00    5.0033E+00    1.300000E+10  0.00400  2.005E-05    0   0.5034   age193_m42            0.0000     1.7265E+00    10.4619  -0.9412    88.6937
 17      3.7070     1.8056E+01    1.6797E+01    1.800000E+10  0.00400  1.525E-05    0   0.4967   age213_m42            0.0000     1.7222E+00    10.4452  -0.9632    88.2582
 18      0.0000     0.0000E+00    0.0000E+00    1.000000E+06  0.00800  1.238E-02    0   1.0000   age020_m52            0.0000     2.7959E+00    12.1552   2.7841    74.7741
 19      0.0000     0.0000E+00    0.0000E+00    3.160000E+06  0.00800  3.074E-02    0   0.9966   age045_m52            0.0000     2.7698E+00    12.1092   2.7059    75.4750
 20      0.0000     0.0000E+00    0.0000E+00    5.010000E+06  0.00800  2.668E-02    0   0.9443   age055_m52            0.0000     2.6238E+00    11.8081   2.4583    77.3805
 21      0.0000     0.0000E+00    0.0000E+00    6.610000E+06  0.00800  2.136E-02    0   0.9177   age061_m52            0.0000     2.2979E+00    11.2580   1.1721    84.2071
 22      0.0000     0.0000E+00    0.0000E+00    1.000000E+07  0.00800  1.215E-02    0   0.8827   age070_m52            0.0000     2.6746E+00    11.8493   1.8869    81.7482
 23      0.0000     0.0000E+00    0.0000E+00    1.445000E+07  0.00800  8.717E-03    0   0.8552   age078_m52            0.0000     2.6146E+00    11.7138   1.9947    81.0658
 24      0.0000     0.0000E+00    0.0000E+00    2.512000E+07  0.00800  5.592E-03    0   0.8162   age090_m52            0.0000     2.5444E+00    11.6116   1.6329    83.7189
 25      0.0000     0.0000E+00    0.0000E+00    4.000000E+07  0.00800  3.896E-03    0   0.7841   age104_m52            0.0000     2.4115E+00    11.3607   1.5380    84.6805
 26      0.0000     0.0000E+00    0.0000E+00    1.015200E+08  0.00800  2.148E-03    0   0.7226   age116_m52            0.0000     2.2298E+00    11.0211   1.4634    85.0093
 27      0.0000     0.0000E+00    0.0000E+00    2.861200E+08  0.00800  9.925E-04    0   0.6683   age125_m52            0.0000     2.0363E+00    10.6740   0.9677    89.1434
 28     46.9767     1.1109E+01    1.2771E+01    9.047900E+08  0.00800  3.141E-04    0   0.6138   age135_m52            0.0000     1.6108E+00    10.1012   0.1182    95.1290
 29      0.0000     0.0000E+00    0.0000E+00    1.434000E+09  0.00800  1.719E-04    0   0.5853   age139_m52            0.0000     1.6121E+00    10.0917  -0.4631    93.2997
 30      0.0052     4.9222E-03    5.1627E-03    2.500000E+09  0.00800  7.872E-05    0   0.5600   age150_m52            0.0000     1.6490E+00    10.2556  -0.7489    91.3880
 31      6.6793     1.1442E+01    1.1628E+01    4.250000E+09  0.00800  4.336E-05    0   0.5426   age158_m52            0.0000     1.6758E+00    10.3298  -0.7685    90.6876
 32     11.3620     2.6715E+01    2.6614E+01    6.250000E+09  0.00800  3.159E-05    0   0.5319   age166_m52            0.0000     1.7604E+00    10.6088  -0.9787    91.0180
 33      0.0000     0.0000E+00    0.0000E+00    1.300000E+10  0.00800  1.361E-05    0   0.5073   age193_m52            0.0000     2.6673E+00    12.5417  -1.0000    76.4618
 34      0.0000     0.0000E+00    0.0000E+00    1.800000E+10  0.00800  9.886E-06    0   0.4990   age213_m52            0.0000     3.1710E+00    13.4794  -1.0000    72.8353
 35      0.0000     0.0000E+00    0.0000E+00    1.000000E+06  0.02000  1.544E-02    0   1.0000   age020_m62            0.0000     2.8098E+00    12.1850   2.7804    74.9305
 36      0.0000     0.0000E+00    0.0000E+00    3.160000E+06  0.02000  3.762E-02    0   0.9858   age045_m62            0.0000     2.8049E+00    12.1775   2.7192    75.6016
 37      0.0000     0.0000E+00    0.0000E+00    5.010000E+06  0.02000  3.296E-02    0   0.9342   age055_m62            0.0000     2.4828E+00    11.5211   2.3268    79.3834
 38      0.0000     0.0000E+00    0.0000E+00    8.710000E+06  0.02000  1.154E-02    0   0.8861   age067_m62            0.0000     3.4234E+00    13.4540   1.3607    83.4219
 39      0.0000     0.0000E+00    0.0000E+00    1.445000E+07  0.02000  7.663E-03    0   0.8472   age078_m62            0.0000     2.7342E+00    12.0623   1.5343    83.7823
 40      0.0000     0.0000E+00    0.0000E+00    2.512000E+07  0.02000  4.532E-03    0   0.8099   age090_m62            0.0000     2.8118E+00    12.1738   1.5329    83.3442
 41      0.0000     0.0000E+00    0.0000E+00    5.500000E+07  0.02000  2.733E-03    0   0.7595   age110_m62            0.0000     2.4574E+00    11.4018   1.5242    83.9347
 42      0.0000     0.0000E+00    0.0000E+00    1.609000E+08  0.02000  1.369E-03    0   0.6985   age120_m62            0.0000     2.2517E+00    10.9793   1.3488    86.8107
 43      0.0000     0.0000E+00    0.0000E+00    2.861200E+08  0.02000  9.013E-04    0   0.6714   age125_m62            0.0000     2.0973E+00    10.7822   1.0803    90.0540
 44     10.0248     1.4809E+00    1.7888E+00    5.088000E+08  0.02000  5.028E-04    0   0.6449   age130_m62            0.0000     1.7552E+00    10.3573   0.6654    94.0665
 45      0.0672     2.0567E-02    2.3803E-02    9.047900E+08  0.02000  2.428E-04    0   0.6179   age135_m62            0.0000     1.5947E+00    10.0574   0.0561    94.5733
 46      0.0000     0.0000E+00    0.0000E+00    1.434000E+09  0.02000  1.263E-04    0   0.5908   age139_m62            0.0000     1.6458E+00    10.2203  -0.3947    93.4560
 47      0.0000     0.0000E+00    0.0000E+00    2.500000E+09  0.02000  5.985E-05    0   0.5673   age150_m62            0.0000     1.7400E+00    10.5582  -0.7740    92.7031
 48      0.0000     0.0000E+00    0.0000E+00    4.250000E+09  0.02000  3.271E-05    0   0.5468   age158_m62            0.0000     1.9486E+00    11.1063  -1.0000    89.4258
 49      0.0000     0.0000E+00    0.0000E+00    1.000000E+10  0.02000  1.360E-05    0   0.5167   age181_m62            0.0000     2.8994E+00    13.0030  -1.0000    78.0267
 50      0.0000     0.0000E+00    0.0000E+00    1.800000E+10  0.02000  7.124E-06    0   0.5013   age213_m62            0.0000     3.8457E+00    14.6441  -1.0000    71.0603
 51      0.0000     0.0000E+00    0.0000E+00    1.000000E+06  0.05000  2.592E-02    0   0.9998   age020_m72            0.0000     2.8592E+00    12.3033   2.7767    74.7891
 52      0.0000     0.0000E+00    0.0000E+00    3.160000E+06  0.05000  4.845E-02    0   0.9577   age045_m72            0.0000     2.6801E+00    11.9467   2.5958    76.8385
 53      0.0000     0.0000E+00    0.0000E+00    5.010000E+06  0.05000  3.072E-02    0   0.9147   age055_m72            0.0000     2.7469E+00    12.0252   2.1331    80.1458
 54      0.0000     0.0000E+00    0.0000E+00    6.610000E+06  0.05000  1.455E-02    0   0.8877   age061_m72            0.0000     3.8686E+00    14.4344   1.4479    83.4909
 55      0.0000     0.0000E+00    0.0000E+00    1.000000E+07  0.05000  9.074E-03    0   0.8524   age070_m72            0.0000     2.8115E+00    12.1487   2.3423    79.4271
 56      0.0000     0.0000E+00    0.0000E+00    2.512000E+07  0.05000  4.250E-03    0   0.7902   age090_m72            0.0000     2.6710E+00    11.8386   2.0199    81.4656
 57      0.0000     0.0000E+00    0.0000E+00    4.000000E+07  0.05000  3.087E-03    0   0.7618   age104_m72            0.0000     2.6463E+00    11.7967   1.7887    82.9823
 58      0.0000     0.0000E+00    0.0000E+00    1.015200E+08  0.05000  1.700E-03    0   0.7096   age116_m72            0.0000     2.3488E+00    11.1889   1.5018    86.1010
 59      0.0000     0.0000E+00    0.0000E+00    2.861200E+08  0.05000  7.384E-04    0   0.6633   age125_m72            0.0000     1.9166E+00    10.5676   0.9299    92.0696
 60      0.0000     0.0000E+00    0.0000E+00    5.088000E+08  0.05000  3.819E-04    0   0.6372   age130_m72            0.0000     1.6447E+00    10.1355   0.4016    95.0683
 61      1.5581     6.9054E-01    7.9024E-01    9.047900E+08  0.05000  1.676E-04    0   0.6110   age135_m72            0.0000     1.6884E+00    10.3874  -0.3174    94.3511
 62      0.0000     0.0000E+00    0.0000E+00    1.434000E+09  0.05000  8.837E-05    0   0.5874   age139_m72            0.0000     1.7951E+00    10.7095  -0.7756    94.1136
 63      0.0000     0.0000E+00    0.0000E+00    2.500000E+09  0.05000  4.233E-05    0   0.5598   age150_m72            0.0000     2.0259E+00    11.3163  -1.0000    90.1952
 64      0.0000     0.0000E+00    0.0000E+00    6.250000E+09  0.05000  1.435E-05    0   0.5249   age166_m72            0.0000     3.2590E+00    13.7007  -1.0000    74.7404
 65      0.0000     0.0000E+00    0.0000E+00    1.300000E+10  0.05000  6.513E-06    0   0.5036   age193_m72            0.0000     4.6922E+00    16.0585  -1.0000    67.0912
 66      0.0000     0.0000E+00    0.0000E+00    1.800000E+10  0.05000  4.527E-06    0   0.4945   age213_m72            0.0000     5.6455E+00    17.5037  -1.0000    62.4171


## Synthesis Results - Average & Chains ##

# j      x_j: min, <> & last-chain-values for 1 ...  7 chains
  1      0.0000      0.0460      0.0000      0.0000      0.0000      0.0000      0.0000      0.0000      0.0000
  2      0.0000      0.0974      0.0000      0.0000      0.0000      0.0000      0.0000      0.0000      0.0000
  3      0.0000      0.0779      0.0000      0.0000      0.0000      0.0000      0.0000      0.8445      0.0000
  4      0.0000      0.0669      0.0000      0.0000      0.0000      0.0000      0.0000      0.0000      0.0000
  5      0.0000      0.0672      0.0000      0.0000      0.0000      0.0000      0.0000      0.0000      0.0000
  6      0.0000      0.0328      0.0000      0.0000      0.0000      0.0000      0.0000      0.0000      0.0000
  7      0.0000      0.0324      0.0000      0.0000      0.0000      0.0000      0.0000      0.0000      0.0000
  8      0.0000      0.0776      0.0000      0.0000      0.0506      0.0000      0.0000      0.0000      0.0000
  9      0.0000      0.1344      0.0000      0.0000      0.0000      0.0000      0.0000      0.0000      0.0000
 10      0.0000      0.1260      0.0000      0.0000      0.0000      0.0000      0.0000      0.0000      0.0675
 11      0.0000      0.2970      0.0000      0.0000      0.0000      0.2892      0.0000      0.0000      0.0000
 12      0.0000      0.2728      0.0000      0.0000      0.0000      0.0000      0.0000      0.0000      0.0000
 13      0.0014      3.2650      1.2112     10.0612      1.7726      3.5659      2.1538      1.2113      2.6241
 14      0.0638      6.8089      6.6504      7.6136      6.8346      9.1829     10.1413      7.9343      3.0512
 15     11.8584      4.9332     10.3385      5.2182      5.3099      3.7254      7.4560      9.1388      3.2040
 16      1.4324      2.2952      4.2486      5.1108      3.6511      0.2844      5.3587      4.4594      0.0000
 17      3.7070      3.0310      0.0000      2.8936      2.8201      6.5118      1.8112      4.2765      5.6639
 18      0.0000      0.0362      0.0000      0.0000      0.0000      0.0000      0.0000      0.0000      0.0000
 19      0.0000      0.0171      0.0000      0.0000      0.0000      0.0000      0.0000      0.0000      0.0000
 20      0.0000      0.0319      0.0000      0.0000      0.0000      0.0000      0.0000      0.0000      0.0000
 21      0.0000      0.0901      0.0000      0.0000      0.0000      0.0000      0.0000      0.0000      0.0000
 22      0.0000      0.0557      0.0000      0.0000      0.0000      0.0000      0.0000      0.0000      0.0000
 23      0.0000      0.0770      0.0000      0.0000      0.0000      0.0000      0.0781      0.0000      0.0000
 24      0.0000      0.0528      0.2621      0.0000      0.0000      0.0000      0.0000      0.0000      0.1366
 25      0.0000      0.0605      0.0000      0.0000      0.7854      0.0000      0.1154      0.0968      0.0000
 26      0.0000      0.0881      0.0000      0.0000      0.0000      0.0000      0.0000      0.0000      0.0000
 27      0.0000      0.1942      0.0000      0.0000      0.0000      0.0000      0.0000      0.0548      0.0000
 28     46.9767      9.8947     12.3483     14.4310     10.8145     13.1667     12.1345     10.9274     18.7780
 29      0.0000      4.2939      3.2462      4.2063      6.1629      0.3612      0.0000      3.0950      0.0000
 30      0.0052      4.9684      4.8392      4.8305      6.8514      5.4509      4.1762      2.8241      7.9260
 31      6.6793      3.4203      8.0151      0.5551      1.9852      1.6576      3.3186      1.6412      7.1554
 32     11.3620      1.4827      4.4162      1.2753      1.1930      6.9800      1.8184      0.0000      0.0000
 33      0.0000      0.6755      0.0000      0.0000      0.0000      0.0000      0.6535      3.5859      0.0000
 34      0.0000      0.4488      0.0000      0.0000      1.4268      0.0000      0.0035      0.0000      2.5227
 35      0.0000      0.0181      0.0000      0.0000      0.0000      0.0000      0.0000      0.0000      0.0000
 36      0.0000      0.0331      0.0000      0.0000      0.0000      0.0000      0.0000      0.0000      0.0000
 37      0.0000      0.0827      0.0000      0.0000      0.0000      0.0000      0.0000      0.0000      0.0000
 38      0.0000      0.0425      0.0000      0.0000      0.0000      0.0000      0.0000      0.0000      0.0000
 39      0.0000      0.0717      0.0000      0.0000      0.0000      0.0748      0.0000      0.0000      0.0000
 40      0.0000      0.0764      0.0000      0.0000      0.0000      0.0000      0.0000      0.0000      0.0000
 41      0.0000      0.0778      0.0000      0.0000      0.0000      0.0000      0.0000      0.0291      0.0000
 42      0.0000      0.1771      0.0000      0.0000      0.0000      0.0000      0.0000      0.0000      0.3012
 43      0.0000      0.3592      0.0000      0.0000      0.0000      0.0000      0.6681      0.0000      1.4672
 44     10.0248      7.5615     12.4207      5.3100      6.2476     10.0178      9.8067      8.4603      7.9578
 45      0.0672      7.9907      5.9000      8.8080     16.1279      5.7219     11.7835     13.0135      3.3879
 46      0.0000      3.1710      0.0000      5.8298      3.0597      0.0000      1.5298      0.0000      1.3869
 47      0.0000      1.1794      2.3242      0.6913      1.7455      0.2781      3.8257      0.0000      0.2038
 48      0.0000      1.8561      1.3544      2.2193      0.0000      1.8326      0.0000      1.9906      4.0673
 49      0.0000      0.5319      0.0000      0.0462      0.0000      0.0000      0.0000      0.0000      0.5606
 50      0.0000      0.1203      0.0000      0.0000      0.0000      0.0000      0.0000      0.0000      0.0000
 51      0.0000      0.0388      0.0000      0.0000      0.0000      0.0000      0.0000      0.0000      0.0000
 52      0.0000      0.0317      0.0000      0.0000      0.0000      0.0000      0.0000      0.0000      0.0000
 53      0.0000      0.0286      0.0000      0.0000      0.0000      0.0000      0.0000      0.0000      0.0000
 54      0.0000      0.0427      0.2193      0.0632      0.0000      0.0000      0.0000      0.0000      0.0000
 55      0.0000      0.0912      0.0000      0.0000      0.0000      0.0000      0.0000      0.0000      0.0000
 56      0.0000      0.0456      0.0000      0.0000      0.0000      0.0000      0.0000      0.0959      0.0000
 57      0.0000      0.0858      0.1425      0.0000      0.0000      0.0000      0.0000      0.0000      0.0000
 58      0.0000      0.2344      0.0000      0.0000      0.0175      0.0000      0.0000      0.0000      0.0000
 59      0.0000      0.2733      0.0000      0.0000      0.3479      0.0000      0.0000      0.1750      0.0000
 60      0.0000     10.9432      8.5388     10.9209     13.9039     13.4847     12.9093     12.1700     15.1176
 61      1.5581      6.4221      4.8020      0.0000      0.0000      7.5209      0.7786      6.1315      5.3956
 62      0.0000      1.0733      0.0000      0.6673      0.0000      0.0000      0.0000      0.0000      0.0654
 63      0.0000      3.1567      2.1751      2.7610      2.8061      3.6195      3.0775      1.1076      2.4880
 64      0.0000      0.1118      0.0000      0.0000      0.0000      0.1887      0.0000      0.0000      0.0883
 65      0.0000      0.0756      0.0000      0.0000      0.0226      0.2008      0.0000      0.0000      0.0000
 66      0.0000      0.0159      0.0000      0.0000      0.0000      0.0000      0.0000      0.0000      0.0000

# j      m_j: min, <> & last-chain-values for 1 ...  7 chains
  1  0.0000E+00  5.9643E-04  0.0000E+00  0.0000E+00  0.0000E+00  0.0000E+00  0.0000E+00  0.0000E+00  0.0000E+00
  2  0.0000E+00  3.4487E-04  0.0000E+00  0.0000E+00  0.0000E+00  0.0000E+00  0.0000E+00  0.0000E+00  0.0000E+00
  3  0.0000E+00  4.1312E-04  0.0000E+00  0.0000E+00  0.0000E+00  0.0000E+00  0.0000E+00  3.9270E-03  0.0000E+00
  4  0.0000E+00  3.3404E-04  0.0000E+00  0.0000E+00  0.0000E+00  0.0000E+00  0.0000E+00  0.0000E+00  0.0000E+00
  5  0.0000E+00  6.3849E-04  0.0000E+00  0.0000E+00  0.0000E+00  0.0000E+00  0.0000E+00  0.0000E+00  0.0000E+00
  6  0.0000E+00  5.0600E-04  0.0000E+00  0.0000E+00  0.0000E+00  0.0000E+00  0.0000E+00  0.0000E+00  0.0000E+00
  7  0.0000E+00  7.1576E-04  0.0000E+00  0.0000E+00  0.0000E+00  0.0000E+00  0.0000E+00  0.0000E+00  0.0000E+00
  8  0.0000E+00  2.3668E-03  0.0000E+00  0.0000E+00  1.6008E-03  0.0000E+00  0.0000E+00  0.0000E+00  0.0000E+00
  9  0.0000E+00  4.6959E-03  0.0000E+00  0.0000E+00  0.0000E+00  0.0000E+00  0.0000E+00  0.0000E+00  0.0000E+00
 10  0.0000E+00  5.7795E-03  0.0000E+00  0.0000E+00  0.0000E+00  0.0000E+00  0.0000E+00  0.0000E+00  2.8117E-03
 11  0.0000E+00  2.5627E-02  0.0000E+00  0.0000E+00  0.0000E+00  2.3358E-02  0.0000E+00  0.0000E+00  0.0000E+00
 12  0.0000E+00  3.7329E-02  0.0000E+00  0.0000E+00  0.0000E+00  0.0000E+00  0.0000E+00  0.0000E+00  0.0000E+00
 13  5.2343E-04  1.2594E+00  4.6745E-01  4.1254E+00  7.0912E-01  1.2877E+00  8.3164E-01  4.0990E-01  9.1931E-01
 14  8.1019E-02  8.8093E+00  8.6088E+00  1.0471E+01  9.1706E+00  1.1122E+01  1.3134E+01  9.0057E+00  3.5852E+00
 15  2.4497E+01  1.0390E+01  2.1787E+01  1.1683E+01  1.1599E+01  7.3455E+00  1.5720E+01  1.6886E+01  6.1288E+00
 16  5.0033E+00  8.1738E+00  1.5139E+01  1.9347E+01  1.3485E+01  9.4811E-01  1.9103E+01  1.3932E+01  0.0000E+00
 17  1.6797E+01  1.4003E+01  0.0000E+00  1.4210E+01  1.3512E+01  2.8163E+01  8.3761E+00  1.7333E+01  2.3765E+01
 18  0.0000E+00  4.1503E-04  0.0000E+00  0.0000E+00  0.0000E+00  0.0000E+00  0.0000E+00  0.0000E+00  0.0000E+00
 19  0.0000E+00  7.8805E-05  0.0000E+00  0.0000E+00  0.0000E+00  0.0000E+00  0.0000E+00  0.0000E+00  0.0000E+00
 20  0.0000E+00  1.6023E-04  0.0000E+00  0.0000E+00  0.0000E+00  0.0000E+00  0.0000E+00  0.0000E+00  0.0000E+00
 21  0.0000E+00  5.4925E-04  0.0000E+00  0.0000E+00  0.0000E+00  0.0000E+00  0.0000E+00  0.0000E+00  0.0000E+00
 22  0.0000E+00  5.7350E-04  0.0000E+00  0.0000E+00  0.0000E+00  0.0000E+00  0.0000E+00  0.0000E+00  0.0000E+00
 23  0.0000E+00  1.0712E-03  0.0000E+00  0.0000E+00  0.0000E+00  0.0000E+00  1.0881E-03  0.0000E+00  0.0000E+00
 24  0.0000E+00  1.0926E-03  5.4294E-03  0.0000E+00  0.0000E+00  0.0000E+00  0.0000E+00  0.0000E+00  2.5677E-03
 25  0.0000E+00  1.7260E-03  0.0000E+00  0.0000E+00  2.3253E-02  0.0000E+00  3.2988E-03  2.4247E-03  0.0000E+00
 26  0.0000E+00  4.2023E-03  0.0000E+00  0.0000E+00  0.0000E+00  0.0000E+00  0.0000E+00  0.0000E+00  0.0000E+00
 27  0.0000E+00  1.8552E-02  0.0000E+00  0.0000E+00  0.0000E+00  0.0000E+00  0.0000E+00  4.5896E-03  0.0000E+00
 28  1.2771E+01  2.7426E+00  3.4246E+00  4.2519E+00  3.1088E+00  3.4165E+00  3.3668E+00  2.6572E+00  4.7272E+00
 29  0.0000E+00  2.0738E+00  1.5686E+00  2.1594E+00  3.0868E+00  1.6332E-01  0.0000E+00  1.3113E+00  0.0000E+00
 30  5.1627E-03  5.0133E+00  4.8856E+00  5.1811E+00  7.1699E+00  5.1490E+00  4.2182E+00  2.4999E+00  7.2636E+00
 31  1.1628E+01  6.0711E+00  1.4234E+01  1.0474E+00  3.6544E+00  2.7544E+00  5.8963E+00  2.5556E+00  1.1535E+01
 32  2.6614E+01  3.5410E+00  1.0553E+01  3.2376E+00  2.9550E+00  1.5606E+01  4.3473E+00  0.0000E+00  0.0000E+00
 33  0.0000E+00  3.5716E+00  0.0000E+00  0.0000E+00  0.0000E+00  0.0000E+00  3.4587E+00  1.6632E+01  0.0000E+00
 34  0.0000E+00  3.2131E+00  0.0000E+00  0.0000E+00  1.0594E+01  0.0000E+00  2.5174E-02  0.0000E+00  1.6403E+01
 35  0.0000E+00  1.6632E-04  0.0000E+00  0.0000E+00  0.0000E+00  0.0000E+00  0.0000E+00  0.0000E+00  0.0000E+00
 36  0.0000E+00  1.2317E-04  0.0000E+00  0.0000E+00  0.0000E+00  0.0000E+00  0.0000E+00  0.0000E+00  0.0000E+00
 37  0.0000E+00  3.3248E-04  0.0000E+00  0.0000E+00  0.0000E+00  0.0000E+00  0.0000E+00  0.0000E+00  0.0000E+00
 38  0.0000E+00  4.6241E-04  0.0000E+00  0.0000E+00  0.0000E+00  0.0000E+00  0.0000E+00  0.0000E+00  0.0000E+00
 39  0.0000E+00  1.1249E-03  0.0000E+00  0.0000E+00  0.0000E+00  1.0979E-03  0.0000E+00  0.0000E+00  0.0000E+00
 40  0.0000E+00  1.9377E-03  0.0000E+00  0.0000E+00  0.0000E+00  0.0000E+00  0.0000E+00  0.0000E+00  0.0000E+00
 41  0.0000E+00  3.0678E-03  0.0000E+00  0.0000E+00  0.0000E+00  0.0000E+00  0.0000E+00  1.0056E-03  0.0000E+00
 42  0.0000E+00  1.2815E-02  0.0000E+00  0.0000E+00  0.0000E+00  0.0000E+00  0.0000E+00  0.0000E+00  1.9800E-02
 43  0.0000E+00  3.7957E-02  0.0000E+00  0.0000E+00  0.0000E+00  0.0000E+00  7.0666E-02  0.0000E+00  1.4079E-01
 44  1.7888E+00  1.3757E+00  2.2609E+00  1.0269E+00  1.1788E+00  1.7062E+00  1.7859E+00  1.3503E+00  1.3149E+00
 45  2.3803E-02  2.8845E+00  2.1309E+00  3.3797E+00  6.0377E+00  1.9336E+00  4.2578E+00  4.1211E+00  1.1107E+00
 46  0.0000E+00  2.1040E+00  0.0000E+00  4.1117E+00  2.1054E+00  0.0000E+00  1.0160E+00  0.0000E+00  8.3575E-01
 47  0.0000E+00  1.5857E+00  3.1265E+00  9.8796E-01  2.4338E+00  3.5004E-01  5.1487E+00  0.0000E+00  2.4881E-01
 48  0.0000E+00  4.4010E+00  3.2131E+00  5.5936E+00  0.0000E+00  4.0679E+00  0.0000E+00  4.1408E+00  8.7589E+00
 49  0.0000E+00  2.8664E+00  0.0000E+00  2.6463E-01  0.0000E+00  0.0000E+00  0.0000E+00  0.0000E+00  2.7436E+00
 50  0.0000E+00  1.2007E+00  0.0000E+00  0.0000E+00  0.0000E+00  0.0000E+00  0.0000E+00  0.0000E+00  0.0000E+00
 51  0.0000E+00  2.1209E-04  0.0000E+00  0.0000E+00  0.0000E+00  0.0000E+00  0.0000E+00  0.0000E+00  0.0000E+00
 52  0.0000E+00  8.8860E-05  0.0000E+00  0.0000E+00  0.0000E+00  0.0000E+00  0.0000E+00  0.0000E+00  0.0000E+00
 53  0.0000E+00  1.2066E-04  0.0000E+00  0.0000E+00  0.0000E+00  0.0000E+00  0.0000E+00  0.0000E+00  0.0000E+00
 54  0.0000E+00  3.6949E-04  1.8986E-03  5.8138E-04  0.0000E+00  0.0000E+00  0.0000E+00  0.0000E+00  0.0000E+00
 55  0.0000E+00  1.2149E-03  0.0000E+00  0.0000E+00  0.0000E+00  0.0000E+00  0.0000E+00  0.0000E+00  0.0000E+00
 56  0.0000E+00  1.2029E-03  0.0000E+00  0.0000E+00  0.0000E+00  0.0000E+00  0.0000E+00  2.2195E-03  0.0000E+00
 57  0.0000E+00  3.0047E-03  4.9891E-03  0.0000E+00  0.0000E+00  0.0000E+00  0.0000E+00  0.0000E+00  0.0000E+00
 58  0.0000E+00  1.3876E-02  0.0000E+00  0.0000E+00  1.0734E-03  0.0000E+00  0.0000E+00  0.0000E+00  0.0000E+00
 59  0.0000E+00  3.4821E-02  0.0000E+00  0.0000E+00  4.5976E-02  0.0000E+00  0.0000E+00  1.9567E-02  0.0000E+00
 60  0.0000E+00  2.5899E+00  2.0219E+00  2.7473E+00  3.4126E+00  2.9876E+00  3.0582E+00  2.5268E+00  3.2494E+00
 61  7.9024E-01  3.3209E+00  2.4844E+00  0.0000E+00  0.0000E+00  3.6407E+00  4.0304E-01  2.7815E+00  2.5340E+00
 62  0.0000E+00  1.0120E+00  0.0000E+00  6.6876E-01  0.0000E+00  0.0000E+00  0.0000E+00  0.0000E+00  5.6026E-02
 63  0.0000E+00  5.9215E+00  4.0823E+00  5.5054E+00  5.4590E+00  6.3561E+00  5.7785E+00  1.8227E+00  4.2386E+00
 64  0.0000E+00  5.7993E-01  0.0000E+00  0.0000E+00  0.0000E+00  9.1652E-01  0.0000E+00  0.0000E+00  4.1613E-01
 65  0.0000E+00  8.2911E-01  0.0000E+00  0.0000E+00  2.5677E-01  2.0619E+00  0.0000E+00  0.0000E+00  0.0000E+00
 66  0.0000E+00  2.4587E-01  0.0000E+00  0.0000E+00  0.0000E+00  0.0000E+00  0.0000E+00  0.0000E+00  0.0000E+00

# AV, chi2 & Mass for <> & i_chain = 1 ...  7 solutions
AV      -0.3044     -0.3428     -0.3768     -0.3418     -0.3236     -0.3678     -0.3271     -0.3451     -0.3403
chi2 1.5816E+00  1.5929E+00  1.5885E+00  1.5894E+00  1.5890E+00  1.5894E+00  1.5870E+00  1.5886E+00  1.5892E+00
Mass 1.5553E-13  1.4487E-13  1.3832E-13  1.3648E-13  1.4334E-13  1.4964E-13  1.4781E-13  1.6463E-13  1.6005E-13
 134.85                                  [v0_min (km/s) before EX0s...]
 121.41                                  [vd_min (km/s) before EX0s...]


## Synthetic spectrum (Best Model) ##l_obs f_obs f_syn wei
 3478    [Nl_obs]
 3741.00    0.00000   0.50161   -2.000
 3742.00    0.00000   0.52982   -2.000
 3743.00    0.00000   0.53543   -2.000
 3744.00    0.00000   0.52172   -2.000
 3745.00    0.00000   0.49696   -2.000
 3746.00    0.00000   0.46821   -2.000
 3747.00    0.00000   0.43878   -2.000
 3748.00    0.00000   0.40826   -2.000
 3749.00    0.00000   0.37636   -2.000
 3750.00    0.00000   0.35032   -2.000
 3751.00    0.00000   0.34289   -2.000
 3752.00    0.00000   0.36260   -2.000
 3753.00    0.00000   0.40593   -2.000
 3754.00    0.00000   0.46006   -2.000
 3755.00    0.00000   0.51132   -2.000
 3756.00    0.00000   0.54861   -2.000
 3757.00    0.00000   0.56367   -2.000
 3758.00    0.00000   0.55491   -2.000
 3759.00    0.00000   0.53284   -2.000
 3760.00    0.00000   0.51480   -2.000
 3761.00    0.00000   0.51166   -2.000
 3762.00    0.00000   0.52133   -2.000
 3763.00    0.00000   0.53386   -2.000
 3764.00    0.00000   0.54109   -2.000
 3765.00    0.00000   0.54134   -2.000
 3766.00    0.00000   0.53507   -2.000
 3767.00    0.00000   0.52151   -2.000
 3768.00    0.00000   0.50190   -2.000
 3769.00    0.00000   0.47983   -2.000
 3770.00    0.00000   0.45941   -2.000
 3771.00    0.00000   0.44571   -2.000
 3772.00    0.00000   0.44492   -2.000
 3773.00    0.00000   0.46039   -2.000
 3774.00    0.00000   0.48834   -2.000
 3775.00    0.00000   0.51960   -2.000
 3776.00    0.00000   0.54709   -2.000
 3777.00    0.00000   0.57059   -2.000
 3778.00    0.00000   0.59310   -2.000
 3779.00    0.00000   0.61641   -2.000
 3780.00    0.00000   0.64038   -2.000
 3781.00    0.00000   0.66302   -2.000
 3782.00    0.00000   0.68143   -2.000
 3783.00    0.00000   0.69379   -2.000
 3784.00    0.00000   0.69978   -2.000
 3785.00    0.00000   0.69831   -2.000
 3786.00    0.00000   0.68586   -2.000
 3787.00    0.00000   0.66145   -2.000
 3788.00    0.00000   0.63095   -2.000
 3789.00    0.00000   0.60319   -2.000
 3790.00    0.79360   0.58422   -1.000
 3791.00    1.04107   0.57413   -1.000
 3792.00    1.06752   0.56812   -1.000
 3793.00    0.89296   0.55907   -1.000
 3794.00    0.75918   0.54105   -1.000
 3795.00    0.76358   0.51274   -1.000
 3796.00    0.67622   0.47805   -1.000
 3797.00    0.51419   0.44228   19.448
 3798.00    0.68071   0.41041   -1.000
 3799.00    0.83042   0.39029   -1.000
 3800.00    0.62567   0.39143   -1.000
 3801.00    0.39671   0.41807   25.207
 3802.00    0.39284   0.46415   25.456
 3803.00    0.54820   0.51702   18.241
 3804.00    0.62928   0.56462   15.891
 3805.00    0.57513   0.59941   17.387
 3806.00    0.41723   0.61919   -1.000
 3807.00    0.22077   0.62693   -1.000
 3808.00    0.17517   0.63159   -1.000
 3809.00    0.44122   0.64294   -1.000
 3810.00    0.94126   0.66323   -1.000
 3811.00    1.28850   0.68540   -1.000
 3812.00    1.36129   0.69763   -1.000
 3813.00    1.35195   0.69197   -1.000
 3814.00    1.29872   0.67015   -1.000
 3815.00    1.21124   0.64232   -1.000
 3816.00    1.08965   0.62066   -1.000
 3817.00    0.84134   0.61347   -1.000
 3818.00    0.53385   0.61932   18.732
 3819.00    0.43579   0.62733   22.947
 3820.00    0.72592   0.62637   13.776
 3821.00    0.88151   0.61474   -1.000
 3822.00    0.56506   0.60130   17.697
 3823.00    0.52607   0.59337   19.009
 3824.00    0.78828   0.58715   -1.000
 3825.00    0.90531   0.57376   -1.000
 3826.00    0.93058   0.55123   -1.000
 3827.00    0.81422   0.52662   -1.000
 3828.00    0.56084   0.50750   17.830
 3829.00    0.45916   0.49467   21.779
 3830.00    0.51589   0.48403   19.384
 3831.00    0.55993   0.47077   17.859
 3832.00    0.52380   0.45038   19.091
 3833.00    0.44440   0.42130   22.502
 3834.00    0.39825   0.38751   25.110
 3835.00    0.40919   0.35729   24.439
 3836.00    0.36710   0.33922   27.241
 3837.00    0.19433   0.33639   -1.000
 3838.00   -0.00552   0.34570   -2.000
 3839.00    0.01076   0.36268   -1.000
 3840.00    0.27029   0.38486   36.997
 3841.00    0.50837   0.41300   19.671
 3842.00    0.53680   0.44938   18.629
 3843.00    0.50128   0.49247   19.949
 3844.00    0.65089   0.53620   15.364
 3845.00    0.80426   0.57393   -1.000
 3846.00    0.78260   0.60185   -1.000
 3847.00    0.66353   0.62179    0.000
 3848.00    0.63251   0.63700    0.000
 3849.00    0.71264   0.64761    0.000
 3850.00    0.76995   0.65310    0.000
 3851.00    0.73420   0.65642    0.000
 3852.00    0.69086   0.66284    0.000
 3853.00    0.71870   0.67378    0.000
 3854.00    0.72703   0.68405    0.000
 3855.00    0.80212   0.68675    0.000
 3856.00    1.02130   0.68033    0.000
 3857.00    1.15050   0.66967    0.000
 3858.00    1.07213   0.65919    0.000
 3859.00    0.90149   0.64956    0.000
 3860.00    0.81846   0.64232    0.000
 3861.00    0.78818   0.64199    0.000
 3862.00    0.77264   0.65335    0.000
 3863.00    0.89229   0.67525    0.000
 3864.00    1.03133   0.69835    0.000
 3865.00    1.04740   0.71284    0.000
 3866.00    0.98950   0.71648    0.000
 3867.00    0.86291   0.71419    0.000
 3868.00    0.73416   0.71147    0.000
 3869.00    0.77065   0.70949    0.000
 3870.00    0.97418   0.70446    0.000
 3871.00    1.11081   0.69173    0.000
 3872.00    0.99750   0.67130    0.000
 3873.00    0.98742   0.64969    0.000
 3874.00    1.16050   0.63693    0.000
 3875.00    1.15794   0.63771    0.000
 3876.00    1.03034   0.64651    0.000
 3877.00    0.89239   0.65051    0.000
 3878.00    0.72952   0.64022    0.000
 3879.00    0.61525   0.61905    0.000
 3880.00    0.58083   0.59913    0.000
 3881.00    0.51922   0.58781   19.260
 3882.00    0.28615   0.58252   -1.000
 3883.00    0.13482   0.57586   -1.000
 3884.00    0.32599   0.56353   -1.000
 3885.00    0.46588   0.54509   21.465
 3886.00    0.41827   0.51888   23.908
 3887.00    0.34929   0.48414   -1.000
 3888.00    0.24387   0.44578   -1.000
 3889.00    0.21491   0.41434   -1.000
 3890.00    0.35424   0.40057   28.230
 3891.00    0.49311   0.40944   20.279
 3892.00    0.63381   0.43840   -1.000
 3893.00    0.77142   0.47819   -1.000
 3894.00    0.70194   0.51633   -1.000
 3895.00    0.59531   0.54527   16.798
 3896.00    0.63650   0.56589   15.711
 3897.00    0.64987   0.58340   15.388
 3898.00    0.61468   0.60045   16.269
 3899.00    0.63052   0.61609   15.860
 3900.00    0.70468   0.62934   14.191
 3901.00    0.72131   0.64165   13.864
 3902.00    0.70223   0.65504   14.240
 3903.00    0.81784   0.66725   12.227
 3904.00    0.94926   0.67422   -1.000
 3905.00    0.95513   0.67425   -1.000
 3906.00    0.90851   0.67096   -1.000
 3907.00    0.95628   0.67243   -1.000
 3908.00    1.03097   0.68437   -1.000
 3909.00    0.93181   0.70734   -1.000
 3910.00    0.75524   0.73571   13.241
 3911.00    0.62272   0.76083   16.058
 3912.00    0.57021   0.77758   17.537
 3913.00    0.68385   0.78473   14.623
 3914.00    0.81694   0.78338   12.241
 3915.00    0.77753   0.77650   12.861
 3916.00    0.76679   0.76745   13.041
 3917.00    0.80126   0.75866   12.480
 3918.00    0.72817   0.75009   13.733
 3919.00    0.64678   0.73984   15.461
 3920.00    0.61647   0.72777   16.221
 3921.00    0.63437   0.71575   15.764
 3922.00    0.75406   0.70683   13.262
 3923.00    0.85897   0.70352   11.642
 3924.00    0.83036   0.70506   12.043
 3925.00    0.78411   0.70647   12.753
 3926.00    0.79365   0.70073   12.600
 3927.00    0.79273   0.68300   12.615
 3928.00    0.68991   0.65175   14.495
 3929.00    0.62982   0.60906   15.878
 3930.00    0.71353   0.55799   14.015
 3931.00    0.76589   0.50027   -1.000
 3932.00    0.67937   0.43773   -1.000
 3933.00    0.47849   0.37452   20.899
 3934.00    0.27360   0.32060   36.550
 3935.00    0.22276   0.29056   -1.000
 3936.00    0.29012   0.29554   34.468
 3937.00    0.26477   0.33565   37.768
 3938.00    0.20517   0.39925   -1.000
 3939.00    0.29217   0.47025   -1.000
 3940.00    0.53441   0.53601   18.712
 3941.00    0.64010   0.58902   15.623
 3942.00    0.57061   0.62583   17.525
 3943.00    0.59454   0.64663   16.820
 3944.00    0.70048   0.65609   14.276
 3945.00    0.75919   0.66297   13.172
 3946.00    0.73464   0.67468   13.612
 3947.00    0.71500   0.69156   13.986
 3948.00    0.72679   0.70782   13.759
 3949.00    0.74286   0.71797   13.462
 3950.00    0.81120   0.72253   12.327
 3951.00    0.86248   0.72585   11.594
 3952.00    0.80562   0.72941   12.413
 3953.00    0.75357   0.73158   13.270
 3954.00    0.78860   0.73192   12.681
 3955.00    0.88288   0.73067   11.327
 3956.00    0.95851   0.72603   10.433
 3957.00    0.92407   0.71602   10.822
 3958.00    0.82143   0.70245   12.174
 3959.00    0.83391   0.68973   11.992
 3960.00    0.83003   0.67755    0.000
 3961.00    0.70417   0.65860    0.000
 3962.00    0.69301   0.62708    0.000
 3963.00    0.73897   0.58554    0.000
 3964.00    0.68617   0.54126    0.000
 3965.00    0.59901   0.49771    0.000
 3966.00    0.53306   0.45150    0.000
 3967.00    0.50360   0.39807    0.000
 3968.00    0.51675   0.33940    0.000
 3969.00    0.55337   0.28523    0.000
 3970.00    0.62213   0.24901    0.000
 3971.00    0.70133   0.24075    0.000
 3972.00    0.58318   0.26203    0.000
 3973.00    0.39239   0.30595    0.000
 3974.00    0.50704   0.36180    0.000
 3975.00    0.69802   0.42032    0.000
 3976.00    0.76563   0.47595    0.000
 3977.00    0.82364   0.52640    0.000
 3978.00    0.85379   0.57188    0.000
 3979.00    0.82904   0.61348    0.000
 3980.00    0.77143   0.65130    0.000
 3981.00    0.66961   0.68282   14.934
 3982.00    0.63065   0.70458   15.857
 3983.00    0.68773   0.71658   14.541
 3984.00    0.53922   0.72345   18.545
 3985.00    0.27029   0.73126   -1.000
 3986.00    0.23387   0.74305   -1.000
 3987.00    0.42154   0.75777   -1.000
 3988.00    0.65940   0.77331   15.165
 3989.00    0.80909   0.78792   12.360
 3990.00    0.87646   0.80027   11.410
 3991.00    1.04049   0.81045    9.611
 3992.00    1.28179   0.81990   -1.000
 3993.00    1.23205   0.83013   -1.000
 3994.00    1.03697   0.83938    9.644
 3995.00    0.97773   0.84329   10.228
 3996.00    0.91184   0.83926   10.967
 3997.00    0.75910   0.82907   13.174
 3998.00    0.60835   0.81882   16.438
 3999.00    0.58703   0.81588   -1.000
 4000.00    0.69593   0.82432   14.369
 4001.00    0.82457   0.84151   12.128
 4002.00    0.86996   0.85986   11.495
 4003.00    0.87430   0.87162   11.438
 4004.00    0.86607   0.87208   11.546
 4005.00    0.80575   0.86028   12.411
 4006.00    0.77690   0.84100   12.872
 4007.00    0.86485   0.82540   11.563
 4008.00    1.02651   0.82427    9.742
 4009.00    1.10909   0.83876    9.016
 4010.00    1.09632   0.85984    9.121
 4011.00    1.08807   0.87722    9.191
 4012.00    1.03046   0.88682    9.704
 4013.00    0.94891   0.89028   10.538
 4014.00    0.93779   0.89124   10.663
 4015.00    0.91034   0.89247   10.985
 4016.00    0.79074   0.89492   12.646
 4017.00    0.69103   0.89756   14.471
 4018.00    0.84822   0.89969   11.789
 4019.00    1.03825   0.90267    9.632
 4020.00    0.94826   0.90789   10.546
 4021.00    0.85276   0.91391   11.727
 4022.00    0.84689   0.91674   11.808
 4023.00    0.85745   0.91388   11.663
 4024.00    1.00000   0.90679   10.000
 4025.00    1.17877   0.89978    8.483
 4026.00    1.14492   0.89787    8.734
 4027.00    0.85713   0.90373   11.667
 4028.00    0.73692   0.91416   13.570
 4029.00    0.97682   0.92008   10.237
 4030.00    1.12360   0.91226    8.900
 4031.00    1.10269   0.88904    9.069
 4032.00    1.10996   0.85846    9.009
 4033.00    1.18136   0.83274   -1.000
 4034.00    1.18853   0.82107   -1.000
 4035.00    1.09265   0.82600   -1.000
 4036.00    1.03942   0.84508    9.621
 4037.00    1.08745   0.87344    9.196
 4038.00    1.11266   0.90395    8.987
 4039.00    0.97693   0.92829   10.236
 4040.00    0.86752   0.94039   11.527
 4041.00    0.91860   0.93984   10.886
 4042.00    1.00691   0.93150    9.931
 4043.00    0.99832   0.91942   10.017
 4044.00    0.91977   0.90192   10.872
 4045.00    0.90797   0.87527   11.014
 4046.00    0.99246   0.84328   10.076
 4047.00    1.11622   0.82043    8.959
 4048.00    1.17394   0.82053   -1.000
 4049.00    1.08363   0.84350    9.228
 4050.00    1.07981   0.87570    9.261
 4051.00    1.31291   0.90189   -1.000
 4052.00    1.29866   0.91456   -1.000
 4053.00    0.96117   0.91371   10.404
 4054.00    0.73093   0.90318   13.681
 4055.00    0.86740   0.88848   11.529
 4056.00    1.09025   0.87468    9.172
 4057.00    1.07120   0.86436    9.335
 4058.00    0.99895   0.85801   10.010
 4059.00    0.99145   0.85655   10.086
 4060.00    1.00331   0.86121    9.967
 4061.00    0.99878   0.86967   10.012
 4062.00    0.94421   0.87373   10.591
 4063.00    0.85146   0.86510   11.745
 4064.00    0.79669   0.84488   12.552
 4065.00    0.82404   0.82484   12.135
 4066.00    0.92086   0.81691   10.859
 4067.00    1.03115   0.82308    9.698
 4068.00    1.08600   0.83715    9.208
 4069.00    1.09701   0.85257    9.116
 4070.00    1.13648   0.86467    8.799
 4071.00    1.14679   0.86850    8.720
 4072.00    1.05995   0.86202    9.434
 4073.00    0.92174   0.85088   10.849
 4074.00    0.86835   0.84381   11.516
 4075.00    0.99589   0.84176   10.041
 4076.00    1.21814   0.83591   -1.000
 4077.00    1.24160   0.81869   -1.000
 4078.00    1.06293   0.79449    9.408
 4079.00    0.93257   0.77755   10.723
 4080.00    0.81705   0.77992   12.239
 4081.00    0.71125   0.80104   14.060
 4082.00    0.69917   0.82844   14.303
 4083.00    0.71893   0.84744   13.910
 4084.00    0.72071   0.85095   13.875
 4085.00    0.74098   0.84262   13.496
 4086.00    0.84014   0.83245   11.903
 4087.00    1.00156   0.82929    9.984
 4088.00    1.12771   0.83560    8.868
 4089.00    1.12699   0.84693    8.873
 4090.00    1.04418   0.85554    9.577
 4091.00    0.97051   0.85560   10.304
 4092.00    0.90433   0.84636    0.000
 4093.00    0.83900   0.83109    0.000
 4094.00    0.77408   0.81333    0.000
 4095.00    0.70768   0.79364    0.000
 4096.00    0.69515   0.77004    0.000
 4097.00    0.73607   0.74146    0.000
 4098.00    0.72037   0.70949    0.000
 4099.00    0.64254   0.67565    0.000
 4100.00    0.63087   0.63870    0.000
 4101.00    0.75735   0.59752    0.000
 4102.00    0.72468   0.55703    0.000
 4103.00    0.48295   0.52951    0.000
 4104.00    0.41883   0.52721    0.000
 4105.00    0.53162   0.55226    0.000
 4106.00    0.63093   0.59505    0.000
 4107.00    0.64225   0.64140    0.000
 4108.00    0.60293   0.68052    0.000
 4109.00    0.57336   0.70804    0.000
 4110.00    0.59663   0.72510    0.000
 4111.00    0.70898   0.73605    0.000
 4112.00    0.83768   0.74632    0.000
 4113.00    0.86752   0.76006   11.527
 4114.00    0.83790   0.77840   11.935
 4115.00    0.81972   0.79937   12.199
 4116.00    0.83618   0.81901   11.959
 4117.00    0.87299   0.83308   11.455
 4118.00    0.87184   0.83862   11.470
 4119.00    0.82106   0.83577   12.179
 4120.00    0.82577   0.82887   12.110
 4121.00    0.85775   0.82408   11.658
 4122.00    0.84055   0.82464   11.897
 4123.00    0.83873   0.82953   11.923
 4124.00    0.81004   0.83666   12.345
 4125.00    0.73260   0.84474   13.650
 4126.00    0.74628   0.85188   13.400
 4127.00    0.72929   0.85476   13.712
 4128.00    0.60253   0.85131   -1.000
 4129.00    0.61482   0.84329   16.265
 4130.00    0.73398   0.83455   13.624
 4131.00    0.78492   0.82699   12.740
 4132.00    0.74819   0.81949   13.366
 4133.00    0.65327   0.81168   15.308
 4134.00    0.59713   0.80714   16.747
 4135.00    0.69594   0.81150   14.369
 4136.00    0.86188   0.82680   11.603
 4137.00    0.97150   0.84969   10.293
 4138.00    1.02287   0.87371    9.776
 4139.00    1.06524   0.89361    9.388
 4140.00    1.08574   0.90688    9.210
 4141.00    1.03068   0.91082    9.702
 4142.00    0.96046   0.90231   10.412
 4143.00    0.90390   0.88097   11.063
 4144.00    0.83195   0.85339   12.020
 4145.00    0.79947   0.83238   12.508
 4146.00    0.80054   0.82844   12.492
 4147.00    0.78296   0.84116   12.772
 4148.00    0.80403   0.86013   12.437
 4149.00    0.83516   0.87434   11.974
 4150.00    0.84348   0.87929   11.856
 4151.00    0.98362   0.87736   10.166
 4152.00    1.10400   0.87313    9.058
 4153.00    0.99952   0.86859   10.005
 4154.00    0.94773   0.86300   10.552
 4155.00    1.03992   0.85603    9.616
 4156.00    1.12034   0.84954    8.926
 4157.00    1.12216   0.84696   -1.000
 4158.00    1.05209   0.85027    9.505
 4159.00    0.93687   0.85915   10.674
 4160.00    0.81649   0.87124   12.248
 4161.00    0.81388   0.88324   12.287
 4162.00    0.91134   0.89310   10.973
 4163.00    0.89152   0.90054   11.217
 4164.00    0.88311   0.90617   11.324
 4165.00    0.98552   0.90922   10.147
 4166.00    0.97119   0.90825   10.297
 4167.00    0.87116   0.90300   11.479
 4168.00    0.82001   0.89511   12.195
 4169.00    0.82274   0.88768   12.155
 4170.00    0.88306   0.88180   11.324
 4171.00    0.94900   0.87373   10.537
 4172.00    0.92478   0.85815   10.813
 4173.00    0.84414   0.83526   11.846
 4174.00    0.79041   0.81291   12.652
 4175.00    0.78953   0.80092   12.666
 4176.00    0.78644   0.80218   12.715
 4177.00    0.75399   0.81098   13.263
 4178.00    0.74516   0.81980   13.420
 4179.00    0.82621   0.82585   12.104
 4180.00    0.91539   0.83164   10.924
 4181.00    0.87960   0.83933   11.369
 4182.00    0.79395   0.84730   12.595
 4183.00    0.74685   0.85283   13.390
 4184.00    0.76973   0.85616   12.992
 4185.00    0.88839   0.85941   11.256
 4186.00    0.98875   0.86226   10.114
 4187.00    0.98342   0.86205   10.169
 4188.00    1.01589   0.85737    9.844
 4189.00    1.02567   0.85200    9.750
 4190.00    0.89791   0.85203   11.137
 4191.00    0.79653   0.85910   12.554
 4192.00    0.80649   0.87034   12.399
 4193.00    0.86875   0.88218   11.511
 4194.00    0.90509   0.89200   11.049
 4195.00    0.88742   0.89597   11.269
 4196.00    0.86444   0.88986   11.568
 4197.00    0.90792   0.87336   11.014
 4198.00    0.95352   0.85153   10.487
 4199.00    0.94281   0.83136   10.607
 4200.00    0.93081   0.81804   10.743
 4201.00    0.91200   0.81349   10.965
 4202.00    0.88540   0.81547   11.294
 4203.00    0.89055   0.82035   11.229
 4204.00    0.87620   0.82695   11.413
 4205.00    0.84476   0.83582   11.838
 4206.00    0.88125   0.84707   11.348
 4207.00    0.93711   0.86023   10.671
 4208.00    0.94057   0.87348   10.632
 4209.00    0.87289   0.88422   11.456
 4210.00    0.72642   0.89092   13.766
 4211.00    0.67222   0.89393   14.876
 4212.00    0.85701   0.89552   11.669
 4213.00    0.97358   0.89667   10.271
 4214.00    0.93802   0.89442   10.661
 4215.00    0.93642   0.88497   10.679
 4216.00    0.87852   0.86935   11.383
 4217.00    0.76407   0.85515   13.088
 4218.00    0.71811   0.85209   13.925
 4219.00    0.71989   0.86292   13.891
 4220.00    0.72697   0.88116   13.756
 4221.00    0.75959   0.89757   13.165
 4222.00    0.86690   0.90494   11.535
 4223.00    0.97467   0.89936   10.260
 4224.00    0.99547   0.87918   10.046
 4225.00    0.98125   0.84541   10.191
 4226.00    0.93173   0.80299   10.733
 4227.00    0.85025   0.76285   11.761
 4228.00    0.83061   0.73996   12.039
 4229.00    0.86149   0.74605   11.608
 4230.00    0.87632   0.77974   11.411
 4231.00    0.86598   0.82448   11.548
 4232.00    0.85072   0.86068   11.755
 4233.00    0.85023   0.87710   11.761
 4234.00    0.86247   0.87434   11.595
 4235.00    0.85781   0.86179   11.658
 4236.00    0.83902   0.84909   11.919
 4237.00    0.84480   0.84036   11.837
 4238.00    0.85235   0.83664   11.732
 4239.00    0.85911   0.83788   11.640
 4240.00    0.89341   0.84287   11.193
 4241.00    0.88940   0.85138   11.244
 4242.00    0.83024   0.86279   12.045
 4243.00    0.80535   0.87535   12.417
 4244.00    0.87590   0.88667   11.417
 4245.00    0.96460   0.89471   10.367
 4246.00    0.95302   0.89686   10.493
 4247.00    0.90414   0.89029   11.060
 4248.00    0.88875   0.87574   11.252
 4249.00    0.90899   0.85761   11.001
 4250.00    0.95345   0.84188   10.488
 4251.00    0.93456   0.83256   10.700
 4252.00    0.81970   0.83071   12.200
 4253.00    0.78351   0.83530   12.763
 4254.00    0.84022   0.84214   11.902
 4255.00    0.86646   0.84718   11.541
 4256.00    0.84960   0.85090   11.770
 4257.00    0.81740   0.85585   12.234
 4258.00    0.80453   0.86148   12.430
 4259.00    0.83903   0.86225   11.918
 4260.00    0.86465   0.85344   11.565
 4261.00    0.83610   0.83892   11.960
 4262.00    0.80912   0.82892   12.359
 4263.00    0.80614   0.83317   12.405
 4264.00    0.81619   0.85251   12.252
 4265.00    0.84396   0.87848   11.849
 4266.00    0.90820   0.90063   11.011
 4267.00    1.01349   0.91205    9.867
 4268.00    1.10633   0.91041    9.039
 4269.00    1.05486   0.89667    9.480
 4270.00    0.89870   0.87365   11.127
 4271.00    0.86018   0.84438   11.625
 4272.00    0.92069   0.81341   10.861
 4273.00    0.97196   0.78729   10.289
 4274.00    0.98521   0.77297   10.150
 4275.00    0.96647   0.77314   10.347
 4276.00    0.95224   0.78578   10.502
 4277.00    0.95419   0.80798   10.480
 4278.00    0.88465   0.83428   11.304
 4279.00    0.77956   0.85699   12.828
 4280.00    0.79220   0.86972   12.623
 4281.00    0.93476   0.87006   10.698
 4282.00    1.07695   0.86207    9.285
 4283.00    1.08116   0.85318    9.249
 4284.00    0.96256   0.84713   10.389
 4285.00    0.84179   0.84380   11.879
 4286.00    0.81367   0.84036   -2.000
 4287.00    0.83848   0.83359   -2.000
 4288.00    0.84992   0.82260   -2.000
 4289.00    0.87448   0.80697   -2.000
 4290.00    1.04381   0.78841   -2.000
 4291.00    1.33413   0.77275   -2.000
 4292.00    1.44098   0.76804   -2.000
 4293.00    0.99196   0.77742   -2.000
 4294.00    0.28893   0.79464   -2.000
 4295.00   -0.00476   0.80917   -2.000
 4296.00    0.35858   0.81353   -2.000
 4297.00    0.81306   0.80705   -2.000
 4298.00    0.87569   0.79080   -2.000
 4299.00    0.80483   0.76615   -2.000
 4300.00    0.75761   0.73635   -2.000
 4301.00    0.74944   0.70713   -2.000
 4302.00    0.80690   0.68670   12.393
 4303.00    0.85244   0.67902   11.731
 4304.00    0.82314   0.68157   12.149
 4305.00    0.75566   0.68977   13.233
 4306.00    0.69489   0.69745   14.391
 4307.00    0.63725   0.69880   15.692
 4308.00    0.56613   0.69263   17.664
 4309.00    0.54592   0.68213   18.318
 4310.00    0.56680   0.67472   17.643
 4311.00    0.54281   0.67752   18.423
 4312.00    0.50753   0.69100   19.703
 4313.00    0.53361   0.71067   18.740
 4314.00    0.62748   0.73187   15.937
 4315.00    0.70742   0.75423   14.136
 4316.00    0.77056   0.78080   12.978
 4317.00    0.84243   0.81361   11.870
 4318.00    0.82321   0.84837   12.148
 4319.00    0.76633   0.87526   13.049
 4320.00    0.79906   0.88749   12.515
 4321.00    0.86542   0.88456   11.555
 4322.00    0.95625   0.86966   10.458
 4323.00    1.04409   0.84627    9.578
 4324.00    0.97173   0.81616   10.291
 4325.00    0.86664   0.78044   11.539
 4326.00    0.88379   0.74637   11.315
 4327.00    0.85964   0.72524   11.633
 4328.00    0.78250   0.72585   12.780
 4329.00    0.73884   0.74674   13.535
 4330.00    0.68786   0.77480    0.000
 4331.00    0.56133   0.79638    0.000
 4332.00    0.52102   0.80544    0.000
 4333.00    0.78008   0.80488    0.000
 4334.00    0.73409   0.79981    0.000
 4335.00    0.31242   0.79128    0.000
 4336.00    0.39090   0.77641    0.000
 4337.00    0.61132   0.75029    0.000
 4338.00    0.58341   0.70941    0.000
 4339.00    0.68617   0.65614    0.000
 4340.00    0.80148   0.60085    0.000
 4341.00    0.74702   0.55690    0.000
 4342.00    0.63771   0.53558    0.000
 4343.00    0.54533   0.54309    0.000
 4344.00    0.53372   0.57487    0.000
 4345.00    0.62586   0.61816    0.000
 4346.00    0.67173   0.66218    0.000
 4347.00    0.67412   0.70135    0.000
 4348.00    0.74260   0.73329    0.000
 4349.00    0.75342   0.75768    0.000
 4350.00    0.70900   0.77322    0.000
 4351.00    0.72208   0.77701   13.849
 4352.00    0.72296   0.76864   13.832
 4353.00    0.73400   0.75484   13.624
 4354.00    0.81229   0.74791   12.311
 4355.00    0.83840   0.75599   11.928
 4356.00    0.81677   0.77623   12.243
 4357.00    0.84840   0.80008   11.787
 4358.00    0.93005   0.82025   10.752
 4359.00    0.99705   0.83289   10.030
 4360.00    0.96053   0.83911   10.411
 4361.00    0.79077   0.84408   12.646
 4362.00    0.71196   0.85292   14.046
 4363.00    0.83333   0.86617   12.000
 4364.00    0.91064   0.88041   10.981
 4365.00    0.92569   0.89209   10.803
 4366.00    0.94539   0.89897   10.578
 4367.00    0.90221   0.89888   11.084
 4368.00    0.83210   0.89110   12.018
 4369.00    0.80835   0.87878   12.371
 4370.00    0.83045   0.86793   12.042
 4371.00    0.85428   0.86253   11.706
 4372.00    0.87198   0.86111   11.468
 4373.00    0.90390   0.85944   11.063
 4374.00    0.88443   0.85333   11.307
 4375.00    0.78482   0.84194   12.742
 4376.00    0.70229   0.83064   14.239
 4377.00    0.78095   0.82826   12.805
 4378.00    0.92860   0.83927   10.769
 4379.00    0.91945   0.85884   10.876
 4380.00    0.82209   0.87640   12.164
 4381.00    0.72079   0.88238   13.874
 4382.00    0.61636   0.87176   -1.000
 4383.00    0.57724   0.84486   -1.000
 4384.00    0.62412   0.80706   16.023
 4385.00    0.70411   0.77058   14.202
 4386.00    0.77674   0.75159   12.874
 4387.00    0.87157   0.75766   11.474
 4388.00    0.97997   0.78193   10.204
 4389.00    0.97947   0.80969   10.210
 4390.00    0.98355   0.83028   10.167
 4391.00    1.04913   0.84183    9.532
 4392.00    0.90246   0.84764   11.081
 4393.00    0.82066   0.85189   12.185
 4394.00    1.03121   0.85578    9.697
 4395.00    1.06119   0.85784    9.423
 4396.00    0.96781   0.85866   10.333
 4397.00    0.99941   0.86218   10.006
 4398.00    0.98579   0.87057   10.144
 4399.00    0.88332   0.87903   11.321
 4400.00    0.80822   0.88064   12.373
 4401.00    0.83369   0.87433   11.995
 4402.00    0.86155   0.86446   11.607
 4403.00    0.79750   0.85656   12.539
 4404.00    0.68959   0.85133   14.501
 4405.00    0.63498   0.84421   15.749
 4406.00    0.66542   0.83435   15.028
 4407.00    0.74313   0.82807   13.457
 4408.00    0.87019   0.83023   11.492
 4409.00    0.95328   0.83887   10.490
 4410.00    0.90541   0.85178   11.045
 4411.00    0.95725   0.86903   10.447
 4412.00    1.10623   0.88828    9.040
 4413.00    1.07247   0.90335    9.324
 4414.00    0.86908   0.90824   11.506
 4415.00    0.68667   0.89999   14.563
 4416.00    0.65363   0.88118   -1.000
 4417.00    0.70578   0.86219   14.169
 4418.00    0.81322   0.85486   12.297
 4419.00    0.93174   0.86207   10.733
 4420.00    0.86631   0.87895   11.543
 4421.00    0.74274   0.89698   13.464
 4422.00    0.78072   0.90711   12.809
 4423.00    0.82327   0.90646   12.147
 4424.00    0.81720   0.89929   12.237
 4425.00    0.85610   0.89257   11.681
 4426.00    0.95147   0.88993   10.510
 4427.00    1.01877   0.88997    9.816
 4428.00    0.99701   0.89099   10.030
 4429.00    0.94315   0.89190   10.603
 4430.00    0.93039   0.89248   10.748
 4431.00    0.94098   0.89203   10.627
 4432.00    0.88518   0.88945   11.297
 4433.00    0.82834   0.88590   12.072
 4434.00    0.87489   0.88035   11.430
 4435.00    0.98571   0.87111   10.145
 4436.00    0.98018   0.86179   10.202
 4437.00    0.86543   0.85937   11.555
 4438.00    0.86354   0.86941   11.580
 4439.00    0.90799   0.88940   11.013
 4440.00    0.90700   0.90897   11.025
 4441.00    0.93028   0.91813   10.750
 4442.00    0.99536   0.91229   10.047
 4443.00    1.07330   0.89510    9.317
 4444.00    1.09883   0.87671    9.101
 4445.00    0.97152   0.86744   10.293
 4446.00    0.85673   0.87212   11.672
 4447.00    0.95435   0.88740   10.478
 4448.00    0.96107   0.90379   10.405
 4449.00    0.93113   0.91393   10.740
 4450.00    1.10809   0.91762    9.025
 4451.00    1.07916   0.91633    9.266
 4452.00    0.87261   0.91106   11.460
 4453.00    0.84820   0.90370   11.790
 4454.00    0.82370   0.89331   12.140
 4455.00    0.73842   0.87781   13.542
 4456.00    0.71573   0.85912   13.972
 4457.00    0.72290   0.84315   13.833
 4458.00    0.73758   0.83526   13.558
 4459.00    0.74551   0.83457   13.414
 4460.00    0.69108   0.83609   14.470
 4461.00    0.65081   0.83700    0.000
 4462.00    0.69412   0.83815    0.000
 4463.00    0.74465   0.84100    0.000
 4464.00    0.81029   0.84804    0.000
 4465.00    0.85391   0.85996    0.000
 4466.00    0.75193   0.87150    0.000
 4467.00    0.69661   0.87817    0.000
 4468.00    0.80520   0.87933    0.000
 4469.00    0.86875   0.87629    0.000
 4470.00    0.84863   0.87216    0.000
 4471.00    0.87278   0.87110    0.000
 4472.00    1.02236   0.87713    0.000
 4473.00    1.15193   0.89011    0.000
 4474.00    1.13291   0.90636    0.000
 4475.00    1.00560   0.92203    0.000
 4476.00    0.85717   0.93395    0.000
 4477.00    0.74998   0.94073    0.000
 4478.00    0.69981   0.94305    0.000
 4479.00    0.69036   0.94040    0.000
 4480.00    0.69433   0.92933    0.000
 4481.00    0.69253   0.90894    0.000
 4482.00    0.68840   0.88505   14.526
 4483.00    0.70978   0.86792   14.089
 4484.00    0.78903   0.86639   12.674
 4485.00    0.92273   0.88138   10.837
 4486.00    1.02785   0.90414    9.729
 4487.00    1.02531   0.92339    9.753
 4488.00    0.95808   0.93163   10.438
 4489.00    0.89335   0.92701   11.194
 4490.00    0.87258   0.91379   11.460
 4491.00    0.89616   0.90026   11.159
 4492.00    0.87596   0.89369   11.416
 4493.00    0.81672   0.89492   12.244
 4494.00    0.89803   0.89919   11.135
 4495.00    1.01218   0.90098    9.880
 4496.00    0.97579   0.89886   10.248
 4497.00    0.85981   0.89732   11.631
 4498.00    0.76724   0.90067   13.034
 4499.00    0.74310   0.90913   13.457
 4500.00    0.77030   0.91937   12.982
 4501.00    0.78387   0.92697   12.757
 4502.00    0.77893   0.93105   12.838
 4503.00    0.81635   0.93475   12.250
 4504.00    0.83853   0.94293   11.926
 4505.00    0.81430   0.95588   12.281
 4506.00    0.81723   0.96782   12.236
 4507.00    0.86221   0.97385   11.598
 4508.00    0.90970   0.97316   10.993
 4509.00    0.92964   0.96830   10.757
 4510.00    0.94749   0.96359   10.554
 4511.00    0.94495   0.96158   10.583
 4512.00    0.90901   0.96101   11.001
 4513.00    0.98705   0.95842   10.131
 4514.00    1.15164   0.95186    8.683
 4515.00    1.21499   0.94271    8.231
 4516.00    1.17875   0.93354    8.484
 4517.00    1.09475   0.92670    9.134
 4518.00    0.98814   0.92353   10.120
 4519.00    0.90223   0.92286   11.084
 4520.00    0.89003   0.92349   11.236
 4521.00    0.96078   0.92518   10.408
 4522.00    1.03150   0.92586    9.695
 4523.00    0.99186   0.92350   10.082
 4524.00    0.85677   0.91682   11.672
 4525.00    0.80855   0.90687   12.368
 4526.00    0.82838   0.89584   12.072
 4527.00    0.83184   0.88300   12.022
 4528.00    0.89298   0.86852   11.198
 4529.00    0.94372   0.85496   10.596
 4530.00    0.88151   0.84501   11.344
 4531.00    0.76982   0.84127   12.990
 4532.00    0.73235   0.84357   13.655
 4533.00    0.77304   0.84794   12.936
 4534.00    0.76739   0.85059   13.031
 4535.00    0.76163   0.84996   13.130
 4536.00    0.81758   0.85001   12.231
 4537.00    0.87592   0.85751   11.417
 4538.00    0.91780   0.87449   10.896
 4539.00    0.93606   0.89625   10.683
 4540.00    0.90948   0.91362   10.995
 4541.00    0.85990   0.92128   11.629
 4542.00    0.77860   0.92107   12.844
 4543.00    0.67451   0.91764   -1.000
 4544.00    0.72475   0.91495   13.798
 4545.00    0.89227   0.91315   11.207
 4546.00    0.93980   0.90980   10.641
 4547.00    0.89129   0.90437   11.220
 4548.00    0.84840   0.89743   11.787
 4549.00    0.83255   0.88872   12.011
 4550.00    0.80665   0.87909    0.000
 4551.00    0.78251   0.87104    0.000
 4552.00    0.79489   0.86825    0.000
 4553.00    0.81013   0.87057    0.000
 4554.00    0.83494   0.87236    0.000
 4555.00    0.88003   0.87122    0.000
 4556.00    0.88939   0.86964    0.000
 4557.00    0.94492   0.87172    0.000
 4558.00    1.08008   0.88095    0.000
 4559.00    1.08407   0.89622    0.000
 4560.00    0.99050   0.91228    0.000
 4561.00    0.95331   0.92499    0.000
 4562.00    0.93447   0.93218    0.000
 4563.00    0.86349   0.93254    0.000
 4564.00    0.75728   0.92640    0.000
 4565.00    0.70600   0.91615    0.000
 4566.00    0.69528   0.90735    0.000
 4567.00    0.69724   0.90554    0.000
 4568.00    0.75107   0.91192    0.000
 4569.00    0.82923   0.92283    0.000
 4570.00    0.89043   0.93117    0.000
 4571.00    0.93075   0.93216    0.000
 4572.00    0.92780   0.92676    0.000
 4573.00    0.89157   0.91903    0.000
 4574.00    0.86503   0.91543    0.000
 4575.00    0.83352   0.91929    0.000
 4576.00    0.81785   0.92621    0.000
 4577.00    0.86855   0.93098    0.000
 4578.00    0.92710   0.93154    0.000
 4579.00    0.96397   0.92677    0.000
 4580.00    0.99118   0.91708    0.000
 4581.00    0.93846   0.90451    0.000
 4582.00    0.84195   0.89194    0.000
 4583.00    0.80845   0.88237    0.000
 4584.00    0.80037   0.87724    0.000
 4585.00    0.79432   0.87564    0.000
 4586.00    0.82412   0.87696    0.000
 4587.00    0.88738   0.88148    0.000
 4588.00    0.90601   0.88848    0.000
 4589.00    0.82904   0.89717    0.000
 4590.00    0.74364   0.90532    0.000
 4591.00    0.72281   0.90976    0.000
 4592.00    0.77319   0.90928    0.000
 4593.00    0.86313   0.90485    0.000
 4594.00    0.94395   0.89919    0.000
 4595.00    0.96208   0.89557    0.000
 4596.00    0.88921   0.89494    0.000
 4597.00    0.79073   0.89628    0.000
 4598.00    0.75090   0.89893    0.000
 4599.00    0.78674   0.90166    0.000
 4600.00    0.87667   0.90310    0.000
 4601.00    0.95942   0.90308    0.000
 4602.00    0.96485   0.90166    0.000
 4603.00    0.91314   0.90051    0.000
 4604.00    0.85855   0.90142    0.000
 4605.00    0.83872   0.90394    0.000
 4606.00    0.90264   0.90749    0.000
 4607.00    1.01407   0.91230    0.000
 4608.00    1.05884   0.91916    0.000
 4609.00    1.01637   0.92816    0.000
 4610.00    0.93010   0.93757    0.000
 4611.00    0.85782   0.94441    0.000
 4612.00    0.84947   0.94608    0.000
 4613.00    0.85267   0.94298    0.000
 4614.00    0.79108   0.93813    0.000
 4615.00    0.75403   0.93386    0.000
 4616.00    0.78914   0.93145    0.000
 4617.00    0.83922   0.93046    0.000
 4618.00    0.85744   0.92876    0.000
 4619.00    0.82535   0.92646    0.000
 4620.00    0.77354   0.92468    0.000
 4621.00    0.78040   0.92402    0.000
 4622.00    0.84469   0.92629    0.000
 4623.00    0.89939   0.93140    0.000
 4624.00    0.90601   0.93617    0.000
 4625.00    0.85809   0.93867    0.000
 4626.00    0.78144   0.93870    0.000
 4627.00    0.73069   0.93630    0.000
 4628.00    0.75773   0.93252    0.000
 4629.00    0.85962   0.92900    0.000
 4630.00    0.96084   0.92621    0.000
 4631.00    0.99673   0.92423    0.000
 4632.00    0.97669   0.92386    0.000
 4633.00    0.96638   0.92451    0.000
 4634.00    0.95556   0.92335    0.000
 4635.00    0.91697   0.91923    0.000
 4636.00    0.87348   0.91388    0.000
 4637.00    0.84644   0.90883    0.000
 4638.00    0.84609   0.90442    0.000
 4639.00    0.87044   0.90066    0.000
 4640.00    0.89546   0.89847    0.000
 4641.00    0.90379   0.89917    0.000
 4642.00    0.87671   0.90281    0.000
 4643.00    0.75758   0.90809    0.000
 4644.00    0.61369   0.91191    0.000
 4645.00    0.59746   0.91051    0.000
 4646.00    0.68121   0.90299    0.000
 4647.00    0.75002   0.89135    0.000
 4648.00    0.75394   0.87918    0.000
 4649.00    0.77735   0.87154    0.000
 4650.00    0.84725   0.87174    0.000
 4651.00    0.89936   0.87893    0.000
 4652.00    0.90180   0.88939    0.000
 4653.00    0.87555   0.89823    0.000
 4654.00    0.85221   0.90227    0.000
 4655.00    0.83037   0.90129    0.000
 4656.00    0.83596   0.89696    0.000
 4657.00    0.87844   0.89353    0.000
 4658.00    0.89267   0.89569    0.000
 4659.00    0.86473   0.90480    0.000
 4660.00    0.82264   0.91854    0.000
 4661.00    0.78184   0.93148    0.000
 4662.00    0.79911   0.93782    0.000
 4663.00    0.88077   0.93537    0.000
 4664.00    0.92736   0.92574    0.000
 4665.00    0.92112   0.91172    0.000
 4666.00    0.90356   0.89538    0.000
 4667.00    0.89262   0.87767    0.000
 4668.00    0.88546   0.85960    0.000
 4669.00    0.88066   0.84492    0.000
 4670.00    0.88399   0.83956    0.000
 4671.00    0.88495   0.84572    0.000
 4672.00    0.87911   0.85954    0.000
 4673.00    0.88632   0.87511    0.000
 4674.00    0.92877   0.88789    0.000
 4675.00    0.94806   0.89656    0.000
 4676.00    0.86363   0.90264    0.000
 4677.00    0.77145   0.90729    0.000
 4678.00    0.76110   0.90983    0.000
 4679.00    0.79575   0.90839    0.000
 4680.00    0.79132   0.90217    0.000
 4681.00    0.77811   0.89354    0.000
 4682.00    0.83396   0.88648    0.000
 4683.00    0.87334   0.88366    0.000
 4684.00    0.85320   0.88573    0.000
 4685.00    0.82266   0.89154    0.000
 4686.00    0.80868   0.89812    0.000
 4687.00    0.84294   0.90259    0.000
 4688.00    0.91587   0.90424    0.000
 4689.00    0.93082   0.90358    0.000
 4690.00    0.88692   0.90151    0.000
 4691.00    0.85269   0.89932    0.000
 4692.00    0.84231   0.89785    0.000
 4693.00    0.86132   0.89778    0.000
 4694.00    0.88737   0.90028    0.000
 4695.00    0.86608   0.90536    0.000
 4696.00    0.84632   0.91090    0.000
 4697.00    0.87189   0.91410    0.000
 4698.00    0.87443   0.91286    0.000
 4699.00    0.83526   0.90646    0.000
 4700.00    0.80457   0.89620    0.000
 4701.00    0.83050   0.88525    0.000
 4702.00    0.87438   0.87639    0.000
 4703.00    0.89677   0.87011    0.000
 4704.00    0.90855   0.86609    0.000
 4705.00    0.87940   0.86481    0.000
 4706.00    0.80268   0.86676    0.000
 4707.00    0.73875   0.87009    0.000
 4708.00    0.74362   0.87149    0.000
 4709.00    0.77697   0.87009    0.000
 4710.00    0.75550   0.86870    0.000
 4711.00    0.73552   0.87058    0.000
 4712.00    0.76701   0.87653    0.000
 4713.00    0.81570   0.88436    0.000
 4714.00    0.84329   0.89035    0.000
 4715.00    0.85364   0.89262    0.000
 4716.00    0.86768   0.89279    0.000
 4717.00    0.86975   0.89446    0.000
 4718.00    0.87866   0.90017    0.000
 4719.00    0.90623   0.90879    0.000
 4720.00    0.87881   0.91709    0.000
 4721.00    0.82896   0.92311    0.000
 4722.00    0.84202   0.92634    0.000
 4723.00    0.88349   0.92705    0.000
 4724.00    0.91495   0.92641    0.000
 4725.00    0.92485   0.92556    0.000
 4726.00    0.90068   0.92387    0.000
 4727.00    0.85874   0.91905    0.000
 4728.00    0.83949   0.90929    0.000
 4729.00    0.86532   0.89535    0.000
 4730.00    0.87744   0.88120    0.000
 4731.00    0.82675   0.87168    0.000
 4732.00    0.76774   0.86872    0.000
 4733.00    0.79057   0.87114    0.000
 4734.00    0.88294   0.87712    0.000
 4735.00    0.92511   0.88405    0.000
 4736.00    0.93267   0.88912    0.000
 4737.00    0.94091   0.89169    0.000
 4738.00    0.91228   0.89245    0.000
 4739.00    0.87822   0.89279    0.000
 4740.00    0.90046   0.89480    0.000
 4741.00    0.98532   0.89822    0.000
 4742.00    1.04791   0.90090    0.000
 4743.00    1.04776   0.90257    0.000
 4744.00    1.02667   0.90446    0.000
 4745.00    0.99093   0.90714    0.000
 4746.00    0.90897   0.91001    0.000
 4747.00    0.79156   0.91240    0.000
 4748.00    0.75969   0.91456    0.000
 4749.00    0.79822   0.91671    0.000
 4750.00    0.79281   0.91802    0.000
 4751.00    0.79034   0.91794    0.000
 4752.00    0.83825   0.91649    0.000
 4753.00    0.89505   0.91312    0.000
 4754.00    0.88895   0.90751    0.000
 4755.00    0.86128   0.90071    0.000
 4756.00    0.89081   0.89446    0.000
 4757.00    0.94011   0.89016    0.000
 4758.00    0.96926   0.88858    0.000
 4759.00    0.97005   0.88951    0.000
 4760.00    0.93417   0.89146    0.000
 4761.00    0.84417   0.89191   11.846
 4762.00    0.74672   0.88869   13.392
 4763.00    0.76096   0.88093   13.141
 4764.00    0.85704   0.86969   11.668
 4765.00    0.91401   0.85843   10.941
 4766.00    0.89039   0.85076   11.231
 4767.00    0.90161   0.84794   11.091
 4768.00    1.00000   0.85008   10.000
 4769.00    1.06347   0.85680    9.403
 4770.00    1.05743   0.86590    9.457
 4771.00    1.01392   0.87419    9.863
 4772.00    0.94871   0.87986   10.541
 4773.00    0.85904   0.88292   11.641
 4774.00    0.75344   0.88507   13.272
 4775.00    0.67484   0.88884   14.818
 4776.00    0.68975   0.89489   14.498
 4777.00    0.79537   0.90105   12.573
 4778.00    0.90623   0.90475   11.035
 4779.00    0.95481   0.90552   10.473
 4780.00    0.94653   0.90404   10.565
 4781.00    0.94447   0.90046   10.588
 4782.00    0.98865   0.89549   10.115
 4783.00    1.00681   0.89063    9.932
 4784.00    0.92237   0.88625   10.842
 4785.00    0.84172   0.88168   11.881
 4786.00    0.83739   0.87746   11.942
 4787.00    0.86362   0.87435   11.579
 4788.00    0.85400   0.87138   11.710
 4789.00    0.87358   0.86860   11.447
 4790.00    0.96998   0.86795   10.310
 4791.00    0.98899   0.86976   10.111
 4792.00    0.90887   0.87384   11.003
 4793.00    0.84922   0.88098   11.776
 4794.00    0.87854   0.89044   11.383
 4795.00    0.93500   0.90031   10.695
 4796.00    0.94990   0.90879   10.527
 4797.00    0.95344   0.91330   10.488
 4798.00    0.93087   0.91191   10.743
 4799.00    0.87853   0.90543   11.383
 4800.00    0.86704   0.89693   11.533
 4801.00    0.91808   0.89001   10.892
 4802.00    0.94947   0.88726   10.532
 4803.00    0.88672   0.88882   11.277
 4804.00    0.91720   0.89201   10.903
 4805.00    1.03784   0.89338    9.635
 4806.00    0.96470   0.89100   10.366
 4807.00    0.82517   0.88574   12.119
 4808.00    0.81589   0.88051   12.257
 4809.00    0.90212   0.87754   11.085
 4810.00    0.99139   0.87688   10.087
 4811.00    1.01565   0.87809    9.846
 4812.00    0.98906   0.88066   10.111
 4813.00    1.01950   0.88351    9.809
 4814.00    1.04119   0.88612    9.604
 4815.00    0.91320   0.88892   10.951
 4816.00    0.79031   0.89223   12.653
 4817.00    0.76502   0.89602   13.072
 4818.00    0.77272   0.89990   12.941
 4819.00    0.79808   0.90317   12.530
 4820.00    0.84534   0.90497   11.830
 4821.00    0.89975   0.90428   11.114
 4822.00    0.92612   0.89988   10.798
 4823.00    0.90432   0.89145   11.058
 4824.00    0.87248   0.88073   11.462
 4825.00    0.90700   0.87047   11.025
 4826.00    0.93604   0.86375   10.683
 4827.00    0.89859   0.86307   11.129
 4828.00    0.90644   0.86689   11.032
 4829.00    0.90218   0.87055   11.084
 4830.00    0.83437   0.87111   11.985
 4831.00    0.84569   0.86866   11.825
 4832.00    0.88268   0.86502   11.329
 4833.00    0.86111   0.86189   11.613
 4834.00    0.86124   0.85986   11.611
 4835.00    0.88001   0.85958   11.363
 4836.00    0.87393   0.86120   11.443
 4837.00    0.85414   0.86265   11.708
 4838.00    0.84982   0.86170   11.767
 4839.00    0.85353   0.85811   11.716
 4840.00    0.83084   0.85272   12.036
 4841.00    0.80405   0.84621   12.437
 4842.00    0.76986   0.83990   12.989
 4843.00    0.70922   0.83576   14.100
 4844.00    0.72182   0.83443   13.854
 4845.00    0.81720   0.83468   12.237
 4846.00    0.86688   0.83518   11.536
 4847.00    0.82169   0.83517   12.170
 4848.00    0.81220   0.83312    0.000
 4849.00    0.93018   0.82800    0.000
 4850.00    0.93074   0.82071    0.000
 4851.00    0.82312   0.81347    0.000
 4852.00    0.80673   0.80791    0.000
 4853.00    0.75507   0.80255    0.000
 4854.00    0.67026   0.79392    0.000
 4855.00    0.68090   0.78094    0.000
 4856.00    0.73043   0.76455    0.000
 4857.00    0.78206   0.74553    0.000
 4858.00    0.86187   0.72477    0.000
 4859.00    0.97952   0.70186    0.000
 4860.00    1.14114   0.67391    0.000
 4861.00    1.29136   0.64033    0.000
 4862.00    1.30380   0.60723    0.000
 4863.00    1.19134   0.58457    0.000
 4864.00    1.04013   0.58165    0.000
 4865.00    0.87682   0.60128    0.000
 4866.00    0.71441   0.63507    0.000
 4867.00    0.59254   0.67101    0.000
 4868.00    0.57487   0.70247    0.000
 4869.00    0.67936   0.72618    0.000
 4870.00    0.78752   0.74030    0.000
 4871.00    0.74049   0.74604    0.000
 4872.00    0.67381   0.74668    0.000
 4873.00    0.71362   0.74559    0.000
 4874.00    0.77298   0.74701    0.000
 4875.00    0.78221   0.75475   12.784
 4876.00    0.77381   0.76757   12.923
 4877.00    0.80620   0.78091   12.404
 4878.00    0.80432   0.79282   12.433
 4879.00    0.72810   0.80390   13.734
 4880.00    0.63894   0.81397   15.651
 4881.00    0.58609   0.82226   -1.000
 4882.00    0.60104   0.82829   -1.000
 4883.00    0.67261   0.83030   14.867
 4884.00    0.72104   0.82792   13.869
 4885.00    0.74168   0.82383   13.483
 4886.00    0.77347   0.81974   12.929
 4887.00    0.78058   0.81543   12.811
 4888.00    0.83566   0.81138   11.967
 4889.00    0.97312   0.80819   10.276
 4890.00    0.97372   0.80536   10.270
 4891.00    0.80594   0.80267   12.408
 4892.00    0.69783   0.80172   14.330
 4893.00    0.85160   0.80549   11.743
 4894.00    1.04560   0.81714    9.564
 4895.00    1.02418   0.83744    9.764
 4896.00    0.94529   0.86089   10.579
 4897.00    0.91542   0.88030   10.924
 4898.00    0.92314   0.89203   10.833
 4899.00    0.95661   0.89548   10.454
 4900.00    0.99785   0.89251   10.022
 4901.00    0.99452   0.88578   10.055
 4902.00    0.90428   0.87750   11.058
 4903.00    0.83945   0.87064   11.913
 4904.00    0.85845   0.86754   11.649
 4905.00    0.86135   0.86764   11.610
 4906.00    0.83099   0.86998   12.034
 4907.00    0.79622   0.87432   12.559
 4908.00    0.75884   0.87830   13.178
 4909.00    0.71143   0.87788   14.056
 4910.00    0.68414   0.87159   14.617
 4911.00    0.70428   0.86214   14.199
 4912.00    0.70045   0.85382   14.277
 4913.00    0.72347   0.85037   13.822
 4914.00    0.89288   0.85382   11.200
 4915.00    1.07867   0.86216    9.271
 4916.00    1.13369   0.87020    8.821
 4917.00    1.03288   0.87321    9.682
 4918.00    0.83373   0.86804   11.994
 4919.00    0.69492   0.85339   14.390
 4920.00    0.72436   0.83187   13.805
 4921.00    0.79067   0.80999   12.648
 4922.00    0.75360   0.79482   13.270
 4923.00    0.64741   0.79036   15.446
 4924.00    0.65884   0.79636   15.178
 4925.00    0.74406   0.80890   13.440
 4926.00    0.78894   0.82300   12.675
 4927.00    0.89008   0.83718   11.235
 4928.00    0.99550   0.85257   10.045
 4929.00    1.01173   0.86805    9.884
 4930.00    0.99840   0.88045   10.016
 4931.00    0.91072   0.88784   10.980
 4932.00    0.79335   0.88917   12.605
 4933.00    0.85376   0.88392   11.713
 4934.00    0.90243   0.87410   11.081
 4935.00    0.79369   0.86258   12.599
 4936.00    0.74977   0.85175   13.337
 4937.00    0.77301   0.84415   12.936
 4938.00    0.78241   0.83991   12.781
 4939.00    0.81558   0.83638   12.261
 4940.00    0.89456   0.83334    0.000
 4941.00    0.96552   0.83403    0.000
 4942.00    0.95228   0.84154    0.000
 4943.00    0.89187   0.85515    0.000
 4944.00    0.86331   0.86974    0.000
 4945.00    0.89290   0.88045    0.000
 4946.00    0.92510   0.88668    0.000
 4947.00    0.93385   0.88955    0.000
 4948.00    0.93442   0.89040    0.000
 4949.00    0.90919   0.89152    0.000
 4950.00    0.95404   0.89437    0.000
 4951.00    1.11283   0.89755    0.000
 4952.00    1.11278   0.89898    0.000
 4953.00    0.98987   0.89780    0.000
 4954.00    0.96383   0.89342    0.000
 4955.00    0.89650   0.88460    0.000
 4956.00    0.79753   0.87059    0.000
 4957.00    0.79831   0.85291    0.000
 4958.00    0.82970   0.83499    0.000
 4959.00    0.86093   0.82088    0.000
 4960.00    0.91718   0.81534    0.000
 4961.00    0.97360   0.82223    0.000
 4962.00    0.99942   0.83841    0.000
 4963.00    0.98049   0.85442    0.000
 4964.00    0.91742   0.86373    0.000
 4965.00    0.82232   0.86568    0.000
 4966.00    0.78134   0.86226    0.000
 4967.00    0.88681   0.85554    0.000
 4968.00    0.92528   0.84798    0.000
 4969.00    0.79406   0.84257    0.000
 4970.00    0.73402   0.84086    0.000
 4971.00    0.78783   0.84252    0.000
 4972.00    0.87367   0.84691    0.000
 4973.00    0.93680   0.85327    0.000
 4974.00    0.89658   0.86047    0.000
 4975.00    0.83024   0.86702    0.000
 4976.00    0.90050   0.87133    0.000
 4977.00    0.95763   0.87225    0.000
 4978.00    0.87273   0.86913    0.000
 4979.00    0.73707   0.86213    0.000
 4980.00    0.67580   0.85180    0.000
 4981.00    0.67813   0.83847    0.000
 4982.00    0.66259   0.82322    0.000
 4983.00    0.68578   0.80759    0.000
 4984.00    0.76164   0.79348    0.000
 4985.00    0.81798   0.78435    0.000
 4986.00    0.81717   0.78411    0.000
 4987.00    0.76785   0.79324    0.000
 4988.00    0.74200   0.80785    0.000
 4989.00    0.83793   0.82280    0.000
 4990.00    0.92289   0.83400    0.000
 4991.00    0.86125   0.83949    0.000
 4992.00    0.82645   0.84018    0.000
 4993.00    0.84895   0.83898    0.000
 4994.00    0.84683   0.83874    0.000
 4995.00    0.84862   0.84053    0.000
 4996.00    0.83881   0.84318    0.000
 4997.00    0.79003   0.84528    0.000
 4998.00    0.74629   0.84583    0.000
 4999.00    0.75305   0.84317    0.000
 5000.00    0.79178   0.83652    0.000
 5001.00    0.80609   0.82708    0.000
 5002.00    0.85601   0.81699    0.000
 5003.00    0.96942   0.80855    0.000
 5004.00    1.05970   0.80265    0.000
 5005.00    1.13053   0.79835    0.000
 5006.00    1.19460   0.79466    0.000
 5007.00    1.21598   0.79160    0.000
 5008.00    1.21289   0.79042    0.000
 5009.00    1.16055   0.79314    0.000
 5010.00    1.01012   0.80000    0.000
 5011.00    0.87205   0.80720    0.000
 5012.00    0.80416   0.80941    0.000
 5013.00    0.78001   0.80444    0.000
 5014.00    0.87618   0.79459    0.000
 5015.00    0.95945   0.78406    0.000
 5016.00    0.83140   0.77648    0.000
 5017.00    0.71302   0.77328    0.000
 5018.00    0.72761   0.77398    0.000
 5019.00    0.77134   0.77663    0.000
 5020.00    0.80330   0.77935    0.000
 5021.00    0.81204   0.78231    0.000
 5022.00    0.80120   0.78696    0.000
 5023.00    0.80851   0.79309    0.000
 5024.00    0.84436   0.79914    0.000
 5025.00    0.88986   0.80448    0.000
 5026.00    0.92510   0.80930    0.000
 5027.00    0.91381   0.81321    0.000
 5028.00    0.85258   0.81553    0.000
 5029.00    0.80788   0.81669   12.378
 5030.00    0.82360   0.81839   12.142
 5031.00    0.88331   0.82271   11.321
 5032.00    0.92820   0.82994   10.774
 5033.00    0.91849   0.83758   10.887
 5034.00    0.85574   0.84261   11.686
 5035.00    0.79404   0.84336   12.594
 5036.00    0.84047   0.83913   11.898
 5037.00    0.95425   0.82994   10.479
 5038.00    0.95572   0.81723   10.463
 5039.00    0.92396   0.80335   10.823
 5040.00    0.92505   0.78983   10.810
 5041.00    0.86981   0.77716   11.497
 5042.00    0.82316   0.76704   12.148
 5043.00    0.84353   0.76331   11.855
 5044.00    0.87114   0.76976   11.479
 5045.00    0.85048   0.78675   11.758
 5046.00    0.79213   0.80889   12.624
 5047.00    0.74106   0.82780   13.494
 5048.00    0.69673   0.83802   14.353
 5049.00    0.69998   0.83853   14.286
 5050.00    0.79583   0.83121   12.565
 5051.00    0.90127   0.82023   11.095
 5052.00    0.93603   0.81111   10.683
 5053.00    0.91059   0.80772   10.982
 5054.00    0.90390   0.81058   11.063
 5055.00    0.92787   0.81800   10.777
 5056.00    0.93685   0.82770   10.674
 5057.00    0.91332   0.83721   10.949
 5058.00    0.82540   0.84465   12.115
 5059.00    0.72672   0.84986   13.760
 5060.00    0.78922   0.85376   12.671
 5061.00    0.90140   0.85685   11.094
 5062.00    0.88226   0.85846   11.335
 5063.00    0.82452   0.85715   12.128
 5064.00    0.83862   0.85201   11.924
 5065.00    0.89189   0.84316   11.212
 5066.00    0.86184   0.83182   11.603
 5067.00    0.83010   0.82059   12.047
 5068.00    0.87574   0.81284   11.419
 5069.00    0.90489   0.81049   11.051
 5070.00    0.91876   0.81181   10.884
 5071.00    0.92201   0.81378   10.846
 5072.00    0.85807   0.81529   11.654
 5073.00    0.78854   0.81613   12.682
 5074.00    0.78858   0.81576   12.681
 5075.00    0.84618   0.81464   11.818
 5076.00    0.90397   0.81416   11.062
 5077.00    0.90574   0.81390   11.041
 5078.00    0.85277   0.81132   11.727
 5079.00    0.83754   0.80509   11.940
 5080.00    0.87591   0.79600   11.417
 5081.00    0.86778   0.78571   11.524
 5082.00    0.74998   0.77679   13.334
 5083.00    0.63799   0.77298   15.674
 5084.00    0.69012   0.77638   14.490
 5085.00    0.82334   0.78500   12.146
 5086.00    0.89625   0.79524   11.158
 5087.00    0.86923   0.80503   11.504
 5088.00    0.82005   0.81363   12.194
 5089.00    0.76668   0.82018   13.043
 5090.00    0.74230   0.82450   13.472
 5091.00    0.88075   0.82778   11.354
 5092.00    0.96307   0.83128   10.384
 5093.00    0.83574   0.83506   11.965
 5094.00    0.86862   0.83832   11.513
 5095.00    0.98387   0.83987   10.164
 5096.00    0.93209   0.83812   10.729
 5097.00    0.87483   0.83161   11.431
 5098.00    0.88885   0.82064   11.251
 5099.00    0.90675   0.80789   11.028
 5100.00    0.87957   0.79715   11.369
 5101.00    0.84220   0.79145   11.874
 5102.00    0.83697   0.79209   11.948
 5103.00    0.84663   0.79802   11.812
 5104.00    0.83841   0.80594   11.927
 5105.00    0.77818   0.81163   12.851
 5106.00    0.68260   0.81260   14.650
 5107.00    0.70284   0.80937   14.228
 5108.00    0.84656   0.80384   11.812
 5109.00    0.91904   0.79789   10.881
 5110.00    0.86927   0.79340   11.504
 5111.00    0.78476   0.79199   12.743
 5112.00    0.75990   0.79438   13.160
 5113.00    0.77655   0.79991   12.877
 5114.00    0.80641   0.80736   12.401
 5115.00    0.83676   0.81563   11.951
 5116.00    0.80971   0.82338   12.350
 5117.00    0.77507   0.82974   12.902
 5118.00    0.81780   0.83469   12.228
 5119.00    0.84738   0.83782   11.801
 5120.00    0.82818   0.83832   12.075
 5121.00    0.81380   0.83521   12.288
 5122.00    0.80714   0.82777   12.389
 5123.00    0.78603   0.81670   12.722
 5124.00    0.74714   0.80400   13.384
 5125.00    0.71973   0.79200   13.894
 5126.00    0.71007   0.78254   14.083
 5127.00    0.71594   0.77666   13.968
 5128.00    0.76265   0.77452   13.112
 5129.00    0.86570   0.77517   11.551
 5130.00    0.98268   0.77725   10.176
 5131.00    1.02164   0.78014    9.788
 5132.00    0.97358   0.78398   10.271
 5133.00    0.91682   0.78899   10.907
 5134.00    0.92346   0.79491   10.829
 5135.00    0.92969   0.80045   10.756
 5136.00    0.90221   0.80397   11.084
 5137.00    0.90922   0.80446   10.998
 5138.00    0.87080   0.80152   11.484
 5139.00    0.79234   0.79561   12.621
 5140.00    0.82298   0.78791   12.151
 5141.00    0.86600   0.78057   11.547
 5142.00    0.86022   0.77572   11.625
 5143.00    0.89373   0.77388   11.189
 5144.00    0.89263   0.77430   11.203
 5145.00    0.83490   0.77526   11.977
 5146.00    0.80918   0.77585   12.358
 5147.00    0.78782   0.77692   12.693
 5148.00    0.75386   0.77826   13.265
 5149.00    0.75147   0.77872   13.307
 5150.00    0.78893   0.77859   12.675
 5151.00    0.82704   0.77850   12.091
 5152.00    0.80958   0.77804   12.352
 5153.00    0.72345   0.77669   13.823
 5154.00    0.67602   0.77493   14.792
 5155.00    0.74819   0.77470   13.366
 5156.00    0.81808   0.77805   12.224
 5157.00    0.87363   0.78530   11.446
 5158.00    0.94121   0.79524   10.625
 5159.00    0.88597   0.80594   11.287
 5160.00    0.73690   0.81478   13.570
 5161.00    0.67539   0.81967   14.806
 5162.00    0.78396   0.81991   12.756
 5163.00    0.84942   0.81558   11.773
 5164.00    0.76176   0.80653   13.128
 5165.00    0.77164   0.79148   12.959
 5166.00    0.82053   0.76944   12.187
 5167.00    0.76032   0.74160   13.152
 5168.00    0.68413   0.71128   14.617
 5169.00    0.63590   0.68354   15.726
 5170.00    0.61851   0.66338   16.168
 5171.00    0.64396   0.65273   15.529
 5172.00    0.64726   0.65024   15.450
 5173.00    0.63142   0.65268   15.837
 5174.00    0.69043   0.65801   14.484
 5175.00    0.77429   0.66761   12.915
 5176.00    0.79857   0.68492   12.522
 5177.00    0.76896   0.71059   13.005
 5178.00    0.76729   0.73860   13.033
 5179.00    0.82586   0.76029   12.109
 5180.00    0.88842   0.77091   11.256
 5181.00    0.89340   0.76973   11.193
 5182.00    0.82478   0.75714   12.125
 5183.00    0.71299   0.73552   14.025
 5184.00    0.60753   0.71056   16.460
 5185.00    0.59472   0.68998   16.815
 5186.00    0.70633   0.68080   14.158
 5187.00    0.81682   0.68658   12.243
 5188.00    0.88614   0.70582   11.285
 5189.00    0.92659   0.73067   10.792
 5190.00    0.85732   0.75074    0.000
 5191.00    0.79650   0.76095    0.000
 5192.00    0.85755   0.76235    0.000
 5193.00    0.85571   0.75862    0.000
 5194.00    0.79784   0.75313    0.000
 5195.00    0.80303   0.74855    0.000
 5196.00    0.82558   0.74776    0.000
 5197.00    0.84404   0.75201    0.000
 5198.00    0.87342   0.75943    0.000
 5199.00    0.89462   0.76783    0.000
 5200.00    0.86337   0.77643    0.000
 5201.00    0.78387   0.78400    0.000
 5202.00    0.72844   0.78852    0.000
 5203.00    0.71896   0.78834    0.000
 5204.00    0.72801   0.78249    0.000
 5205.00    0.72672   0.77152    0.000
 5206.00    0.72109   0.75742    0.000
 5207.00    0.73697   0.74283    0.000
 5208.00    0.78512   0.73051    0.000
 5209.00    0.83289   0.72321    0.000
 5210.00    0.85421   0.72290    0.000
 5211.00    0.85543   0.72966   11.690
 5212.00    0.84138   0.74192   11.885
 5213.00    0.78367   0.75767   12.760
 5214.00    0.70811   0.77341   14.122
 5215.00    0.79697   0.78502   12.548
 5216.00    0.94236   0.79060   10.612
 5217.00    0.89072   0.79104   11.227
 5218.00    0.81775   0.78945   12.229
 5219.00    0.79917   0.78952   12.513
 5220.00    0.77281   0.79354   12.940
 5221.00    0.87042   0.80074   11.489
 5222.00    0.94301   0.80781   10.604
 5223.00    0.79890   0.81089   12.517
 5224.00    0.70951   0.80727   14.094
 5225.00    0.77078   0.79617   12.974
 5226.00    0.84067   0.77911   11.895
 5227.00    0.84737   0.76023   11.801
 5228.00    0.79359   0.74501   12.601
 5229.00    0.72991   0.73827   13.700
 5230.00    0.71812   0.74191   13.925
 5231.00    0.76176   0.75360   13.128
 5232.00    0.81233   0.76783   12.310
 5233.00    0.82234   0.77834   12.160
 5234.00    0.80492   0.78238   12.424
 5235.00    0.78964   0.78219   12.664
 5236.00    0.77766   0.78175   12.859
 5237.00    0.77369   0.78438   12.925
 5238.00    0.77772   0.79122   12.858
 5239.00    0.78101   0.80052   12.804
 5240.00    0.79264   0.80942   12.616
 5241.00    0.82759   0.81582   12.083
 5242.00    0.87011   0.81924   11.493
 5243.00    0.85227   0.82061   11.733
 5244.00    0.82359   0.82088   12.142
 5245.00    0.90024   0.82020   11.108
 5246.00    0.97201   0.81798   10.288
 5247.00    0.95724   0.81377   10.447
 5248.00    0.88677   0.80751   11.277
 5249.00    0.73195   0.79956   13.662
 5250.00    0.59235   0.79135   16.882
 5251.00    0.62326   0.78505   16.045
 5252.00    0.74728   0.78201   13.382
 5253.00    0.82260   0.78177   12.157
 5254.00    0.80638   0.78316   12.401
 5255.00    0.78632   0.78605   12.717
 5256.00    0.80468   0.79047   12.427
 5257.00    0.82416   0.79623   12.134
 5258.00    0.81009   0.80317   12.344
 5259.00    0.78060   0.81039   12.811
 5260.00    0.77254   0.81560   12.944
 5261.00    0.78105   0.81537   12.803
 5262.00    0.76875   0.80712   13.008
 5263.00    0.73259   0.79092   13.650
 5264.00    0.73632   0.76943   13.581
 5265.00    0.79727   0.74681   12.543
 5266.00    0.81916   0.72738   12.208
 5267.00    0.68440   0.71370   14.611
 5268.00    0.55935   0.70566   17.878
 5269.00    0.61167   0.70167   16.349
 5270.00    0.75826   0.70021   13.188
 5271.00    0.90304   0.70093   -1.000
 5272.00    0.96791   0.70450   -1.000
 5273.00    0.90459   0.71202   11.055
 5274.00    0.79435   0.72380   12.589
 5275.00    0.75644   0.73819   13.220
 5276.00    0.82910   0.75200   12.061
 5277.00    0.92191   0.76368   10.847
 5278.00    0.92944   0.77449   10.759
 5279.00    0.83916   0.78538   11.917
 5280.00    0.75053   0.79510   13.324
 5281.00    0.72414   0.80106   13.810
 5282.00    0.74299   0.80121   13.459
 5283.00    0.80466   0.79617   12.428
 5284.00    0.88531   0.78974   11.295
 5285.00    0.94102   0.78640   10.627
 5286.00    0.95397   0.78889   10.483
 5287.00    0.91611   0.79724   10.916
 5288.00    0.86493   0.80925   11.562
 5289.00    0.90204   0.82167   11.086
 5290.00    0.98518   0.83151   10.150
 5291.00    0.97744   0.83729   10.231
 5292.00    0.86463   0.83944   11.566
 5293.00    0.82724   0.83913   12.088
 5294.00    0.93176   0.83673   10.732
 5295.00    0.92216   0.83163   10.844
 5296.00    0.82160   0.82315   12.171
 5297.00    0.80457   0.81153   12.429
 5298.00    0.84407   0.79839   11.847
 5299.00    0.85672   0.78618   11.672
 5300.00    0.80729   0.77762   12.387
 5301.00    0.74327   0.77474   13.454
 5302.00    0.75765   0.77797   13.199
 5303.00    0.80732   0.78587   12.387
 5304.00    0.73236   0.79594   13.654
 5305.00    0.64908   0.80596   15.406
 5306.00    0.66139   0.81477   15.120
 5307.00    0.68052   0.82185   14.695
 5308.00    0.73328   0.82671   13.637
 5309.00    0.81106   0.82941   12.330
 5310.00    0.82380   0.83081   12.139
 5311.00    0.83450   0.83194   11.983
 5312.00    0.88724   0.83300   11.271
 5313.00    0.92866   0.83330   10.768
 5314.00    0.94211   0.83183   10.614
 5315.00    0.92393   0.82811   10.823
 5316.00    0.87854   0.82272   11.383
 5317.00    0.84923   0.81687   11.775
 5318.00    0.84130   0.81182   11.886
 5319.00    0.81896   0.80868   12.211
 5320.00    0.77738   0.80777   12.864
 5321.00    0.76565   0.80834   13.061
 5322.00    0.80885   0.80884   12.363
 5323.00    0.83473   0.80735   11.980
 5324.00    0.85173   0.80272   11.741
 5325.00    0.89598   0.79494   11.161
 5326.00    0.89331   0.78425   11.194
 5327.00    0.81340   0.77104   12.294
 5328.00    0.72164   0.75648   13.857
 5329.00    0.71720   0.74308   13.943
 5330.00    0.80250   0.73432   12.461
 5331.00    0.88437   0.73325   11.308
 5332.00    0.86445   0.74087   11.568
 5333.00    0.75747   0.75557   13.202
 5334.00    0.67429   0.77322   14.830
 5335.00    0.70413   0.78862   14.202
 5336.00    0.75677   0.79880   13.214
 5337.00    0.75736   0.80373   13.204
 5338.00    0.77024   0.80429   12.983
 5339.00    0.79075   0.80113   12.646
 5340.00    0.79723   0.79510   12.543
 5341.00    0.81743   0.78805   12.234
 5342.00    0.87151   0.78257   11.474
 5343.00    0.93902   0.78066   10.649
 5344.00    0.96548   0.78266   10.357
 5345.00    0.91114   0.78735   10.975
 5346.00    0.80713   0.79265   12.390
 5347.00    0.72634   0.79617   13.768
 5348.00    0.68250   0.79677   14.652
 5349.00    0.67576   0.79553   14.798
 5350.00    0.71438   0.79442   13.998
 5351.00    0.77857   0.79520   12.844
 5352.00    0.79407   0.79878   12.593
 5353.00    0.73223   0.80491   13.657
 5354.00    0.71911   0.81281   13.906
 5355.00    0.77233   0.82139   12.948
 5356.00    0.84988   0.82944   11.766
 5357.00    1.01431   0.83609    9.859
 5358.00    1.07087   0.84108    9.338
 5359.00    0.89419   0.84417   11.183
 5360.00    0.82464   0.84474   12.126
 5361.00    0.84565   0.84224   11.825
 5362.00    0.83917   0.83681   11.917
 5363.00    1.02699   0.82903    9.737
 5364.00    1.16566   0.81994   -1.000
 5365.00    0.99578   0.81088   10.042
 5366.00    0.81304   0.80299   12.300
 5367.00    0.79233   0.79672   12.621
 5368.00    0.85638   0.79152   11.677
 5369.00    0.86453   0.78601   11.567
 5370.00    0.82068   0.77917   12.185
 5371.00    0.77901   0.77152   12.837
 5372.00    0.74431   0.76503   13.435
 5373.00    0.74344   0.76267   -2.000
 5374.00    0.79097   0.76672   -2.000
 5375.00    0.83843   0.77709   -2.000
 5376.00    0.79206   0.79118   -2.000
 5377.00    0.73373   0.80510   -2.000
 5378.00    0.83510   0.81534   -2.000
 5379.00    0.93928   0.82041   -2.000
 5380.00    0.93203   0.82096   -2.000
 5381.00    0.91501   0.81848   -2.000
 5382.00    0.95862   0.81443   -2.000
 5383.00    1.00337   0.81019   -2.000
 5384.00    0.95794   0.80688   -2.000
 5385.00    0.88316   0.80530   -2.000
 5386.00    0.86738   0.80576   -2.000
 5387.00    0.90109   0.80757   -2.000
 5388.00    0.86862   0.80924   11.512
 5389.00    0.78122   0.80938   12.800
 5390.00    0.72873   0.80718   13.723
 5391.00    0.69596   0.80266   14.369
 5392.00    0.70622   0.79685   14.160
 5393.00    0.78983   0.79092   12.661
 5394.00    0.89145   0.78550   11.218
 5395.00    0.99867   0.78049   10.013
 5396.00    1.05381   0.77553   -1.000
 5397.00    0.92513   0.77059   10.809
 5398.00    0.80199   0.76632   12.469
 5399.00    0.83673   0.76404   11.951
 5400.00    0.82780   0.76483   12.080
 5401.00    0.77917   0.76842   12.834
 5402.00    0.78664   0.77291   12.712
 5403.00    0.80344   0.77558   12.447
 5404.00    0.78213   0.77398   12.786
 5405.00    0.75329   0.76756   13.275
 5406.00    0.78067   0.75837   12.809
 5407.00    0.80947   0.74969   12.354
 5408.00    0.79419   0.74421   12.591
 5409.00    0.78787   0.74314   12.692
 5410.00    0.84413   0.74604   11.847
 5411.00    0.93370   0.75151   10.710
 5412.00    0.96003   0.75829   10.416
 5413.00    0.88386   0.76581   11.314
 5414.00    0.79897   0.77381   12.516
 5415.00    0.81213   0.78188   12.313
 5416.00    0.82442   0.78932   12.130
 5417.00    0.80017   0.79544   12.497
 5418.00    0.77593   0.80001   12.888
 5419.00    0.66275   0.80311   15.089
 5420.00    0.60496   0.80476   16.530
 5421.00    0.75387   0.80485   13.265
 5422.00    0.80530   0.80326   12.418
 5423.00    0.74006   0.80037   13.512
 5424.00    0.74413   0.79704   13.438
 5425.00    0.70719   0.79417   14.140
 5426.00    0.68145   0.79250   14.675
 5427.00    0.78663   0.79202   12.712
 5428.00    0.89126   0.79178   11.220
 5429.00    0.88134   0.79034   11.346
 5430.00    0.82030   0.78666   12.191
 5431.00    0.87243   0.78090   11.462
 5432.00    0.94534   0.77444   10.578
 5433.00    0.91177   0.76893   10.968
 5434.00    0.86204   0.76521   11.600
 5435.00    0.83364   0.76341   11.996
 5436.00    0.81074   0.76364   12.334
 5437.00    0.79636   0.76640   12.557
 5438.00    0.78302   0.77248   12.771
 5439.00    0.79654   0.78205   12.554
 5440.00    0.86972   0.79382   11.498
 5441.00    0.90136   0.80542   11.094
 5442.00    0.84113   0.81446   11.889
 5443.00    0.77374   0.81921   12.924
 5444.00    0.74328   0.81866   13.454
 5445.00    0.75358   0.81258   13.270
 5446.00    0.78323   0.80189   12.768
 5447.00    0.78128   0.78890   12.799
 5448.00    0.80096   0.77703   12.485
 5449.00    0.90446   0.76971   11.056
 5450.00    0.92062   0.76871   10.862
 5451.00    0.81567   0.77305   12.260
 5452.00    0.74043   0.77947   13.506
 5453.00    0.74029   0.78402   13.508
 5454.00    0.79845   0.78401   12.524
 5455.00    0.83135   0.77919   12.029
 5456.00    0.71307   0.77185   14.024
 5457.00    0.67017   0.76556   14.922
 5458.00    0.87478   0.76334   11.431
 5459.00    0.92926   0.76612   10.761
 5460.00    0.83329   0.77215   12.001
 5461.00    0.80075   0.77815   12.488
 5462.00    0.68923   0.78130   14.509
 5463.00    0.57343   0.78060   -1.000
 5464.00    0.62539   0.77722   15.990
 5465.00    0.76898   0.77374   13.004
 5466.00    0.85587   0.77237   11.684
 5467.00    0.84373   0.77381   11.852
 5468.00    0.81844   0.77719   12.218
 5469.00    0.77624   0.78104   12.883
 5470.00    0.69538   0.78402   14.381
 5471.00    0.64708   0.78513   15.454
 5472.00    0.73537   0.78409   13.599
 5473.00    0.92038   0.78116   10.865
 5474.00    1.01202   0.77646    9.881
 5475.00    0.95118   0.77008   10.513
 5476.00    0.82017   0.76258   12.193
 5477.00    0.73463   0.75509   13.612
 5478.00    0.71531   0.74912   13.980
 5479.00    0.70095   0.74615   14.266
 5480.00    0.64752   0.74687   15.444
 5481.00    0.63762   0.75044   15.683
 5482.00    0.73072   0.75517   13.685
 5483.00    0.85503   0.76004   -2.000
 5484.00    0.85741   0.76488   -2.000
 5485.00    0.78216   0.76976   -2.000
 5486.00    0.78180   0.77456   -2.000
 5487.00    0.80243   0.77858   -2.000
 5488.00    0.84254   0.78090   -2.000
 5489.00    0.83170   0.78126   -2.000
 5490.00    0.54087   0.78053   -2.000
 5491.00    0.74840   0.77994   -2.000
 5492.00    1.87056   0.78020   -2.000
 5493.00    2.31299   0.78125   -2.000
 5494.00    1.53073   0.78249   -2.000
 5495.00    0.86468   0.78315   -2.000
 5496.00    1.75479   0.78286   -2.000
 5497.00    2.18046   0.78181   -2.000
 5498.00    0.82899   0.78035   -2.000
 5499.00    0.47533   0.77881   -2.000
 5500.00    0.90703   0.77747   -2.000
 5501.00    0.75393   0.77625   -2.000
 5502.00    0.71928   0.77471   -2.000
 5503.00    0.87850   0.77264   -2.000
 5504.00    0.89728   0.77028   -2.000
 5505.00    0.86876   0.76802   -2.000
 5506.00    0.88595   0.76613   -2.000
 5507.00    0.91888   0.76479   10.883
 5508.00    0.89174   0.76415   11.214
 5509.00    0.82317   0.76429   12.148
 5510.00    0.77864   0.76491   12.843
 5511.00    0.79118   0.76529   12.639
 5512.00    0.82978   0.76460   12.051
 5513.00    0.85627   0.76259   11.679
 5514.00    0.85639   0.75997   11.677
 5515.00    0.82906   0.75819   12.062
 5516.00    0.83269   0.75878   12.009
 5517.00    0.89710   0.76242   11.147
 5518.00    0.88652   0.76861   11.280
 5519.00    0.80226   0.77608   12.465
 5520.00    0.78378   0.78331   12.759
 5521.00    0.84314   0.78905   11.860
 5522.00    0.89767   0.79261   11.140
 5523.00    0.88002   0.79386   11.363
 5524.00    0.82029   0.79297   12.191
 5525.00    0.76927   0.79005   12.999
 5526.00    0.75927   0.78503   13.170
 5527.00    0.78444   0.77815   12.748
 5528.00    0.74197   0.77031   13.478
 5529.00    0.63712   0.76318   15.696
 5530.00    0.67581   0.75879   14.797
 5531.00    0.73736   0.75840   13.562
 5532.00    0.68984   0.76169   14.496
 5533.00    0.72391   0.76672   13.814
 5534.00    0.76919   0.77122   13.001
 5535.00    0.71759   0.77380   13.935
 5536.00    0.69646   0.77453   14.358
 5537.00    0.71456   0.77458   13.995
 5538.00    0.74128   0.77533   13.490
 5539.00    0.79965   0.77754   12.505
 5540.00    0.81031   0.78096   12.341
 5541.00    0.78463   0.78467   12.745
 5542.00    0.84377   0.78764   11.852
 5543.00    0.88768   0.78901   11.265
 5544.00    0.86726   0.78849   11.531
 5545.00    0.88237   0.78664   11.333
 5546.00    0.89532   0.78459   11.169
 5547.00    0.87514   0.78351   11.427
 5548.00    0.86856   0.78412   11.513
 5549.00    0.88017   0.78644   11.361
 5550.00    0.86514   0.78975   11.559
 5551.00    0.81226   0.79291   12.311
 5552.00    0.82013   0.79478   12.193
 5553.00    0.88139   0.79470   11.346
 5554.00    0.89808   0.79273   11.135
 5555.00    0.87742   0.78954   11.397
 5556.00    0.87529   0.78620   11.425
 5557.00    0.93438   0.78367   10.702
 5558.00    1.04698   0.78237    9.551
 5559.00    1.11774   0.78208   -1.000
 5560.00    1.05086   0.78216    9.516
 5561.00    0.87739   0.78195   11.397
 5562.00    0.74842   0.78092   13.361
 5563.00    0.77535   0.77886   12.897
 5564.00    0.87490   0.77588   11.430
 5565.00    0.84597   0.77245   11.821
 5566.00    0.67257   0.76912   14.868
 5567.00    0.61036   0.76631   16.384
 5568.00    0.65319   0.76423   15.310
 5569.00    0.69157   0.76289   14.460
 5570.00    0.74031   0.76207   13.508
 5571.00    0.73238   0.76158   13.654
 5572.00    0.70789   0.76131   14.127
 5573.00    0.82110   0.76123   12.179
 5574.00    0.89027   0.76146   11.233
 5575.00    0.79186   0.76232   12.629
 5576.00    0.69446   0.76402   14.400
 5577.00    0.69903   0.76652   14.306
 5578.00    0.79441   0.76946   12.588
 5579.00    0.90194   0.77233   11.087
 5580.00    0.92198   0.77472   10.846
 5581.00    0.86770   0.77633   11.525
 5582.00    0.84546   0.77687   11.828
 5583.00    0.87818   0.77615   11.387
 5584.00    0.90397   0.77402   11.062
 5585.00    0.85706   0.77014   11.668
 5586.00    0.76089   0.76413   13.143
 5587.00    0.68971   0.75590   14.499
 5588.00    0.68359   0.74618   14.629
 5589.00    0.69497   0.73673   14.389
 5590.00    0.71642   0.72977   13.958
 5591.00    0.76333   0.72689   13.101
 5592.00    0.78633   0.72824   12.717
 5593.00    0.76045   0.73260   13.150
 5594.00    0.69795   0.73815   14.328
 5595.00    0.63312   0.74339   15.795
 5596.00    0.68620   0.74765   14.573
 5597.00    0.86876   0.75076   11.511
 5598.00    0.96612   0.75241   10.351
 5599.00    0.93199   0.75208   10.730
 5600.00    0.86062   0.74960   11.619
 5601.00    0.80549   0.74557   12.415
 5602.00    0.75847   0.74136   13.184
 5603.00    0.64435   0.73864   15.520
 5604.00    0.44528   0.73886   -1.000
 5605.00    0.45715   0.74291   -1.000
 5606.00    0.65756   0.75058   15.208
 5607.00    0.64097   0.76049   15.601
 5608.00    0.71703   0.77055   13.946
 5609.00    0.98084   0.77890   10.195
 5610.00    0.97478   0.78457   10.259
 5611.00    0.84856   0.78749   11.785
 5612.00    0.80802   0.78790   12.376
 5613.00    0.75836   0.78578   13.186
 5614.00    0.71052   0.78088   14.074
 5615.00    0.72081   0.77315   13.873
 5616.00    0.77899   0.76353   12.837
 5617.00    0.80214   0.75416   12.467
 5618.00    0.76782   0.74763   13.024
 5619.00    0.73643   0.74550   13.579
 5620.00    0.75536   0.74749   13.239
 5621.00    0.80932   0.75179   12.356
 5622.00    0.84440   0.75615   11.843
 5623.00    0.82855   0.75885   12.069
 5624.00    0.75740   0.75913   13.203
 5625.00    0.67796   0.75724   14.750
 5626.00    0.67616   0.75444   14.789
 5627.00    0.71006   0.75253   14.083
 5628.00    0.71364   0.75293   14.013
 5629.00    0.75099   0.75601   13.316
 5630.00    0.82714   0.76100   12.090
 5631.00    0.84988   0.76653   11.766
 5632.00    0.74695   0.77123   13.388
 5633.00    0.66309   0.77418   15.081
 5634.00    0.69585   0.77496   14.371
 5635.00    0.71537   0.77361   13.979
 5636.00    0.75179   0.77058   13.302
 5637.00    0.82340   0.76656   12.145
 5638.00    0.81460   0.76230   12.276
 5639.00    0.81477   0.75848   12.273
 5640.00    0.83506   0.75559   11.975
 5641.00    0.73226   0.75374   13.656
 5642.00    0.69255   0.75285   14.439
 5643.00    0.79224   0.75278   12.622
 5644.00    0.82758   0.75349   12.083
 5645.00    0.80824   0.75503   12.373
 5646.00    0.76851   0.75727   13.012
 5647.00    0.68212   0.75992   14.660
 5648.00    0.65967   0.76253   15.159
 5649.00    0.75831   0.76473   13.187
 5650.00    0.86784   0.76633   11.523
 5651.00    0.82091   0.76736   12.182
 5652.00    0.69781   0.76799   14.331
 5653.00    0.65897   0.76823   15.175
 5654.00    0.56205   0.76782   17.792
 5655.00    0.53106   0.76616   -1.000
 5656.00    0.71332   0.76273   14.019
 5657.00    0.71701   0.75739   13.947
 5658.00    0.58458   0.75062   17.106
 5659.00    0.60721   0.74340   16.469
 5660.00    0.62721   0.73718   15.944
 5661.00    0.66813   0.73333   14.967
 5662.00    0.82197   0.73246   12.166
 5663.00    0.89678   0.73422   11.151
 5664.00    0.86509   0.73768   11.560
 5665.00    0.84158   0.74185   11.882
 5666.00    0.86013   0.74605   11.626
 5667.00    0.87989   0.74967   11.365
 5668.00    0.86802   0.75225   11.520
 5669.00    0.85221   0.75368   11.734
 5670.00    0.86639   0.75446   11.542
 5671.00    0.91447   0.75546   10.935
 5672.00    0.96561   0.75744   10.356
 5673.00    0.98606   0.76057   10.141
 5674.00    0.97323   0.76447   10.275
 5675.00    0.95375   0.76834   10.485
 5676.00    0.93130   0.77146   10.738
 5677.00    0.87295   0.77344   11.455
 5678.00    0.77862   0.77423   12.843
 5679.00    0.77154   0.77395   12.961
 5680.00    0.76940   0.77264   12.997
 5681.00    0.58090   0.77028   17.215
 5682.00    0.43290   0.76694   -1.000
 5683.00    0.49863   0.76287   -1.000
 5684.00    0.66190   0.75862   15.108
 5685.00    0.75582   0.75481   13.231
 5686.00    0.79848   0.75186   12.524
 5687.00    0.87798   0.74981   11.390
 5688.00    0.87994   0.74851   11.364
 5689.00    0.77878   0.74798   12.841
 5690.00    0.70339   0.74857   14.217
 5691.00    0.75770   0.75068   13.198
 5692.00    0.87072   0.75435   11.485
 5693.00    0.88383   0.75899   11.314
 5694.00    0.76205   0.76358   13.122
 5695.00    0.68287   0.76716   14.644
 5696.00    0.74882   0.76913   13.354
 5697.00    0.76680   0.76935   13.041
 5698.00    0.71190   0.76793   14.047
 5699.00    0.73610   0.76511   13.585
 5700.00    0.89918   0.76129   11.121
 5701.00    0.95307   0.75700   10.492
 5702.00    0.81354   0.75290   12.292
 5703.00    0.77792   0.74958   12.855
 5704.00    0.77291   0.74736   12.938
 5705.00    0.66689   0.74601   14.995
 5706.00    0.60303   0.74472   16.583
 5707.00    0.64550   0.74253   15.492
 5708.00    0.70760   0.73882   14.132
 5709.00    0.68238   0.73380   14.655
 5710.00    0.64917   0.72848   15.404
 5711.00    0.69438   0.72432   14.401
 5712.00    0.76923   0.72262   13.000
 5713.00    0.76368   0.72415   13.094
 5714.00    0.69413   0.72885   14.407
 5715.00    0.68985   0.73585   14.496
 5716.00    0.76547   0.74377   13.064
 5717.00    0.81870   0.75123   12.215
 5718.00    0.79088   0.75732   12.644
 5719.00    0.82250   0.76188   12.158
 5720.00    0.91862   0.76530   10.886
 5721.00    0.94936   0.76820   10.533
 5722.00    0.91800   0.77094   10.893
 5723.00    0.84740   0.77348   11.801
 5724.00    0.77265   0.77542   12.942
 5725.00    0.78610   0.77624   12.721
 5726.00    0.84549   0.77562   11.827
 5727.00    0.86389   0.77365   11.575
 5728.00    0.88450   0.77087   11.306
 5729.00    0.91086   0.76809   10.979
 5730.00    0.89180   0.76597   11.213
 5731.00    0.81066   0.76477   12.336
 5732.00    0.73992   0.76438   13.515
 5733.00    0.76716   0.76462   13.035
 5734.00    0.88079   0.76542   11.353
 5735.00    0.93234   0.76676   10.726
 5736.00    0.86230   0.76841   11.597
 5737.00    0.81265   0.76990   12.305
 5738.00    0.83982   0.77081   11.907
 5739.00    0.88279   0.77095   11.328
 5740.00    0.85880   0.77049    0.000
 5741.00    0.77693   0.76977    0.000
 5742.00    0.73914   0.76908    0.000
 5743.00    0.81811   0.76862    0.000
 5744.00    0.87587   0.76850    0.000
 5745.00    0.82011   0.76874    0.000
 5746.00    0.74319   0.76916    0.000
 5747.00    0.75540   0.76940    0.000
 5748.00    0.82613   0.76908    0.000
 5749.00    0.84594   0.76808    0.000
 5750.00    0.85078   0.76659    0.000
 5751.00    0.87924   0.76489    0.000
 5752.00    0.88380   0.76293    0.000
 5753.00    0.79747   0.76048    0.000
 5754.00    0.69917   0.75754    0.000
 5755.00    0.70185   0.75481    0.000
 5756.00    0.71591   0.75344    0.000
 5757.00    0.66499   0.75426    0.000
 5758.00    0.58683   0.75705    0.000
 5759.00    0.57181   0.76047    0.000
 5760.00    0.62891   0.76276    0.000
 5761.00    0.69419   0.76270    0.000
 5762.00    0.72179   0.76025    0.000
 5763.00    0.72906   0.75652    0.000
 5764.00    0.73691   0.75329    0.000
 5765.00    0.72400   0.75213    0.000
 5766.00    0.73077   0.75365    0.000
 5767.00    0.76709   0.75734    0.000
 5768.00    0.76146   0.76184    0.000
 5769.00    0.77800   0.76574    0.000
 5770.00    0.84489   0.76815    0.000
 5771.00    0.84565   0.76887    0.000
 5772.00    0.80804   0.76819    0.000
 5773.00    0.81839   0.76665    0.000
 5774.00    0.88411   0.76481    0.000
 5775.00    0.95387   0.76311    0.000
 5776.00    0.94973   0.76183    0.000
 5777.00    0.85347   0.76098    0.000
 5778.00    0.81367   0.76018    0.000
 5779.00    0.89445   0.75872    0.000
 5780.00    0.96013   0.75583    0.000
 5781.00    0.86318   0.75110    0.000
 5782.00    0.69260   0.74487    0.000
 5783.00    0.65548   0.73821    0.000
 5784.00    0.68622   0.73249    0.000
 5785.00    0.69044   0.72880    0.000
 5786.00    0.67355   0.72769    0.000
 5787.00    0.64644   0.72907    0.000
 5788.00    0.58608   0.73245    0.000
 5789.00    0.52310   0.73700    0.000
 5790.00    0.60883   0.74170    0.000
 5791.00    0.79233   0.74569    0.000
 5792.00    0.88807   0.74863    0.000
 5793.00    0.86463   0.75079    0.000
 5794.00    0.80301   0.75278    0.000
 5795.00    0.76112   0.75502    0.000
 5796.00    0.69558   0.75738    0.000
 5797.00    0.63158   0.75939   -2.000
 5798.00    0.90454   0.76071   -2.000
 5799.00    1.79812   0.76157   -2.000
 5800.00    2.04451   0.76264   -2.000
 5801.00    1.04903   0.76451   -2.000
 5802.00    0.37619   0.76714   -2.000
 5803.00    0.33142   0.76975   -2.000
 5804.00    0.45207   0.77130   -2.000
 5805.00    0.70798   0.77116   -2.000
 5806.00    0.88024   0.76954   -2.000
 5807.00    0.88033   0.76726   -2.000
 5808.00    0.88739   0.76536   -2.000
 5809.00    0.74210   0.76448   -2.000
 5810.00    0.47352   0.76471   -2.000
 5811.00    0.47562   0.76567   -2.000
 5812.00    0.79568   0.76674   -2.000
 5813.00    1.08100   0.76735   -2.000
 5814.00    1.01441   0.76707   -2.000
 5815.00    0.87542   0.76575   -2.000
 5816.00    0.86527   0.76368    0.000
 5817.00    0.85953   0.76156    0.000
 5818.00    0.81983   0.76027    0.000
 5819.00    0.78786   0.76046    0.000
 5820.00    0.79955   0.76221    0.000
 5821.00    0.82977   0.76495    0.000
 5822.00    0.81841   0.76780    0.000
 5823.00    0.77085   0.77001    0.000
 5824.00    0.79898   0.77127    0.000
 5825.00    0.81609   0.77174    0.000
 5826.00    0.74618   0.77177    0.000
 5827.00    0.80961   0.77171    0.000
 5828.00    0.89912   0.77175    0.000
 5829.00    0.85193   0.77193    0.000
 5830.00    0.88707   0.77218    0.000
 5831.00    0.91738   0.77240    0.000
 5832.00    0.80863   0.77247    0.000
 5833.00    0.76480   0.77229    0.000
 5834.00    0.75731   0.77179    0.000
 5835.00    0.73306   0.77104    0.000
 5836.00    0.82645   0.77016    0.000
 5837.00    0.86630   0.76934    0.000
 5838.00    0.77873   0.76871    0.000
 5839.00    0.81369   0.76839    0.000
 5840.00    0.89624   0.76846    0.000
 5841.00    0.87944   0.76899    0.000
 5842.00    0.81403   0.76994    0.000
 5843.00    0.75634   0.77105    0.000
 5844.00    0.76444   0.77186    0.000
 5845.00    0.85153   0.77186    0.000
 5846.00    0.86182   0.77071    0.000
 5847.00    0.76013   0.76839    0.000
 5848.00    0.69775   0.76525    0.000
 5849.00    0.73803   0.76183    0.000
 5850.00    0.83986   0.75856    0.000
 5851.00    0.91197   0.75554    0.000
 5852.00    0.88716   0.75252    0.000
 5853.00    0.83786   0.74916    0.000
 5854.00    0.84979   0.74529    0.000
 5855.00    0.81310   0.74106    0.000
 5856.00    0.74957   0.73680    0.000
 5857.00    0.76797   0.73277    0.000
 5858.00    0.79746   0.72925    0.000
 5859.00    0.78765   0.72662    0.000
 5860.00    0.78189   0.72539    0.000
 5861.00    0.83222   0.72598    0.000
 5862.00    0.86181   0.72823    0.000
 5863.00    0.78771   0.73151    0.000
 5864.00    0.68762   0.73491    0.000
 5865.00    0.66998   0.73778    0.000
 5866.00    0.73632   0.73987    0.000
 5867.00    0.78029   0.74131    0.000
 5868.00    0.82629   0.74244    0.000
 5869.00    0.87213   0.74370    0.000
 5870.00    0.80356   0.74539    0.000
 5871.00    0.74930   0.74746    0.000
 5872.00    0.80968   0.74955    0.000
 5873.00    0.86090   0.75116    0.000
 5874.00    0.88339   0.75198    0.000
 5875.00    0.92167   0.75199    0.000
 5876.00    0.96687   0.75132    0.000
 5877.00    0.95117   0.75011    0.000
 5878.00    0.87380   0.74838    0.000
 5879.00    0.81330   0.74613    0.000
 5880.00    0.78275   0.74349    0.000
 5881.00    0.80416   0.74073    0.000
 5882.00    0.87930   0.73816    0.000
 5883.00    0.86902   0.73600    0.000
 5884.00    0.82387   0.73414    0.000
 5885.00    0.87004   0.73211    0.000
 5886.00    0.78991   0.72898    0.000
 5887.00    0.61744   0.72340    0.000
 5888.00    0.57463   0.71384    0.000
 5889.00    0.54234   0.69940    0.000
 5890.00    0.55723   0.68085    0.000
 5891.00    0.72007   0.66128    0.000
 5892.00    0.80288   0.64504    0.000
 5893.00    0.75225   0.63561    0.000
 5894.00    0.70243   0.63343    0.000
 5895.00    0.69074   0.63583    0.000
 5896.00    0.69816   0.63918    0.000
 5897.00    0.71361   0.64168    0.000
 5898.00    0.74672   0.64431    0.000
 5899.00    0.75459   0.64959    0.000
 5900.00    0.74147   0.65917    0.000
 5901.00    0.79737   0.67248   12.541
 5902.00    0.84622   0.68721   11.817
 5903.00    0.83444   0.70076   11.984
 5904.00    0.85881   0.71147   11.644
 5905.00    0.85052   0.71886   11.758
 5906.00    0.79972   0.72339   12.504
 5907.00    0.85659   0.72592   11.674
 5908.00    0.93446   0.72736   10.701
 5909.00    0.88857   0.72839   11.254
 5910.00    0.74630   0.72933   13.399
 5911.00    0.68479   0.73008   14.603
 5912.00    0.77489   0.73030   12.905
 5913.00    0.88225   0.72956   11.335
 5914.00    0.85419   0.72764   11.707
 5915.00    0.73712   0.72475   13.566
 5916.00    0.68407   0.72160   14.618
 5917.00    0.63404   0.71916   15.772
 5918.00    0.57399   0.71820   17.422
 5919.00    0.60464   0.71894   16.539
 5920.00    0.72865   0.72093   13.724
 5921.00    0.81074   0.72344   12.334
 5922.00    0.75037   0.72574   13.327
 5923.00    0.67672   0.72750   14.777
 5924.00    0.66768   0.72873   14.977
 5925.00    0.66855   0.72967   14.958
 5926.00    0.62310   0.73046   16.049
 5927.00    0.61402   0.73098   16.286
 5928.00    0.69813   0.73094   14.324
 5929.00    0.73850   0.73010   13.541
 5930.00    0.74938   0.72854   13.344
 5931.00    0.79365   0.72675   12.600
 5932.00    0.78415   0.72539   12.753
 5933.00    0.72709   0.72488   13.754
 5934.00    0.69928   0.72519   14.301
 5935.00    0.72865   0.72597   13.724
 5936.00    0.79754   0.72689   12.538
 5937.00    0.86763   0.72789   11.526
 5938.00    0.90339   0.72905   11.069
 5939.00    0.88277   0.73027   11.328
 5940.00    0.78325   0.73120   12.767
 5941.00    0.62729   0.73142   15.942
 5942.00    0.58527   0.73082   17.086
 5943.00    0.69682   0.72974   14.351
 5944.00    0.78078   0.72883   12.808
 5945.00    0.75755   0.72858   13.200
 5946.00    0.75004   0.72897   13.333
 5947.00    0.88032   0.72949   11.359
 5948.00    0.92842   0.72943   10.771
 5949.00    0.83619   0.72841   11.959
 5950.00    0.82898   0.72656   12.063
 5951.00    0.96361   0.72448   10.378
 5952.00    1.00558   0.72276   -1.000
 5953.00    0.76298   0.72168   13.107
 5954.00    0.54023   0.72119   18.511
 5955.00    0.58176   0.72105   17.189
 5956.00    0.76383   0.72106   13.092
 5957.00    0.76153   0.72116   13.131
 5958.00    0.61296   0.72143   16.314
 5959.00    0.60073   0.72211   16.646
 5960.00    0.75358   0.72348   13.270
 5961.00    0.85248   0.72566   11.730
 5962.00    0.74270   0.72844   13.464
 5963.00    0.59419   0.73127   16.830
 5964.00    0.61283   0.73351   16.318
 5965.00    0.76087   0.73472   13.143
 5966.00    0.77155   0.73488   12.961
 5967.00    0.70386   0.73440   14.207
 5968.00    0.70708   0.73388   14.143
 5969.00    0.71337   0.73386   14.018
 5970.00    0.76263   0.73457   13.113
 5971.00    0.85616   0.73581   11.680
 5972.00    0.86408   0.73715   11.573
 5973.00    0.85833   0.73802   11.650
 5974.00    0.87603   0.73794   11.415
 5975.00    0.81518   0.73663   12.267
 5976.00    0.79233   0.73410   12.621
 5977.00    0.85085   0.73074   11.753
 5978.00    0.84843   0.72726   11.786
 5979.00    0.80795   0.72449   12.377
 5980.00    0.78385   0.72303   12.758
 5981.00    0.75762   0.72287   13.199
 5982.00    0.72238   0.72340   13.843
 5983.00    0.69296   0.72366   14.431
 5984.00    0.68845   0.72292   14.525
 5985.00    0.70971   0.72111   14.090
 5986.00    0.73274   0.71891   13.647
 5987.00    0.74365   0.71730   13.447
 5988.00    0.77642   0.71701   12.880
 5989.00    0.82237   0.71815   12.160
 5990.00    0.83816   0.72027   11.931
 5991.00    0.82463   0.72273   12.127
 5992.00    0.81093   0.72505   12.332
 5993.00    0.81802   0.72712   12.225
 5994.00    0.82970   0.72900   12.053
 5995.00    0.80441   0.73069   12.431
 5996.00    0.73643   0.73194   13.579
 5997.00    0.68987   0.73240   14.495
 5998.00    0.69451   0.73185   14.399
 5999.00    0.74531   0.73045   13.417
 6000.00    0.81328   0.72867   12.296
 6001.00    0.77464   0.72696   12.909
 6002.00    0.72494   0.72556   13.794
 6003.00    0.96434   0.72439   10.370
 6004.00    1.12404   0.72328   -1.000
 6005.00    0.94810   0.72208   10.547
 6006.00    0.83268   0.72073   12.009
 6007.00    0.84197   0.71916   11.877
 6008.00    0.81415   0.71742   12.283
 6009.00    0.70094   0.71579   14.267
 6010.00    0.59008   0.71477   16.947
 6011.00    0.55548   0.71477   18.002
 6012.00    0.62150   0.71576   16.090
 6013.00    0.85975   0.71721   11.631
 6014.00    1.03848   0.71841   -1.000
 6015.00    0.87155   0.71893   11.474
 6016.00    0.76346   0.71879   13.098
 6017.00    0.75393   0.71823   13.264
 6018.00    0.59574   0.71751   16.786
 6019.00    0.80961   0.71665   12.352
 6020.00    1.06518   0.71561   -1.000
 6021.00    0.70876   0.71437   14.109
 6022.00    0.61222   0.71311   16.334
 6023.00    0.84660   0.71218   11.812
 6024.00    0.76773   0.71195   13.025
 6025.00    0.70102   0.71267   14.265
 6026.00    0.75334   0.71434   13.274
 6027.00    0.76335   0.71677   13.100
 6028.00    0.88558   0.71968   11.292
 6029.00    0.93216   0.72277   10.728
 6030.00    0.73698   0.72581   13.569
 6031.00    0.65371   0.72860   15.297
 6032.00    0.65832   0.73104   15.190
 6033.00    0.60620   0.73306   16.496
 6034.00    0.68017   0.73466   14.702
 6035.00    0.80220   0.73584   12.466
 6036.00    0.78655   0.73662   12.714
 6037.00    0.68284   0.73696   14.645
 6038.00    0.70657   0.73688   14.153
 6039.00    0.85140   0.73639   11.745
 6040.00    0.84366   0.73559   11.853
 6041.00    0.76302   0.73461   13.106
 6042.00    0.76087   0.73371   13.143
 6043.00    0.78473   0.73317   12.743
 6044.00    0.77331   0.73322   12.931
 6045.00    0.69783   0.73392   14.330
 6046.00    0.57783   0.73513   17.306
 6047.00    0.50975   0.73654   -1.000
 6048.00    0.53514   0.73786   18.687
 6049.00    0.59096   0.73886   16.922
 6050.00    0.61098   0.73943   16.367
 6051.00    0.66832   0.73955   14.963
 6052.00    0.85143   0.73916   11.745
 6053.00    0.99016   0.73819   10.099
 6054.00    0.93084   0.73659   10.743
 6055.00    0.72756   0.73446   13.745
 6056.00    0.60363   0.73209   16.566
 6057.00    0.67301   0.72991   14.859
 6058.00    0.82737   0.72835   12.087
 6059.00    0.85764   0.72773   11.660
 6060.00    0.81658   0.72801   12.246
 6061.00    0.89105   0.72879   11.223
 6062.00    1.05638   0.72941   -1.000
 6063.00    1.12465   0.72919   -1.000
 6064.00    0.97779   0.72773   -1.000
 6065.00    0.74247   0.72520   13.468
 6066.00    0.61255   0.72238   16.325
 6067.00    0.62663   0.72040   15.958
 6068.00    0.65120   0.72026   15.356
 6069.00    0.76018   0.72231   13.155
 6070.00    0.96683   0.72613   10.343
 6071.00    1.04929   0.73068   -1.000
 6072.00    1.04889   0.73491   -1.000
 6073.00    1.01179   0.73811   -1.000
 6074.00    0.83281   0.74005   12.008
 6075.00    0.68143   0.74076   14.675
 6076.00    0.61864   0.74033   16.165
 6077.00    0.51873   0.73880   -1.000
 6078.00    0.64642   0.73621   15.470
 6079.00    0.91638   0.73275   10.913
 6080.00    0.89080   0.72884   11.226
 6081.00    0.86567   0.72502   11.552
 6082.00    0.94325   0.72179   10.602
 6083.00    0.82143   0.71939   12.174
 6084.00    0.67764   0.71785   14.757
 6085.00    0.66489   0.71706   15.040
 6086.00    0.69911   0.71688   14.304
 6087.00    0.74312   0.71717   13.457
 6088.00    0.71446   0.71775   13.996
 6089.00    0.61265   0.71834   16.323
 6090.00    0.67842   0.71867   14.740
 6091.00    0.78199   0.71855   12.788
 6092.00    0.68300   0.71810   14.641
 6093.00    0.63250   0.71772   15.810
 6094.00    0.71506   0.71790   13.985
 6095.00    0.80095   0.71892   12.485
 6096.00    0.85518   0.72075   11.693
 6097.00    0.82990   0.72297   12.050
 6098.00    0.74123   0.72500   13.491
 6099.00    0.72221   0.72623   13.846
 6100.00    0.72636   0.72615   13.767
 6101.00    0.69634   0.72434   14.361
 6102.00    0.73794   0.72064   13.551
 6103.00    0.81516   0.71551   12.268
 6104.00    0.83901   0.71013   11.919
 6105.00    0.81304   0.70614   12.299
 6106.00    0.74434   0.70485   13.435
 6107.00    0.64087   0.70651   15.604
 6108.00    0.54231   0.71024   18.440
 6109.00    0.52624   0.71461   19.003
 6110.00    0.61304   0.71844   16.312
 6111.00    0.74147   0.72125   13.487
 6112.00    0.87244   0.72313   11.462
 6113.00    0.97742   0.72443   -1.000
 6114.00    1.03092   0.72543   -1.000
 6115.00    1.04219   0.72624   -1.000
 6116.00    1.03123   0.72677   -1.000
 6117.00    0.99638   0.72680   -1.000
 6118.00    0.91269   0.72607   10.957
 6119.00    0.84160   0.72436   11.882
 6120.00    0.84247   0.72147   11.870
 6121.00    0.79577   0.71740   12.566
 6122.00    0.71785   0.71247   13.930
 6123.00    0.70817   0.70751   14.121
 6124.00    0.67247   0.70372   14.871
 6125.00    0.59812   0.70207   16.719
 6126.00    0.57815   0.70280   17.297
 6127.00    0.63639   0.70528   15.714
 6128.00    0.70914   0.70842   14.102
 6129.00    0.73831   0.71134   13.544
 6130.00    0.74751   0.71372   13.378
 6131.00    0.72866   0.71566   13.724
 6132.00    0.68054   0.71722   14.694
 6133.00    0.67211   0.71809   14.878
 6134.00    0.73816   0.71755   13.547
 6135.00    0.81561   0.71480   12.261
 6136.00    0.79128   0.70946   12.638
 6137.00    0.69712   0.70207   14.345
 6138.00    0.63729   0.69418   15.691
 6139.00    0.63423   0.68789   15.767
 6140.00    0.57487   0.68493   17.395
 6141.00    0.44908   0.68579   -1.000
 6142.00    0.43587   0.68962   -1.000
 6143.00    0.61456   0.69491   16.272
 6144.00    0.89992   0.70042   11.112
 6145.00    1.10858   0.70557   -1.000
 6146.00    1.10631   0.71009   -1.000
 6147.00    0.97027   0.71363   -1.000
 6148.00    0.87930   0.71569   11.373
 6149.00    0.78401   0.71594   12.755
 6150.00    0.69206   0.71462   14.450
 6151.00    0.70520   0.71248   14.180
 6152.00    0.74628   0.71044   13.400
 6153.00    0.79334   0.70914   12.605
 6154.00    0.86517   0.70867   11.558
 6155.00    0.82056   0.70860   12.187
 6156.00    0.71238   0.70833   14.037
 6157.00    0.70817   0.70733   14.121
 6158.00    0.74166   0.70524   13.483
 6159.00    0.73389   0.70172   13.626
 6160.00    0.73296   0.69636   13.643
 6161.00    0.84896   0.68889   11.779
 6162.00    0.95940   0.67957   -1.000
 6163.00    0.86935   0.66955   11.503
 6164.00    0.65202   0.66075   15.337
 6165.00    0.63103   0.65506   15.847
 6166.00    0.86011   0.65346   11.626
 6167.00    0.90677   0.65543   -1.000
 6168.00    0.81387   0.65926   12.287
 6169.00    0.80655   0.66295   12.399
 6170.00    0.78276   0.66533   12.775
 6171.00    0.64635   0.66643   15.471
 6172.00    0.49256   0.66722   20.302
 6173.00    0.51714   0.66878   19.337
 6174.00    0.66311   0.67155   15.080
 6175.00    0.81089   0.67517   12.332
 6176.00    0.93136   0.67887   -1.000
 6177.00    0.92599   0.68203   -1.000
 6178.00    0.80621   0.68451   12.404
 6179.00    0.71450   0.68651   13.996
 6180.00    0.65685   0.68836   15.224
 6181.00    0.68021   0.69022   14.701
 6182.00    0.83270   0.69208   12.009
 6183.00    0.87557   0.69378   11.421
 6184.00    0.78271   0.69504   12.776
 6185.00    0.75204   0.69555   13.297
 6186.00    0.71229   0.69497   14.039
 6187.00    0.67056   0.69312   14.913
 6188.00    0.71341   0.69003   14.017
 6189.00    0.71957   0.68592   13.897
 6190.00    0.75222   0.68114   13.294
 6191.00    0.87157   0.67620   11.474
 6192.00    0.76712   0.67175   13.036
 6193.00    0.59320   0.66862   16.858
 6194.00    0.62966   0.66761   15.882
 6195.00    0.59229   0.66909   16.884
 6196.00    0.58645   0.67268   17.052
 6197.00    0.77748   0.67727   12.862
 6198.00    0.80262   0.68149   12.459
 6199.00    0.74573   0.68433   13.410
 6200.00    0.81610   0.68547   12.253
 6201.00    0.84135   0.68536   11.886
 6202.00    0.95644   0.68491   -2.000
 6203.00    1.01937   0.68500   -2.000
 6204.00    0.48162   0.68611   -2.000
 6205.00    0.06822   0.68812   -2.000
 6206.00    0.30606   0.69053   -2.000
 6207.00    0.51440   0.69278   -2.000
 6208.00    0.58722   0.69445   -2.000
 6209.00    0.73454   0.69535   -2.000
 6210.00    0.87545   0.69531   -2.000
 6211.00    0.74345   0.69418   -2.000
 6212.00    0.44171   0.69179   -2.000
 6213.00    0.37077   0.68805   -2.000
 6214.00    0.40583   0.68315   -1.000
 6215.00    0.44981   0.67764   -1.000
 6216.00    0.61379   0.67235   16.292
 6217.00    0.72028   0.66813   13.883
 6218.00    0.68189   0.66550   14.665
 6219.00    0.63053   0.66446   15.860
 6220.00    0.64853   0.66453   15.419
 6221.00    0.75688   0.66514   13.212
 6222.00    0.91756   0.66596   -1.000
 6223.00    1.03040   0.66695   -1.000
 6224.00    1.04105   0.66817   -1.000
 6225.00    0.94843   0.66955   -1.000
 6226.00    0.76832   0.67083   13.015
 6227.00    0.63490   0.67162   15.751
 6228.00    0.63733   0.67150   15.690
 6229.00    0.64283   0.67016   15.556
 6230.00    0.62024   0.66748   16.123
 6231.00    0.65083   0.66377   15.365
 6232.00    0.74873   0.65993   13.356
 6233.00    0.78005   0.65718   12.820
 6234.00    0.69056   0.65662   14.481
 6235.00    0.64740   0.65860   15.446
 6236.00    0.68936   0.66247   14.506
 6237.00    0.74014   0.66684   13.511
 6238.00    0.75924   0.67018   13.171
 6239.00    0.78754   0.67152   12.698
 6240.00    0.79498   0.67073   12.579
 6241.00    0.68782   0.66837   14.539
 6242.00    0.62096   0.66530   16.104
 6243.00    0.66023   0.66223   15.146
 6244.00    0.65168   0.65956   15.345
 6245.00    0.63370   0.65744   15.780
 6246.00    0.65350   0.65604   15.302
 6247.00    0.65054   0.65559   15.372
 6248.00    0.62533   0.65631   15.992
 6249.00    0.60411   0.65817   16.553
 6250.00    0.59666   0.66069   16.760
 6251.00    0.60645   0.66296   16.489
 6252.00    0.63053   0.66399   15.860
 6253.00    0.66093   0.66312   15.130
 6254.00    0.68745   0.66042   14.546
 6255.00    0.69073   0.65656   14.477
 6256.00    0.67892   0.65251   14.729
 6257.00    0.71413   0.64908   14.003
 6258.00    0.76585   0.64671   13.057
 6259.00    0.74683   0.64562   13.390
 6260.00    0.66813   0.64598   14.967
 6261.00    0.65260   0.64795   15.323
 6262.00    0.72831   0.65153   13.730
 6263.00    0.72239   0.65632   13.843
 6264.00    0.74839   0.66155   13.362
 6265.00    0.88800   0.66635   -1.000
 6266.00    0.83812   0.67006   11.931
 6267.00    0.63666   0.67248   15.707
 6268.00    0.55204   0.67382   18.115
 6269.00    0.65688   0.67447   15.224
 6270.00    0.76271   0.67481   13.111
 6271.00    0.67329   0.67508   14.852
 6272.00    0.43837   0.67542   -1.000
 6273.00    0.33887   0.67597   -1.000
 6274.00    0.52521   0.67676   19.040
 6275.00    0.79715   0.67768   12.545
 6276.00    0.84978   0.67847   11.768
 6277.00    0.76081   0.67881   13.144
 6278.00    0.84748   0.67845   11.800
 6279.00    0.79981   0.67731   12.503
 6280.00    0.58068   0.67552    0.000
 6281.00    0.60939   0.67343    0.000
 6282.00    0.70581   0.67158    0.000
 6283.00    0.67592   0.67053    0.000
 6284.00    0.65190   0.67068    0.000
 6285.00    0.73567   0.67209    0.000
 6286.00    0.79795   0.67446    0.000
 6287.00    0.71532   0.67733    0.000
 6288.00    0.73488   0.68023    0.000
 6289.00    0.81520   0.68277    0.000
 6290.00    0.73780   0.68461    0.000
 6291.00    0.69838   0.68551    0.000
 6292.00    0.75948   0.68537    0.000
 6293.00    0.79489   0.68432    0.000
 6294.00    0.78945   0.68263    0.000
 6295.00    0.72195   0.68063    0.000
 6296.00    0.65532   0.67848    0.000
 6297.00    0.77709   0.67620    0.000
 6298.00    0.90075   0.67378    0.000
 6299.00    0.84473   0.67130    0.000
 6300.00    0.83072   0.66895    0.000
 6301.00    0.77021   0.66692    0.000
 6302.00    0.62081   0.66537    0.000
 6303.00    0.68685   0.66448    0.000
 6304.00    0.74960   0.66452    0.000
 6305.00    0.61049   0.66576    0.000
 6306.00    0.55532   0.66828    0.000
 6307.00    0.60988   0.67180    0.000
 6308.00    0.62866   0.67573    0.000
 6309.00    0.57611   0.67935    0.000
 6310.00    0.55092   0.68204    0.000
 6311.00    0.63066   0.68343    0.000
 6312.00    0.75355   0.68343    0.000
 6313.00    0.76356   0.68225    0.000
 6314.00    0.70782   0.68022    0.000
 6315.00    0.76925   0.67766    0.000
 6316.00    0.82289   0.67482    0.000
 6317.00    0.80176   0.67192    0.000
 6318.00    0.81072   0.66925    0.000
 6319.00    0.83701   0.66717    0.000
 6320.00    0.81153   0.66604    0.000
 6321.00    0.70106   0.66616   14.264
 6322.00    0.55260   0.66757   18.096
 6323.00    0.50190   0.67007   19.924
 6324.00    0.62282   0.67324   16.056
 6325.00    0.76614   0.67662   13.052
 6326.00    0.80760   0.67979   12.382
 6327.00    0.77163   0.68248   12.960
 6328.00    0.76845   0.68453   13.013
 6329.00    0.77907   0.68588   12.836
 6330.00    0.73459   0.68661   13.613
 6331.00    0.67974   0.68688   14.712
 6332.00    0.65021   0.68682   15.380
 6333.00    0.65050   0.68646   15.373
 6334.00    0.67626   0.68557   14.787
 6335.00    0.68221   0.68389   14.658
 6336.00    0.65464   0.68128   15.276
 6337.00    0.64578   0.67805   15.485
 6338.00    0.64527   0.67498   15.497
 6339.00    0.64811   0.67300   15.429
 6340.00    0.69856   0.67272   14.315
 6341.00    0.76280   0.67404   13.110
 6342.00    0.80869   0.67622   12.366
 6343.00    0.85415   0.67822   11.707
 6344.00    0.87087   0.67922   11.483
 6345.00    0.85826   0.67900   11.652
 6346.00    0.85276   0.67791   11.727
 6347.00    0.81323   0.67673   12.297
 6348.00    0.74420   0.67621   13.437
 6349.00    0.70959   0.67677   14.093
 6350.00    0.68721   0.67834   14.552
 6351.00    0.67657   0.68044   14.780
 6352.00    0.71549   0.68241   13.977
 6353.00    0.76929   0.68356   12.999
 6354.00    0.76500   0.68347   13.072
 6355.00    0.70220   0.68202   14.241
 6356.00    0.71579   0.67944   13.971
 6357.00    0.79043   0.67614   12.651
 6358.00    0.79003   0.67254   12.658
 6359.00    0.71029   0.66894   14.079
 6360.00    0.66743   0.66550   14.983
 6361.00    0.72217   0.66235   13.847
 6362.00    0.75906   0.65970   13.174
 6363.00    0.77024   0.65781   12.983
 6364.00    0.81475   0.65696   12.274
 6365.00    0.85178   0.65737   -1.000
 6366.00    0.83604   0.65909   11.961
 6367.00    0.78883   0.66198   12.677
 6368.00    0.78441   0.66565   12.748
 6369.00    0.82271   0.66958   12.155
 6370.00    0.86662   0.67324   11.539
 6371.00    0.90044   0.67630   -1.000
 6372.00    0.88574   0.67873   -1.000
 6373.00    0.83394   0.68072   11.991
 6374.00    0.80754   0.68253   12.383
 6375.00    0.75132   0.68428   13.310
 6376.00    0.64631   0.68580   15.472
 6377.00    0.59124   0.68678   16.914
 6378.00    0.61820   0.68692   16.176
 6379.00    0.65191   0.68612   15.339
 6380.00    0.61305   0.68456   16.312
 6381.00    0.58710   0.68265   17.033
 6382.00    0.62771   0.68088   15.931
 6383.00    0.69677   0.67965   14.352
 6384.00    0.81143   0.67909   12.324
 6385.00    0.88868   0.67911   11.253
 6386.00    0.83032   0.67950   12.043
 6387.00    0.78637   0.68007   12.717
 6388.00    0.81623   0.68068   12.251
 6389.00    0.83046   0.68119   12.042
 6390.00    0.80843   0.68140   12.370
 6391.00    0.72919   0.68101   13.714
 6392.00    0.62952   0.67976   15.885
 6393.00    0.65772   0.67762   15.204
 6394.00    0.69146   0.67493   14.462
 6395.00    0.61319   0.67241   16.308
 6396.00    0.66204   0.67084   15.105
 6397.00    0.67626   0.67059   14.787
 6398.00    0.50156   0.67135   19.938
 6399.00    0.52187   0.67227   19.162
 6400.00    0.65360   0.67255   15.300
 6401.00    0.67705   0.67199   14.770
 6402.00    0.75460   0.67120   13.252
 6403.00    0.75913   0.67127   13.173
 6404.00    0.64426   0.67289   15.522
 6405.00    0.70040   0.67588   14.278
 6406.00    0.74637   0.67923   13.398
 6407.00    0.68334   0.68178   14.634
 6408.00    0.80265   0.68269   12.459
 6409.00    0.90569   0.68192   -1.000
 6410.00    0.79390   0.68014   12.596
 6411.00    0.63572   0.67810   15.730
 6412.00    0.50919   0.67634   19.639
 6413.00    0.46487   0.67511   -1.000
 6414.00    0.54951   0.67446   18.198
 6415.00    0.63654   0.67438   15.710
 6416.00    0.68109   0.67471   14.682
 6417.00    0.75427   0.67520   13.258
 6418.00    0.79071   0.67551   12.647
 6419.00    0.75516   0.67524   13.242
 6420.00    0.68711   0.67412   14.554
 6421.00    0.59293   0.67238   16.865
 6422.00    0.58620   0.67069   17.059
 6423.00    0.73312   0.66987   13.640
 6424.00    0.80515   0.67059   12.420
 6425.00    0.77555   0.67298   12.894
 6426.00    0.79800   0.67653   12.531
 6427.00    0.83887   0.68029   11.921
 6428.00    0.76450   0.68319   13.081
 6429.00    0.60367   0.68443   16.565
 6430.00    0.62577   0.68378   15.980
 6431.00    0.74755   0.68155   13.377
 6432.00    0.77002   0.67851   12.987
 6433.00    0.78756   0.67562   12.697
 6434.00    0.78119   0.67384   12.801
 6435.00    0.72755   0.67362   13.745
 6436.00    0.75068   0.67472   13.321
 6437.00    0.76754   0.67630   13.029
 6438.00    0.67168   0.67733   14.888
 6439.00    0.57464   0.67724   17.402
 6440.00    0.65642   0.67631   15.234
 6441.00    0.84455   0.67549   11.841
 6442.00    0.85062   0.67584   11.756
 6443.00    0.76081   0.67793   13.144
 6444.00    0.71635   0.68154   13.960
 6445.00    0.67678   0.68574   14.776
 6446.00    0.68328   0.68919   14.635
 6447.00    0.72053   0.69074   13.879
 6448.00    0.68881   0.68985   14.518
 6449.00    0.61923   0.68655   16.149
 6450.00    0.59782   0.68139   16.727
 6451.00    0.64440   0.67546   15.518
 6452.00    0.66424   0.67018   15.055
 6453.00    0.59869   0.66679   16.703
 6454.00    0.51394   0.66584   19.457
 6455.00    0.54310   0.66697   18.413
 6456.00    0.63998   0.66918   15.625
 6457.00    0.70105   0.67130   14.264
 6458.00    0.81074   0.67287   12.334
 6459.00    0.75835   0.67405   13.187
 6460.00    0.42220   0.67506   -1.000
 6461.00    0.32765   0.67575   -1.000
 6462.00    0.53194   0.67563   18.799
 6463.00    0.69863   0.67426   14.314
 6464.00    0.77669   0.67192   12.875
 6465.00    0.83501   0.66971   11.976
 6466.00    0.84991   0.66888   11.766
 6467.00    0.70544   0.67006   14.176
 6468.00    0.56889   0.67304   17.578
 6469.00    0.58337   0.67662   17.142
 6470.00    0.58534   0.67932   17.084
 6471.00    0.56151   0.68040   17.809
 6472.00    0.62410   0.67994   16.023
 6473.00    0.79854   0.67846   12.523
 6474.00    0.92801   0.67666   -1.000
 6475.00    0.88698   0.67512   -1.000
 6476.00    0.75530   0.67413   13.240
 6477.00    0.72317   0.67375   13.828
 6478.00    0.77307   0.67381   12.935
 6479.00    0.71754   0.67395   13.937
 6480.00    0.68588   0.67382   14.580
 6481.00    0.74196   0.67307   13.478
 6482.00    0.75015   0.67136   13.331
 6483.00    0.74379   0.66878   13.445
 6484.00    0.73344   0.66595   13.634
 6485.00    0.66864   0.66370   14.956
 6486.00    0.63140   0.66267   15.838
 6487.00    0.64332   0.66309   15.544
 6488.00    0.64393   0.66452   15.530
 6489.00    0.64812   0.66600   15.429
 6490.00    0.66824   0.66653   14.965
 6491.00    0.68040   0.66533   14.697
 6492.00    0.66276   0.66193   15.088
 6493.00    0.63085   0.65614   15.852
 6494.00    0.60246   0.64812   16.599
 6495.00    0.56431   0.63855   17.721
 6496.00    0.58048   0.62868   17.227
 6497.00    0.66354   0.62007   15.071
 6498.00    0.65415   0.61429   15.287
 6499.00    0.53369   0.61251   18.738
 6500.00    0.43591   0.61491   22.940
 6501.00    0.46828   0.62065   21.355
 6502.00    0.55786   0.62839   17.926
 6503.00    0.57861   0.63680   17.283
 6504.00    0.51447   0.64489   19.438
 6505.00    0.42641   0.65201   -1.000
 6506.00    0.40642   0.65772   -1.000
 6507.00    0.50919   0.66187   19.639
 6508.00    0.66163   0.66457   15.114
 6509.00    0.76230   0.66606   13.118
 6510.00    0.78143   0.66669   12.797
 6511.00    0.75197   0.66678   13.298
 6512.00    0.72477   0.66657   13.798
 6513.00    0.72941   0.66617   13.710
 6514.00    0.75428   0.66547   13.258
 6515.00    0.74101   0.66417   13.495
 6516.00    0.64681   0.66214   15.461
 6517.00    0.54532   0.65952   18.338
 6518.00    0.51734   0.65672   19.329
 6519.00    0.57165   0.65437   17.493
 6520.00    0.65293   0.65306   15.315
 6521.00    0.68247   0.65316   14.653
 6522.00    0.64978   0.65457   15.390
 6523.00    0.67268   0.65685   14.866
 6524.00    0.76820   0.65938   13.017
 6525.00    0.81562   0.66144   12.261
 6526.00    0.72061   0.66263   13.877
 6527.00    0.58858   0.66294   16.990
 6528.00    0.57134   0.66261    0.000
 6529.00    0.61540   0.66194    0.000
 6530.00    0.60539   0.66119    0.000
 6531.00    0.54402   0.66060    0.000
 6532.00    0.56948   0.66023    0.000
 6533.00    0.61305   0.65988    0.000
 6534.00    0.59012   0.65943    0.000
 6535.00    0.62147   0.65897    0.000
 6536.00    0.67246   0.65878    0.000
 6537.00    0.64669   0.65906    0.000
 6538.00    0.58705   0.65979    0.000
 6539.00    0.60728   0.66070    0.000
 6540.00    0.70898   0.66140    0.000
 6541.00    0.75637   0.66162    0.000
 6542.00    0.74755   0.66116    0.000
 6543.00    0.73596   0.65981    0.000
 6544.00    0.73927   0.65734    0.000
 6545.00    0.80219   0.65373    0.000
 6546.00    0.91218   0.64932    0.000
 6547.00    0.98030   0.64465    0.000
 6548.00    0.96455   0.64035    0.000
 6549.00    0.93415   0.63682    0.000
 6550.00    0.95633   0.63429    0.000
 6551.00    0.90046   0.63262    0.000
 6552.00    0.76944   0.63113    0.000
 6553.00    0.69780   0.62903    0.000
 6554.00    0.62344   0.62591    0.000
 6555.00    0.54659   0.62180    0.000
 6556.00    0.55867   0.61685    0.000
 6557.00    0.62127   0.61116    0.000
 6558.00    0.59990   0.60458    0.000
 6559.00    0.64299   0.59661    0.000
 6560.00    1.35701   0.58633    0.000
 6561.00    2.58435   0.57270    0.000
 6562.00    3.58349   0.55538    0.000
 6563.00    3.98453   0.53569    0.000
 6564.00    3.80136   0.51682    0.000
 6565.00    3.11955   0.50309    0.000
 6566.00    1.98331   0.49869    0.000
 6567.00    0.98932   0.50582    0.000
 6568.00    0.65551   0.52240    0.000
 6569.00    0.73123   0.54293    0.000
 6570.00    0.84541   0.56244    0.000
 6571.00    0.83007   0.57824    0.000
 6572.00    0.73872   0.58955    0.000
 6573.00    0.67298   0.59695    0.000
 6574.00    0.70381   0.60169    0.000
 6575.00    0.80811   0.60496    0.000
 6576.00    0.80988   0.60778    0.000
 6577.00    0.70462   0.61104    0.000
 6578.00    0.71661   0.61515    0.000
 6579.00    0.85303   0.61993    0.000
 6580.00    1.04125   0.62475    0.000
 6581.00    1.26909   0.62887    0.000
 6582.00    1.50367   0.63195    0.000
 6583.00    1.65792   0.63408    0.000
 6584.00    1.67322   0.63564    0.000
 6585.00    1.62592   0.63703    0.000
 6586.00    1.40423   0.63843    0.000
 6587.00    0.91826   0.63976    0.000
 6588.00    0.61224   0.64095    0.000
 6589.00    0.60769   0.64194    0.000
 6590.00    0.64681   0.64263    0.000
 6591.00    0.71247   0.64270    0.000
 6592.00    0.76126   0.64167    0.000
 6593.00    0.71363   0.63931    0.000
 6594.00    0.64769   0.63593    0.000
 6595.00    0.64438   0.63233    0.000
 6596.00    0.68690   0.62969    0.000
 6597.00    0.68349   0.62904    0.000
 6598.00    0.63403   0.63051    0.000
 6599.00    0.59898   0.63329    0.000
 6600.00    0.59458   0.63644    0.000
 6601.00    0.61055   0.63946    0.000
 6602.00    0.61975   0.64219    0.000
 6603.00    0.60357   0.64450    0.000
 6604.00    0.61936   0.64612    0.000
 6605.00    0.70628   0.64671    0.000
 6606.00    0.80064   0.64616    0.000
 6607.00    0.81332   0.64467    0.000
 6608.00    0.76747   0.64267    0.000
 6609.00    0.78880   0.64070   12.677
 6610.00    0.86050   0.63922   -1.000
 6611.00    0.87856   0.63853   -1.000
 6612.00    0.79020   0.63891   12.655
 6613.00    0.67498   0.64041   14.815
 6614.00    0.64031   0.64268   15.618
 6615.00    0.69484   0.64503   14.392
 6616.00    0.70892   0.64703   14.106
 6617.00    0.65448   0.64864   15.279
 6618.00    0.62941   0.65000   15.888
 6619.00    0.63219   0.65108   15.818
 6620.00    0.63750   0.65182   15.686
 6621.00    0.65070   0.65219   15.368
 6622.00    0.67302   0.65218   14.858
 6623.00    0.65864   0.65168   15.183
 6624.00    0.60842   0.65057   16.436
 6625.00    0.66278   0.64887   15.088
 6626.00    0.78306   0.64680   12.770
 6627.00    0.81507   0.64476   12.269
 6628.00    0.76816   0.64317   13.018
 6629.00    0.72831   0.64227   13.730
 6630.00    0.73380   0.64182   13.628
 6631.00    0.73095   0.64141   13.681
 6632.00    0.71685   0.64069   13.950
 6633.00    0.73171   0.63949   13.667
 6634.00    0.77324   0.63789   12.933
 6635.00    0.76955   0.63620   12.995
 6636.00    0.70263   0.63489   14.232
 6637.00    0.66487   0.63448   15.041
 6638.00    0.65368   0.63523   15.298
 6639.00    0.64660   0.63681   15.465
 6640.00    0.67727   0.63861   14.765
 6641.00    0.70312   0.64004   14.222
 6642.00    0.70850   0.64078   14.114
 6643.00    0.74003   0.64076   13.513
 6644.00    0.73078   0.64014   13.684
 6645.00    0.67111   0.63910   14.901
 6646.00    0.66805   0.63797   14.969
 6647.00    0.72396   0.63738   13.813
 6648.00    0.77036   0.63762   12.981
 6649.00    0.76195   0.63836   13.124
 6650.00    0.73496   0.63914   13.606
 6651.00    0.76618   0.63969   13.052
 6652.00    0.84986   0.63987   -1.000
 6653.00    0.81045   0.63961   12.339
 6654.00    0.67433   0.63902   14.830
 6655.00    0.63787   0.63836   15.677
 6656.00    0.68907   0.63784   14.512
 6657.00    0.73386   0.63746   13.627
 6658.00    0.71422   0.63717   14.001
 6659.00    0.63719   0.63679   15.694
 6660.00    0.57488   0.63621   17.395
 6661.00    0.57873   0.63530   17.279
 6662.00    0.60188   0.63392   16.615
 6663.00    0.62581   0.63207   15.979
 6664.00    0.65889   0.62998   15.177
 6665.00    0.67017   0.62798   14.922
 6666.00    0.61891   0.62649   16.157
 6667.00    0.56921   0.62608   17.568
 6668.00    0.66684   0.62681   14.996
 6669.00    0.75771   0.62831   13.198
 6670.00    0.71238   0.63027   14.037
 6671.00    0.70050   0.63247   14.276
 6672.00    0.70579   0.63467   14.169
 6673.00    0.68429   0.63655   14.614
 6674.00    0.72890   0.63779   13.719
 6675.00    0.77406   0.63814   12.919
 6676.00    0.77257   0.63745   12.944
 6677.00    0.78208   0.63562   12.786
 6678.00    0.70446   0.63279   14.195
 6679.00    0.58826   0.62927   16.999
 6680.00    0.63612   0.62567   15.720
 6681.00    0.70568   0.62297   14.171
 6682.00    0.72411   0.62197   13.810
 6683.00    0.81533   0.62248   -1.000
 6684.00    0.89581   0.62383   -1.000
 6685.00    0.89854   0.62561   -1.000
 6686.00    0.86478   0.62743   -1.000
 6687.00    0.78996   0.62894   12.659
 6688.00    0.71050   0.62997   14.075
 6689.00    0.69668   0.63054   14.354
 6690.00    0.72959   0.63080   13.706
 6691.00    0.66933   0.63090   14.940
 6692.00    0.50622   0.63093   19.754
 6693.00    0.54465   0.63085   18.360
 6694.00    0.66497   0.63055   15.038
 6695.00    0.61600   0.62995   16.234
 6696.00    0.63455   0.62903    0.000
 6697.00    0.65217   0.62787    0.000
 6698.00    0.57813   0.62665    0.000
 6699.00    0.76110   0.62573    0.000
 6700.00    1.00139   0.62548    0.000
 6701.00    0.97436   0.62589    0.000
 6702.00    0.88721   0.62669    0.000
 6703.00    0.81201   0.62750    0.000
 6704.00    0.70417   0.62795    0.000
 6705.00    0.63860   0.62789    0.000
 6706.00    0.70956   0.62746    0.000
 6707.00    0.82354   0.62702    0.000
 6708.00    0.76924   0.62686    0.000
 6709.00    0.71210   0.62696    0.000
 6710.00    0.75663   0.62713    0.000
 6711.00    0.72920   0.62714    0.000
 6712.00    0.70968   0.62677    0.000
 6713.00    0.84380   0.62585    0.000
 6714.00    1.10046   0.62432    0.000
 6715.00    1.29534   0.62210    0.000
 6716.00    1.30232   0.61920    0.000
 6717.00    1.19498   0.61586    0.000
 6718.00    1.17412   0.61251    0.000
 6719.00    1.09761   0.60966    0.000
 6720.00    0.75254   0.60787    0.000
 6721.00    0.57168   0.60765    0.000
 6722.00    0.57612   0.60888    0.000
 6723.00    0.50440   0.61090    0.000
 6724.00    0.72862   0.61306    0.000
 6725.00    0.98215   0.61502    0.000
 6726.00    0.75998   0.61661    0.000
 6727.00    0.58603   0.61769    0.000
 6728.00    0.81805   0.61834    0.000
 6729.00    1.18517   0.61884    0.000
 6730.00    1.22620   0.61946    0.000
 6731.00    1.10185   0.62019    0.000
 6732.00    1.11425   0.62091    0.000
 6733.00    1.03645   0.62151    0.000
 6734.00    0.90787   0.62187    0.000
 6735.00    0.83957   0.62196    0.000
 6736.00    0.67168   0.62183    0.000
 6737.00    0.55240   0.62151    0.000
 6738.00    0.64508   0.62099    0.000
 6739.00    0.77337   0.62021    0.000
 6740.00    0.77431   0.61917    0.000
 6741.00    0.68630   0.61800    0.000
 6742.00    0.65127   0.61694    0.000
 6743.00    0.56738   0.61613    0.000
 6744.00    0.42987   0.61553    0.000
 6745.00    0.45354   0.61501    0.000
 6746.00    0.60097   0.61462    0.000
 6747.00    0.71169   0.61431    0.000
 6748.00    0.70694   0.61387    0.000
 6749.00    0.62875   0.61309    0.000
 6750.00    0.55311   0.61199    0.000
 6751.00    0.51073   0.61076    0.000
 6752.00    0.47958   0.60970    0.000
 6753.00    0.52522   0.60918   19.040
 6754.00    0.65343   0.60938   15.304
 6755.00    0.57513   0.61022   17.387
 6756.00    0.43035   0.61164   23.237
 6757.00    0.49702   0.61352   20.120
 6758.00    0.44139   0.61560   22.656
 6759.00    0.67008   0.61766   14.924
 6760.00    1.52281   0.61955   -1.000
 6761.00    1.80341   0.62117   -1.000
 6762.00    1.27667   0.62239   -1.000
 6763.00    0.52481   0.62315   19.055
 6764.00   -0.42788   0.62339   -2.000
 6765.00   -1.04721   0.62315   -2.000
 6766.00   -0.94267   0.62245   -2.000
 6767.00   -0.68351   0.62126   -2.000
 6768.00   -0.24930   0.61962   -2.000
 6769.00    0.40312   0.61778   -1.000
 6770.00    0.62424   0.61615   16.019
 6771.00    0.47087   0.61512   21.237
 6772.00    0.37765   0.61478   -1.000
 6773.00    0.43059   0.61504   23.224
 6774.00    0.50137   0.61593   19.945
 6775.00    0.51265   0.61748   19.506
 6776.00    0.52037   0.61949   19.217
 6777.00    0.50679   0.62161   19.732
 6778.00    0.52195   0.62351   19.159
 6779.00    0.64556   0.62489   15.490
 6780.00    0.63950   0.62557   15.637
 6781.00    0.43872   0.62545   -1.000
 6782.00    0.32029   0.62445   -1.000
 6783.00    0.41729   0.62253   -1.000
 6784.00    0.61346   0.61988   16.301
 6785.00    0.71319   0.61687   14.022
 6786.00    0.72044   0.61404   13.880
 6787.00    0.70352   0.61190   14.214
 6788.00    0.63707   0.61072   15.697
 6789.00    0.40515   0.61050   -1.000
 6790.00    0.18770   0.61104   -1.000
 6791.00    0.24181   0.61195   -1.000
 6792.00    0.39042   0.61281   -1.000
 6793.00    0.52701   0.61342   18.975
 6794.00    0.69701   0.61372   14.347
 6795.00    0.86003   0.61371   -1.000
 6796.00    1.01124   0.61354   -1.000
 6797.00    1.14221   0.61347   -1.000
 6798.00    1.14362   0.61363   -1.000
 6799.00    0.93416   0.61405   -1.000
 6800.00    0.61429   0.61468   16.279
 6801.00    0.44245   0.61543   22.601
 6802.00    0.42685   0.61622   -1.000
 6803.00    0.43957   0.61692   22.749
 6804.00    0.45500   0.61739   21.978
 6805.00    0.48078   0.61754   20.800
 6806.00    0.58840   0.61737   16.995
 6807.00    0.85027   0.61702   -1.000
 6808.00    1.06654   0.61660   -1.000
 6809.00    1.06287   0.61619   -1.000
 6810.00    0.89952   0.61591   -1.000
 6811.00    0.62852   0.61576   15.910
 6812.00    0.36359   0.61564   -1.000
 6813.00    0.26421   0.61556   -1.000
 6814.00    0.30301   0.61549   -1.000
 6815.00    0.44422   0.61533   22.511
 6816.00    0.68075   0.61503   14.690
 6817.00    0.84297   0.61472   -1.000
 6818.00    0.89974   0.61462   -1.000
 6819.00    0.99952   0.61482   -1.000
 6820.00    1.12218   0.61517   -1.000
 6821.00    0.89241   0.61550   -1.000
 6822.00    0.19775   0.61583   -1.000
 6823.00   -0.08166   0.61632   -2.000
 6824.00    0.18680   0.61702   -1.000
 6825.00    0.41018   0.61778   -1.000
 6826.00    0.57835   0.61840   17.291
 6827.00    0.68345   0.61871   14.632
 6828.00    0.63120   0.61862   15.843
 6829.00    0.54300   0.61811   18.416
 6830.00    0.49253   0.61733   20.303
 6831.00    0.50380   0.61672   19.849
 6832.00    0.63910   0.61659   15.647
 6833.00    0.78227   0.61692   12.783
 6834.00    0.82829   0.61747   -1.000
 6835.00    0.88170   0.61804   -1.000
 6836.00    0.92564   0.61851   -1.000
 6837.00    0.80483   0.61866   -1.000
 6838.00    0.43413   0.61819   23.034
 6839.00    0.05879   0.61694   -1.000
 6840.00   -0.00607   0.61495   -2.000
 6841.00    0.24536   0.61239   -1.000
 6842.00    0.40585   0.60968   -1.000
 6843.00    0.36426   0.60730   -1.000
 6844.00    0.46628   0.60580   21.446
 6845.00    0.54694   0.60557   18.284
 6846.00    0.30317   0.60661   -1.000
 6847.00   -0.22583   0.60852   -2.000
 6848.00   -0.68346   0.61069   -2.000
 6849.00   -0.70634   0.61261   -2.000
 6850.00   -0.24919   0.61401   -2.000
 6851.00    0.27730   0.61474   -1.000
 6852.00    0.55705   0.61478   17.952
 6853.00    0.60566   0.61424   16.511
 6854.00    0.54663   0.61322   18.294
 6855.00    0.52542   0.61178   19.032
 6856.00    0.58501   0.60996   17.094
 6857.00    0.58688   0.60800   17.039
 6858.00    0.57529   0.60638   17.383
 6859.00    0.66605   0.60536   15.014
 6860.00    0.70517   0.60488   14.181
 6861.00    0.66275   0.60486   15.089
 6862.00    0.71355   0.60514   14.014
 6863.00    0.96209   0.60558   -1.000
 6864.00    1.06057   0.60627   -1.000
 6865.00    0.70339   0.60735   14.217
 6866.00    0.22700   0.60858   -1.000
 6867.00    0.04565   0.60947   -1.000
 6868.00    0.20229   0.60976   -1.000
 6869.00    0.38491   0.60944   -1.000
 6870.00    0.63379   0.60872   15.778
 6871.00    1.07739   0.60796   -1.000
 6872.00    1.46511   0.60740   -1.000
 6873.00    1.33608   0.60705   -1.000
 6874.00    0.84353   0.60695   -1.000
 6875.00    0.70701   0.60730   14.144
 6876.00    0.55192   0.60814   18.119
 6877.00    0.05553   0.60930   -1.000
 6878.00   -0.23288   0.61066   -2.000
 6879.00   -0.03170   0.61207   -2.000
 6880.00    0.38533   0.61325   -1.000
 6881.00    0.56748   0.61390   17.622
 6882.00    0.57660   0.61386   17.343
 6883.00    0.59162   0.61312   16.903
 6884.00    0.60088   0.61196   16.642
 6885.00    0.54056   0.61091   18.499
 6886.00    0.45343   0.61039   22.054
 6887.00    0.45712   0.61052   21.876
 6888.00    0.56132   0.61120   17.815
 6889.00    0.68340   0.61240   14.633
 6890.00    0.73557   0.61400   13.595
 6891.00    0.71097   0.61567   14.065
 6892.00    0.64995   0.61714   15.386
 6893.00    0.58276   0.61831   17.160
 6894.00    0.50686   0.61908   19.729
 6895.00    0.48295   0.61942   20.706
 6896.00    0.57773   0.61942   17.309
 6897.00    0.74503   0.61920   13.422
 6898.00    0.87539   0.61890   -1.000
 6899.00    0.87944   0.61864   -1.000
 6900.00    0.75205   0.61851   13.297
 6901.00    0.56394   0.61848   17.732
 6902.00    0.42598   0.61851   -1.000
 6903.00    0.42554   0.61872   -1.000
 6904.00    0.53521   0.61918   18.684
 6905.00    0.66868   0.61983   14.955
 6906.00    0.77161   0.62055   12.960
 6907.00    0.82950   0.62129   -1.000
 6908.00    0.70325   0.62208   14.220
 6909.00    0.30207   0.62287   -2.000
 6910.00    0.00000   0.62343   -2.000
 6911.00    0.00000   0.62355   -2.000
 6912.00    0.00000   0.62311   -2.000
 6913.00    0.00000   0.62208   -2.000
 6914.00    0.00000   0.62059   -2.000
 6915.00    0.00000   0.61877   -2.000
 6916.00    0.00000   0.61682   -2.000
 6917.00    0.00000   0.61523   -2.000
 6918.00    0.00000   0.61428   -2.000
 6919.00    0.00000   0.61396   -2.000
 6920.00    0.00000   0.61426   -2.000
 6921.00    0.00000   0.61495   -2.000
 6922.00    0.00000   0.61578   -2.000
 6923.00    0.00000   0.61647   -2.000
 6924.00    0.00000   0.61672   -2.000
 6925.00    0.00000   0.61636   -2.000
 6926.00    0.00000   0.61551   -2.000
 6927.00    0.00000   0.61462   -2.000
 6928.00    0.00000   0.61418   -2.000
 6929.00    0.00000   0.61438   -2.000
 6930.00    0.00000   0.61506   -2.000
 6931.00    0.00000   0.61587   -2.000
 6932.00    0.00000   0.61655   -2.000
 6933.00    0.00000   0.61693   -2.000
 6934.00    0.00000   0.61693   -2.000
 6935.00    0.00000   0.61668   -2.000
 6936.00    0.00000   0.61657   -2.000
 6937.00    0.00000   0.61678   -2.000
 6938.00    0.00000   0.61717   -2.000
 6939.00    0.00000   0.61767   -2.000
 6940.00    0.00000   0.61824   -2.000
 6941.00    0.00000   0.61880   -2.000
 6942.00    0.00000   0.61922   -2.000
 6943.00    0.00000   0.61931   -2.000
 6944.00    0.00000   0.61889   -2.000
 6945.00    0.00000   0.61799   -2.000
 6946.00    0.00000   0.61676   -2.000
 6947.00    0.00000   0.61561   -2.000
 6948.00    0.00000   0.61513   -2.000
 6949.00    0.00000   0.61541   -2.000
 6950.00    0.00000   0.61611   -2.000
 6951.00    0.00000   0.61687   -2.000
 6952.00    0.00000   0.61735   -2.000
 6953.00    0.00000   0.61735   -2.000
 6954.00    0.00000   0.61704   -2.000
 6955.00    0.00000   0.61667   -2.000
 6956.00    0.00000   0.61644   -2.000
 6957.00    0.00000   0.61663   -2.000
 6958.00    0.00000   0.61732   -2.000
 6959.00    0.00000   0.61836   -2.000
 6960.00    0.00000   0.61953   -2.000
 6961.00    0.00000   0.62071   -2.000
 6962.00    0.00000   0.62179   -2.000
 6963.00    0.00000   0.62272   -2.000
 6964.00    0.00000   0.62348   -2.000
 6965.00    0.00000   0.62406   -2.000
 6966.00    0.00000   0.62449   -2.000
 6967.00    0.00000   0.62473   -2.000
 6968.00    0.00000   0.62495   -2.000
 6969.00    0.00000   0.62532   -2.000
 6970.00    0.00000   0.62579   -2.000
 6971.00    0.00000   0.62611   -2.000
 6972.00    0.00000   0.62613   -2.000
 6973.00    0.00000   0.62583   -2.000
 6974.00    0.00000   0.62521   -2.000
 6975.00    0.00000   0.62416   -2.000
 6976.00    0.00000   0.62240   -2.000
 6977.00    0.00000   0.61983   -2.000
 6978.00    0.00000   0.61665   -2.000
 6979.00    0.00000   0.61319   -2.000
 6980.00    0.00000   0.61001   -2.000
 6981.00    0.00000   0.60812   -2.000
 6982.00    0.00000   0.60829   -2.000
 6983.00    0.00000   0.61029   -2.000
 6984.00    0.00000   0.61345   -2.000
 6985.00    0.00000   0.61705   -2.000
 6986.00    0.00000   0.62038   -2.000
 6987.00    0.00000   0.62293   -2.000
 6988.00    0.00000   0.62444   -2.000
 6989.00    0.00000   0.62491   -2.000
 6990.00    0.00000   0.62453   -2.000
 6991.00    0.00000   0.62374   -2.000
 6992.00    0.00000   0.62306   -2.000
 6993.00    0.00000   0.62276   -2.000
 6994.00    0.00000   0.62278   -2.000
 6995.00    0.00000   0.62293   -2.000
 6996.00    0.00000   0.62301   -2.000
 6997.00    0.00000   0.62298   -2.000
 6998.00    0.00000   0.62278   -2.000
 6999.00    0.00000   0.62227   -2.000
 7000.00    0.00000   0.62132   -2.000
 7001.00    0.00000   0.61998   -2.000
 7002.00    0.00000   0.61864   -2.000
 7003.00    0.00000   0.61762   -2.000
 7004.00    0.00000   0.61687   -2.000
 7005.00    0.00000   0.61611   -2.000
 7006.00    0.00000   0.61532   -2.000
 7007.00    0.00000   0.61476   -2.000
 7008.00    0.00000   0.61464   -2.000
 7009.00    0.00000   0.61500   -2.000
 7010.00    0.00000   0.61579   -2.000
 7011.00    0.00000   0.61678   -2.000
 7012.00    0.00000   0.61765   -2.000
 7013.00    0.00000   0.61811   -2.000
 7014.00    0.00000   0.61812   -2.000
 7015.00    0.00000   0.61759   -2.000
 7016.00    0.00000   0.61636   -2.000
 7017.00    0.00000   0.61448   -2.000
 7018.00    0.00000   0.61257   -2.000
 7019.00    0.00000   0.61170   -2.000
 7020.00    0.00000   0.61227   -2.000
 7021.00    0.00000   0.61376   -2.000
 7022.00    0.00000   0.61551   -2.000
 7023.00    0.00000   0.61698   -2.000
 7024.00    0.00000   0.61765   -2.000
 7025.00    0.00000   0.61741   -2.000
 7026.00    0.00000   0.61672   -2.000
 7027.00    0.00000   0.61618   -2.000
 7028.00    0.00000   0.61608   -2.000
 7029.00    0.00000   0.61645   -2.000
 7030.00    0.00000   0.61728   -2.000
 7031.00    0.00000   0.61847   -2.000
 7032.00    0.00000   0.61976   -2.000
 7033.00    0.00000   0.62083   -2.000
 7034.00    0.00000   0.62146   -2.000
 7035.00    0.00000   0.62162   -2.000
 7036.00    0.00000   0.62140   -2.000
 7037.00    0.00000   0.62100   -2.000
 7038.00    0.00000   0.62054   -2.000
 7039.00    0.00000   0.62000   -2.000
 7040.00    0.00000   0.61969   -2.000
 7041.00    0.00000   0.62042   -2.000
 7042.00    0.00000   0.62249   -2.000
 7043.00    0.00000   0.62537   -2.000
 7044.00    0.00000   0.62846   -2.000
 7045.00    0.00000   0.63129   -2.000
 7046.00    0.00000   0.63346   -2.000
 7047.00    0.00000   0.63494   -2.000
 7048.00    0.00000   0.63593   -2.000
 7049.00    0.00000   0.63648   -2.000
 7050.00    0.00000   0.63641   -2.000
 7051.00    0.00000   0.63547   -2.000
 7052.00    0.00000   0.63343   -2.000
 7053.00    0.00000   0.63009   -2.000
 7054.00    0.00000   0.62539   -2.000
 7055.00    0.00000   0.61971   -2.000
 7056.00    0.00000   0.61371   -2.000
 7057.00    0.00000   0.60812   -2.000
 7058.00    0.00000   0.60353   -2.000
 7059.00    0.00000   0.60006   -2.000
 7060.00    0.00000   0.59743   -2.000
 7061.00    0.00000   0.59532   -2.000
 7062.00    0.00000   0.59370   -2.000
 7063.00    0.00000   0.59269   -2.000
 7064.00    0.00000   0.59223   -2.000
 7065.00    0.00000   0.59213   -2.000
 7066.00    0.00000   0.59222   -2.000
 7067.00    0.00000   0.59221   -2.000
 7068.00    0.00000   0.59187   -2.000
 7069.00    0.00000   0.59134   -2.000
 7070.00    0.00000   0.59089   -2.000
 7071.00    0.00000   0.59102   -2.000
 7072.00    0.00000   0.59195   -2.000
 7073.00    0.00000   0.59350   -2.000
 7074.00    0.00000   0.59539   -2.000
 7075.00    0.00000   0.59739   -2.000
 7076.00    0.00000   0.59925   -2.000
 7077.00    0.00000   0.60073   -2.000
 7078.00    0.00000   0.60175   -2.000
 7079.00    0.00000   0.60236   -2.000
 7080.00    0.00000   0.60259   -2.000
 7081.00    0.00000   0.60242   -2.000
 7082.00    0.00000   0.60177   -2.000
 7083.00    0.00000   0.60041   -2.000
 7084.00    0.00000   0.59806   -2.000
 7085.00    0.00000   0.59462   -2.000
 7086.00    0.00000   0.59032   -2.000
 7087.00    0.00000   0.58574   -2.000
 7088.00    0.00000   0.58123   -2.000
 7089.00    0.00000   0.57682   -2.000
 7090.00    0.00000   0.57270   -2.000
 7091.00    0.00000   0.56922   -2.000
 7092.00    0.00000   0.56652   -2.000
 7093.00    0.00000   0.56467   -2.000
 7094.00    0.00000   0.56357   -2.000
 7095.00    0.00000   0.56299   -2.000
 7096.00    0.00000   0.56287   -2.000
 7097.00    0.00000   0.56316   -2.000
 7098.00    0.00000   0.56386   -2.000
 7099.00    0.00000   0.56499   -2.000
 7100.00    0.00000   0.56659   -2.000
 7101.00    0.00000   0.56860   -2.000
 7102.00    0.00000   0.57060   -2.000
 7103.00    0.00000   0.57240   -2.000
 7104.00    0.00000   0.57391   -2.000
 7105.00    0.00000   0.57521   -2.000
 7106.00    0.00000   0.57636   -2.000
 7107.00    0.00000   0.57728   -2.000
 7108.00    0.00000   0.57784   -2.000
 7109.00    0.00000   0.57801   -2.000
 7110.00    0.00000   0.57792   -2.000
 7111.00    0.00000   0.57750   -2.000
 7112.00    0.00000   0.57674   -2.000
 7113.00    0.00000   0.57587   -2.000
 7114.00    0.00000   0.57537   -2.000
 7115.00    0.00000   0.57545   -2.000
 7116.00    0.00000   0.57604   -2.000
 7117.00    0.00000   0.57702   -2.000
 7118.00    0.00000   0.57828   -2.000
 7119.00    0.00000   0.57958   -2.000
 7120.00    0.00000   0.58067   -2.000
 7121.00    0.00000   0.58139   -2.000
 7122.00    0.00000   0.58162   -2.000
 7123.00    0.00000   0.58127   -2.000
 7124.00    0.00000   0.58047   -2.000
 7125.00    0.00000   0.57945   -2.000
 7126.00    0.00000   0.57804   -2.000
 7127.00    0.00000   0.57602   -2.000
 7128.00    0.00000   0.57360   -2.000
 7129.00    0.00000   0.57117   -2.000
 7130.00    0.00000   0.56888   -2.000
 7131.00    0.00000   0.56668   -2.000
 7132.00    0.00000   0.56472   -2.000
 7133.00    0.00000   0.56344   -2.000
 7134.00    0.00000   0.56318   -2.000
 7135.00    0.00000   0.56389   -2.000
 7136.00    0.00000   0.56532   -2.000
 7137.00    0.00000   0.56709   -2.000
 7138.00    0.00000   0.56889   -2.000
 7139.00    0.00000   0.57049   -2.000
 7140.00    0.00000   0.57167   -2.000
 7141.00    0.00000   0.57246   -2.000
 7142.00    0.00000   0.57305   -2.000
 7143.00    0.00000   0.57351   -2.000
 7144.00    0.00000   0.57379   -2.000
 7145.00    0.00000   0.57385   -2.000
 7146.00    0.00000   0.57362   -2.000
 7147.00    0.00000   0.57303   -2.000
 7148.00    0.00000   0.57204   -2.000
 7149.00    0.00000   0.57065   -2.000
 7150.00    0.00000   0.56931   -2.000
 7151.00    0.00000   0.56882   -2.000
 7152.00    0.00000   0.56938   -2.000
 7153.00    0.00000   0.57084   -2.000
 7154.00    0.00000   0.57303   -2.000
 7155.00    0.00000   0.57561   -2.000
 7156.00    0.00000   0.57807   -2.000
 7157.00    0.00000   0.58017   -2.000
 7158.00    0.00000   0.58188   -2.000
 7159.00    0.00000   0.58298   -2.000
 7160.00    0.00000   0.58315   -2.000
 7161.00    0.00000   0.58247   -2.000
 7162.00    0.00000   0.58120   -2.000
 7163.00    0.00000   0.57951   -2.000
 7164.00    0.00000   0.57738   -2.000
 7165.00    0.00000   0.57469   -2.000
 7166.00    0.00000   0.57179   -2.000
 7167.00    0.00000   0.56949   -2.000
 7168.00    0.00000   0.56850   -2.000
 7169.00    0.00000   0.56878   -2.000
 7170.00    0.00000   0.56995   -2.000
 7171.00    0.00000   0.57167   -2.000
 7172.00    0.00000   0.57374   -2.000
 7173.00    0.00000   0.57590   -2.000
 7174.00    0.00000   0.57779   -2.000
 7175.00    0.00000   0.57908   -2.000
 7176.00    0.00000   0.57956   -2.000
 7177.00    0.00000   0.57928   -2.000
 7178.00    0.00000   0.57853   -2.000
 7179.00    0.00000   0.57764   -2.000
 7180.00    0.00000   0.57658   -2.000
 7181.00    0.00000   0.57516   -2.000
 7182.00    0.00000   0.57354   -2.000
 7183.00    0.00000   0.57221   -2.000
 7184.00    0.00000   0.57160   -2.000
 7185.00    0.00000   0.57165   -2.000
 7186.00    0.00000   0.57186   -2.000
 7187.00    0.00000   0.57177   -2.000
 7188.00    0.00000   0.57112   -2.000
 7189.00    0.00000   0.57004   -2.000
 7190.00    0.00000   0.56903   -2.000
 7191.00    0.00000   0.56848   -2.000
 7192.00    0.00000   0.56855   -2.000
 7193.00    0.00000   0.56916   -2.000
 7194.00    0.00000   0.57013   -2.000
 7195.00    0.00000   0.57135   -2.000
 7196.00    0.00000   0.57275   -2.000
 7197.00    0.00000   0.57399   -2.000
 7198.00    0.00000   0.57471   -2.000
 7199.00    0.00000   0.57496   -2.000
 7200.00    0.00000   0.57510   -2.000
 7201.00    0.00000   0.57526   -2.000
 7202.00    0.00000   0.57526   -2.000
 7203.00    0.00000   0.57498   -2.000
 7204.00    0.00000   0.57460   -2.000
 7205.00    0.00000   0.57438   -2.000
 7206.00    0.00000   0.57417   -2.000
 7207.00    0.00000   0.57347   -2.000
 7208.00    0.00000   0.57205   -2.000
 7209.00    0.00000   0.57040   -2.000
 7210.00    0.00000   0.56937   -2.000
 7211.00    0.00000   0.56935   -2.000
 7212.00    0.00000   0.57028   -2.000
 7213.00    0.00000   0.57184   -2.000
 7214.00    0.00000   0.57357   -2.000
 7215.00    0.00000   0.57524   -2.000
 7216.00    0.00000   0.57679   -2.000
 7217.00    0.00000   0.57812   -2.000
 7218.00    0.00000   0.57924   -2.000
