###################################################################
## OUTPUT of StarlightChains_v04.for    [Cid@UFSC - 01/Apr/2007] ##
###################################################################

## Some input info
1999di.txt                               [arq_obs]
Base.CB07.vall.4m                        [arq_base]
Masks.EmLines.NEW.gm                     [arq_masks]
StCv04.C11.config                        [arq_config]
   66                                    [N_base]
    0                                    [N_YAV_components = # of components with extra extinction!]
    0                                    [i_FitPowerLaw (1/0 = Yes/No)]
-9.99                                    [alpha_PowerLaw]
CCM                                      [red_law_option]
 1.458241                                [q_norm = A(l_norm)/A(V)]

## (Re)Sampling Parameters
 3741.00                                 [l_ini (A)]
 7218.00                                 [l_fin (A)]
    1.00                                 [dl    (A)]     (OBS: dl_cushion =    50.00 A)

## Normalization info
 4020.00                                 [l_norm (A) - for base]
 4010.00                                 [llow_norm (A) - window for f_obs]
 4060.00                                 [lupp_norm (A) - window for f_obs]
7.682685E-17                             [fobs_norm (in input units)]

## S/N
 3691.00                                 [llow_SN (A) - window for S/N]
 7268.00                                 [lupp_SN (A) - window for S/N]
   9.472                                 [S/N in S/N window]
   9.416                                 [S/N in norm. window]
  12.701                                 [S/N_err in S/N window]
  12.627                                 [S/N_err in norm. window]
  1.0000                                 [fscale_chi2]

## etc...
    -2007237                             [idum_orig]
  2384                                   [NOl_eff]
  2384                                   [Nl_eff]
     0    NSIGMA                         [Ntot_cliped & clip_method]
  1695680                                [Nglobal_steps]
   7                                     [N_chains]
  29                                     [NEX0s_base = N_base in EX0s-fits]
 0   0   1        0   2.0   2.049E+01    [Clip-Bug, RC-Crash & Burn-In warning-flags, n_censored_weights, wei_nsig_threshold & wei_limit]
    15     15.304     14.806      0.499  [idt_all, wdt_TotTime, wdt_UsrTime & wdt_SysTime (sec)]

## Synthesis Results - Best model ##

 3.94484E-01                             [chi2/Nl_eff]
     4.09664                             [adev (%)]

   108.21912                             [sum-of-x (%)]
 1.74838E-16                             [Flux_tot (units of input spectrum!)]
 1.39216E-12                             [Mini_tot (???)]
 7.60390E-13                             [Mcor_tot (???)]

 -99.97                                  [v0_min  (km/s)]
 162.62                                  [vd_min  (km/s)]
 0.5534                                  [AV_min  (mag)]
 0.0000                                  [YAV_min (mag)]

# j     x_j(%)      Mini_j(%)     Mcor_j(%)     age_j(yr)     Z_j      (L/M)_j    YAV?  Mstars   component_j        a/Fe...       SSP_chi2r SSP_adev(%)   SSP_AV   SSP_x(%)
  1      0.0000     0.0000E+00    0.0000E+00    1.000000E+06  0.00400  1.094E-02    0   1.0000   age020_m42            0.0000     1.0022E+00     6.6964   3.1113    91.2990
  2      0.0000     0.0000E+00    0.0000E+00    3.160000E+06  0.00400  4.007E-02    0   0.9999   age045_m42            0.0000     8.0446E-01     5.7789   2.4013    96.8272
  3      0.0000     0.0000E+00    0.0000E+00    5.010000E+06  0.00400  2.539E-02    0   0.9488   age055_m42            0.0000     8.6930E-01     6.0888   2.7118    94.8772
  4      0.0000     0.0000E+00    0.0000E+00    6.610000E+06  0.00400  2.620E-02    0   0.9220   age061_m42            0.0000     7.6201E-01     5.6494   2.3222    97.2842
  5      0.0000     0.0000E+00    0.0000E+00    1.000000E+07  0.00400  1.322E-02    0   0.8862   age070_m42            0.0000     6.3738E-01     5.3926   1.9933   101.4553
  6      0.0000     0.0000E+00    0.0000E+00    1.445000E+07  0.00400  7.883E-03    0   0.8571   age078_m42            0.0000     6.9453E-01     5.6443   2.3222    98.8299
  7      0.0000     0.0000E+00    0.0000E+00    2.512000E+07  0.00400  5.251E-03    0   0.8174   age090_m42            0.0000     6.2492E-01     5.3625   1.8558   102.3560
  8      0.0000     0.0000E+00    0.0000E+00    4.000000E+07  0.00400  3.649E-03    0   0.7851   age104_m42            0.0000     5.9207E-01     5.1720   1.6348   102.9047
  9      0.0000     0.0000E+00    0.0000E+00    5.500000E+07  0.00400  3.098E-03    0   0.7629   age110_m42            0.0000     6.1070E-01     5.1530   1.8124   101.8163
 10      0.0000     0.0000E+00    0.0000E+00    1.015200E+08  0.00400  2.228E-03    0   0.7207   age116_m42            0.0000     6.3292E-01     5.2825   1.8485   101.2929
 11      0.0000     0.0000E+00    0.0000E+00    2.861200E+08  0.00400  1.093E-03    0   0.6648   age125_m42            0.0000     6.0094E-01     5.2681   1.2661   104.9929
 12      0.0000     0.0000E+00    0.0000E+00    5.088000E+08  0.00400  6.597E-04    0   0.6365   age130_m42            0.0000     5.8884E-01     5.2849   1.2808   104.7111
 13      7.3418     3.9963E+00    4.2422E+00    1.434000E+09  0.00400  2.132E-04    0   0.5798   age139_m42            0.0000     4.5022E-01     4.4596   0.3204   106.2462
 14      0.0000     0.0000E+00    0.0000E+00    4.250000E+09  0.00400  5.895E-05    0   0.5377   age158_m42            0.0000     5.3049E-01     4.7332  -0.0944   101.0563
 15      0.0000     0.0000E+00    0.0000E+00    7.500000E+09  0.00400  3.510E-05    0   0.5212   age171_m42            0.0000     5.8898E-01     5.0581  -0.2681    99.8070
 16      2.4534     1.4200E+01    1.3088E+01    1.300000E+10  0.00400  2.005E-05    0   0.5034   age193_m42            0.0000     6.6314E-01     5.4204  -0.4202    98.7540
 17      0.0000     0.0000E+00    0.0000E+00    1.800000E+10  0.00400  1.525E-05    0   0.4967   age213_m42            0.0000     6.5724E-01     5.3567  -0.4475    98.4855
 18      0.0000     0.0000E+00    0.0000E+00    1.000000E+06  0.00800  1.238E-02    0   1.0000   age020_m52            0.0000     1.0022E+00     6.7029   3.1084    91.4468
 19      0.0000     0.0000E+00    0.0000E+00    3.160000E+06  0.00800  3.074E-02    0   0.9966   age045_m52            0.0000     9.9335E-01     6.6448   3.0338    92.1606
 20      0.0000     0.0000E+00    0.0000E+00    5.010000E+06  0.00800  2.668E-02    0   0.9443   age055_m52            0.0000     8.7553E-01     6.1715   2.7895    94.2392
 21      0.0000     0.0000E+00    0.0000E+00    6.610000E+06  0.00800  2.136E-02    0   0.9177   age061_m52            0.0000     5.5247E-01     5.1227   1.4936   102.6018
 22      0.0000     0.0000E+00    0.0000E+00    1.000000E+07  0.00800  1.215E-02    0   0.8827   age070_m52            0.0000     6.5101E-01     5.5722   2.1573   101.9555
 23      0.0000     0.0000E+00    0.0000E+00    1.445000E+07  0.00800  8.717E-03    0   0.8552   age078_m52            0.0000     6.5972E-01     5.5064   2.2861   100.2608
 24      0.0000     0.0000E+00    0.0000E+00    2.512000E+07  0.00800  5.592E-03    0   0.8162   age090_m52            0.0000     6.0456E-01     5.2887   1.9180   103.6635
 25      0.0000     0.0000E+00    0.0000E+00    4.000000E+07  0.00800  3.896E-03    0   0.7841   age104_m52            0.0000     5.8378E-01     5.1329   1.8426   103.9023
 26      0.0000     0.0000E+00    0.0000E+00    1.015200E+08  0.00800  2.148E-03    0   0.7226   age116_m52            0.0000     5.8718E-01     5.0995   1.8047   102.6354
 27      0.0000     0.0000E+00    0.0000E+00    2.861200E+08  0.00800  9.925E-04    0   0.6683   age125_m52            0.0000     5.5980E-01     5.1918   1.3443   105.7428
 28      0.0000     0.0000E+00    0.0000E+00    9.047900E+08  0.00800  3.141E-04    0   0.6138   age135_m52            0.0000     5.0551E-01     4.8445   0.5797   108.5142
 29      0.0000     0.0000E+00    0.0000E+00    1.434000E+09  0.00800  1.719E-04    0   0.5853   age139_m52            0.0000     5.0344E-01     4.6746  -0.0018   106.4191
 30      0.0000     0.0000E+00    0.0000E+00    2.500000E+09  0.00800  7.872E-05    0   0.5600   age150_m52            0.0000     6.0920E-01     5.1858  -0.2377   102.1348
 31      0.0000     0.0000E+00    0.0000E+00    4.250000E+09  0.00800  4.336E-05    0   0.5426   age158_m52            0.0000     6.2779E-01     5.2709  -0.2519   101.1316
 32      0.0011     4.0955E-03    3.9883E-03    6.250000E+09  0.00800  3.159E-05    0   0.5319   age166_m52            0.0000     7.4859E-01     5.8687  -0.4334   100.2536
 33      0.0000     0.0000E+00    0.0000E+00    1.300000E+10  0.00800  1.361E-05    0   0.5073   age193_m52            0.0000     9.5080E-01     6.7682  -0.8749    98.4671
 34      2.6115     3.0656E+01    2.8007E+01    1.800000E+10  0.00800  9.886E-06    0   0.4990   age213_m52            0.0000     1.1318E+00     7.5222  -0.9598    97.0371
 35      0.0000     0.0000E+00    0.0000E+00    1.000000E+06  0.02000  1.544E-02    0   1.0000   age020_m62            0.0000     1.0107E+00     6.7424   3.1036    91.6913
 36      2.2334     6.8895E-03    1.2434E-02    3.160000E+06  0.02000  3.762E-02    0   0.9858   age045_m62            0.0000     1.0168E+00     6.7482   3.0433    92.4670
 37      0.0000     0.0000E+00    0.0000E+00    5.010000E+06  0.02000  3.296E-02    0   0.9342   age055_m62            0.0000     8.4691E-01     5.9621   2.6799    95.7044
 38     30.5835     3.0756E-01    4.9895E-01    8.710000E+06  0.02000  1.154E-02    0   0.8861   age067_m62            0.0000     9.9020E-01     7.4745   1.5174   109.2337
 39      0.0136     2.0524E-04    3.1834E-04    1.445000E+07  0.02000  7.663E-03    0   0.8472   age078_m62            0.0000     6.7379E-01     5.8710   1.7759   105.6242
 40      0.0074     1.9034E-04    2.8224E-04    2.512000E+07  0.02000  4.532E-03    0   0.8099   age090_m62            0.0000     7.1599E-01     6.0223   1.7649   105.4982
 41      0.0000     0.0000E+00    0.0000E+00    5.500000E+07  0.02000  2.733E-03    0   0.7595   age110_m62            0.0000     5.7863E-01     5.1385   1.8234   103.2453
 42      0.0000     0.0000E+00    0.0000E+00    1.609000E+08  0.02000  1.369E-03    0   0.6985   age120_m62            0.0000     5.8187E-01     5.1973   1.6946   104.5470
 43      0.0000     0.0000E+00    0.0000E+00    2.861200E+08  0.02000  9.013E-04    0   0.6714   age125_m62            0.0000     5.7431E-01     5.3395   1.4598   106.7740
 44      0.0000     0.0000E+00    0.0000E+00    5.088000E+08  0.02000  5.028E-04    0   0.6449   age130_m62            0.0000     5.7947E-01     5.3802   1.1182   107.8994
 45      4.5016     2.1516E+00    2.4341E+00    9.047900E+08  0.02000  2.428E-04    0   0.6179   age135_m62            0.0000     5.1916E-01     4.8954   0.5459   106.6853
 46      2.0465     1.8804E+00    2.0340E+00    1.434000E+09  0.02000  1.263E-04    0   0.5908   age139_m62            0.0000     5.5621E-01     4.9840   0.1077   104.8668
 47      0.0000     0.0000E+00    0.0000E+00    2.500000E+09  0.02000  5.985E-05    0   0.5673   age150_m62            0.0000     7.2975E-01     5.8032  -0.2315   102.2646
 48      0.0000     0.0000E+00    0.0000E+00    4.250000E+09  0.02000  3.271E-05    0   0.5468   age158_m62            0.0000     9.6885E-01     6.8889  -0.5049   100.0432
 49      1.1846     1.0109E+01    9.5628E+00    1.000000E+10  0.02000  1.360E-05    0   0.5167   age181_m62            0.0000     1.2931E+00     8.2045  -0.8161    98.0838
 50      0.1590     2.5897E+00    2.3768E+00    1.800000E+10  0.02000  7.124E-06    0   0.5013   age213_m62            0.0000     1.5895E+00     9.2464  -0.9945    96.0282
 51      2.2361     1.0011E-02    1.8326E-02    1.000000E+06  0.05000  2.592E-02    0   0.9998   age020_m72            0.0000     1.0268E+00     6.8501   3.0912    91.8756
 52      0.0000     0.0000E+00    0.0000E+00    3.160000E+06  0.05000  4.845E-02    0   0.9577   age045_m72            0.0000     9.7242E-01     6.4736   2.9357    93.2975
 53      0.0000     0.0000E+00    0.0000E+00    5.010000E+06  0.05000  3.072E-02    0   0.9147   age055_m72            0.0000     7.6623E-01     6.1522   2.3962   100.2084
 54      0.0000     0.0000E+00    0.0000E+00    6.610000E+06  0.05000  1.455E-02    0   0.8877   age061_m72            0.0000     1.9430E+00    10.1117   1.5402   111.8603
 55      0.0000     0.0000E+00    0.0000E+00    1.000000E+07  0.05000  9.074E-03    0   0.8524   age070_m72            0.0000     1.0158E+00     6.9071   2.5899    99.7337
 56      0.0000     0.0000E+00    0.0000E+00    2.512000E+07  0.05000  4.250E-03    0   0.7902   age090_m72            0.0000     8.1373E-01     6.1546   2.2838   101.6365
 57      0.0000     0.0000E+00    0.0000E+00    4.000000E+07  0.05000  3.087E-03    0   0.7618   age104_m72            0.0000     8.1912E-01     6.1576   2.0495   103.5857
 58      0.0000     0.0000E+00    0.0000E+00    1.015200E+08  0.05000  1.700E-03    0   0.7096   age116_m72            0.0000     6.1544E-01     5.3513   1.8220   104.8321
 59      0.0000     0.0000E+00    0.0000E+00    2.861200E+08  0.05000  7.384E-04    0   0.6633   age125_m72            0.0000     5.5440E-01     5.3298   1.3452   107.4034
 60     24.6995     7.5055E+00    8.7561E+00    5.088000E+08  0.05000  3.819E-04    0   0.6372   age130_m72            0.0000     5.2661E-01     5.0457   0.8810   107.8195
 61     18.9646     1.3131E+01    1.4690E+01    9.047900E+08  0.05000  1.676E-04    0   0.6110   age135_m72            0.0000     6.9230E-01     5.7362   0.2228   104.2795
 62      8.9758     1.1787E+01    1.2676E+01    1.434000E+09  0.05000  8.837E-05    0   0.5874   age139_m72            0.0000     7.6034E-01     5.9680  -0.2279   103.5749
 63      0.0000     0.0000E+00    0.0000E+00    2.500000E+09  0.05000  4.233E-05    0   0.5598   age150_m72            0.0000     1.0619E+00     7.2651  -0.4953   100.4592
 64      0.2057     1.6636E+00    1.5987E+00    6.250000E+09  0.05000  1.435E-05    0   0.5249   age166_m72            0.0000     1.4143E+00     8.5944  -0.9029    97.2564
 65      0.0000     0.0000E+00    0.0000E+00    1.300000E+10  0.05000  6.513E-06    0   0.5036   age193_m72            0.0000     1.9248E+00    10.1859  -1.0000    90.6182
 66      0.0000     0.0000E+00    0.0000E+00    1.800000E+10  0.05000  4.527E-06    0   0.4945   age213_m72            0.0000     2.4593E+00    11.4620  -1.0000    84.1420


## Synthesis Results - Average & Chains ##

# j      x_j: min, <> & last-chain-values for 1 ...  7 chains
  1      0.0000      0.4617      0.0000      1.6852      0.0000      0.0000      0.2051      0.0000      0.0689
  2      0.0000      0.2343      0.0000      0.0000      1.7762      0.6541      0.0304      0.0000      0.0000
  3      0.0000      0.4721      0.5300      0.0000      0.0000      0.3280      0.1669      0.0000      1.6932
  4      0.0000      0.4632      0.0000      0.3822      0.0000      0.0000      0.0000      1.8395      0.0000
  5      0.0000      0.2982      0.0000      0.0000      0.0000      0.0000      0.0353      0.0000      0.5655
  6      0.0000      2.4975      0.3969      1.9680      2.0593      1.7282      1.2516      1.1457      3.7750
  7      0.0000      0.4401      2.2048      0.7305      1.7334      0.1149      0.0000      0.1491      0.9274
  8      0.0000      0.5803      0.0000      0.4099      0.9017      0.0000      0.0000      0.0670      0.1904
  9      0.0000      0.5885      0.0000      0.0000      0.0000      1.0451      0.0000      1.1474      0.0000
 10      0.0000      1.6969      0.0000      2.4836      1.7750      0.0000      0.5874      1.8748      0.0000
 11      0.0000      0.4883      0.0000      0.3656      0.0000      0.0000      1.3695      0.1994      2.7624
 12      0.0000      0.7069      0.2006      0.5987      0.2435      0.3587      0.4549      0.0000      0.0000
 13      7.3418      5.9461     11.3287      6.3792     13.1455      5.5644      4.5403      7.9165      9.3517
 14      0.0000      0.2438      0.0000      0.0000      0.0000      0.0000      0.0000      0.0558      0.4837
 15      0.0000      0.8167      0.4957      1.5132      0.0000      0.0000      0.0000      0.0000      0.0856
 16      2.4534      2.0646      1.9859      2.8056      2.3084      0.4557      2.1732      1.7246      1.5531
 17      0.0000      0.5568      0.0000      2.0603      0.0000      1.3274      0.0000      0.0000      0.0000
 18      0.0000      0.5153      0.0000      0.9156      1.1149      0.0000      1.0239      0.4507      0.7208
 19      0.0000      0.5346      0.0000      1.8176      0.6877      0.0424      0.7896      0.3441      0.0000
 20      0.0000      0.2834      0.1962      0.0654      0.0000      0.0722      1.7483      0.0000      0.0000
 21      0.0000      0.7839      0.6986      0.0000      0.0000      0.4661      0.6679      0.0000      0.0000
 22      0.0000      0.3956      1.2947      0.0000      0.1855      0.3990      0.1904      0.0000      0.0000
 23      0.0000      0.9778      0.6849      1.3026      0.4445      0.3483      0.0000      0.8500      1.3067
 24      0.0000      1.6652      2.6604      0.0000      0.0000      2.4931      1.1259      1.3076      0.0000
 25      0.0000      0.6632      0.6092      0.0000      0.0000      1.0365      0.0000      1.9380      0.7658
 26      0.0000      0.4423      0.0000      0.0000      0.0000      0.0000      0.0000      0.5796      0.0000
 27      0.0000      0.6425      0.0000      1.2552      0.0000      0.0000      0.0000      0.9235      0.0000
 28      0.0000      2.5495      1.1694      0.0000      0.0000      0.0000      0.1114      0.0000      2.1002
 29      0.0000      0.6567      0.4215      0.0000      0.0000      0.7991      0.9197      0.4300      0.0000
 30      0.0000      0.3810      0.0000      0.0000      0.0000      0.0000      0.3429      0.0000      0.0000
 31      0.0000      2.8007      4.6230      1.7989      0.3263      2.9366      3.7862      2.3247      3.5880
 32      0.0011      1.0426      0.6263      0.0000      1.7989      1.4395      1.5559      1.2162      1.1952
 33      0.0000      0.0538      0.0000      0.0000      0.2730      0.5834      0.0000      0.0000      0.0000
 34      2.6115      1.1816      1.1247      1.3808      0.7370      1.0103      1.2271      1.3981      1.3617
 35      0.0000      0.5616      0.4478      1.0389      0.3336      1.4752      0.0000      1.5266      0.0000
 36      2.2334      2.0517      2.2859      1.6440      2.7436      2.6491      2.4321      3.5541      2.8224
 37      0.0000      0.2468      0.0000      0.0000      0.2636      0.4656      0.0000      0.0000      0.0000
 38     30.5835      9.6003     13.5911     11.0970     13.0139     13.3741     16.8596     11.2348     11.5836
 39      0.0136      0.4117      2.4295      0.0000      0.7914      0.0529      0.0000      0.0000      0.2793
 40      0.0074      4.0378      5.0910      4.1166      5.4252      4.5145      4.3304      4.0342      5.1657
 41      0.0000      0.5802      0.9868      2.9675      0.0000      0.2398      0.1979      0.1782      0.0000
 42      0.0000      0.4309      0.0000      0.0000      0.0000      0.0000      1.3190      0.0000      1.2851
 43      0.0000      0.5920      0.0000      0.9388      0.0000      0.0000      0.0000      0.0235      0.0000
 44      0.0000      0.5905      0.0000      0.4328      0.0000      0.7555      0.5175      0.0000      0.0000
 45      4.5016      4.8216      3.3997      3.1196      2.4302      2.1887      4.1397      6.4094      3.7175
 46      2.0465      4.9982      0.7315      5.1128      6.7852      5.9151      5.2522      6.4510      2.0701
 47      0.0000      0.8345      0.1701      1.4767      0.3763      1.2304      1.2333      0.0000      0.9558
 48      0.0000      0.9149      0.6363      0.9614      0.5971      0.8568      1.1755      0.0000      0.4523
 49      1.1846      0.1269      0.0000      0.0000      0.7587      0.0000      0.0000      0.0000      0.1699
 50      0.1590      0.3115      0.0000      0.0000      0.5219      0.0000      0.0000      1.4407      0.0000
 51      2.2361      2.4568      2.0446      2.7809      2.7190      2.8774      2.1933      3.7946      4.5276
 52      0.0000      0.5057      0.0000      1.0996      0.0000      1.0970      0.0272      0.2338      0.0000
 53      0.0000      0.3927      0.3115      0.2362      0.2199      0.8563      0.7458      0.2602      0.0000
 54      0.0000      0.4858      0.0000      0.0000      0.7360      0.0000      0.0000      0.8924      0.0000
 55      0.0000      0.1705      0.0000      0.3512      0.8502      0.0000      0.0000      0.0000      0.0548
 56      0.0000      0.1859      0.0000      0.0000      0.0000      0.1986      0.0000      0.0000      0.0000
 57      0.0000      0.5285      0.0000      0.0000      0.0000      0.8025      0.0000      0.0000      0.0000
 58      0.0000      0.6401      0.0000      0.6456      0.0000      0.4401      1.1255      0.0000      0.1052
 59      0.0000      1.4067      4.0982      1.2336      0.0000      3.3337      1.8544      0.0000      0.0000
 60     24.6995     11.6030     13.2191     12.8267     14.7372     17.7158     16.5165     14.0904     12.1796
 61     18.9646     16.2865     18.1127     16.4981     17.9239     16.1721     16.0423     18.6044     20.0650
 62      8.9758      6.0142      6.1642      7.8966      5.4523      5.5436      6.8434      6.3314      8.9824
 63      0.0000      0.2804      0.7087      0.0000      0.0000      0.0000      0.0000      0.0000      0.0000
 64      0.2057      0.7377      1.6096      0.0000      1.1902      1.1361      0.0000      0.2578      0.2992
 65      0.0000      0.1746      0.0000      0.1698      0.0000      0.0000      0.4640      0.1191      0.0000
 66      0.0000      0.1121      0.0000      0.5112      0.0000      0.8961      0.0000      0.0000      0.0000

# j      m_j: min, <> & last-chain-values for 1 ...  7 chains
  1  0.0000E+00  8.5450E-03  0.0000E+00  2.8361E-02  0.0000E+00  0.0000E+00  4.1678E-03  0.0000E+00  1.4992E-03
  2  0.0000E+00  1.1837E-03  0.0000E+00  0.0000E+00  9.5052E-03  3.0318E-03  1.6844E-04  0.0000E+00  0.0000E+00
  3  0.0000E+00  3.5722E-03  4.4389E-03  0.0000E+00  0.0000E+00  2.2768E-03  1.3861E-03  0.0000E+00  1.5071E-02
  4  0.0000E+00  3.3004E-03  0.0000E+00  2.4767E-03  0.0000E+00  0.0000E+00  0.0000E+00  1.3166E-02  0.0000E+00
  5  0.0000E+00  4.0476E-03  0.0000E+00  0.0000E+00  0.0000E+00  0.0000E+00  5.2669E-04  0.0000E+00  9.0297E-03
  6  0.0000E+00  5.4982E-02  9.6719E-03  3.9398E-02  4.8016E-02  3.4899E-02  3.0252E-02  2.5335E-02  9.7764E-02
  7  0.0000E+00  1.3871E-02  7.6915E-02  2.0938E-02  5.7866E-02  3.3215E-03  0.0000E+00  4.7201E-03  3.4384E-02
  8  0.0000E+00  2.5280E-02  0.0000E+00  1.6237E-02  4.1604E-02  0.0000E+00  0.0000E+00  2.9306E-03  9.7552E-03
  9  0.0000E+00  2.9344E-02  0.0000E+00  0.0000E+00  0.0000E+00  4.7801E-02  0.0000E+00  5.7468E-02  0.0000E+00
 10  0.0000E+00  1.1114E-01  0.0000E+00  1.4792E-01  1.2313E-01  0.0000E+00  4.2237E-02  1.2334E-01  0.0000E+00
 11  0.0000E+00  6.0135E-02  0.0000E+00  4.0941E-02  0.0000E+00  0.0000E+00  1.8518E-01  2.4670E-02  4.0020E-01
 12  0.0000E+00  1.3810E-01  4.3384E-02  1.0635E-01  5.0394E-02  6.4272E-02  9.7573E-02  0.0000E+00  0.0000E+00
 13  4.2422E+00  3.2742E+00  6.9044E+00  3.1942E+00  7.6667E+00  2.8106E+00  2.7449E+00  4.3786E+00  6.0576E+00
 14  0.0000E+00  4.5021E-01  0.0000E+00  0.0000E+00  0.0000E+00  0.0000E+00  0.0000E+00  1.0348E-01  1.0509E+00
 15  0.0000E+00  2.4554E+00  1.6494E+00  4.1371E+00  0.0000E+00  0.0000E+00  0.0000E+00  0.0000E+00  3.0288E-01
 16  1.3088E+01  1.0496E+01  1.1174E+01  1.2970E+01  1.2429E+01  2.1249E+00  1.2129E+01  8.8063E+00  9.2878E+00
 17  0.0000E+00  3.6719E+00  0.0000E+00  1.2356E+01  0.0000E+00  8.0300E+00  0.0000E+00  0.0000E+00  0.0000E+00
 18  0.0000E+00  8.4277E-03  0.0000E+00  1.3618E-02  1.9313E-02  0.0000E+00  1.8387E-02  7.4034E-03  1.3869E-02
 19  0.0000E+00  3.5091E-03  0.0000E+00  1.0850E-02  4.7813E-03  2.5509E-04  5.6911E-03  2.2690E-03  0.0000E+00
 20  0.0000E+00  2.0307E-03  1.5559E-03  4.2614E-04  0.0000E+00  4.7440E-04  1.3756E-02  0.0000E+00  0.0000E+00
 21  0.0000E+00  6.8197E-03  6.7266E-03  0.0000E+00  0.0000E+00  3.7193E-03  6.3795E-03  0.0000E+00  0.0000E+00
 22  0.0000E+00  5.8196E-03  2.1080E-02  0.0000E+00  2.8907E-03  5.3833E-03  3.0750E-03  0.0000E+00  0.0000E+00
 23  0.0000E+00  1.9424E-02  1.5059E-02  2.3530E-02  9.3514E-03  6.3471E-03  0.0000E+00  1.6961E-02  3.0535E-02
 24  0.0000E+00  4.9212E-02  8.7024E-02  0.0000E+00  0.0000E+00  6.7587E-02  3.6532E-02  3.8816E-02  0.0000E+00
 25  0.0000E+00  2.7026E-02  2.7476E-02  0.0000E+00  0.0000E+00  3.8743E-02  0.0000E+00  7.9328E-02  3.6709E-02
 26  0.0000E+00  3.0129E-02  0.0000E+00  0.0000E+00  0.0000E+00  0.0000E+00  0.0000E+00  3.9654E-02  0.0000E+00
 27  0.0000E+00  8.7593E-02  0.0000E+00  1.5562E-01  0.0000E+00  0.0000E+00  0.0000E+00  1.2647E-01  0.0000E+00
 28  0.0000E+00  1.0088E+00  5.1213E-01  0.0000E+00  0.0000E+00  0.0000E+00  4.8381E-02  0.0000E+00  9.7757E-01
 29  0.0000E+00  4.5273E-01  3.2162E-01  0.0000E+00  0.0000E+00  5.0535E-01  6.9615E-01  2.9780E-01  0.0000E+00
 30  0.0000E+00  5.4881E-01  0.0000E+00  0.0000E+00  0.0000E+00  0.0000E+00  5.4227E-01  0.0000E+00  0.0000E+00
 31  0.0000E+00  7.0965E+00  1.2965E+01  4.1449E+00  8.7565E-01  6.8254E+00  1.0533E+01  5.9167E+00  1.0695E+01
 32  3.9883E-03  3.5544E+00  2.3633E+00  0.0000E+00  6.4957E+00  4.5018E+00  5.8240E+00  4.1650E+00  4.7935E+00
 33  0.0000E+00  4.0630E-01  0.0000E+00  0.0000E+00  2.1826E+00  4.0390E+00  0.0000E+00  0.0000E+00  0.0000E+00
 34  2.8007E+01  1.2076E+01  1.2722E+01  1.2832E+01  7.9780E+00  9.4718E+00  1.3769E+01  1.4353E+01  1.6372E+01
 35  0.0000E+00  7.3648E-03  6.4998E-03  1.2388E-02  4.6338E-03  1.7746E-02  0.0000E+00  2.0109E-02  0.0000E+00
 36  1.2434E-02  1.0886E-02  1.3424E-02  7.9320E-03  1.5418E-02  1.2893E-02  1.4168E-02  1.8941E-02  1.7616E-02
 37  0.0000E+00  1.4162E-03  0.0000E+00  0.0000E+00  1.6024E-03  2.4510E-03  0.0000E+00  0.0000E+00  0.0000E+00
 38  4.9895E-01  1.4926E-01  2.3388E-01  1.5689E-01  2.1430E-01  1.9074E-01  2.8779E-01  1.7545E-01  2.1186E-01
 39  3.1834E-04  9.2169E-03  6.0194E-02  0.0000E+00  1.8764E-02  1.0859E-03  0.0000E+00  0.0000E+00  7.3548E-03
 40  2.8224E-04  1.4611E-01  2.0389E-01  1.3545E-01  2.0792E-01  1.4984E-01  1.7203E-01  1.4663E-01  2.1988E-01
 41  0.0000E+00  3.2646E-02  6.1457E-02  1.5184E-01  0.0000E+00  1.2380E-02  1.2226E-02  1.0071E-02  0.0000E+00
 42  0.0000E+00  4.4518E-02  0.0000E+00  0.0000E+00  0.0000E+00  0.0000E+00  1.4961E-01  0.0000E+00  1.5618E-01
 43  0.0000E+00  8.9285E-02  0.0000E+00  1.2877E-01  0.0000E+00  0.0000E+00  0.0000E+00  3.5594E-03  0.0000E+00
 44  0.0000E+00  1.5335E-01  0.0000E+00  1.0222E-01  0.0000E+00  1.7999E-01  1.4755E-01  0.0000E+00  0.0000E+00
 45  2.4341E+00  2.4845E+00  1.9390E+00  1.4618E+00  1.3263E+00  1.0345E+00  2.3420E+00  3.3174E+00  2.2534E+00
 46  2.0340E+00  4.7340E+00  7.6686E-01  4.4035E+00  6.8068E+00  5.1391E+00  5.4616E+00  6.1373E+00  2.3065E+00
 47  0.0000E+00  1.6015E+00  3.6137E-01  2.5772E+00  7.6487E-01  2.1661E+00  2.5987E+00  0.0000E+00  2.1580E+00
 48  0.0000E+00  3.0967E+00  2.3839E+00  2.9591E+00  2.1405E+00  2.6602E+00  4.3683E+00  0.0000E+00  1.8008E+00
 49  9.5628E+00  9.7650E-01  0.0000E+00  0.0000E+00  6.1819E+00  0.0000E+00  0.0000E+00  0.0000E+00  1.5372E+00
 50  2.3768E+00  4.4376E+00  0.0000E+00  0.0000E+00  7.8762E+00  0.0000E+00  0.0000E+00  2.0619E+01  0.0000E+00
 51  1.8326E-02  1.9188E-02  1.7674E-02  1.9750E-02  2.2492E-02  2.0615E-02  1.8807E-02  2.9769E-02  4.1598E-02
 52  0.0000E+00  2.0239E-03  0.0000E+00  4.0021E-03  0.0000E+00  4.0273E-03  1.1970E-04  9.3975E-04  0.0000E+00
 53  0.0000E+00  2.3673E-03  2.0789E-03  1.2952E-03  1.4040E-03  4.7355E-03  4.9363E-03  1.5759E-03  0.0000E+00
 54  0.0000E+00  6.0012E-03  0.0000E+00  0.0000E+00  9.6304E-03  0.0000E+00  0.0000E+00  1.1073E-02  0.0000E+00
 55  0.0000E+00  3.2429E-03  0.0000E+00  6.0745E-03  1.7128E-02  0.0000E+00  0.0000E+00  0.0000E+00  1.2273E-03
 56  0.0000E+00  6.9987E-03  0.0000E+00  0.0000E+00  0.0000E+00  6.8569E-03  0.0000E+00  0.0000E+00  0.0000E+00
 57  0.0000E+00  2.6408E-02  0.0000E+00  0.0000E+00  0.0000E+00  3.6780E-02  0.0000E+00  0.0000E+00  0.0000E+00
 58  0.0000E+00  5.4102E-02  0.0000E+00  4.9616E-02  0.0000E+00  3.4120E-02  1.0443E-01  0.0000E+00  1.0458E-02
 59  0.0000E+00  2.5586E-01  8.2503E-01  2.0404E-01  0.0000E+00  5.5620E-01  3.7031E-01  0.0000E+00  0.0000E+00
 60  8.7561E+00  3.9199E+00  4.9429E+00  3.9404E+00  5.2733E+00  5.4901E+00  6.1262E+00  4.7815E+00  4.8404E+00
 61  1.4690E+01  1.2022E+01  1.4798E+01  1.1074E+01  1.4013E+01  1.0950E+01  1.3001E+01  1.3794E+01  1.7423E+01
 62  1.2676E+01  8.0945E+00  9.1825E+00  9.6644E+00  7.7723E+00  6.8440E+00  1.0112E+01  8.5593E+00  1.4222E+01
 63  0.0000E+00  7.5075E-01  2.1005E+00  0.0000E+00  0.0000E+00  0.0000E+00  0.0000E+00  0.0000E+00  0.0000E+00
 64  1.5987E+00  5.4635E+00  1.3195E+01  0.0000E+00  9.3366E+00  7.7187E+00  0.0000E+00  1.9179E+00  2.6071E+00
 65  0.0000E+00  2.7332E+00  0.0000E+00  2.4174E+00  0.0000E+00  0.0000E+00  7.9758E+00  1.8722E+00  0.0000E+00
 66  0.0000E+00  2.4803E+00  0.0000E+00  1.0281E+01  0.0000E+00  1.8180E+01  0.0000E+00  0.0000E+00  0.0000E+00

# AV, chi2 & Mass for <> & i_chain = 1 ...  7 solutions
AV       0.5534      0.5869      0.5789      0.5906      0.5817      0.5880      0.5929      0.5980      0.5855
chi2 3.9448E-01  4.0372E-01  4.0142E-01  4.0255E-01  4.0049E-01  4.0173E-01  4.0133E-01  4.0152E-01  4.0200E-01
Mass 7.6039E-13  8.3455E-13  7.4599E-13  9.2233E-13  7.8250E-13  9.1118E-13  7.6634E-13  8.4338E-13  7.0813E-13
 -99.97                                  [v0_min (km/s) before EX0s...]
 162.62                                  [vd_min (km/s) before EX0s...]


## Synthetic spectrum (Best Model) ##l_obs f_obs f_syn wei
 3478    [Nl_obs]
 3741.00    0.81661   0.72087    0.000
 3742.00    0.77275   0.70605    0.000
 3743.00    0.72609   0.68196    0.000
 3744.00    0.68177   0.65123    0.000
 3745.00    0.62849   0.61672    4.544
 3746.00    0.55063   0.58215    4.557
 3747.00    0.47974   0.55453    4.423
 3748.00    0.47719   0.54292    4.437
 3749.00    0.52604   0.55267    4.626
 3750.00    0.54697   0.58197    4.714
 3751.00    0.54366   0.62388    4.597
 3752.00    0.59116   0.66888    4.452
 3753.00    0.68928   0.70676    4.428
 3754.00    0.76762   0.73002    4.571
 3755.00    0.79971   0.73748    4.757
 3756.00    0.80743   0.73476    4.758
 3757.00    0.80272   0.72965    4.626
 3758.00    0.78103   0.72745    4.600
 3759.00    0.73791   0.72954    4.726
 3760.00    0.67747   0.73426    4.887
 3761.00    0.62155   0.73798    4.960
 3762.00    0.60037   0.73693    4.913
 3763.00    0.63153   0.72825    4.902
 3764.00    0.70666   0.71067    5.063
 3765.00    0.77738   0.68584    5.156
 3766.00    0.79434   0.65738    4.887
 3767.00    0.77101   0.62966    4.587
 3768.00    0.74876   0.60903    4.631
 3769.00    0.73135   0.60265    4.926
 3770.00    0.70639   0.61311    5.122
 3771.00    0.68688   0.63678    5.054
 3772.00    0.69072   0.66792    4.843
 3773.00    0.70864   0.70179    4.710
 3774.00    0.72420   0.73504    4.797
 3775.00    0.74131   0.76590    5.093
 3776.00    0.76950   0.79432    5.450
 3777.00    0.80458   0.82065    5.553
 3778.00    0.83487   0.84379    5.306
 3779.00    0.85050   0.86172    5.133
 3780.00    0.84924   0.87335    5.280
 3781.00    0.84037   0.87838    5.431
 3782.00    0.83432   0.87578    5.264
 3783.00    0.83318   0.86445    5.076
 3784.00    0.83176   0.84612    5.146
 3785.00    0.82004   0.82493    5.363
 3786.00    0.79176   0.80443    5.507
 3787.00    0.75014   0.78667    5.508
 3788.00    0.70207   0.77206    5.431
 3789.00    0.65337   0.75849    5.399
 3790.00    0.60688   0.74163    5.477
 3791.00    0.56307   0.71783    5.632
 3792.00    0.53031   0.68635    5.785
 3793.00    0.52615   0.64911    5.859
 3794.00    0.54771   0.61024    5.875
 3795.00    0.56284   0.57681    5.959
 3796.00    0.55607   0.55812    6.088
 3797.00    0.54611   0.56098    6.027
 3798.00    0.54806   0.58566    5.800
 3799.00    0.55796   0.62644    5.752
 3800.00    0.57170   0.67479    5.914
 3801.00    0.59289   0.72147    5.919
 3802.00    0.62682   0.75893    5.684
 3803.00    0.67617   0.78437    5.569
 3804.00    0.73473   0.80069    5.726
 3805.00    0.78949   0.81404    6.015
 3806.00    0.83654   0.82915    6.229
 3807.00    0.88079   0.84638    6.231
 3808.00    0.91529   0.86217    6.152
 3809.00    0.92166   0.87121    6.255
 3810.00    0.89390   0.86974    6.464
 3811.00    0.84289   0.85859    6.404
 3812.00    0.78691   0.84289    6.178
 3813.00    0.74431   0.82854    6.225
 3814.00    0.72207   0.81896    6.536
 3815.00    0.71531   0.81311    6.677
 3816.00    0.71422   0.80705    6.514
 3817.00    0.70981   0.79880    6.323
 3818.00    0.70301   0.79089    6.309
 3819.00    0.70189   0.78660    6.519
 3820.00    0.71147   0.78522    6.797
 3821.00    0.73222   0.78284    6.871
 3822.00    0.76184   0.77650    6.761
 3823.00    0.79578   0.76576    6.712
 3824.00    0.82745   0.75169    6.841
 3825.00    0.84861   0.73599    7.074
 3826.00    0.85005   0.71979    7.062
 3827.00    0.82803   0.70234    6.626
 3828.00    0.79367   0.68076    6.330
 3829.00    0.76447   0.65218    6.636
 3830.00    0.74967   0.61678    7.157
 3831.00    0.75044   0.57835    7.091
 3832.00    0.76328   0.54321    6.745
 3833.00    0.78187   0.51870    6.750
 3834.00    0.79922   0.51005    6.935
 3835.00    0.81155   0.51813    6.877
 3836.00    0.82193   0.54042    6.677
 3837.00    0.83243   0.57295    6.614
 3838.00    0.83584   0.61188    6.710
 3839.00    0.82704   0.65386    6.859
 3840.00    0.81466   0.69542    6.965
 3841.00    0.81037   0.73348    6.939
 3842.00    0.81789   0.76585    6.730
 3843.00    0.83647   0.79171    6.434
 3844.00    0.86427   0.81172    6.292
 3845.00    0.89332   0.82662    6.406
 3846.00    0.90710   0.83682    6.605
 3847.00    0.89714   0.84373    0.000
 3848.00    0.87363   0.85005    0.000
 3849.00    0.84785   0.85742    0.000
 3850.00    0.82137   0.86495    0.000
 3851.00    0.80254   0.87079    0.000
 3852.00    0.81302   0.87327    0.000
 3853.00    0.85701   0.87189    0.000
 3854.00    0.90798   0.86790    0.000
 3855.00    0.94531   0.86268    0.000
 3856.00    0.97217   0.85760    0.000
 3857.00    0.99415   0.85522    0.000
 3858.00    1.00918   0.85794    0.000
 3859.00    1.01726   0.86584    0.000
 3860.00    1.02407   0.87645    0.000
 3861.00    1.03442   0.88670    0.000
 3862.00    1.04802   0.89423    0.000
 3863.00    1.05525   0.89801    0.000
 3864.00    1.04145   0.89867    0.000
 3865.00    1.01016   0.89773    0.000
 3866.00    0.98205   0.89567    0.000
 3867.00    0.95796   0.89087    0.000
 3868.00    0.91877   0.88155    0.000
 3869.00    0.87104   0.86819    0.000
 3870.00    0.84468   0.85472    0.000
 3871.00    0.83731   0.84565    0.000
 3872.00    0.81691   0.84206    0.000
 3873.00    0.78087   0.84126    0.000
 3874.00    0.75580   0.83892    0.000
 3875.00    0.75038   0.83219    0.000
 3876.00    0.75443   0.82213    0.000
 3877.00    0.76892   0.81112    0.000
 3878.00    0.80232   0.79952    0.000
 3879.00    0.84482   0.78643    0.000
 3880.00    0.87217   0.77077    0.000
 3881.00    0.86705   0.75061    7.429
 3882.00    0.82777   0.72330    7.654
 3883.00    0.77526   0.68817    7.967
 3884.00    0.73725   0.64803    8.100
 3885.00    0.71721   0.60794    7.938
 3886.00    0.70163   0.57528    7.639
 3887.00    0.68248   0.55857    7.555
 3888.00    0.65875   0.56264    7.904
 3889.00    0.63280   0.58603    8.321
 3890.00    0.60931   0.62195    8.211
 3891.00    0.59457   0.66193    7.876
 3892.00    0.59379   0.69929    7.887
 3893.00    0.60777   0.73093    8.203
 3894.00    0.63511   0.75644    8.461
 3895.00    0.67540   0.77640    8.425
 3896.00    0.72573   0.79241    8.158
 3897.00    0.77666   0.80687    7.973
 3898.00    0.81717   0.82150    8.072
 3899.00    0.84052   0.83534    8.304
 3900.00    0.84095   0.84648    8.453
 3901.00    0.81168   0.85410    8.592
 3902.00    0.76558   0.85794    8.822
 3903.00    0.74894   0.85992    8.962
 3904.00    0.78135   0.86434    8.900
 3905.00    0.81060   0.87421    8.926
 3906.00    0.79796   0.88951    9.163
 3907.00    0.78220   0.90745    9.144
 3908.00    0.79918   0.92408    8.678
 3909.00    0.82379   0.93592    8.360
 3910.00    0.82874   0.94103    8.439
 3911.00    0.82488   0.94005    8.426
 3912.00    0.82781   0.93507    8.074
 3913.00    0.83571   0.92753    7.858
 3914.00    0.84099   0.91841    8.016
 3915.00    0.83845   0.90804    8.223
 3916.00    0.82605   0.89664    8.172
 3917.00    0.80481   0.88556    7.972
 3918.00    0.77669   0.87701    7.855
 3919.00    0.74385   0.87257    7.980
 3920.00    0.70986   0.87178    8.336
 3921.00    0.67962   0.87222    8.676
 3922.00    0.65568   0.86998    8.714
 3923.00    0.63911   0.86159    8.371
 3924.00    0.63945   0.84550    7.910
 3925.00    0.67010   0.82161    7.700
 3926.00    0.71388   0.79109    7.835
 3927.00    0.72625   0.75549    8.153
 3928.00    0.69587   0.71630    8.404
 3929.00    0.65263   0.67556    8.394
 3930.00    0.61905   0.63712    8.301
 3931.00    0.59687   0.60739    8.514
 3932.00    0.57868   0.59315    8.958
 3933.00    0.55748   0.59820    9.042
 3934.00    0.54225   0.62183    8.647
 3935.00    0.55139   0.65914    8.240
 3936.00    0.58358   0.70304    8.051
 3937.00    0.62173   0.74598    8.065
 3938.00    0.66225   0.78194    8.233
 3939.00    0.71148   0.80816    8.466
 3940.00    0.76075   0.82504    8.532
 3941.00    0.79165   0.83565    8.261
 3942.00    0.79942   0.84453    7.975
 3943.00    0.79258   0.85440    8.054
 3944.00    0.78160   0.86467    8.262
 3945.00    0.77355   0.87378    8.099
 3946.00    0.76665   0.88098    7.813
 3947.00    0.75393   0.88618    7.911
 3948.00    0.73099   0.88944    8.263
 3949.00    0.69660   0.89110    8.407
 3950.00    0.65177   0.89206    8.390
 3951.00    0.60691   0.89242    8.517
 3952.00    0.59086   0.89066    8.650
 3953.00    0.62125   0.88566    8.510
 3954.00    0.66503   0.87814    8.279
 3955.00    0.68032   0.86919    8.239
 3956.00    0.67397   0.85845    8.346
 3957.00    0.66960   0.84366    8.427
 3958.00    0.66325   0.82232    8.463
 3959.00    0.64651   0.79375    8.509
 3960.00    0.63533   0.75872    0.000
 3961.00    0.64307   0.71831    0.000
 3962.00    0.65240   0.67359    0.000
 3963.00    0.64367   0.62512    0.000
 3964.00    0.62261   0.57370    0.000
 3965.00    0.60115   0.52227    0.000
 3966.00    0.57924   0.47673    0.000
 3967.00    0.55369   0.44491    0.000
 3968.00    0.52692   0.43366    0.000
 3969.00    0.50906   0.44559    0.000
 3970.00    0.51623   0.47830    0.000
 3971.00    0.54965   0.52601    0.000
 3972.00    0.58572   0.58145    0.000
 3973.00    0.60942   0.63800    0.000
 3974.00    0.63222   0.69137    0.000
 3975.00    0.66149   0.73960    0.000
 3976.00    0.68609   0.78170    0.000
 3977.00    0.70721   0.81665    0.000
 3978.00    0.74908   0.84335    0.000
 3979.00    0.81929   0.86201    0.000
 3980.00    0.89278   0.87483    0.000
 3981.00    0.94032   0.88499    5.009
 3982.00    0.94619   0.89521    5.146
 3983.00    0.92124   0.90679    6.589
 3984.00    0.89926   0.91971    8.300
 3985.00    0.89832   0.93276    8.268
 3986.00    0.91057   0.94439    7.860
 3987.00    0.92836   0.95412    8.093
 3988.00    0.95114   0.96262    8.386
 3989.00    0.97244   0.97035    8.404
 3990.00    0.97926   0.97683    8.564
 3991.00    0.96626   0.98059    8.892
 3992.00    0.93858   0.98033    8.835
 3993.00    0.90474   0.97614    8.381
 3994.00    0.87366   0.97019    8.111
 3995.00    0.85235   0.96637    8.421
 3996.00    0.84481   0.96802    9.548
 3997.00    0.85077   0.97559   11.208
 3998.00    0.86649   0.98668   11.957
 3999.00    0.88755   0.99731   11.406
 4000.00    0.90902   1.00311   10.873
 4001.00    0.92460   1.00126   10.773
 4002.00    0.92807   0.99284   10.825
 4003.00    0.91708   0.98247   10.922
 4004.00    0.89787   0.97530   11.105
 4005.00    0.89197   0.97443   11.195
 4006.00    0.91603   0.98016   10.965
 4007.00    0.94426   0.99037   10.617
 4008.00    0.94167   1.00187   10.504
 4009.00    0.93005   1.01228   10.690
 4010.00    0.95275   1.02065   10.833
 4011.00    1.00270   1.02713   10.110
 4012.00    1.04503   1.03234    8.628
 4013.00    1.06652   1.03661    7.776
 4014.00    1.07095   1.04031    8.174
 4015.00    1.06299   1.04419    9.323
 4016.00    1.04894   1.04838    9.889
 4017.00    1.04004   1.05173    9.637
 4018.00    1.04461   1.05255    9.401
 4019.00    1.05885   1.04920    9.437
 4020.00    1.07214   1.04088    9.540
 4021.00    1.07483   1.02896    9.301
 4022.00    1.06711   1.01704    8.682
 4023.00    1.06468   1.00900    8.270
 4024.00    1.07231   1.00652    8.432
 4025.00    1.06291   1.00776    8.999
 4026.00    1.02401   1.00809    9.616
 4027.00    0.99328   1.00333   10.091
 4028.00    0.99543   0.99272   10.276
 4029.00    0.99614   0.97918    9.950
 4030.00    0.97027   0.96800    9.299
 4031.00    0.94854   0.96439    8.914
 4032.00    0.95424   0.97111    9.009
 4033.00    0.96424   0.98752    9.246
 4034.00    0.96608   1.00978    9.244
 4035.00    0.98817   1.03234    8.986
 4036.00    1.04040   1.04988    8.668
 4037.00    1.08622   1.05932    8.487
 4038.00    1.10024   1.06045    8.498
 4039.00    1.09568   1.05433    8.606
 4040.00    1.08933   1.04185    8.693
 4041.00    1.08281   1.02430    8.711
 4042.00    1.06727   1.00501    8.742
 4043.00    1.03035   0.98941    8.962
 4044.00    0.97498   0.98232    9.345
 4045.00    0.92349   0.98587    9.551
 4046.00    0.89867   0.99845    9.399
 4047.00    0.91217   1.01480    9.100
 4048.00    0.95192   1.02852    8.897
 4049.00    0.98631   1.03533    8.916
 4050.00    0.99627   1.03414    9.126
 4051.00    0.98340   1.02682    9.357
 4052.00    0.95704   1.01683    9.469
 4053.00    0.92865   1.00729    9.433
 4054.00    0.90854   1.00040    9.281
 4055.00    0.90420   0.99749    9.089
 4056.00    0.91820   0.99834    8.996
 4057.00    0.94693   1.00087    9.110
 4058.00    0.97885   1.00171    9.271
 4059.00    1.00000   0.99808    9.176
 4060.00    1.00840   0.99015    8.961
 4061.00    1.01122   0.98089    9.011
 4062.00    1.01011   0.97371    9.334
 4063.00    1.00330   0.97125    9.618
 4064.00    0.99678   0.97430    9.652
 4065.00    0.99849   0.98083    9.465
 4066.00    1.00259   0.98694    9.223
 4067.00    0.99867   0.98947    9.095
 4068.00    0.99365   0.98782    9.132
 4069.00    0.99835   0.98338    9.287
 4070.00    0.99921   0.97773    9.438
 4071.00    0.98151   0.97131    9.448
 4072.00    0.97114   0.96316    9.312
 4073.00    0.99765   0.95213    9.171
 4074.00    1.03320   0.93952    9.268
 4075.00    1.03582   0.92954    9.714
 4076.00    1.01791   0.92716   10.099
 4077.00    1.01183   0.93471    9.913
 4078.00    1.01631   0.94981    9.479
 4079.00    1.01646   0.96648    9.285
 4080.00    1.01412   0.97860    9.283
 4081.00    1.01471   0.98325    9.297
 4082.00    1.01043   0.98185    9.396
 4083.00    0.99550   0.97859    9.668
 4084.00    0.98157   0.97732    9.937
 4085.00    0.97770   0.97938    9.954
 4086.00    0.97207   0.98335    9.713
 4087.00    0.95210   0.98628    9.417
 4088.00    0.92242   0.98541    9.333
 4089.00    0.89420   0.97947    9.564
 4090.00    0.87501   0.96815    9.913
 4091.00    0.86841   0.95120   10.056
 4092.00    0.87401   0.92854    0.000
 4093.00    0.88571   0.90030    0.000
 4094.00    0.89237   0.86685    0.000
 4095.00    0.89024   0.82877    0.000
 4096.00    0.88870   0.78683    0.000
 4097.00    0.89443   0.74289    0.000
 4098.00    0.90391   0.70141    0.000
 4099.00    0.91763   0.66922    0.000
 4100.00    0.94371   0.65337    0.000
 4101.00    0.97288   0.65832    0.000
 4102.00    0.97425   0.68321    0.000
 4103.00    0.93980   0.72165    0.000
 4104.00    0.89770   0.76460    0.000
 4105.00    0.87120   0.80409    0.000
 4106.00    0.86225   0.83570    0.000
 4107.00    0.86334   0.85917    0.000
 4108.00    0.86573   0.87712    0.000
 4109.00    0.86974   0.89309    0.000
 4110.00    0.88369   0.90960    0.000
 4111.00    0.90605   0.92725    0.000
 4112.00    0.92456   0.94472    0.000
 4113.00    0.93494   0.95928   10.170
 4114.00    0.94269   0.96825   10.019
 4115.00    0.94850   0.97062    9.528
 4116.00    0.94755   0.96754    9.424
 4117.00    0.94065   0.96180    9.808
 4118.00    0.93419   0.95688   10.210
 4119.00    0.93172   0.95567   10.326
 4120.00    0.93471   0.95920   10.241
 4121.00    0.95015   0.96642   10.076
 4122.00    0.98430   0.97475    9.906
 4123.00    1.02474   0.98118    9.852
 4124.00    1.04885   0.98340    9.997
 4125.00    1.05025   0.98068   10.184
 4126.00    1.03950   0.97392   10.160
 4127.00    1.03375   0.96497   10.019
 4128.00    1.04499   0.95603   10.041
 4129.00    1.06337   0.94922   10.248
 4130.00    1.07099   0.94657   10.472
 4131.00    1.06985   0.94990   10.586
 4132.00    1.07333   0.95987   10.545
 4133.00    1.08539   0.97546   10.377
 4134.00    1.10082   0.99407   10.173
 4135.00    1.11078   1.01213   10.080
 4136.00    1.10924   1.02603   10.171
 4137.00    1.10002   1.03259   10.305
 4138.00    1.08800   1.02947   10.295
 4139.00    1.06764   1.01668   10.184
 4140.00    1.03314   0.99770   10.109
 4141.00    0.99142   0.97871   10.110
 4142.00    0.95418   0.96636   10.173
 4143.00    0.92819   0.96449   10.302
 4144.00    0.91975   0.97184   10.475
 4145.00    0.93869   0.98338   10.597
 4146.00    0.98071   0.99355   10.579
 4147.00    1.01464   0.99910   10.438
 4148.00    1.02361   0.99972   10.262
 4149.00    1.03648   0.99686   10.145
 4150.00    1.07543   0.99220   10.101
 4151.00    1.11647   0.98702   10.030
 4152.00    1.13359   0.98244    9.970
 4153.00    1.13228   0.97992   10.212
 4154.00    1.13073   0.98087   10.783
 4155.00    1.14273   0.98584   11.040
 4156.00    1.16381   0.99415   10.658
 4157.00    1.16848   1.00426   10.329
 4158.00    1.14564   1.01436   10.466
 4159.00    1.11486   1.02308   10.784
 4160.00    1.09385   1.02986   10.898
 4161.00    1.08175   1.03444   10.720
 4162.00    1.07233   1.03647   10.428
 4163.00    1.06168   1.03582   10.291
 4164.00    1.04907   1.03284   10.373
 4165.00    1.03630   1.02805   10.512
 4166.00    1.02353   1.02152   10.667
 4167.00    1.00741   1.01257   10.981
 4168.00    0.98118   1.00032   11.217
 4169.00    0.94146   0.98494   10.768
 4170.00    0.91353   0.96852    9.979
 4171.00    0.94095   0.95459    9.769
 4172.00    1.01502   0.94614   10.268
 4173.00    1.07445   0.94396   10.876
 4174.00    1.08950   0.94666   11.066
 4175.00    1.07796   0.95209   10.850
 4176.00    1.06498   0.95869   10.407
 4177.00    1.06479   0.96589    9.916
 4178.00    1.06651   0.97344    9.671
 4179.00    1.04508   0.98064    9.944
 4180.00    0.99987   0.98673   10.611
 4181.00    0.95338   0.99115   11.108
 4182.00    0.92243   0.99373   11.057
 4183.00    0.91303   0.99466   10.639
 4184.00    0.92556   0.99438   10.297
 4185.00    0.95674   0.99376   10.325
 4186.00    1.00104   0.99442   10.469
 4187.00    1.04965   0.99797   10.280
 4188.00    1.08828   1.00490   10.028
 4189.00    1.10436   1.01395   10.234
 4190.00    1.10061   1.02264   10.759
 4191.00    1.08734   1.02803   11.007
 4192.00    1.06596   1.02750   10.816
 4193.00    1.03566   1.01983   10.488
 4194.00    1.00747   1.00626   10.277
 4195.00    0.99131   0.99011   10.299
 4196.00    0.97534   0.97524   10.556
 4197.00    0.94894   0.96461   10.923
 4198.00    0.93562   0.95937   11.099
 4199.00    0.95962   0.95895   10.888
 4200.00    1.00089   0.96225   10.583
 4201.00    1.02737   0.96849   10.511
 4202.00    1.03774   0.97730   10.621
 4203.00    1.04405   0.98820   10.725
 4204.00    1.04814   1.00021   10.768
 4205.00    1.04912   1.01185   10.791
 4206.00    1.05200   1.02173   10.841
 4207.00    1.05250   1.02908   10.753
 4208.00    1.02672   1.03382   10.106
 4209.00    0.97533   1.03595    9.194
 4210.00    0.95406   1.03519    9.038
 4211.00    0.99459   1.03131   10.080
 4212.00    1.04834   1.02504   11.474
 4213.00    1.07188   1.01879   11.694
 4214.00    1.08673   1.01601   11.151
 4215.00    1.11759   1.01901   10.811
 4216.00    1.15054   1.02705   10.698
 4217.00    1.16642   1.03641   10.692
 4218.00    1.16302   1.04209   10.909
 4219.00    1.14536   1.03977   11.332
 4220.00    1.11803   1.02715   11.580
 4221.00    1.08016   1.00469   11.425
 4222.00    1.02663   0.97593   11.127
 4223.00    0.96823   0.94721   10.943
 4224.00    0.93452   0.92628   10.914
 4225.00    0.93647   0.91967   10.959
 4226.00    0.95441   0.92934   10.956
 4227.00    0.96773   0.95112   10.950
 4228.00    0.96866   0.97651   11.156
 4229.00    0.96120   0.99673   11.540
 4230.00    0.95785   1.00672   11.715
 4231.00    0.96938   1.00678   11.515
 4232.00    0.99930   1.00097   11.195
 4233.00    1.03890   0.99410   11.018
 4234.00    1.07113   0.98961   11.094
 4235.00    1.08921   0.98901   11.294
 4236.00    1.09832   0.99238   11.326
 4237.00    1.10177   0.99924   11.205
 4238.00    1.10053   1.00894   11.212
 4239.00    1.10437   1.02040   11.361
 4240.00    1.12512   1.03193   11.409
 4241.00    1.15125   1.04136   11.297
 4242.00    1.15728   1.04650   11.177
 4243.00    1.14277   1.04576   11.124
 4244.00    1.12498   1.03903   11.107
 4245.00    1.10088   1.02798   11.064
 4246.00    1.05807   1.01543   10.966
 4247.00    1.01522   1.00412   10.920
 4248.00    1.00335   0.99593   11.016
 4249.00    1.01370   0.99154   11.025
 4250.00    1.01563   0.99068   10.713
 4251.00    1.00693   0.99254   10.479
 4252.00    1.00414   0.99631   10.814
 4253.00    1.01088   1.00111   11.508
 4254.00    1.01902   1.00555   11.860
 4255.00    1.01933   1.00784   11.680
 4256.00    1.01060   1.00680   11.328
 4257.00    1.00922   1.00336   11.093
 4258.00    1.02897   1.00084   11.067
 4259.00    1.05363   1.00331   11.157
 4260.00    1.05978   1.01290   11.220
 4261.00    1.04914   1.02805   11.247
 4262.00    1.03593   1.04410   11.287
 4263.00    1.02746   1.05556   11.335
 4264.00    1.02246   1.05845   11.363
 4265.00    1.01238   1.05147   11.377
 4266.00    0.99138   1.03582   11.396
 4267.00    0.96525   1.01426   11.427
 4268.00    0.94072   0.99036   11.476
 4269.00    0.91601   0.96825   11.551
 4270.00    0.89330   0.95196   11.643
 4271.00    0.88782   0.94452   11.702
 4272.00    0.90689   0.94706   11.679
 4273.00    0.93521   0.95853   11.559
 4274.00    0.96031   0.97596   11.318
 4275.00    0.98884   0.99512   10.918
 4276.00    1.01843   1.01162   10.471
 4277.00    1.02307   1.02222   10.238
 4278.00    0.99299   1.02588   10.393
 4279.00    0.95437   1.02382   10.941
 4280.00    0.92538   1.01850   -2.000
 4281.00    0.89528   1.01211   -2.000
 4282.00    0.86342   1.00550   -2.000
 4283.00    0.85495   0.99809   -2.000
 4284.00    0.88390   0.98865   -2.000
 4285.00    0.93730   0.97648   -2.000
 4286.00    0.99564   0.96256   -2.000
 4287.00    1.04403   0.94985   -2.000
 4288.00    1.07474   0.94221   -2.000
 4289.00    1.08707   0.94207   -2.000
 4290.00    1.08255   0.94859   -2.000
 4291.00    1.06403   0.95784   -2.000
 4292.00    1.03977   0.96483   -2.000
 4293.00    1.02116   0.96576   -2.000
 4294.00    1.00903   0.95908   -2.000
 4295.00    0.99454   0.94523   -2.000
 4296.00    0.97837   0.92619   10.927
 4297.00    0.96949   0.90524   10.976
 4298.00    0.96220   0.88631   11.133
 4299.00    0.93918   0.87284   11.289
 4300.00    0.90045   0.86637   11.410
 4301.00    0.86253   0.86598   11.570
 4302.00    0.83427   0.86887   11.698
 4303.00    0.81510   0.87182   11.626
 4304.00    0.80679   0.87288   11.422
 4305.00    0.81376   0.87245   11.318
 4306.00    0.83719   0.87299   11.387
 4307.00    0.87275   0.87745   11.534
 4308.00    0.90902   0.88735   11.560
 4309.00    0.93401   0.90188   11.346
 4310.00    0.94815   0.91898   11.176
 4311.00    0.96118   0.93707   11.404
 4312.00    0.98166   0.95608   11.905
 4313.00    1.01290   0.97658   12.223
 4314.00    1.04964   0.99797   12.181
 4315.00    1.08355   1.01766   11.952
 4316.00    1.11238   1.03197   11.794
 4317.00    1.13475   1.03804   11.818
 4318.00    1.14134   1.03489   11.802
 4319.00    1.12472   1.02319   11.545
 4320.00    1.09364   1.00450   11.328
 4321.00    1.06283   0.98118   11.470
 4322.00    1.03808   0.95698   11.846
 4323.00    1.01999   0.93716   12.157
 4324.00    1.01043   0.92683   12.354
 4325.00    1.01270   0.92810   12.458
 4326.00    1.03015   0.93854   12.297
 4327.00    1.05818   0.95235   11.854
 4328.00    1.07807   0.96350   11.528
 4329.00    1.07626   0.96838   11.551
 4330.00    1.06100   0.96604    0.000
 4331.00    1.04310   0.95638    0.000
 4332.00    1.01989   0.93845    0.000
 4333.00    0.99297   0.91034    0.000
 4334.00    0.98136   0.87093    0.000
 4335.00    1.00373   0.82208    0.000
 4336.00    1.06357   0.76985    0.000
 4337.00    1.14550   0.72348    0.000
 4338.00    1.21676   0.69245    0.000
 4339.00    1.24964   0.68313    0.000
 4340.00    1.23625   0.69639    0.000
 4341.00    1.18761   0.72775    0.000
 4342.00    1.12925   0.76964    0.000
 4343.00    1.08207   0.81436    0.000
 4344.00    1.05176   0.85594    0.000
 4345.00    1.03016   0.89043    0.000
 4346.00    1.00103   0.91539    0.000
 4347.00    0.96207   0.92980    0.000
 4348.00    0.92939   0.93479    0.000
 4349.00    0.90964   0.93428    0.000
 4350.00    0.89324   0.93406    0.000
 4351.00    0.87941   0.93932   12.285
 4352.00    0.88079   0.95208   12.528
 4353.00    0.90043   0.97036   12.497
 4354.00    0.92720   0.98980   12.254
 4355.00    0.95222   1.00644   11.995
 4356.00    0.97456   1.01880   11.911
 4357.00    0.99977   1.02815   11.916
 4358.00    1.03455   1.03714   11.754
 4359.00    1.07272   1.04770   11.557
 4360.00    1.09913   1.05979   11.708
 4361.00    1.11253   1.07140   12.158
 4362.00    1.12259   1.07964   12.430
 4363.00    1.12498   1.08219   12.368
 4364.00    1.10723   1.07838   12.216
 4365.00    1.07857   1.06971   12.028
 4366.00    1.06154   1.05918   11.721
 4367.00    1.05704   1.04977   11.471
 4368.00    1.05136   1.04277   11.535
 4369.00    1.04710   1.03740   11.852
 4370.00    1.05444   1.03186   12.152
 4371.00    1.06204   1.02537   12.355
 4372.00    1.05389   1.01946   12.545
 4373.00    1.04837   1.01720   12.676
 4374.00    1.07399   1.02093   12.604
 4375.00    1.11844   1.02985   12.287
 4376.00    1.15007   1.03965   11.834
 4377.00    1.16338   1.04427   11.480
 4378.00    1.16302   1.03870   11.443
 4379.00    1.13219   1.02135   11.830
 4380.00    1.05953   0.99508   12.579
 4381.00    0.97842   0.96645   13.234
 4382.00    0.92827   0.94346   13.337
 4383.00    0.90278   0.93217   13.303
 4384.00    0.89107   0.93409   13.370
 4385.00    0.92746   0.94623   12.429
 4386.00    1.02753   0.96320   10.507
 4387.00    1.12128   0.98028    9.375
 4388.00    1.14442   0.99487    9.573
 4389.00    1.12925   1.00629   10.337
 4390.00    1.12366   1.01481   10.704
 4391.00    1.11330   1.02113   11.069
 4392.00    1.07862   1.02627   12.105
 4393.00    1.04480   1.03143   13.128
 4394.00    1.03398   1.03706   13.055
 4395.00    1.02854   1.04224   12.458
 4396.00    1.01293   1.04510   12.141
 4397.00    1.00259   1.04423   12.070
 4398.00    1.00959   1.03985   12.078
 4399.00    1.02113   1.03329   12.221
 4400.00    1.02662   1.02588   12.523
 4401.00    1.03227   1.01829   12.816
 4402.00    1.03666   1.01114   13.013
 4403.00    1.02209   1.00567   13.247
 4404.00    0.99202   1.00370   13.360
 4405.00    0.98150   1.00666   12.812
 4406.00    1.00034   1.01483   11.921
 4407.00    1.01558   1.02704   11.683
 4408.00    1.01269   1.04073   12.284
 4409.00    1.01480   1.05220   12.920
 4410.00    1.03332   1.05768   12.998
 4411.00    1.05176   1.05504   12.927
 4412.00    1.05331   1.04539   13.067
 4413.00    1.03445   1.03322   13.304
 4414.00    1.01016   1.02450   13.325
 4415.00    1.00538   1.02363   12.887
 4416.00    1.01928   1.03112   12.225
 4417.00    1.02710   1.04359   11.827
 4418.00    1.02775   1.05595   11.850
 4419.00    1.04283   1.06424   12.160
 4420.00    1.06562   1.06738   12.530
 4421.00    1.06476   1.06697   12.736
 4422.00    1.03887   1.06543   12.858
 4423.00    1.01503   1.06437   13.082
 4424.00    1.00359   1.06401   12.886
 4425.00    0.99734   1.06367   11.728
 4426.00    0.99854   1.06261   10.687
 4427.00    1.01618   1.06039   10.841
 4428.00    1.04507   1.05691   11.860
 4429.00    1.06944   1.05217   12.342
 4430.00    1.08030   1.04639   12.056
 4431.00    1.07693   1.04036   12.046
 4432.00    1.06228   1.03595   12.498
 4433.00    1.04237   1.03575   12.864
 4434.00    1.02653   1.04162   12.705
 4435.00    1.02225   1.05288   12.049
 4436.00    1.02703   1.06570   11.329
 4437.00    1.03247   1.07465   10.908
 4438.00    1.03285   1.07574   10.788
 4439.00    1.02700   1.06883   10.831
 4440.00    1.01895   1.05805   10.953
 4441.00    1.01626   1.04950   11.127
 4442.00    1.02717   1.04792   11.375
 4443.00    1.05408   1.05423   11.665
 4444.00    1.08654   1.06554   11.775
 4445.00    1.11215   1.07724   11.589
 4446.00    1.12948   1.08551   11.431
 4447.00    1.14052   1.08857   11.523
 4448.00    1.14167   1.08643   11.509
 4449.00    1.13007   1.07981   11.172
 4450.00    1.11041   1.06939   11.071
 4451.00    1.08889   1.05594   11.624
 4452.00    1.06731   1.04084   12.382
 4453.00    1.04631   1.02630   12.655
 4454.00    1.02867   1.01454   12.562
 4455.00    1.01982   1.00675   12.463
 4456.00    1.02678   1.00270   12.305
 4457.00    1.04825   1.00141   12.035
 4458.00    1.07005   1.00221   11.856
 4459.00    1.08630   1.00526   11.825
 4460.00    1.11012   1.01094   11.688
 4461.00    1.14521   1.01885    0.000
 4462.00    1.17201   1.02729    0.000
 4463.00    1.18002   1.03386    0.000
 4464.00    1.18229   1.03665    0.000
 4465.00    1.18419   1.03541    0.000
 4466.00    1.17202   1.03180    0.000
 4467.00    1.14767   1.02886    0.000
 4468.00    1.13734   1.02989    0.000
 4469.00    1.14546   1.03709    0.000
 4470.00    1.14463   1.05065    0.000
 4471.00    1.13129   1.06859    0.000
 4472.00    1.13603   1.08746    0.000
 4473.00    1.16184   1.10355    0.000
 4474.00    1.17335   1.11364    0.000
 4475.00    1.15537   1.11555    0.000
 4476.00    1.12665   1.10857    0.000
 4477.00    1.10670   1.09428    0.000
 4478.00    1.10297   1.07692    0.000
 4479.00    1.10942   1.06261    0.000
 4480.00    1.11212   1.05684    0.000
 4481.00    1.10690   1.06169    0.000
 4482.00    1.10088   1.07454   12.483
 4483.00    1.10155   1.08939   12.449
 4484.00    1.11202   1.09993   12.024
 4485.00    1.12765   1.10256   11.635
 4486.00    1.14018   1.09778   11.842
 4487.00    1.14969   1.08922   12.481
 4488.00    1.16227   1.08126   12.785
 4489.00    1.17834   1.07653   12.549
 4490.00    1.19276   1.07509   12.252
 4491.00    1.20077   1.07542   12.195
 4492.00    1.20004   1.07632   12.392
 4493.00    1.19218   1.07802   12.616
 4494.00    1.18232   1.08168   12.588
 4495.00    1.17758   1.08803   12.398
 4496.00    1.18029   1.09651   12.300
 4497.00    1.17820   1.10581   12.272
 4498.00    1.15905   1.11508   12.182
 4499.00    1.13470   1.12463   12.116
 4500.00    1.12478   1.13522   12.192
 4501.00    1.12854   1.14669   12.271
 4502.00    1.13257   1.15739   12.193
 4503.00    1.12701   1.16489   12.154
 4504.00    1.11452   1.16779   12.355
 4505.00    1.11661   1.16654   12.549
 4506.00    1.14586   1.16301   12.414
 4507.00    1.17610   1.15904   12.124
 4508.00    1.18151   1.15514   11.956
 4509.00    1.17859   1.15056   11.886
 4510.00    1.18830   1.14429   11.848
 4511.00    1.19702   1.13622   11.958
 4512.00    1.18980   1.12746   12.222
 4513.00    1.18132   1.11977   12.256
 4514.00    1.18499   1.11456   11.920
 4515.00    1.18684   1.11225   11.758
 4516.00    1.17104   1.11223   12.090
 4517.00    1.14109   1.11314   12.467
 4518.00    1.11072   1.11326   12.441
 4519.00    1.09429   1.11103   12.283
 4520.00    1.09498   1.10541   12.228
 4521.00    1.09986   1.09619   12.035
 4522.00    1.09910   1.08389   11.763
 4523.00    1.09650   1.06950   11.983
 4524.00    1.09573   1.05437   12.447
 4525.00    1.09297   1.04019   11.586
 4526.00    1.08425   1.02886    9.784
 4527.00    1.07056   1.02182    8.835
 4528.00    1.06139   1.01941    8.907
 4529.00    1.07028   1.02061    9.186
 4530.00    1.08592   1.02389    9.161
 4531.00    1.07305   1.02846    9.148
 4532.00    1.03766   1.03506    9.307
 4533.00    1.03504   1.04512    9.327
 4534.00    1.08323   1.05909    9.124
 4535.00    1.14384   1.07519    8.993
 4536.00    1.18821   1.08998    9.014
 4537.00    1.21379   1.10026    8.991
 4538.00    1.20976   1.10498    8.895
 4539.00    1.16242   1.10534    8.896
 4540.00    1.11199   1.10349    8.987
 4541.00    1.12901   1.10093    8.981
 4542.00    1.18880   1.09793    8.889
 4543.00    1.19169   1.09393    8.918
 4544.00    1.12566   1.08839    9.123
 4545.00    1.06554   1.08130    9.376
 4546.00    1.04955   1.07340    9.525
 4547.00    1.06497   1.06592    9.492
 4548.00    1.09385   1.06001    9.368
 4549.00    1.12059   1.05609    9.311
 4550.00    1.12343   1.05396    0.000
 4551.00    1.08871   1.05339    0.000
 4552.00    1.04286   1.05499    0.000
 4553.00    1.03029   1.06002    0.000
 4554.00    1.05860   1.06945    0.000
 4555.00    1.10293   1.08275    0.000
 4556.00    1.13343   1.09772    0.000
 4557.00    1.13287   1.11122    0.000
 4558.00    1.11626   1.12043    0.000
 4559.00    1.11139   1.12378    0.000
 4560.00    1.12439   1.12154    0.000
 4561.00    1.14525   1.11578    0.000
 4562.00    1.16329   1.10981    0.000
 4563.00    1.16635   1.10686    0.000
 4564.00    1.13861   1.10849    0.000
 4565.00    1.08368   1.11380    0.000
 4566.00    1.04934   1.12000    0.000
 4567.00    1.07101   1.12413    0.000
 4568.00    1.10894   1.12493    0.000
 4569.00    1.11679   1.12335    0.000
 4570.00    1.11711   1.12162    0.000
 4571.00    1.14221   1.12149    0.000
 4572.00    1.17211   1.12304    0.000
 4573.00    1.17989   1.12471    0.000
 4574.00    1.17558   1.12436    0.000
 4575.00    1.17246   1.12041    0.000
 4576.00    1.15888   1.11255    0.000
 4577.00    1.13322   1.10180    0.000
 4578.00    1.12674   1.09012    0.000
 4579.00    1.14731   1.07975    0.000
 4580.00    1.14741   1.07250    0.000
 4581.00    1.10455   1.06939    0.000
 4582.00    1.06616   1.07055    0.000
 4583.00    1.06550   1.07543    0.000
 4584.00    1.07637   1.08284    0.000
 4585.00    1.08086   1.09113    0.000
 4586.00    1.10224   1.09833    0.000
 4587.00    1.15178   1.10272    0.000
 4588.00    1.20394   1.10347    0.000
 4589.00    1.22829   1.10101    0.000
 4590.00    1.21067   1.09681    0.000
 4591.00    1.17076   1.09271    0.000
 4592.00    1.15473   1.09007    0.000
 4593.00    1.16879   1.08942    0.000
 4594.00    1.16935   1.09046    0.000
 4595.00    1.14420   1.09242    0.000
 4596.00    1.12804   1.09439    0.000
 4597.00    1.13221   1.09577    0.000
 4598.00    1.13096   1.09644    0.000
 4599.00    1.10979   1.09683    0.000
 4600.00    1.07860   1.09769    0.000
 4601.00    1.05618   1.09977    0.000
 4602.00    1.05906   1.10367    0.000
 4603.00    1.08452   1.10978    0.000
 4604.00    1.11538   1.11815    0.000
 4605.00    1.14710   1.12811    0.000
 4606.00    1.18432   1.13814    0.000
 4607.00    1.21243   1.14627    0.000
 4608.00    1.20985   1.15092    0.000
 4609.00    1.19446   1.15174    0.000
 4610.00    1.20531   1.14970    0.000
 4611.00    1.23793   1.14641    0.000
 4612.00    1.25601   1.14320    0.000
 4613.00    1.24552   1.14056    0.000
 4614.00    1.21720   1.13830    0.000
 4615.00    1.18893   1.13622    0.000
 4616.00    1.17492   1.13459    0.000
 4617.00    1.17334   1.13417    0.000
 4618.00    1.17346   1.13563    0.000
 4619.00    1.17074   1.13892    0.000
 4620.00    1.16425   1.14303    0.000
 4621.00    1.14912   1.14646    0.000
 4622.00    1.12349   1.14798    0.000
 4623.00    1.09924   1.14718    0.000
 4624.00    1.08836   1.14451    0.000
 4625.00    1.08421   1.14096    0.000
 4626.00    1.07835   1.13756    0.000
 4627.00    1.08272   1.13503    0.000
 4628.00    1.10951   1.13342    0.000
 4629.00    1.14635   1.13212    0.000
 4630.00    1.17313   1.13017    0.000
 4631.00    1.18215   1.12685    0.000
 4632.00    1.16926   1.12212    0.000
 4633.00    1.12558   1.11658    0.000
 4634.00    1.06200   1.11108    0.000
 4635.00    1.02653   1.10639    0.000
 4636.00    1.04721   1.10314    0.000
 4637.00    1.08882   1.10170    0.000
 4638.00    1.11260   1.10195    0.000
 4639.00    1.12283   1.10296    0.000
 4640.00    1.13307   1.10305    0.000
 4641.00    1.13951   1.10040    0.000
 4642.00    1.12792   1.09400    0.000
 4643.00    1.08365   1.08443    0.000
 4644.00    1.01727   1.07404    0.000
 4645.00    0.97189   1.06602    0.000
 4646.00    0.96995   1.06307    0.000
 4647.00    0.98877   1.06615    0.000
 4648.00    1.00532   1.07397    0.000
 4649.00    1.01924   1.08370    0.000
 4650.00    1.03830   1.09226    0.000
 4651.00    1.06785   1.09780    0.000
 4652.00    1.10020   1.10053    0.000
 4653.00    1.11746   1.10246    0.000
 4654.00    1.12531   1.10620    0.000
 4655.00    1.15328   1.11328    0.000
 4656.00    1.19530   1.12299    0.000
 4657.00    1.20671   1.13255    0.000
 4658.00    1.18559   1.13836    0.000
 4659.00    1.17894   1.13777    0.000
 4660.00    1.19452   1.13001    0.000
 4661.00    1.19152   1.11611    0.000
 4662.00    1.15282   1.09814    0.000
 4663.00    1.09944   1.07871    0.000
 4664.00    1.06039   1.06075    0.000
 4665.00    1.05488   1.04745    0.000
 4666.00    1.07053   1.04150    0.000
 4667.00    1.07586   1.04404    0.000
 4668.00    1.06729   1.05384    0.000
 4669.00    1.06490   1.06789    0.000
 4670.00    1.07282   1.08270    0.000
 4671.00    1.08141   1.09562    0.000
 4672.00    1.09312   1.10543    0.000
 4673.00    1.11556   1.11181    0.000
 4674.00    1.13588   1.11472    0.000
 4675.00    1.13584   1.11423    0.000
 4676.00    1.12980   1.11084    0.000
 4677.00    1.14337   1.10578    0.000
 4678.00    1.16390   1.10091    0.000
 4679.00    1.15827   1.09797    0.000
 4680.00    1.11681   1.09785    0.000
 4681.00    1.06007   1.10026    0.000
 4682.00    1.03548   1.10397    0.000
 4683.00    1.07472   1.10757    0.000
 4684.00    1.13741   1.11004    0.000
 4685.00    1.16246   1.11101    0.000
 4686.00    1.14445   1.11076    0.000
 4687.00    1.10941   1.10987    0.000
 4688.00    1.07291   1.10913    0.000
 4689.00    1.04209   1.10927    0.000
 4690.00    1.02359   1.11073    0.000
 4691.00    1.02309   1.11336    0.000
 4692.00    1.04343   1.11616    0.000
 4693.00    1.07998   1.11752    0.000
 4694.00    1.11680   1.11589    0.000
 4695.00    1.13272   1.11055    0.000
 4696.00    1.10958   1.10206    0.000
 4697.00    1.05261   1.09202    0.000
 4698.00    1.00217   1.08233    0.000
 4699.00    0.98952   1.07454    0.000
 4700.00    1.00402   1.06942    0.000
 4701.00    1.02015   1.06699    0.000
 4702.00    1.02092   1.06665    0.000
 4703.00    1.00944   1.06746    0.000
 4704.00    1.01030   1.06860    0.000
 4705.00    1.03313   1.06979    0.000
 4706.00    1.05572   1.07144    0.000
 4707.00    1.06453   1.07418    0.000
 4708.00    1.07353   1.07811    0.000
 4709.00    1.09058   1.08265    0.000
 4710.00    1.10328   1.08698    0.000
 4711.00    1.10583   1.09087    0.000
 4712.00    1.10847   1.09513    0.000
 4713.00    1.11485   1.10105    0.000
 4714.00    1.11599   1.10941    0.000
 4715.00    1.11244   1.11985    0.000
 4716.00    1.11967   1.13094    0.000
 4717.00    1.14910   1.14089    0.000
 4718.00    1.19784   1.14841    0.000
 4719.00    1.24089   1.15302    0.000
 4720.00    1.24316   1.15478    0.000
 4721.00    1.20980   1.15383    0.000
 4722.00    1.18240   1.14989    0.000
 4723.00    1.16987   1.14242    0.000
 4724.00    1.14609   1.13132    0.000
 4725.00    1.11145   1.11760    0.000
 4726.00    1.09206   1.10353    0.000
 4727.00    1.08573   1.09189    0.000
 4728.00    1.06775   1.08490    0.000
 4729.00    1.04452   1.08334    0.000
 4730.00    1.04374   1.08639    0.000
 4731.00    1.05821   1.09215    0.000
 4732.00    1.05677   1.09861    0.000
 4733.00    1.03822   1.10438    0.000
 4734.00    1.02502   1.10902    0.000
 4735.00    1.02559   1.11284    0.000
 4736.00    1.03415   1.11632    0.000
 4737.00    1.04560   1.11965    0.000
 4738.00    1.05910   1.12280    0.000
 4739.00    1.07872   1.12571    0.000
 4740.00    1.10674   1.12843    0.000
 4741.00    1.13279   1.13113    0.000
 4742.00    1.14262   1.13392    0.000
 4743.00    1.13403   1.13674    0.000
 4744.00    1.11648   1.13936    0.000
 4745.00    1.10631   1.14141    0.000
 4746.00    1.11456   1.14245    0.000
 4747.00    1.13281   1.14198    0.000
 4748.00    1.14717   1.13962    0.000
 4749.00    1.15718   1.13531    0.000
 4750.00    1.16786   1.12944    0.000
 4751.00    1.17807   1.12291    0.000
 4752.00    1.18041   1.11696    0.000
 4753.00    1.16358   1.11267    0.000
 4754.00    1.12540   1.11059    0.000
 4755.00    1.08394   1.11036    0.000
 4756.00    1.06200   1.11066    0.000
 4757.00    1.07117   1.10974    0.000
 4758.00    1.10485   1.10601    0.000
 4759.00    1.13589   1.09892    0.000
 4760.00    1.13715   1.08928    0.000
 4761.00    1.09915   1.07909   10.912
 4762.00    1.03736   1.07083   11.086
 4763.00    0.99114   1.06658   11.317
 4764.00    0.98492   1.06733   11.441
 4765.00    1.00564   1.07265   11.339
 4766.00    1.03147   1.08096   11.084
 4767.00    1.05160   1.09024   10.931
 4768.00    1.06808   1.09883   10.982
 4769.00    1.09300   1.10607   11.081
 4770.00    1.12991   1.11224   11.110
 4771.00    1.16631   1.11803   11.123
 4772.00    1.18790   1.12375   11.149
 4773.00    1.18740   1.12903   11.112
 4774.00    1.17031   1.13304   11.025
 4775.00    1.15356   1.13496   11.020
 4776.00    1.14893   1.13438   11.135
 4777.00    1.15651   1.13140   11.263
 4778.00    1.16895   1.12655   11.338
 4779.00    1.17650   1.12055   11.385
 4780.00    1.17885   1.11415   11.384
 4781.00    1.18275   1.10797   11.275
 4782.00    1.17886   1.10252   11.181
 4783.00    1.14630   1.09813   11.331
 4784.00    1.09280   1.09511   11.640
 4785.00    1.05274   1.09376   11.732
 4786.00    1.04189   1.09445   11.593
 4787.00    1.05153   1.09758   11.569
 4788.00    1.07086   1.10340   11.707
 4789.00    1.09283   1.11176   11.762
 4790.00    1.11236   1.12188   11.681
 4791.00    1.12547   1.13221   11.620
 4792.00    1.12856   1.14074   11.643
 4793.00    1.11960   1.14563   11.705
 4794.00    1.10138   1.14599   11.773
 4795.00    1.08244   1.14236   11.819
 4796.00    1.07734   1.13657   11.780
 4797.00    1.09733   1.13096   11.605
 4798.00    1.13332   1.12724   11.361
 4799.00    1.16391   1.12577   11.179
 4800.00    1.17550   1.12556   11.137
 4801.00    1.16632   1.12506   11.236
 4802.00    1.14663   1.12317   11.345
 4803.00    1.12912   1.11985   11.356
 4804.00    1.11461   1.11598   11.434
 4805.00    1.09576   1.11281   11.758
 4806.00    1.06580   1.11122   12.104
 4807.00    1.02761   1.11145   12.126
 4808.00    1.00281   1.11321   11.978
 4809.00    1.01395   1.11604   11.941
 4810.00    1.06142   1.11960   11.900
 4811.00    1.12394   1.12378   11.681
 4812.00    1.16466   1.12857   11.456
 4813.00    1.16025   1.13384   11.443
 4814.00    1.12869   1.13913   11.630
 4815.00    1.10323   1.14355   11.874
 4816.00    1.10335   1.14595   12.012
 4817.00    1.12989   1.14520   11.976
 4818.00    1.16461   1.14061   11.886
 4819.00    1.18604   1.13244   11.854
 4820.00    1.18354   1.12216   11.838
 4821.00    1.16126   1.11204   11.773
 4822.00    1.13739   1.10431   11.683
 4823.00    1.12168   1.10016   11.653
 4824.00    1.10300   1.09924   11.781
 4825.00    1.07889   1.10010   12.021
 4826.00    1.07104   1.10102   12.107
 4827.00    1.08947   1.10097   11.971
 4828.00    1.11417   1.09989   11.933
 4829.00    1.12605   1.09845   12.130
 4830.00    1.12368   1.09744   12.269
 4831.00    1.10997   1.09727   12.144
 4832.00    1.08602   1.09767   11.919
 4833.00    1.06044   1.09786   11.794
 4834.00    1.04970   1.09691   11.838
 4835.00    1.05722   1.09429   11.972
 4836.00    1.06741   1.09009   12.007
 4837.00    1.06334   1.08504   11.939
 4838.00    1.03774   1.08015   11.990
 4839.00    1.00439   1.07632   12.230
 4840.00    0.99181   1.07395   12.491
 4841.00    1.00354   1.07275   12.633
 4842.00    1.01559   1.07186   12.654
 4843.00    1.01951   1.07018   12.614
 4844.00    1.02833   1.06686   12.572
 4845.00    1.04594   1.06168   12.522
 4846.00    1.06104   1.05505   12.415
 4847.00    1.05989   1.04748   12.303
 4848.00    1.03565   1.03894    0.000
 4849.00    1.00252   1.02862    0.000
 4850.00    0.98496   1.01529    0.000
 4851.00    0.98107   0.99799    0.000
 4852.00    0.97120   0.97651    0.000
 4853.00    0.96066   0.95125    0.000
 4854.00    0.97949   0.92266    0.000
 4855.00    1.05871   0.89111    0.000
 4856.00    1.21390   0.85747    0.000
 4857.00    1.42332   0.82420    0.000
 4858.00    1.63274   0.79571    0.000
 4859.00    1.77409   0.77744    0.000
 4860.00    1.79380   0.77363    0.000
 4861.00    1.69503   0.78544    0.000
 4862.00    1.52584   0.81022    0.000
 4863.00    1.34646   0.84249    0.000
 4864.00    1.20396   0.87597    0.000
 4865.00    1.10344   0.90535    0.000
 4866.00    1.02929   0.92754    0.000
 4867.00    0.98045   0.94200    0.000
 4868.00    0.96003   0.95047    0.000
 4869.00    0.95624   0.95605    0.000
 4870.00    0.95366   0.96197    0.000
 4871.00    0.95004   0.97047    0.000
 4872.00    0.95446   0.98227    0.000
 4873.00    0.98130   0.99670    0.000
 4874.00    1.02809   1.01237    0.000
 4875.00    1.05737   1.02770   11.581
 4876.00    1.04509   1.04116   11.814
 4877.00    1.02460   1.05149   12.162
 4878.00    1.03119   1.05776   12.250
 4879.00    1.05183   1.05969   12.140
 4880.00    1.06213   1.05772   12.006
 4881.00    1.05978   1.05298   11.816
 4882.00    1.04974   1.04687   11.607
 4883.00    1.03199   1.04067   11.632
 4884.00    1.01234   1.03522   11.929
 4885.00    1.00779   1.03088   12.057
 4886.00    1.02300   1.02793   11.783
 4887.00    1.03860   1.02711   11.518
 4888.00    1.04161   1.02985   11.548
 4889.00    1.04198   1.03775   11.697
 4890.00    1.05213   1.05159   11.740
 4891.00    1.07342   1.07042   11.642
 4892.00    1.09248   1.09142   11.472
 4893.00    1.08712   1.11086   11.327
 4894.00    1.06441   1.12530   11.235
 4895.00    1.06537   1.13289   11.150
 4896.00    1.09608   1.13375   11.069
 4897.00    1.11284   1.12975   11.051
 4898.00    1.10044   1.12356   11.054
 4899.00    1.09050   1.11774   10.942
 4900.00    1.09417   1.11405   10.738
 4901.00    1.08881   1.11313   10.636
 4902.00    1.07261   1.11439   10.696
 4903.00    1.07068   1.11623   10.819
 4904.00    1.08410   1.11670   10.943
 4905.00    1.08621   1.11439   11.086
 4906.00    1.06868   1.10914   11.247
 4907.00    1.04885   1.10238   11.377
 4908.00    1.04613   1.09653   11.428
 4909.00    1.06832   1.09376   11.386
 4910.00    1.09550   1.09481   11.327
 4911.00    1.09425   1.09836   11.375
 4912.00    1.06433   1.10135   11.579
 4913.00    1.03384   1.10015   11.874
 4914.00    1.01932   1.09207   12.071
 4915.00    1.01985   1.07668   11.994
 4916.00    1.02598   1.05622   11.827
 4917.00    1.02712   1.03495   11.880
 4918.00    1.02202   1.01768   12.059
 4919.00    1.01354   1.00820   12.071
 4920.00    0.99550   1.00807   12.055
 4921.00    0.96508   1.01688   12.315
 4922.00    0.94778   1.03274   12.647
 4923.00    0.97237   1.05309   12.600
 4924.00    1.02459   1.07517   12.301
 4925.00    1.06835   1.09621   12.161
 4926.00    1.08884   1.11357   12.267
 4927.00    1.08981   1.12513   12.489
 4928.00    1.08030   1.12980   12.678
 4929.00    1.07132   1.12767   12.737
 4930.00    1.07340   1.12012   12.703
 4931.00    1.08796   1.10930   12.651
 4932.00    1.09875   1.09748   12.575
 4933.00    1.09071   1.08642   12.493
 4934.00    1.07151   1.07735   12.557
 4935.00    1.05999   1.07122   12.826
 4936.00    1.07062   1.06912   13.014
 4937.00    1.10387   1.07194   12.890
 4938.00    1.14029   1.07972   12.707
 4939.00    1.16071   1.09127   12.711
 4940.00    1.16402   1.10448    0.000
 4941.00    1.15640   1.11698    0.000
 4942.00    1.14141   1.12714    0.000
 4943.00    1.12450   1.13449    0.000
 4944.00    1.11527   1.13963    0.000
 4945.00    1.11380   1.14346    0.000
 4946.00    1.10473   1.14654    0.000
 4947.00    1.08718   1.14877    0.000
 4948.00    1.08805   1.14949    0.000
 4949.00    1.11350   1.14766    0.000
 4950.00    1.12831   1.14218    0.000
 4951.00    1.11906   1.13243    0.000
 4952.00    1.12019   1.11897    0.000
 4953.00    1.14647   1.10361    0.000
 4954.00    1.16641   1.08923    0.000
 4955.00    1.15969   1.07913    0.000
 4956.00    1.14056   1.07584    0.000
 4957.00    1.12629   1.07977    0.000
 4958.00    1.12188   1.08890    0.000
 4959.00    1.12214   1.09960    0.000
 4960.00    1.11621   1.10821    0.000
 4961.00    1.10056   1.11238    0.000
 4962.00    1.08197   1.11163    0.000
 4963.00    1.06856   1.10727    0.000
 4964.00    1.06548   1.10159    0.000
 4965.00    1.07222   1.09690    0.000
 4966.00    1.08255   1.09490    0.000
 4967.00    1.08761   1.09628    0.000
 4968.00    1.08063   1.10084    0.000
 4969.00    1.06788   1.10760    0.000
 4970.00    1.06386   1.11508    0.000
 4971.00    1.06978   1.12159    0.000
 4972.00    1.07492   1.12549    0.000
 4973.00    1.07511   1.12558    0.000
 4974.00    1.07297   1.12118    0.000
 4975.00    1.06709   1.11208    0.000
 4976.00    1.05416   1.09853    0.000
 4977.00    1.03939   1.08155    0.000
 4978.00    1.03074   1.06285    0.000
 4979.00    1.02333   1.04477    0.000
 4980.00    1.00735   1.03018    0.000
 4981.00    0.98864   1.02174    0.000
 4982.00    0.98235   1.02090    0.000
 4983.00    0.99515   1.02729    0.000
 4984.00    1.02284   1.03875    0.000
 4985.00    1.05217   1.05207    0.000
 4986.00    1.06997   1.06426    0.000
 4987.00    1.07606   1.07331    0.000
 4988.00    1.07891   1.07872    0.000
 4989.00    1.08627   1.08149    0.000
 4990.00    1.09548   1.08299    0.000
 4991.00    1.08471   1.08428    0.000
 4992.00    1.04210   1.08561    0.000
 4993.00    0.99913   1.08626    0.000
 4994.00    0.99006   1.08504    0.000
 4995.00    1.00435   1.08093    0.000
 4996.00    1.01835   1.07369    0.000
 4997.00    1.03227   1.06407    0.000
 4998.00    1.05071   1.05337    0.000
 4999.00    1.06228   1.04285    0.000
 5000.00    1.05939   1.03344    0.000
 5001.00    1.05610   1.02592    0.000
 5002.00    1.07055   1.02092    0.000
 5003.00    1.10844   1.01884    0.000
 5004.00    1.15934   1.01978    0.000
 5005.00    1.19750   1.02318    0.000
 5006.00    1.20141   1.02745    0.000
 5007.00    1.16825   1.03035    0.000
 5008.00    1.11359   1.02990    0.000
 5009.00    1.06694   1.02537    0.000
 5010.00    1.04895   1.01763    0.000
 5011.00    1.05836   1.00853    0.000
 5012.00    1.08059   1.00018    0.000
 5013.00    1.09488   0.99435    0.000
 5014.00    1.08297   0.99201    0.000
 5015.00    1.03729   0.99309    0.000
 5016.00    0.97773   0.99690    0.000
 5017.00    0.94836   1.00274    0.000
 5018.00    0.96364   1.01015    0.000
 5019.00    0.99390   1.01858    0.000
 5020.00    1.01287   1.02732    0.000
 5021.00    1.01554   1.03557    0.000
 5022.00    1.00361   1.04259    0.000
 5023.00    0.98129   1.04824    0.000
 5024.00    0.96249   1.05284    0.000
 5025.00    0.96644   1.05702    0.000
 5026.00    0.99386   1.06172    0.000
 5027.00    1.02558   1.06763    0.000
 5028.00    1.04495   1.07447    0.000
 5029.00    1.04633   1.08083   13.255
 5030.00    1.03790   1.08477   13.637
 5031.00    1.03300   1.08480   13.726
 5032.00    1.02518   1.08037   13.556
 5033.00    0.99738   1.07145   13.604
 5034.00    0.96206   1.05871   13.855
 5035.00    0.95081   1.04344   13.899
 5036.00    0.96659   1.02775   13.748
 5037.00    0.98687   1.01464   13.753
 5038.00    0.99564   1.00699   13.958
 5039.00    0.99006   1.00673   14.143
 5040.00    0.97866   1.01446   14.169
 5041.00    0.97274   1.02853   14.058
 5042.00    0.97144   1.04513   13.944
 5043.00    0.96699   1.05975   13.954
 5044.00    0.95887   1.06898   14.059
 5045.00    0.95447   1.07152   14.135
 5046.00    0.96566   1.06832   14.103
 5047.00    0.99696   1.06223   13.990
 5048.00    1.02995   1.05680   13.957
 5049.00    1.04310   1.05467   14.111
 5050.00    1.04152   1.05688   14.254
 5051.00    1.04065   1.06304   14.151
 5052.00    1.04044   1.07192   13.953
 5053.00    1.03610   1.08198   13.926
 5054.00    1.03423   1.09181   14.102
 5055.00    1.04282   1.10060   14.327
 5056.00    1.05872   1.10786   14.343
 5057.00    1.07716   1.11293   14.041
 5058.00    1.10184   1.11482   13.674
 5059.00    1.13051   1.11252   13.532
 5060.00    1.14242   1.10597   13.695
 5061.00    1.12327   1.09631   14.046
 5062.00    1.08692   1.08501   14.246
 5063.00    1.05833   1.07384   14.081
 5064.00    1.05607   1.06478   13.774
 5065.00    1.07942   1.05898   13.577
 5066.00    1.10329   1.05607   13.496
 5067.00    1.10786   1.05499   13.451
 5068.00    1.09822   1.05506   13.390
 5069.00    1.08721   1.05549   13.325
 5070.00    1.08244   1.05549   13.334
 5071.00    1.08366   1.05490   13.428
 5072.00    1.08299   1.05364   13.500
 5073.00    1.07309   1.05082   13.483
 5074.00    1.05158   1.04532   13.450
 5075.00    1.01846   1.03733   13.526
 5076.00    0.97655   1.02815   13.810
 5077.00    0.94087   1.01935   14.179
 5078.00    0.93607   1.01266   14.262
 5079.00    0.96276   1.00984   14.059
 5080.00    0.99169   1.01182   14.056
 5081.00    1.00653   1.01804   14.376
 5082.00    1.01685   1.02704   14.600
 5083.00    1.03378   1.03730   14.494
 5084.00    1.05935   1.04756   14.281
 5085.00    1.08527   1.05687   14.192
 5086.00    1.09805   1.06494   14.287
 5087.00    1.09698   1.07200   14.416
 5088.00    1.09375   1.07822   14.313
 5089.00    1.09177   1.08321   14.033
 5090.00    1.08532   1.08607   13.879
 5091.00    1.07696   1.08577   13.847
 5092.00    1.07528   1.08145   13.713
 5093.00    1.07482   1.07298   13.583
 5094.00    1.06166   1.06143   13.780
 5095.00    1.04092   1.04927   14.240
 5096.00    1.02974   1.03936   14.547
 5097.00    1.02453   1.03359   14.542
 5098.00    1.00854   1.03241   14.429
 5099.00    0.98458   1.03494   14.471
 5100.00    0.97043   1.03933   14.778
 5101.00    0.97482   1.04340   15.013
 5102.00    0.99560   1.04533   14.707
 5103.00    1.02572   1.04452   14.113
 5104.00    1.05458   1.04163   13.780
 5105.00    1.06887   1.03789   13.825
 5106.00    1.06161   1.03502   14.075
 5107.00    1.04580   1.03457   14.255
 5108.00    1.03981   1.03709   14.182
 5109.00    1.04290   1.04245   14.040
 5110.00    1.04373   1.04998   14.062
 5111.00    1.03747   1.05868   14.090
 5112.00    1.02731   1.06757   13.926
 5113.00    1.02290   1.07558   13.814
 5114.00    1.03060   1.08148   13.974
 5115.00    1.04301   1.08419   14.049
 5116.00    1.05130   1.08299   13.710
 5117.00    1.05910   1.07757   13.389
 5118.00    1.06675   1.06806   13.546
 5119.00    1.05612   1.05546   14.077
 5120.00    1.01990   1.04165   14.622
 5121.00    0.98721   1.02860   14.933
 5122.00    0.98127   1.01774   14.950
 5123.00    0.98357   1.00984   14.816
 5124.00    0.97439   1.00514   14.700
 5125.00    0.96589   1.00357   14.669
 5126.00    0.97306   1.00493   14.693
 5127.00    0.99063   1.00872   14.678
 5128.00    1.00658   1.01413   14.594
 5129.00    1.01362   1.02054   14.548
 5130.00    1.01272   1.02743   14.595
 5131.00    1.01335   1.03372   14.643
 5132.00    1.02339   1.03788   14.622
 5133.00    1.04278   1.03900   14.569
 5134.00    1.06406   1.03706   14.478
 5135.00    1.07487   1.03291   14.254
 5136.00    1.06818   1.02802   14.012
 5137.00    1.04760   1.02310   14.083
 5138.00    1.02613   1.01855   14.479
 5139.00    1.02054   1.01542   14.732
 5140.00    1.02971   1.01395   14.605
 5141.00    1.03251   1.01318   14.411
 5142.00    1.02230   1.01251   14.438
 5143.00    1.01453   1.01195   14.724
 5144.00    1.01696   1.01162   15.036
 5145.00    1.02060   1.01153   14.978
 5146.00    1.01182   1.01120   14.627
 5147.00    0.98284   1.01039   14.483
 5148.00    0.95060   1.00930   14.616
 5149.00    0.94848   1.00825   14.645
 5150.00    0.98074   1.00811   14.409
 5151.00    1.01932   1.01023   14.104
 5152.00    1.03798   1.01540   13.948
 5153.00    1.02582   1.02348   14.049
 5154.00    0.99458   1.03334   14.298
 5155.00    0.97072   1.04327   14.441
 5156.00    0.97077   1.05147   14.443
 5157.00    0.99525   1.05600   14.461
 5158.00    1.02989   1.05534   14.516
 5159.00    1.05209   1.04902   14.520
 5160.00    1.04437   1.03655   14.512
 5161.00    1.00432   1.01735   14.599
 5162.00    0.95744   0.99200   14.733
 5163.00    0.93503   0.96285   14.781
 5164.00    0.92945   0.93405   14.748
 5165.00    0.91267   0.90983   14.759
 5166.00    0.88227   0.89219   14.941
 5167.00    0.85472   0.88064   15.279
 5168.00    0.84132   0.87495   15.395
 5169.00    0.84376   0.87667   14.986
 5170.00    0.85380   0.88678   14.528
 5171.00    0.86411   0.90383   14.524
 5172.00    0.88209   0.92520   14.695
 5173.00    0.91401   0.94833   14.588
 5174.00    0.94353   0.97008   14.472
 5175.00    0.95270   0.98681   14.759
 5176.00    0.94899   0.99558   15.244
 5177.00    0.94658   0.99481   15.497
 5178.00    0.94310   0.98442   15.516
 5179.00    0.93277   0.96704   15.493
 5180.00    0.92172   0.94901   15.431
 5181.00    0.91804   0.93696   15.318
 5182.00    0.92121   0.93388   15.297
 5183.00    0.92808   0.93949   15.400
 5184.00    0.93874   0.95162   15.356
 5185.00    0.95355   0.96728   15.189
 5186.00    0.97005   0.98243   15.534
 5187.00    0.98205   0.99255   16.092
 5188.00    0.98055   0.99647   14.686
 5189.00    0.96494   0.99658   11.902
 5190.00    0.94951   0.99505    0.000
 5191.00    0.95248   0.99336    0.000
 5192.00    0.98556   0.99369    0.000
 5193.00    1.03813   0.99731    0.000
 5194.00    1.07492   1.00392    0.000
 5195.00    1.07848   1.01244    0.000
 5196.00    1.06772   1.02096    0.000
 5197.00    1.06195   1.02740    0.000
 5198.00    1.06264   1.03007    0.000
 5199.00    1.06383   1.02779    0.000
 5200.00    1.05829   1.01973    0.000
 5201.00    1.04025   1.00661    0.000
 5202.00    1.00754   0.99136    0.000
 5203.00    0.96580   0.97691    0.000
 5204.00    0.92822   0.96516    0.000
 5205.00    0.90749   0.95870    0.000
 5206.00    0.91119   0.95946    0.000
 5207.00    0.93759   0.96727    0.000
 5208.00    0.97574   0.98075    0.000
 5209.00    1.01102   0.99716    0.000
 5210.00    1.03098   1.01302    0.000
 5211.00    1.03682   1.02561   15.200
 5212.00    1.04094   1.03445   14.982
 5213.00    1.04917   1.04092   14.591
 5214.00    1.05880   1.04670   14.405
 5215.00    1.06775   1.05274   14.450
 5216.00    1.07516   1.05907   14.484
 5217.00    1.07649   1.06490   14.481
 5218.00    1.06671   1.06842   14.589
 5219.00    1.05046   1.06737   14.754
 5220.00    1.03655   1.06026   14.779
 5221.00    1.02151   1.04704   14.705
 5222.00    0.99660   1.02946   14.736
 5223.00    0.96853   1.01185   14.930
 5224.00    0.95452   0.99968   15.167
 5225.00    0.96479   0.99535   15.184
 5226.00    0.99655   0.99801   14.853
 5227.00    1.03025   1.00558   14.575
 5228.00    1.04500   1.01462   14.747
 5229.00    1.04359   1.02231   15.029
 5230.00    1.03939   1.02828   14.885
 5231.00    1.03164   1.03340   14.686
 5232.00    1.01702   1.03903   14.988
 5233.00    1.00966   1.04604   15.464
 5234.00    1.02615   1.05442   15.430
 5235.00    1.06306   1.06372   14.978
 5236.00    1.10253   1.07303   14.582
 5237.00    1.12351   1.08137   14.404
 5238.00    1.11677   1.08768   14.422
 5239.00    1.09848   1.09150   14.578
 5240.00    1.08966   1.09325   14.794
 5241.00    1.09366   1.09279   14.983
 5242.00    1.10127   1.08904   15.079
 5243.00    1.09897   1.08210   15.079
 5244.00    1.08167   1.07368   14.931
 5245.00    1.06149   1.06497   14.504
 5246.00    1.04949   1.05637   14.004
 5247.00    1.04210   1.04933   14.059
 5248.00    1.04025   1.04540   14.629
 5249.00    1.06131   1.04458   14.263
 5250.00    1.11072   1.04591   12.533
 5251.00    1.16502   1.04902   10.989
 5252.00    1.20077   1.05449   10.196
 5253.00    1.21334   1.06207    9.777
 5254.00    1.20645   1.06994    9.566
 5255.00    1.18484   1.07570    9.833
 5256.00    1.15379   1.07689   10.754
 5257.00    1.11860   1.07147   12.045
 5258.00    1.08277   1.05864   13.059
 5259.00    1.04706   1.03928   13.230
 5260.00    1.00979   1.01571   12.739
 5261.00    0.96925   0.99087   12.331
 5262.00    0.93321   0.96818   12.288
 5263.00    0.91824   0.95072   12.348
 5264.00    0.92822   0.93882   12.310
 5265.00    0.94973   0.93058   12.215
 5266.00    0.97081   0.92620   12.095
 5267.00    0.98830   0.92810   11.929
 5268.00    1.00648   0.93637   11.821
 5269.00    1.03269   0.94858   11.947
 5270.00    1.06523   0.96281   12.199
 5271.00    1.09353   0.97794   12.215
 5272.00    1.11179   0.99372   12.059
 5273.00    1.12154   1.01050   12.165
 5274.00    1.12599   1.02726   12.554
 5275.00    1.12791   1.04147   12.842
 5276.00    1.12841   1.05128   12.950
 5277.00    1.12624   1.05646   13.147
 5278.00    1.11699   1.05791   13.384
 5279.00    1.09759   1.05696   13.367
 5280.00    1.07690   1.05595   13.228
 5281.00    1.06920   1.05806   13.338
 5282.00    1.07509   1.06493   13.600
 5283.00    1.08395   1.07556   13.627
 5284.00    1.08747   1.08788   13.480
 5285.00    1.08554   1.10022   13.489
 5286.00    1.09123   1.11122   13.630
 5287.00    1.11630   1.11939   13.669
 5288.00    1.14563   1.12345   13.611
 5289.00    1.15363   1.12296   13.605
 5290.00    1.13702   1.11836   13.659
 5291.00    1.10794   1.11023   13.692
 5292.00    1.07579   1.09874   13.676
 5293.00    1.04477   1.08444   13.656
 5294.00    1.01444   1.06963   13.735
 5295.00    0.98666   1.05780   13.926
 5296.00    0.97319   1.05106   13.971
 5297.00    0.98164   1.04921   13.733
 5298.00    0.99908   1.05172   13.634
 5299.00    1.01132   1.05857   14.003
 5300.00    1.02470   1.06907   14.423
 5301.00    1.04616   1.08124   14.368
 5302.00    1.06235   1.09270   14.135
 5303.00    1.06347   1.10204   14.110
 5304.00    1.06535   1.10915   14.074
 5305.00    1.08283   1.11475   13.857
 5306.00    1.10623   1.11908   13.860
 5307.00    1.12143   1.12172   14.299
 5308.00    1.12715   1.12233   14.636
 5309.00    1.12726   1.12086   14.422
 5310.00    1.12375   1.11758   14.089
 5311.00    1.11713   1.11286   14.045
 5312.00    1.10744   1.10685   14.155
 5313.00    1.09746   1.10033   14.235
 5314.00    1.09336   1.09493   14.336
 5315.00    1.09575   1.09139   14.509
 5316.00    1.09603   1.08900   14.664
 5317.00    1.08792   1.08679   14.783
 5318.00    1.07363   1.08371   15.006
 5319.00    1.05938   1.07825   15.274
 5320.00    1.05159   1.06933   15.224
 5321.00    1.05032   1.05750   14.839
 5322.00    1.04807   1.04407   14.590
 5323.00    1.03888   1.02907   14.659
 5324.00    1.02207   1.01298   14.801
 5325.00    0.99945   0.99979   14.873
 5326.00    0.97521   0.99458   14.982
 5327.00    0.96000   0.99835   15.082
 5328.00    0.96703   1.00840   14.928
 5329.00    0.99261   1.02203   14.557
 5330.00    1.01731   1.03729   14.295
 5331.00    1.03402   1.05214   14.316
 5332.00    1.05055   1.06409   14.552
 5333.00    1.06724   1.07138   14.721
 5334.00    1.07523   1.07377   14.526
 5335.00    1.07252   1.07194   14.303
 5336.00    1.06496   1.06691   14.684
 5337.00    1.05597   1.06101   15.442
 5338.00    1.04574   1.05741   15.573
 5339.00    1.03638   1.05726   15.120
 5340.00    1.03148   1.05930   14.994
 5341.00    1.03198   1.06206   15.255
 5342.00    1.03579   1.06453   15.349
 5343.00    1.03912   1.06660   15.237
 5344.00    1.03843   1.06840   15.278
 5345.00    1.03380   1.06972   15.434
 5346.00    1.02869   1.07154   15.416
 5347.00    1.02831   1.07577   15.259
 5348.00    1.03742   1.08299   15.173
 5349.00    1.05696   1.09224   15.092
 5350.00    1.08302   1.10274   14.902
 5351.00    1.10630   1.11411   14.845
 5352.00    1.11862   1.12516   15.135
 5353.00    1.12208   1.13441   15.351
 5354.00    1.12260   1.14103   15.021
 5355.00    1.11935   1.14445   14.655
 5356.00    1.11088   1.14425   14.835
 5357.00    1.10389   1.14028   15.200
 5358.00    1.10205   1.13278   15.126
 5359.00    1.09272   1.12275   14.805
 5360.00    1.06439   1.11173   14.698
 5361.00    1.02622   1.10050   14.835
 5362.00    0.99153   1.08956   15.042
 5363.00    0.96010   1.07947   15.182
 5364.00    0.93328   1.07006   15.187
 5365.00    0.92776   1.06092   -2.000
 5366.00    0.95204   1.05182   -2.000
 5367.00    0.98734   1.04355   -2.000
 5368.00    1.01328   1.03890   -2.000
 5369.00    1.03031   1.04067   -2.000
 5370.00    1.05550   1.04881   -2.000
 5371.00    1.11335   1.06085   -2.000
 5372.00    1.20128   1.07423   -2.000
 5373.00    1.27301   1.08678   -2.000
 5374.00    1.29270   1.09700   -2.000
 5375.00    1.26786   1.10423   -2.000
 5376.00    1.22210   1.10766   -2.000
 5377.00    1.17532   1.10723   -2.000
 5378.00    1.13520   1.10453   -2.000
 5379.00    1.09637   1.10123   -2.000
 5380.00    1.05942   1.09841   13.731
 5381.00    1.03735   1.09718   14.123
 5382.00    1.03612   1.09739   14.507
 5383.00    1.04805   1.09759   14.829
 5384.00    1.06730   1.09686   14.977
 5385.00    1.09357   1.09458   14.880
 5386.00    1.11718   1.09019   14.702
 5387.00    1.11871   1.08401   14.768
 5388.00    1.09284   1.07690   15.069
 5389.00    1.05310   1.06929   15.235
 5390.00    1.01394   1.06166   15.203
 5391.00    0.98457   1.05458   15.292
 5392.00    0.97141   1.04802   15.453
 5393.00    0.97624   1.04147   15.277
 5394.00    0.98800   1.03634   14.896
 5395.00    0.98892   1.03489   14.860
 5396.00    0.97909   1.03618   15.221
 5397.00    0.97462   1.03766   15.554
 5398.00    0.98327   1.03840   15.631
 5399.00    0.99923   1.03755   15.580
 5400.00    1.00754   1.03335   15.573
 5401.00    0.99487   1.02564   15.688
 5402.00    0.97089   1.01675   15.820
 5403.00    0.95908   1.00978   15.800
 5404.00    0.96669   1.00666   15.716
 5405.00    0.98407   1.00683   15.783
 5406.00    0.99688   1.00909   15.973
 5407.00    0.99636   1.01419   16.078
 5408.00    0.99285   1.02346   15.994
 5409.00    1.00487   1.03559   15.769
 5410.00    1.03621   1.04782   15.565
 5411.00    1.07498   1.05866   15.517
 5412.00    1.09937   1.06846   15.578
 5413.00    1.09545   1.07781   15.607
 5414.00    1.08062   1.08563   15.521
 5415.00    1.08061   1.09044   15.336
 5416.00    1.09407   1.09205   15.155
 5417.00    1.10383   1.09135   15.091
 5418.00    1.09778   1.08971   15.193
 5419.00    1.07416   1.08769   15.403
 5420.00    1.04408   1.08432   15.514
 5421.00    1.02314   1.08012   15.387
 5422.00    1.02131   1.07753   15.187
 5423.00    1.03811   1.07679   15.127
 5424.00    1.05989   1.07554   15.225
 5425.00    1.07221   1.07122   15.371
 5426.00    1.07139   1.06359   15.424
 5427.00    1.05850   1.05626   15.351
 5428.00    1.03389   1.05128   15.332
 5429.00    1.00375   1.04667   15.503
 5430.00    0.98423   1.04209   15.769
 5431.00    0.98675   1.03959   15.941
 5432.00    1.00748   1.04110   15.871
 5433.00    1.03436   1.04756   15.555
 5434.00    1.05415   1.05821   15.166
 5435.00    1.06172   1.07130   14.986
 5436.00    1.06443   1.08473   15.312
 5437.00    1.07254   1.09660   16.029
 5438.00    1.09147   1.10516   16.321
 5439.00    1.11307   1.10917   15.888
 5440.00    1.11607   1.10791   15.573
 5441.00    1.09375   1.10112   15.780
 5442.00    1.06392   1.08986   16.025
 5443.00    1.04447   1.07685   15.918
 5444.00    1.04138   1.06661   15.652
 5445.00    1.05198   1.06231   15.534
 5446.00    1.06873   1.06268   15.734
 5447.00    1.08790   1.06500   16.160
 5448.00    1.11015   1.06754   16.447
 5449.00    1.12859   1.06909   16.370
 5450.00    1.12962   1.06861   16.041
 5451.00    1.11334   1.06534   15.698
 5452.00    1.09516   1.06016   15.558
 5453.00    1.08590   1.05685   15.700
 5454.00    1.08593   1.05783   16.043
 5455.00    1.08901   1.06161   16.288
 5456.00    1.08698   1.06575   16.088
 5457.00    1.07925   1.06881   15.672
 5458.00    1.07271   1.07031   15.582
 5459.00    1.07374   1.07000   15.802
 5460.00    1.08376   1.06858   15.893
 5461.00    1.09375   1.06807   15.834
 5462.00    1.09170   1.06881   15.928
 5463.00    1.08209   1.06993   16.053
 5464.00    1.07945   1.07177   15.841
 5465.00    1.08514   1.07419   15.474
 5466.00    1.08989   1.07559   15.397
 5467.00    1.08883   1.07489   15.588
 5468.00    1.08217   1.07207   15.718
 5469.00    1.07089   1.06699   15.668
 5470.00    1.05630   1.05963   15.509
 5471.00    1.04060   1.05141   15.281
 5472.00    1.02718   1.04293   15.040
 5473.00    1.02065   1.03394   14.981
 5474.00    1.02358   1.02725   15.181
 5475.00    1.03204   1.02587   15.235
 5476.00    1.04095   1.02848   -2.000
 5477.00    1.05188   1.03213   -2.000
 5478.00    1.06614   1.03614   -2.000
 5479.00    1.07431   1.04174   -2.000
 5480.00    1.05049   1.04920   -2.000
 5481.00    0.95237   1.05720   -2.000
 5482.00    0.78878   1.06392   -2.000
 5483.00    0.68460   1.06787   -2.000
 5484.00    0.77157   1.06921   -2.000
 5485.00    1.06999   1.06996   -2.000
 5486.00    1.49850   1.07110   -2.000
 5487.00    1.89936   1.07192   -2.000
 5488.00    2.08843   1.07256   -2.000
 5489.00    1.91759   1.07311   -2.000
 5490.00    1.44676   1.07316   -2.000
 5491.00    1.03234   1.07333   -2.000
 5492.00    0.92675   1.07386   -2.000
 5493.00    1.00545   1.07345   -2.000
 5494.00    1.07552   1.07181   -2.000
 5495.00    1.09769   1.07063   -2.000
 5496.00    1.09492   1.07041   -2.000
 5497.00    1.08216   1.06912   -2.000
 5498.00    1.06677   1.06577   -2.000
 5499.00    1.05183   1.06171    9.507
 5500.00    1.04130   1.05842    9.603
 5501.00    1.04097   1.05600    9.606
 5502.00    1.04865   1.05338    9.536
 5503.00    1.05213   1.05003    9.505
 5504.00    1.04542   1.04772    9.566
 5505.00    1.03499   1.04746    9.662
 5506.00    1.03054   1.04761    9.704
 5507.00    1.03818   1.04694    9.632
 5508.00    1.05069   1.04547    9.518
 5509.00    1.04985   1.04372    9.525
 5510.00    1.03124   1.04321    9.697
 5511.00    1.00891   1.04485    9.912
 5512.00    0.99625   1.04851   10.038
 5513.00    0.99819   1.05406   10.018
 5514.00    1.00940   1.06130    9.906
 5515.00    1.01952   1.06971    9.810
 5516.00    1.03039   1.07782    9.707
 5517.00    1.05329   1.08402    9.490
 5518.00    1.08570   1.08767    9.205
 5519.00    1.11201   1.08871    9.004
 5520.00    1.12387   1.08716    8.911
 5521.00    1.12289   1.08310    8.873
 5522.00    1.11322   1.07677    8.947
 5523.00    1.09891   1.06909    9.200
 5524.00    1.08237   1.06124    9.338
 5525.00    1.06522   1.05470    9.089
 5526.00    1.05083   1.05157    9.240
 5527.00    1.04156   1.05228   11.067
 5528.00    1.03270   1.05494   14.825
 5529.00    1.01923   1.05789   16.865
 5530.00    1.01002   1.06060   16.280
 5531.00    1.01876   1.06291   16.902
 5532.00    1.04456   1.06509   16.441
 5533.00    1.07637   1.06790   12.309
 5534.00    1.10521   1.07113    9.269
 5535.00    1.12552   1.07432    8.437
 5536.00    1.13424   1.07782    8.752
 5537.00    1.13158   1.08154    9.132
 5538.00    1.12208   1.08455    8.961
 5539.00    1.11061   1.08592    8.554
 5540.00    1.09743   1.08559    9.034
 5541.00    1.08307   1.08482   11.659
 5542.00    1.07412   1.08474   16.096
 5543.00    1.07577   1.08546   17.033
 5544.00    1.08342   1.08739   15.981
 5545.00    1.09042   1.09068   16.904
 5546.00    1.09674   1.09437   15.752
 5547.00    1.10757   1.09747   11.329
 5548.00    1.12983   1.09932    8.769
 5549.00    1.15968   1.09943    8.266
 5550.00    1.17489   1.09783    8.543
 5551.00    1.16295   1.09504    8.684
 5552.00    1.14118   1.09201    8.764
 5553.00    1.12802   1.08941    8.965
 5554.00    1.12161   1.08705    8.857
 5555.00    1.11299   1.08479    8.583
 5556.00    1.09712   1.08284    9.397
 5557.00    1.07658   1.08086   12.527
 5558.00    1.06144   1.07828   16.702
 5559.00    1.05612   1.07481   16.671
 5560.00    1.05384   1.07073   15.090
 5561.00    1.05108   1.06684   15.077
 5562.00    1.05346   1.06324   15.705
 5563.00    1.06142   1.05975   15.849
 5564.00    1.06534   1.05694   15.749
 5565.00    1.06011   1.05507   15.747
 5566.00    1.05020   1.05390   15.682
 5567.00    1.03892   1.05370   15.596
 5568.00    1.02575   1.05463   15.858
 5569.00    1.01596   1.05556   16.356
 5570.00    1.02030   1.05655   16.345
 5571.00    1.03748   1.05909   15.769
 5572.00    1.05345   1.06273   15.391
 5573.00    1.06373   1.06613   15.428
 5574.00    1.07588   1.06940   15.487
 5575.00    1.09011   1.07236   15.384
 5576.00    1.09764   1.07466   15.279
 5577.00    1.09631   1.07609   15.197
 5578.00    1.09218   1.07540   15.022
 5579.00    1.08987   1.07206   14.861
 5580.00    1.09044   1.06684   14.964
 5581.00    1.09333   1.05965   15.271
 5582.00    1.09701   1.05014   15.463
 5583.00    1.09907   1.03876   15.434
 5584.00    1.09738   1.02690   15.334
 5585.00    1.09258   1.01693   15.273
 5586.00    1.08718   1.01061   15.248
 5587.00    1.08261   1.00851   15.126
 5588.00    1.07889   1.01030   14.770
 5589.00    1.07526   1.01461   14.277
 5590.00    1.07017   1.02006   13.848
 5591.00    1.06114   1.02592   13.567
 5592.00    1.04781   1.03203   13.413
 5593.00    1.03690   1.03786   13.309
 5594.00    1.03689   1.04112   13.157
 5595.00    1.04856   1.04059   12.911
 5596.00    1.06577   1.03834   12.618
 5597.00    1.07921   1.03645   12.447
 5598.00    1.08338   1.03532   12.535
 5599.00    1.08456   1.03541   12.810
 5600.00    1.09133   1.03810   13.102
 5601.00    1.10165   1.04492   13.321
 5602.00    1.10779   1.05536   13.482
 5603.00    1.10436   1.06696   13.680
 5604.00    1.09218   1.07771   13.974
 5605.00    1.08083   1.08669   14.244
 5606.00    1.07969   1.09306   14.364
 5607.00    1.08905   1.09603   14.416
 5608.00    1.10387   1.09541   14.525
 5609.00    1.11831   1.09167   14.689
 5610.00    1.12715   1.08499   14.851
 5611.00    1.12668   1.07521   14.996
 5612.00    1.11559   1.06347   15.166
 5613.00    1.09560   1.05352   15.446
 5614.00    1.07264   1.04837   15.773
 5615.00    1.05633   1.04678   15.823
 5616.00    1.05108   1.04632   15.572
 5617.00    1.05095   1.04661   15.552
 5618.00    1.04827   1.04826   15.918
 5619.00    1.03967   1.05066   16.025
 5620.00    1.02582   1.05156   15.653
 5621.00    1.01077   1.04991   15.588
 5622.00    0.99935   1.04802   16.122
 5623.00    0.99590   1.04884   16.502
 5624.00    1.00544   1.05244   16.295
 5625.00    1.03211   1.05734   16.114
 5626.00    1.06868   1.06303   16.242
 5627.00    1.09601   1.06917   16.235
 5628.00    1.10372   1.07468   15.952
 5629.00    1.09717   1.07818   15.815
 5630.00    1.08634   1.07888   15.911
 5631.00    1.07905   1.07713   15.862
 5632.00    1.07419   1.07366   15.674
 5633.00    1.06401   1.06888   15.795
 5634.00    1.05118   1.06351   16.190
 5635.00    1.04829   1.05874   16.270
 5636.00    1.05518   1.05543   15.983
 5637.00    1.05890   1.05330   15.883
 5638.00    1.05701   1.05181   16.066
 5639.00    1.05877   1.05154   16.146
 5640.00    1.06735   1.05305   16.012
 5641.00    1.07748   1.05563   15.893
 5642.00    1.08329   1.05853   15.864
 5643.00    1.08073   1.06154   15.835
 5644.00    1.06813   1.06467   15.826
 5645.00    1.04695   1.06764   15.918
 5646.00    1.02327   1.06964   15.990
 5647.00    1.00646   1.07055   15.853
 5648.00    1.00567   1.07113   15.656
 5649.00    1.02589   1.07110   15.677
 5650.00    1.06196   1.06915   15.825
 5651.00    1.10272   1.06450   15.808
 5652.00    1.14042   1.05810   15.643
 5653.00    1.16883   1.05147   15.523
 5654.00    1.17738   1.04433   15.454
 5655.00    1.15899   1.03581   15.388
 5656.00    1.12335   1.02850   15.492
 5657.00    1.08833   1.02570   15.867
 5658.00    1.06439   1.02647   16.052
 5659.00    1.05292   1.02788   15.637
 5660.00    1.04756   1.02989   15.226
 5661.00    1.04287   1.03426   15.414
 5662.00    1.04422   1.04054   15.748
 5663.00    1.05718   1.04606   15.584
 5664.00    1.07460   1.04951   15.345
 5665.00    1.08847   1.05234   15.549
 5666.00    1.10345   1.05612   15.772
 5667.00    1.12389   1.06068   15.504
 5668.00    1.14052   1.06531   15.155
 5669.00    1.14368   1.07027   15.148
 5670.00    1.13623   1.07576   15.194
 5671.00    1.12597   1.08075   14.911
 5672.00    1.11792   1.08411   14.395
 5673.00    1.11379   1.08593   13.821
 5674.00    1.11201   1.08662   13.171
 5675.00    1.10735   1.08552   12.578
 5676.00    1.09208   1.08223   12.409
 5677.00    1.06722   1.07766   12.762
 5678.00    1.04773   1.07263   13.233
 5679.00    1.04466   1.06682   13.512
 5680.00    1.05412   1.06059   13.882
 5681.00    1.06400   1.05563   14.536
 5682.00    1.06107   1.05274   15.094
 5683.00    1.04517   1.05107   15.222
 5684.00    1.03239   1.04997   15.141
 5685.00    1.03027   1.05026   15.134
 5686.00    1.02856   1.05302   15.250
 5687.00    1.01935   1.05792   15.339
 5688.00    1.00598   1.06357   15.166
 5689.00    0.99659   1.06902   14.849
 5690.00    0.99874   1.07377   14.814
 5691.00    1.01050   1.07706   14.987
 5692.00    1.02125   1.07840   14.744
 5693.00    1.02898   1.07784   14.015
 5694.00    1.04268   1.07534   13.350
 5695.00    1.06638   1.07093   12.923
 5696.00    1.09530   1.06545   12.568
 5697.00    1.12281   1.05999   12.370
 5698.00    1.14308   1.05452   12.616
 5699.00    1.15164   1.04916   13.288
 5700.00    1.14741   1.04471   13.995
 5701.00    1.13765   1.04113   14.491
 5702.00    1.13205   1.03728   14.872
 5703.00    1.12405   1.03223   15.217
 5704.00    1.09747   1.02651   15.499
 5705.00    1.05454   1.02137   15.727
 5706.00    1.01486   1.01748   15.929
 5707.00    0.99668   1.01567   15.980
 5708.00    1.00765   1.01673   15.764
 5709.00    1.03529   1.02056   15.561
 5710.00    1.05811   1.02740   15.706
 5711.00    1.07072   1.03680   15.891
 5712.00    1.07959   1.04688   15.598
 5713.00    1.08640   1.05653   15.203
 5714.00    1.08947   1.06539   15.329
 5715.00    1.09118   1.07321   15.724
 5716.00    1.09560   1.08003   15.719
 5717.00    1.10280   1.08578   15.356
 5718.00    1.11059   1.09031   15.084
 5719.00    1.11818   1.09368   15.016
 5720.00    1.12599   1.09581   15.052
 5721.00    1.13433   1.09663   15.101
 5722.00    1.14080   1.09620   15.128
 5723.00    1.13786   1.09431   15.174
 5724.00    1.12236   1.09103   15.230
 5725.00    1.10607   1.08770   15.109
 5726.00    1.10235   1.08573   14.755
 5727.00    1.11093   1.08467   14.516
 5728.00    1.12484   1.08336   14.647
 5729.00    1.13889   1.08233   14.927
 5730.00    1.14911   1.08307   15.041
 5731.00    1.15152   1.08536   15.005
 5732.00    1.14391   1.08747   14.960
 5733.00    1.12740   1.08861   14.932
 5734.00    1.10730   1.08909   14.924
 5735.00    1.09283   1.08932   15.002
 5736.00    1.09076   1.08917   15.179
 5737.00    1.10094   1.08866   15.344
 5738.00    1.11872   1.08815   15.436
 5739.00    1.13725   1.08766   15.546
 5740.00    1.14954   1.08699    0.000
 5741.00    1.15028   1.08648    0.000
 5742.00    1.13850   1.08669    0.000
 5743.00    1.11878   1.08701    0.000
 5744.00    1.09874   1.08606    0.000
 5745.00    1.08618   1.08339    0.000
 5746.00    1.08240   1.08037    0.000
 5747.00    1.08067   1.07826    0.000
 5748.00    1.07611   1.07635    0.000
 5749.00    1.06951   1.07350    0.000
 5750.00    1.06262   1.07012    0.000
 5751.00    1.05607   1.06793    0.000
 5752.00    1.05047   1.06822    0.000
 5753.00    1.04740   1.07050    0.000
 5754.00    1.05142   1.07300    0.000
 5755.00    1.06767   1.07445    0.000
 5756.00    1.09076   1.07486    0.000
 5757.00    1.10636   1.07449    0.000
 5758.00    1.10950   1.07331    0.000
 5759.00    1.10702   1.07164    0.000
 5760.00    1.10616   1.07081    0.000
 5761.00    1.10984   1.07245    0.000
 5762.00    1.11424   1.07665    0.000
 5763.00    1.11183   1.08159    0.000
 5764.00    1.10126   1.08602    0.000
 5765.00    1.08800   1.08976    0.000
 5766.00    1.07951   1.09248    0.000
 5767.00    1.08119   1.09351    0.000
 5768.00    1.09044   1.09272    0.000
 5769.00    1.10012   1.09074    0.000
 5770.00    1.10856   1.08834    0.000
 5771.00    1.11828   1.08598    0.000
 5772.00    1.12934   1.08336    0.000
 5773.00    1.13792   1.08024    0.000
 5774.00    1.13645   1.07653    0.000
 5775.00    1.11927   1.07185    0.000
 5776.00    1.09172   1.06581    0.000
 5777.00    1.06532   1.05802    0.000
 5778.00    1.04774   1.04884    0.000
 5779.00    1.04214   1.04039    0.000
 5780.00    1.04826   1.03476    0.000
 5781.00    1.06209   1.03176    0.000
 5782.00    1.07537   1.03042    0.000
 5783.00    1.08090   1.03125    0.000
 5784.00    1.07902   1.03541    0.000
 5785.00    1.07491   1.04192    0.000
 5786.00    1.07429   1.04849    0.000
 5787.00    1.08029   1.05429    0.000
 5788.00    1.09093   1.05930   -2.000
 5789.00    1.10227   1.06398   -2.000
 5790.00    1.11164   1.06847   -2.000
 5791.00    1.11540   1.07227   -2.000
 5792.00    1.10719   1.07560   -2.000
 5793.00    1.08536   1.07855   -2.000
 5794.00    1.05857   1.08067   -2.000
 5795.00    1.03812   1.08218   -2.000
 5796.00    1.03091   1.08432   -2.000
 5797.00    1.03700   1.08740   -2.000
 5798.00    1.04930   1.09002   -2.000
 5799.00    1.06143   1.09133   -2.000
 5800.00    1.07292   1.09168   -2.000
 5801.00    1.08514   1.09098   -2.000
 5802.00    1.09817   1.08917   -2.000
 5803.00    1.10846   1.08732   -2.000
 5804.00    1.10920   1.08627   -2.000
 5805.00    1.09975   1.08595   -2.000
 5806.00    1.08896   1.08603   -2.000
 5807.00    1.08499   1.08655   -2.000
 5808.00    1.09016   1.08738    0.000
 5809.00    1.10305   1.08778    0.000
 5810.00    1.11970   1.08749    0.000
 5811.00    1.13379   1.08688    0.000
 5812.00    1.13803   1.08608    0.000
 5813.00    1.12948   1.08526    0.000
 5814.00    1.11087   1.08533    0.000
 5815.00    1.08721   1.08722    0.000
 5816.00    1.06477   1.09037    0.000
 5817.00    1.05210   1.09347    0.000
 5818.00    1.05658   1.09620    0.000
 5819.00    1.07198   1.09861    0.000
 5820.00    1.08113   1.10033    0.000
 5821.00    1.07682   1.10128    0.000
 5822.00    1.06548   1.10194    0.000
 5823.00    1.05883   1.10252    0.000
 5824.00    1.06687   1.10272    0.000
 5825.00    1.08661   1.10275    0.000
 5826.00    1.10596   1.10287    0.000
 5827.00    1.12036   1.10281    0.000
 5828.00    1.13302   1.10210    0.000
 5829.00    1.14622   1.10098    0.000
 5830.00    1.16027   1.09982    0.000
 5831.00    1.17580   1.09830    0.000
 5832.00    1.19189   1.09647    0.000
 5833.00    1.20182   1.09538    0.000
 5834.00    1.19828   1.09555    0.000
 5835.00    1.18400   1.09601    0.000
 5836.00    1.16751   1.09638    0.000
 5837.00    1.15305   1.09754    0.000
 5838.00    1.13971   1.09942    0.000
 5839.00    1.12327   1.10071    0.000
 5840.00    1.10188   1.10064    0.000
 5841.00    1.08331   1.09953    0.000
 5842.00    1.07628   1.09754    0.000
 5843.00    1.07797   1.09463    0.000
 5844.00    1.07992   1.09080    0.000
 5845.00    1.07764   1.08631    0.000
 5846.00    1.07147   1.08161    0.000
 5847.00    1.06590   1.07706    0.000
 5848.00    1.06607   1.07246    0.000
 5849.00    1.07412   1.06714    0.000
 5850.00    1.08830   1.06062    0.000
 5851.00    1.10306   1.05402    0.000
 5852.00    1.11309   1.04909    0.000
 5853.00    1.11702   1.04556    0.000
 5854.00    1.11505   1.04196    0.000
 5855.00    1.10676   1.03870    0.000
 5856.00    1.09214   1.03822    0.000
 5857.00    1.07280   1.04105    0.000
 5858.00    1.05394   1.04509    0.000
 5859.00    1.04449   1.04875    0.000
 5860.00    1.04782   1.05201    0.000
 5861.00    1.05684   1.05596    0.000
 5862.00    1.06531   1.06049    0.000
 5863.00    1.07419   1.06408    0.000
 5864.00    1.08367   1.06623    0.000
 5865.00    1.08911   1.06836    0.000
 5866.00    1.08642   1.07135    0.000
 5867.00    1.07587   1.07410    0.000
 5868.00    1.06496   1.07560    0.000
 5869.00    1.06650   1.07591    0.000
 5870.00    1.08329   1.07527    0.000
 5871.00    1.10400   1.07393    0.000
 5872.00    1.11892   1.07177    0.000
 5873.00    1.12554   1.06866    0.000
 5874.00    1.12219   1.06506    0.000
 5875.00    1.10645   1.06180    0.000
 5876.00    1.08031   1.05877    0.000
 5877.00    1.05035   1.05496    0.000
 5878.00    1.02183   1.05064    0.000
 5879.00    0.99730   1.04652    0.000
 5880.00    0.97940   1.04150    0.000
 5881.00    0.97059   1.03310    0.000
 5882.00    0.96961   1.02007    0.000
 5883.00    0.97223   1.00308    0.000
 5884.00    0.97655   0.98342    0.000
 5885.00    0.98227   0.96165    0.000
 5886.00    0.98495   0.93750    0.000
 5887.00    0.97824   0.91279    0.000
 5888.00    0.96300   0.89328    0.000
 5889.00    0.94703   0.88326    0.000
 5890.00    0.93923   0.88008    0.000
 5891.00    0.94498   0.88051    0.000
 5892.00    0.95972   0.88399    0.000
 5893.00    0.97387   0.88979    0.000
 5894.00    0.98504   0.90035    0.000
 5895.00    0.99570   0.91805    0.000
 5896.00    1.00492   0.93857    0.000
 5897.00    1.01086   0.95770    0.000
 5898.00    1.01737   0.97670    0.000
 5899.00    1.03019   0.99601    0.000
 5900.00    1.04960   1.01283    0.000
 5901.00    1.07013   1.02565   14.804
 5902.00    1.08232   1.03501   14.548
 5903.00    1.08006   1.04154   14.543
 5904.00    1.06944   1.04630   14.672
 5905.00    1.06061   1.05018   14.714
 5906.00    1.05629   1.05280   14.690
 5907.00    1.05355   1.05348   14.757
 5908.00    1.04786   1.05306   15.021
 5909.00    1.03724   1.05236   15.446
 5910.00    1.02587   1.05079   15.764
 5911.00    1.01873   1.04791   15.773
 5912.00    1.01611   1.04502   15.696
 5913.00    1.01457   1.04392   15.794
 5914.00    1.00910   1.04440   16.003
 5915.00    0.99933   1.04584   16.210
 5916.00    0.99387   1.04786   16.497
 5917.00    1.00141   1.05048   16.827
 5918.00    1.02326   1.05352   16.808
 5919.00    1.05317   1.05597   16.338
 5920.00    1.07870   1.05750   15.973
 5921.00    1.08835   1.05863   16.035
 5922.00    1.07708   1.05928   16.243
 5923.00    1.05009   1.05899   16.268
 5924.00    1.02282   1.05808   16.101
 5925.00    1.00794   1.05692   15.860
 5926.00    1.00814   1.05547   15.639
 5927.00    1.02042   1.05349   15.519
 5928.00    1.03893   1.05178   15.563
 5929.00    1.05619   1.05183   15.700
 5930.00    1.06477   1.05300   15.713
 5931.00    1.06252   1.05353   15.566
 5932.00    1.05415   1.05365   15.473
 5933.00    1.04677   1.05489   15.534
 5934.00    1.04611   1.05706   15.630
 5935.00    1.04993   1.05831   15.621
 5936.00    1.04905   1.05869   15.475
 5937.00    1.04160   1.05914   15.364
 5938.00    1.03553   1.05912   15.567
 5939.00    1.03753   1.05850   16.059
 5940.00    1.04929   1.05839   16.470
 5941.00    1.06885   1.05869   16.613
 5942.00    1.09163   1.05854   16.639
 5943.00    1.11225   1.05819   16.634
 5944.00    1.12583   1.05801   16.553
 5945.00    1.13017   1.05698   16.405
 5946.00    1.12541   1.05446   16.290
 5947.00    1.11147   1.05204   16.325
 5948.00    1.08894   1.05132   16.573
 5949.00    1.06260   1.05077   16.894
 5950.00    1.04009   1.04879   17.021
 5951.00    1.02687   1.04721   16.907
 5952.00    1.02459   1.04808   16.712
 5953.00    1.03032   1.04971   16.556
 5954.00    1.03893   1.05037   16.480
 5955.00    1.04809   1.05144   16.466
 5956.00    1.05810   1.05425   16.435
 5957.00    1.06969   1.05799   16.247
 5958.00    1.08247   1.06145   15.848
 5959.00    1.09319   1.06434   15.474
 5960.00    1.09962   1.06683   15.373
 5961.00    1.10664   1.06900   15.467
 5962.00    1.12001   1.07061   15.512
 5963.00    1.13613   1.07137   15.381
 5964.00    1.14521   1.07202   15.131
 5965.00    1.13770   1.07340   14.983
 5966.00    1.10978   1.07483   15.141
 5967.00    1.06879   1.07573   15.619
 5968.00    1.02960   1.07619   16.231
 5969.00    1.00885   1.07586   16.575
 5970.00    1.01431   1.07418   16.421
 5971.00    1.03532   1.07141   16.153
 5972.00    1.05551   1.06782   16.161
 5973.00    1.06646   1.06353   16.318
 5974.00    1.06745   1.05932   16.395
 5975.00    1.06340   1.05600   16.462
 5976.00    1.05972   1.05346   16.639
 5977.00    1.05794   1.05133   16.857
 5978.00    1.05616   1.04961   16.991
 5979.00    1.05037   1.04819   16.995
 5980.00    1.03954   1.04660   16.966
 5981.00    1.02885   1.04430   17.113
 5982.00    1.02518   1.04221   17.442
 5983.00    1.03316   1.04230   17.578
 5984.00    1.05066   1.04400   17.302
 5985.00    1.06778   1.04542   16.890
 5986.00    1.07696   1.04734   16.639
 5987.00    1.07878   1.05082   16.624
 5988.00    1.07875   1.05432   16.736
 5989.00    1.08363   1.05623   16.738
 5990.00    1.09263   1.05766   16.520
 5991.00    1.09567   1.05942   16.211
 5992.00    1.08697   1.06022   16.009
 5993.00    1.07000   1.05943   16.054
 5994.00    1.05013   1.05786   16.252
 5995.00    1.03153   1.05599   16.277
 5996.00    1.01866   1.05388   16.034
 5997.00    1.01597   1.05200   15.759
 5998.00    1.02418   1.05074   15.611
 5999.00    1.03881   1.04949   15.576
 6000.00    1.05058   1.04731   15.595
 6001.00    1.04976   1.04485   15.624
 6002.00    1.03952   1.04327   15.708
 6003.00    1.03430   1.04205   15.938
 6004.00    1.04159   1.04053   16.214
 6005.00    1.05760   1.03870   16.297
 6006.00    1.07165   1.03719   16.205
 6007.00    1.07262   1.03745   16.177
 6008.00    1.06188   1.03917   16.235
 6009.00    1.04995   1.03994   16.221
 6010.00    1.04048   1.03894   16.166
 6011.00    1.03035   1.03783   16.244
 6012.00    1.01890   1.03796   16.486
 6013.00    1.00913   1.03764   16.737
 6014.00    1.00556   1.03545   16.719
 6015.00    1.01166   1.03345   16.307
 6016.00    1.02590   1.03313   15.950
 6017.00    1.04240   1.03272   16.129
 6018.00    1.05361   1.03174   16.559
 6019.00    1.05423   1.03237   16.572
 6020.00    1.04651   1.03473   16.201
 6021.00    1.03845   1.03725   15.899
 6022.00    1.03903   1.04021   15.760
 6023.00    1.05073   1.04482   15.668
 6024.00    1.06071   1.04969   15.577
 6025.00    1.05609   1.05364   15.530
 6026.00    1.04492   1.05799   15.618
 6027.00    1.04318   1.06271   15.854
 6028.00    1.05548   1.06634   16.014
 6029.00    1.07806   1.06885   15.909
 6030.00    1.10510   1.07147   15.739
 6031.00    1.12981   1.07385   15.776
 6032.00    1.14505   1.07512   16.023
 6033.00    1.14566   1.07545   16.315
 6034.00    1.13085   1.07554   16.433
 6035.00    1.10609   1.07532   16.351
 6036.00    1.08364   1.07463   16.385
 6037.00    1.07282   1.07376   16.696
 6038.00    1.07230   1.07319   16.911
 6039.00    1.07567   1.07305   16.746
 6040.00    1.07679   1.07335   16.540
 6041.00    1.07196   1.07462   16.579
 6042.00    1.06114   1.07626   16.695
 6043.00    1.04738   1.07751   16.749
 6044.00    1.03598   1.07869   16.925
 6045.00    1.03237   1.07988   17.188
 6046.00    1.03991   1.08001   17.029
 6047.00    1.05478   1.07891   16.386
 6048.00    1.06515   1.07749   15.934
 6049.00    1.06373   1.07555   15.986
 6050.00    1.05382   1.07244   16.223
 6051.00    1.04427   1.06901   16.248
 6052.00    1.04498   1.06643   15.915
 6053.00    1.05892   1.06456   15.350
 6054.00    1.07956   1.06290   14.833
 6055.00    1.09631   1.06202   14.584
 6056.00    1.09995   1.06200   14.699
 6057.00    1.09387   1.06219   15.007
 6058.00    1.09331   1.06168   15.094
 6059.00    1.10500   1.06014   14.895
 6060.00    1.12191   1.05852   14.773
 6061.00    1.13298   1.05766   14.851
 6062.00    1.12883   1.05707   14.959
 6063.00    1.10831   1.05669   15.096
 6064.00    1.07874   1.05873   15.467
 6065.00    1.05003   1.06359   16.056
 6066.00    1.03166   1.06880   16.561
 6067.00    1.02942   1.07324   16.804
 6068.00    1.04385   1.07751   16.841
 6069.00    1.06880   1.08127   16.742
 6070.00    1.09387   1.08335   16.564
 6071.00    1.11129   1.08327   16.492
 6072.00    1.11741   1.08121   16.707
 6073.00    1.11235   1.07796   17.073
 6074.00    1.09985   1.07411   17.251
 6075.00    1.08699   1.06920   17.214
 6076.00    1.08001   1.06324   17.178
 6077.00    1.07669   1.05822   17.174
 6078.00    1.07014   1.05500   17.107
 6079.00    1.05838   1.05178   16.992
 6080.00    1.04382   1.04848   16.894
 6081.00    1.02966   1.04714   16.784
 6082.00    1.01932   1.04744   16.568
 6083.00    1.01637   1.04709   16.198
 6084.00    1.02170   1.04629   15.755
 6085.00    1.02989   1.04658   15.506
 6086.00    1.03675   1.04738   15.626
 6087.00    1.04908   1.04706   15.908
 6088.00    1.07270   1.04649   16.016
 6089.00    1.09688   1.04743   15.918
 6090.00    1.10641   1.04906   15.793
 6091.00    1.09755   1.05005   15.809
 6092.00    1.07735   1.05137   15.980
 6093.00    1.06010   1.05338   16.054
 6094.00    1.05479   1.05439   15.898
 6095.00    1.05443   1.05318   15.846
 6096.00    1.04906   1.04992   16.183
 6097.00    1.03834   1.04583   16.705
 6098.00    1.02738   1.04224   17.028
 6099.00    1.02184   1.03823   16.996
 6100.00    1.02433   1.03297   16.780
 6101.00    1.03238   1.02975   16.784
 6102.00    1.04224   1.03149   17.104
 6103.00    1.05165   1.03561   17.251
 6104.00    1.05812   1.03908   16.971
 6105.00    1.05822   1.04244   16.764
 6106.00    1.05137   1.04693   16.913
 6107.00    1.04154   1.05193   17.054
 6108.00    1.03147   1.05554   16.938
 6109.00    1.02045   1.05686   16.825
 6110.00    1.01134   1.05726   16.860
 6111.00    1.01263   1.05813   16.815
 6112.00    1.02852   1.05844   16.572
 6113.00    1.05448   1.05653   16.300
 6114.00    1.08063   1.05275   16.128
 6115.00    1.09514   1.04847   16.036
 6116.00    1.09090   1.04345   16.058
 6117.00    1.06881   1.03772   16.290
 6118.00    1.03825   1.03246   16.615
 6119.00    1.01399   1.02787   16.683
 6120.00    1.00380   1.02420   16.451
 6121.00    1.00526   1.02374   16.265
 6122.00    1.01175   1.02616   16.320
 6123.00    1.01626   1.02867   16.574
 6124.00    1.01668   1.03130   16.960
 6125.00    1.01614   1.03507   17.424
 6126.00    1.01896   1.03848   17.871
 6127.00    1.02809   1.04040   18.176
 6128.00    1.04171   1.04121   18.329
 6129.00    1.05378   1.04014   18.365
 6130.00    1.05790   1.03592   18.054
 6131.00    1.05048   1.02919   17.186
 6132.00    1.03566   1.02199   16.241
 6133.00    1.02206   1.01525   15.810
 6134.00    1.01304   1.00827   15.786
 6135.00    1.00583   1.00214   15.738
 6136.00    0.99474   1.00100   15.709
 6137.00    0.97788   1.00563   15.961
 6138.00    0.96807   1.01140   16.204
 6139.00    0.98044   1.01591   15.974
 6140.00    1.00730   1.02187   15.694
 6141.00    1.02965   1.02994   15.996
 6142.00    1.04322   1.03605   16.539
 6143.00    1.05339   1.03845   16.527
 6144.00    1.06095   1.03943   16.126
 6145.00    1.06402   1.04022   15.956
 6146.00    1.06386   1.03988   16.064
 6147.00    1.06344   1.03855   16.205
 6148.00    1.06433   1.03709   16.305
 6149.00    1.06581   1.03598   16.450
 6150.00    1.06438   1.03522   16.776
 6151.00    1.05666   1.03397   17.277
 6152.00    1.04268   1.03098   17.560
 6153.00    1.02511   1.02684   17.290
 6154.00    1.00796   1.02190   16.765
 6155.00    0.99558   1.01431   16.358
 6156.00    0.99141   1.00401   16.052
 6157.00    0.99515   0.99393   15.835
 6158.00    1.00049   0.98470   15.977
 6159.00    0.99890   0.97496   16.624
 6160.00    0.98350   0.96688   17.425
 6161.00    0.95407   0.96405   17.919
 6162.00    0.92013   0.96527   18.069
 6163.00    0.89606   0.96671   17.981
 6164.00    0.89536   0.96852   17.610
 6165.00    0.91655   0.97326   17.127
 6166.00    0.93812   0.97876   17.003
 6167.00    0.94714   0.98133   17.327
 6168.00    0.95421   0.98373   17.528
 6169.00    0.97049   0.98959   17.257
 6170.00    0.99441   0.99585   16.893
 6171.00    1.01734   0.99977   16.730
 6172.00    1.02889   1.00430   16.647
 6173.00    1.02481   1.01042   16.482
 6174.00    1.00969   1.01514   16.235
 6175.00    0.99009   1.01834   16.135
 6176.00    0.97160   1.02219   16.527
 6177.00    0.96030   1.02570   17.289
 6178.00    0.96133   1.02746   17.657
 6179.00    0.97043   1.02879   17.476
 6180.00    0.97521   1.02969   17.497
 6181.00    0.97290   1.02850   17.818
 6182.00    0.97273   1.02555   17.698
 6183.00    0.98022   1.02209   17.080
 6184.00    0.99300   1.01733   16.681
 6185.00    1.00595   1.01082   16.651
 6186.00    1.01367   1.00466   16.620
 6187.00    1.01274   1.00089   16.623
 6188.00    1.00327   0.99830   17.050
 6189.00    0.99125   0.99576   17.774
 6190.00    0.98644   0.99614   18.118
 6191.00    0.99504   1.00075   17.915
 6192.00    1.01711   1.00574   17.446
 6193.00    1.04492   1.00884   -2.000
 6194.00    1.06680   1.01206   -2.000
 6195.00    1.07626   1.01611   -2.000
 6196.00    1.07315   1.01882   -2.000
 6197.00    1.06186   1.01949   -2.000
 6198.00    1.04997   1.02020   -2.000
 6199.00    1.04656   1.02251   -2.000
 6200.00    1.05704   1.02545   -2.000
 6201.00    1.07510   1.02767   -2.000
 6202.00    1.08854   1.02946   -2.000
 6203.00    1.09105   1.03124   -2.000
 6204.00    1.08173   1.03211   -2.000
 6205.00    1.06135   1.03106   14.904
 6206.00    1.03387   1.02829   15.241
 6207.00    1.00893   1.02389   15.993
 6208.00    0.99514   1.01772   16.582
 6209.00    0.99111   1.01057   17.053
 6210.00    0.99152   1.00326   17.772
 6211.00    0.99559   0.99589   18.538
 6212.00    1.00338   0.98933   18.909
 6213.00    1.01049   0.98443   18.997
 6214.00    1.01052   0.98119   19.114
 6215.00    0.99877   0.97982   19.207
 6216.00    0.97800   0.98006   19.073
 6217.00    0.96238   0.98072   18.652
 6218.00    0.96365   0.98177   18.080
 6219.00    0.97875   0.98403   17.624
 6220.00    0.99681   0.98676   17.481
 6221.00    1.00693   0.98838   17.669
 6222.00    1.00577   0.98886   17.923
 6223.00    1.00124   0.98889   17.658
 6224.00    0.99786   0.98760   16.787
 6225.00    0.98781   0.98453   16.019
 6226.00    0.96629   0.98126   15.735
 6227.00    0.94130   0.97820   15.684
 6228.00    0.92509   0.97513   15.637
 6229.00    0.92684   0.97399   15.699
 6230.00    0.94433   0.97570   16.023
 6231.00    0.96267   0.97809   16.643
 6232.00    0.97361   0.98064   17.386
 6233.00    0.98284   0.98338   17.837
 6234.00    0.99168   0.98467   17.845
 6235.00    0.99081   0.98386   17.782
 6236.00    0.97586   0.98193   17.979
 6237.00    0.95320   0.97839   18.477
 6238.00    0.93150   0.97381   19.022
 6239.00    0.91737   0.97060   19.148
 6240.00    0.91393   0.96815   18.880
 6241.00    0.92047   0.96534   18.766
 6242.00    0.93341   0.96465   18.908
 6243.00    0.94714   0.96649   18.877
 6244.00    0.95549   0.96813   18.579
 6245.00    0.95409   0.96964   18.342
 6246.00    0.94609   0.97181   18.189
 6247.00    0.93994   0.97278   17.877
 6248.00    0.93718   0.97178   17.561
 6249.00    0.93311   0.96958   17.618
 6250.00    0.92853   0.96587   17.803
 6251.00    0.92951   0.96134   17.418
 6252.00    0.93818   0.95729   16.492
 6253.00    0.95084   0.95431   15.672
 6254.00    0.95960   0.95269   15.438
 6255.00    0.95896   0.95283   15.925
 6256.00    0.95877   0.95471   16.454
 6257.00    0.97718   0.95921   15.875
 6258.00    1.02025   0.96576   14.386
 6259.00    1.07813   0.97161   13.003
 6260.00    1.12674   0.97698   12.216
 6261.00    1.14128   0.98340   12.130
 6262.00    1.11897   0.98868   12.665
 6263.00    1.07472   0.99091   13.691
 6264.00    1.02710   0.99283   15.187
 6265.00    0.99170   0.99563   17.090
 6266.00    0.97485   0.99724   18.790
 6267.00    0.97492   0.99779   19.367
 6268.00    0.98578   0.99914   19.004
 6269.00    0.99939   1.00109   18.595
 6270.00    1.00872   1.00258   18.567
 6271.00    1.00888   1.00348   18.844
 6272.00    0.99802   1.00387   18.916
 6273.00    0.97833   1.00383   18.505
 6274.00    0.95668   1.00313   18.258
 6275.00    0.94066   1.00167   18.604
 6276.00    0.93404   1.00015   18.746
 6277.00    0.93486   0.99907   18.011
 6278.00    0.93509   0.99832   17.260
 6279.00    0.93142   0.99860   17.175
 6280.00    0.93371   1.00028    0.000
 6281.00    0.95060   1.00295    0.000
 6282.00    0.97718   1.00620    0.000
 6283.00    1.00061   1.00955    0.000
 6284.00    1.00695   1.01263    0.000
 6285.00    0.99428   1.01513    0.000
 6286.00    0.97909   1.01667    0.000
 6287.00    0.97553   1.01671    0.000
 6288.00    0.98189   1.01535    0.000
 6289.00    0.98854   1.01327    0.000
 6290.00    0.98515   1.01050    0.000
 6291.00    0.97023   1.00676    0.000
 6292.00    0.95434   1.00282    0.000
 6293.00    0.94821   0.99933    0.000
 6294.00    0.95562   0.99572    0.000
 6295.00    0.97219   0.99194    0.000
 6296.00    0.98740   0.98905    0.000
 6297.00    0.99612   0.98766    0.000
 6298.00    1.00160   0.98718    0.000
 6299.00    1.00436   0.98711    0.000
 6300.00    0.99952   0.98812    0.000
 6301.00    0.98608   0.99134    0.000
 6302.00    0.97023   0.99573    0.000
 6303.00    0.96246   0.99932    0.000
 6304.00    0.97210   1.00248    0.000
 6305.00    0.99278   1.00590    0.000
 6306.00    1.00560   1.00811    0.000
 6307.00    1.00560   1.00824    0.000
 6308.00    1.00331   1.00687    0.000
 6309.00    1.00341   1.00395    0.000
 6310.00    1.00103   1.00015    0.000
 6311.00    0.98993   0.99668    0.000
 6312.00    0.96802   0.99234    0.000
 6313.00    0.94495   0.98725    0.000
 6314.00    0.93541   0.98471    0.000
 6315.00    0.93914   0.98451    0.000
 6316.00    0.94442   0.98393    0.000
 6317.00    0.94659   0.98482    0.000
 6318.00    0.94910   0.98919    0.000
 6319.00    0.95701   0.99443    0.000
 6320.00    0.97348   0.99872    0.000
 6321.00    0.99582   1.00352   19.754
 6322.00    1.01759   1.00880   19.804
 6323.00    1.03356   1.01305   19.305
 6324.00    1.04096   1.01587   18.975
 6325.00    1.03993   1.01738   18.859
 6326.00    1.03171   1.01830   18.687
 6327.00    1.01606   1.01866   18.537
 6328.00    0.99460   1.01760   18.544
 6329.00    0.97562   1.01498   18.411
 6330.00    0.96665   1.01167   17.916
 6331.00    0.96417   1.00848   17.542
 6332.00    0.96075   1.00511   17.759
 6333.00    0.95516   1.00109   18.311
 6334.00    0.95108   0.99773   18.626
 6335.00    0.95391   0.99686   18.489
 6336.00    0.96474   0.99721   18.075
 6337.00    0.97531   0.99669   17.730
 6338.00    0.97608   0.99648   17.688
 6339.00    0.96469   0.99753   17.907
 6340.00    0.94582   0.99821   18.245
 6341.00    0.92963   0.99749   18.598
 6342.00    0.92535   0.99705   18.886
 6343.00    0.93595   0.99838   19.050
 6344.00    0.95861   1.00022   19.075
 6345.00    0.98603   1.00163   19.013
 6346.00    1.01022   1.00387   18.964
 6347.00    1.02576   1.00701   19.035
 6348.00    1.03221   1.00874   19.169
 6349.00    1.03444   1.00843   19.085
 6350.00    1.03459   1.00739   18.726
 6351.00    1.02816   1.00553   18.437
 6352.00    1.01112   1.00143   18.393
 6353.00    0.98468   0.99561   18.401
 6354.00    0.95707   0.99030   18.301
 6355.00    0.94168   0.98540   18.136
 6356.00    0.94334   0.97944   17.847
 6357.00    0.95356   0.97395   17.253
 6358.00    0.96117   0.97120   16.536
 6359.00    0.95861   0.97018   16.170
 6360.00    0.94672   0.96981   16.267
 6361.00    0.93448   0.97157   16.529
 6362.00    0.93018   0.97594   16.670
 6363.00    0.93709   0.98135   16.616
 6364.00    0.95141   0.98670   16.497
 6365.00    0.96412   0.99218   16.547
 6366.00    0.96977   0.99794   16.860
 6367.00    0.96847   1.00333   17.368
 6368.00    0.96226   1.00757   17.986
 6369.00    0.95418   1.01092   18.625
 6370.00    0.94889   1.01428   19.097
 6371.00    0.95102   1.01725   19.204
 6372.00    0.96025   1.01860   19.130
 6373.00    0.97087   1.01863   19.267
 6374.00    0.97460   1.01856   19.566
 6375.00    0.96514   1.01791   19.634
 6376.00    0.94693   1.01596   19.461
 6377.00    0.93148   1.01416   19.337
 6378.00    0.92457   1.01318   19.226
 6379.00    0.92606   1.01219   18.893
 6380.00    0.93519   1.01180   18.387
 6381.00    0.95095   1.01256   17.929
 6382.00    0.97058   1.01334   17.601
 6383.00    0.98959   1.01379   17.414
 6384.00    1.00262   1.01454   17.466
 6385.00    1.00688   1.01487   17.767
 6386.00    1.00730   1.01399   17.896
 6387.00    1.00956   1.01199   17.503
 6388.00    1.00888   1.00920   17.158
 6389.00    0.99734   1.00669   17.434
 6390.00    0.97641   1.00439   17.763
 6391.00    0.95464   1.00148   17.276
 6392.00    0.94194   0.99974   16.353
 6393.00    0.94238   1.00007   15.788
 6394.00    0.94727   0.99971   15.855
 6395.00    0.94776   0.99856   16.489
 6396.00    0.94911   0.99970   17.285
 6397.00    0.95966   1.00138   17.764
 6398.00    0.97790   1.00140   17.932
 6399.00    0.99676   1.00292   18.048
 6400.00    1.00943   1.00629   18.191
 6401.00    1.01258   1.00809   18.346
 6402.00    1.00838   1.00821   18.513
 6403.00    0.99987   1.00877   18.612
 6404.00    0.98718   1.00943   18.437
 6405.00    0.96989   1.00807   18.036
 6406.00    0.94929   1.00515   17.873
 6407.00    0.93027   1.00381   18.126
 6408.00    0.92131   1.00363   18.324
 6409.00    0.92614   1.00207   18.109
 6410.00    0.93898   1.00088   17.769
 6411.00    0.95156   1.00180   17.631
 6412.00    0.95785   1.00224   17.737
 6413.00    0.95441   1.00157   18.005
 6414.00    0.94132   1.00147   18.312
 6415.00    0.92649   1.00119   18.468
 6416.00    0.92450   1.00056   18.282
 6417.00    0.93916   1.00113   17.908
 6418.00    0.95811   1.00264   17.814
 6419.00    0.96967   1.00424   18.175
 6420.00    0.97096   1.00725   18.718
 6421.00    0.96697   1.01159   19.098
 6422.00    0.96723   1.01488   19.124
 6423.00    0.97476   1.01689   18.849
 6424.00    0.98360   1.01828   18.494
 6425.00    0.98624   1.01791   18.152
 6426.00    0.97837   1.01560   17.766
 6427.00    0.96441   1.01312   17.331
 6428.00    0.95601   1.01052   16.955
 6429.00    0.96092   1.00781   16.859
 6430.00    0.97976   1.00643   17.232
 6431.00    1.00734   1.00649   17.760
 6432.00    1.03431   1.00668   17.718
 6433.00    1.05065   1.00631   17.106
 6434.00    1.04928   1.00645   16.591
 6435.00    1.03249   1.00801   16.525
 6436.00    1.01087   1.00939   16.879
 6437.00    0.99658   1.01021   17.326
 6438.00    0.99814   1.01290   17.431
 6439.00    1.01290   1.01703   17.314
 6440.00    1.03046   1.01979   17.416
 6441.00    1.04299   1.02129   17.705
 6442.00    1.04686   1.02255   17.831
 6443.00    1.04163   1.02174   17.768
 6444.00    1.03073   1.01739   17.708
 6445.00    1.02274   1.01196   17.602
 6446.00    1.02492   1.00733   17.311
 6447.00    1.03287   1.00198   16.947
 6448.00    1.03643   0.99712   16.794
 6449.00    1.03107   0.99553   17.160
 6450.00    1.01780   0.99545   18.090
 6451.00    1.00054   0.99557   18.755
 6452.00    0.98476   0.99776   18.122
 6453.00    0.97620   1.00090   16.650
 6454.00    0.97874   1.00276   15.299
 6455.00    0.99203   1.00483   14.393
 6456.00    1.01025   1.00677   13.923
 6457.00    1.02181   1.00604   13.795
 6458.00    1.01898   1.00491   14.009
 6459.00    1.00725   1.00540   14.798
 6460.00    0.99725   1.00473   16.231
 6461.00    0.99562   1.00376   17.437
 6462.00    1.00109   1.00552   17.463
 6463.00    1.00306   1.00805   17.096
 6464.00    0.99401   1.00948   17.320
 6465.00    0.97897   1.01161   18.043
 6466.00    0.96641   1.01386   18.655
 6467.00    0.96058   1.01469   18.567
 6468.00    0.96374   1.01541   17.868
 6469.00    0.97792   1.01565   17.381
 6470.00    1.00384   1.01495   17.439
 6471.00    1.03938   1.01516   17.511
 6472.00    1.07469   1.01593   17.309
 6473.00    1.09208   1.01525   17.348
 6474.00    1.08268   1.01444   17.922
 6475.00    1.05467   1.01441   18.612
 6476.00    1.02358   1.01273   18.881
 6477.00    1.00439   1.00952   18.607
 6478.00    1.00035   1.00733   18.136
 6479.00    1.00113   1.00568   17.980
 6480.00    1.00002   1.00338   18.139
 6481.00    0.99965   1.00190   18.058
 6482.00    1.00135   1.00189   17.668
 6483.00    1.00175   1.00174   17.537
 6484.00    0.99895   1.00047   17.762
 6485.00    0.99414   0.99789   17.848
 6486.00    0.98836   0.99355   17.693
 6487.00    0.98147   0.98697   17.729
 6488.00    0.97323   0.97737   17.984
 6489.00    0.96372   0.96517   18.029
 6490.00    0.95373   0.95311   17.929
 6491.00    0.94473   0.94210   18.201
 6492.00    0.93842   0.93223   18.764
 6493.00    0.93545   0.92607   18.943
 6494.00    0.93226   0.92448   18.688
 6495.00    0.92382   0.92702   18.574
 6496.00    0.91242   0.93340   18.730
 6497.00    0.90610   0.94251   18.856
 6498.00    0.90973   0.95324   18.824
 6499.00    0.92273   0.96464   18.730
 6500.00    0.93921   0.97535   18.619
 6501.00    0.95195   0.98448   18.485
 6502.00    0.96004   0.99208   18.363
 6503.00    0.96685   0.99771   18.302
 6504.00    0.97314   1.00162   18.296
 6505.00    0.97726   1.00457   18.305
 6506.00    0.97789   1.00607   18.337
 6507.00    0.97627   1.00625   18.408
 6508.00    0.97875   1.00623   18.469
 6509.00    0.99095   1.00568   18.416
 6510.00    1.00852   1.00363   18.145
 6511.00    1.02126   1.00122   17.736
 6512.00    1.02093   0.99946   17.598
 6513.00    1.00545   0.99716   18.016
 6514.00    0.98258   0.99483   18.602
 6515.00    0.96418   0.99440   18.793
 6516.00    0.95859   0.99498   18.769
 6517.00    0.96681   0.99561   18.915
 6518.00    0.98013   0.99719   19.050
 6519.00    0.98938   0.99967   18.915
 6520.00    0.99443   1.00162   18.769
 6521.00    0.99848   1.00242   18.839
 6522.00    1.00174   1.00281   18.833
 6523.00    1.00127   1.00303   18.583
 6524.00    0.99229   1.00240   18.551
 6525.00    0.97546   1.00109   18.933
 6526.00    0.96164   0.99998   18.999
 6527.00    0.96034   0.99912   18.362
 6528.00    0.97078   0.99811    0.000
 6529.00    0.98549   0.99738    0.000
 6530.00    0.99444   0.99738    0.000
 6531.00    0.99214   0.99762    0.000
 6532.00    0.98198   0.99776    0.000
 6533.00    0.97374   0.99830    0.000
 6534.00    0.97976   0.99913    0.000
 6535.00    1.00219   0.99931    0.000
 6536.00    1.02830   0.99868    0.000
 6537.00    1.04435   0.99739    0.000
 6538.00    1.04447   0.99503    0.000
 6539.00    1.03524   0.99159    0.000
 6540.00    1.03549   0.98709    0.000
 6541.00    1.06581   0.98164    0.000
 6542.00    1.14020   0.97653    0.000
 6543.00    1.25226   0.97189    0.000
 6544.00    1.37281   0.96704    0.000
 6545.00    1.46424   0.96267    0.000
 6546.00    1.49270   0.95900    0.000
 6547.00    1.45045   0.95508    0.000
 6548.00    1.35849   0.95035    0.000
 6549.00    1.24720   0.94466    0.000
 6550.00    1.14563   0.93760    0.000
 6551.00    1.07046   0.92905    0.000
 6552.00    1.02696   0.91898    0.000
 6553.00    1.02285   0.90653    0.000
 6554.00    1.08188   0.89122    0.000
 6555.00    1.26808   0.87462    0.000
 6556.00    1.66133   0.85707    0.000
 6557.00    2.27949   0.83654    0.000
 6558.00    3.05210   0.81706    0.000
 6559.00    3.80902   0.80524    0.000
 6560.00    4.32953   0.79800    0.000
 6561.00    4.45417   0.79460    0.000
 6562.00    4.13296   0.80184    0.000
 6563.00    3.46868   0.81720    0.000
 6564.00    2.66843   0.83309    0.000
 6565.00    1.93514   0.85101    0.000
 6566.00    1.40951   0.87110    0.000
 6567.00    1.10834   0.88736    0.000
 6568.00    0.96463   0.89958    0.000
 6569.00    0.91032   0.91047    0.000
 6570.00    0.89576   0.91908    0.000
 6571.00    0.89798   0.92581    0.000
 6572.00    0.91200   0.93242    0.000
 6573.00    0.93721   0.93879    0.000
 6574.00    0.97829   0.94490    0.000
 6575.00    1.04883   0.95090    0.000
 6576.00    1.17098   0.95612    0.000
 6577.00    1.37235   0.96075    0.000
 6578.00    1.65902   0.96484    0.000
 6579.00    1.98712   0.96792    0.000
 6580.00    2.28078   0.97047    0.000
 6581.00    2.45729   0.97259    0.000
 6582.00    2.45987   0.97438    0.000
 6583.00    2.28706   0.97591    0.000
 6584.00    1.98936   0.97646    0.000
 6585.00    1.65835   0.97614    0.000
 6586.00    1.37759   0.97549    0.000
 6587.00    1.18290   0.97339    0.000
 6588.00    1.07185   0.96972    0.000
 6589.00    1.01669   0.96689    0.000
 6590.00    0.98710   0.96477    0.000
 6591.00    0.96608   0.96236    0.000
 6592.00    0.94745   0.96168    0.000
 6593.00    0.93301   0.96338    0.000
 6594.00    0.92863   0.96578    0.000
 6595.00    0.94025   0.96891    0.000
 6596.00    0.96415   0.97298    0.000
 6597.00    0.98452   0.97665    0.000
 6598.00    0.99050   0.97946    0.000
 6599.00    0.98452   0.98142    0.000
 6600.00    0.97657   0.98194    0.000
 6601.00    0.97826   0.98122    0.000
 6602.00    0.99033   0.98000    0.000
 6603.00    1.00061   0.97817    0.000
 6604.00    1.00036   0.97595    0.000
 6605.00    0.99096   0.97467    0.000
 6606.00    0.98093   0.97470    0.000
 6607.00    0.98111   0.97530    0.000
 6608.00    0.99168   0.97664    0.000
 6609.00    1.00235   0.97933   18.214
 6610.00    1.00902   0.98276   18.190
 6611.00    1.01559   0.98576   18.069
 6612.00    1.02074   0.98849   17.974
 6613.00    1.01770   0.99139   18.129
 6614.00    1.00590   0.99375   18.429
 6615.00    0.99164   0.99496   18.504
 6616.00    0.98003   0.99542   18.370
 6617.00    0.97265   0.99547   18.354
 6618.00    0.96765   0.99473   18.439
 6619.00    0.96158   0.99281   18.359
 6620.00    0.95358   0.99047   18.199
 6621.00    0.94489   0.98843   18.271
 6622.00    0.93560   0.98602   18.566
 6623.00    0.92617   0.98336   18.796
 6624.00    0.92154   0.98143   18.732
 6625.00    0.92755   0.97961   18.386
 6626.00    0.94270   0.97733   18.103
 6627.00    0.95966   0.97538   18.187
 6628.00    0.97078   0.97347   18.382
 6629.00    0.97054   0.97134   18.276
 6630.00    0.95814   0.97008   18.124
 6631.00    0.93957   0.96955   18.337
 6632.00    0.92943   0.96938   18.578
 6633.00    0.94087   0.97049   18.338
 6634.00    0.97145   0.97228   17.981
 6635.00    1.00759   0.97354   18.008
 6636.00    1.03342   0.97508   18.136
 6637.00    1.03838   0.97665   17.977
 6638.00    1.02461   0.97674   17.936
 6639.00    1.00293   0.97643   18.399
 6640.00    0.98661   0.97685   18.791
 6641.00    0.98376   0.97669   18.525
 6642.00    0.99085   0.97612   18.239
 6643.00    1.00020   0.97673   18.568
 6644.00    1.00781   0.97790   19.096
 6645.00    1.01156   0.97849   19.198
 6646.00    1.00917   0.97922   19.029
 6647.00    1.00095   0.98042   18.910
 6648.00    0.99160   0.98108   18.744
 6649.00    0.98641   0.98108   18.468
 6650.00    0.98782   0.98121   18.342
 6651.00    0.99393   0.98109   18.527
 6652.00    0.99874   0.98029   18.835
 6653.00    0.99992   0.97947   18.941
 6654.00    1.00219   0.97838   18.624
 6655.00    1.00493   0.97633   18.045
 6656.00    0.99721   0.97414   17.702
 6657.00    0.97586   0.97194   17.834
 6658.00    0.95304   0.96873   18.252
 6659.00    0.93885   0.96569   18.651
 6660.00    0.93329   0.96380   18.799
 6661.00    0.93491   0.96201   18.726
 6662.00    0.94438   0.96087   18.707
 6663.00    0.96000   0.96157   18.779
 6664.00    0.97659   0.96316   18.673
 6665.00    0.98980   0.96504   18.449
 6666.00    0.99832   0.96766   18.538
 6667.00    1.00479   0.97038   18.913
 6668.00    1.01374   0.97243   18.999
 6669.00    1.02302   0.97335   18.724
 6670.00    1.02481   0.97296   18.629
 6671.00    1.01991   0.97171   18.782
 6672.00    1.01749   0.96908   18.739
 6673.00    1.01868   0.96507   18.552
 6674.00    1.01537   0.96175   18.700
 6675.00    1.00245   0.95942   19.037
 6676.00    0.98234   0.95718   18.870
 6677.00    0.96708   0.95672   18.260
 6678.00    0.97025   0.95877   17.866
 6679.00    0.98609   0.96127   17.849
 6680.00    0.99512   0.96403   17.957
 6681.00    0.98956   0.96780   18.054
 6682.00    0.97551   0.97124   18.165
 6683.00    0.96416   0.97354   18.312
 6684.00    0.96401   0.97546   18.442
 6685.00    0.96964   0.97694   18.392
 6686.00    0.96869   0.97750   18.109
 6687.00    0.95879   0.97745   18.020
 6688.00    0.94675   0.97697   18.547
 6689.00    0.94138   0.97604   19.225
 6690.00    0.94797   0.97460   19.171
 6691.00    0.96174   0.97268   18.612
 6692.00    0.97332   0.97088   18.328
 6693.00    0.97833   0.96931   18.509
 6694.00    0.97779   0.96778   18.903
 6695.00    0.97641   0.96690   19.059
 6696.00    0.97984   0.96678    0.000
 6697.00    0.99114   0.96688    0.000
 6698.00    1.00731   0.96721    0.000
 6699.00    1.01654   0.96767    0.000
 6700.00    1.01004   0.96795    0.000
 6701.00    0.99468   0.96817    0.000
 6702.00    0.98167   0.96806    0.000
 6703.00    0.97368   0.96773    0.000
 6704.00    0.96921   0.96757    0.000
 6705.00    0.96802   0.96693    0.000
 6706.00    0.97227   0.96571    0.000
 6707.00    0.98694   0.96444    0.000
 6708.00    1.01915   0.96243    0.000
 6709.00    1.07695   0.95944    0.000
 6710.00    1.16471   0.95634    0.000
 6711.00    1.27884   0.95312    0.000
 6712.00    1.40284   0.94955    0.000
 6713.00    1.50610   0.94657    0.000
 6714.00    1.55931   0.94496    0.000
 6715.00    1.54601   0.94430    0.000
 6716.00    1.46928   0.94452    0.000
 6717.00    1.35341   0.94620    0.000
 6718.00    1.23180   0.94885    0.000
 6719.00    1.13635   0.95155    0.000
 6720.00    1.08017   0.95420    0.000
 6721.00    1.05280   0.95677    0.000
 6722.00    1.04244   0.95901    0.000
 6723.00    1.04765   0.96076    0.000
 6724.00    1.07762   0.96203    0.000
 6725.00    1.14582   0.96320    0.000
 6726.00    1.24321   0.96433    0.000
 6727.00    1.33472   0.96505    0.000
 6728.00    1.39107   0.96550    0.000
 6729.00    1.40048   0.96585    0.000
 6730.00    1.36372   0.96579    0.000
 6731.00    1.29111   0.96524    0.000
 6732.00    1.19961   0.96441    0.000
 6733.00    1.10958   0.96328    0.000
 6734.00    1.03795   0.96178    0.000
 6735.00    0.99462   0.96011    0.000
 6736.00    0.97871   0.95855    0.000
 6737.00    0.98030   0.95690    0.000
 6738.00    0.98821   0.95515    0.000
 6739.00    0.99375   0.95383    0.000
 6740.00    0.99442   0.95278    0.000
 6741.00    0.99243   0.95139    0.000
 6742.00    0.98912   0.95017    0.000
 6743.00    0.98367   0.94945    0.000
 6744.00    0.97342   0.94842    0.000
 6745.00    0.95749   0.94719    0.000
 6746.00    0.94363   0.94671    0.000
 6747.00    0.94208   0.94661    0.000
 6748.00    0.95216   0.94636    0.000
 6749.00    0.96622   0.94711    0.000
 6750.00    0.98077   0.94892    0.000
 6751.00    0.99561   0.95067    0.000
 6752.00    1.00913   0.95308    0.000
 6753.00    1.01827   0.95639   12.407
 6754.00    1.01965   0.95933   12.622
 6755.00    1.01256   0.96203   12.993
 6756.00    1.00253   0.96473   13.580
 6757.00    0.99759   0.96651   14.402
 6758.00    1.00253   0.96741   14.892
 6759.00    1.01657   0.96760   14.578
 6760.00    1.03184   0.96680   14.221
 6761.00    1.03920   0.96530   14.545
 6762.00    1.03519   0.96331   15.113
 6763.00    1.02372   0.96096   15.177
 6764.00    1.01617   0.95895   14.930
 6765.00    1.02031   0.95737   14.828
 6766.00    1.03069   0.95617   14.799
 6767.00    1.03852   0.95612   14.661
 6768.00    1.04100   0.95722   14.512
 6769.00    1.03839   0.95875   14.532
 6770.00    1.03129   0.96097   14.814
 6771.00    1.02387   0.96392   15.312
 6772.00    1.02551   0.96663   15.772
 6773.00    1.04252   0.96873   15.906
 6774.00    1.07192   0.97045   15.625
 6775.00    1.09957   0.97112   15.148
 6776.00    1.10330   0.97034   14.874
 6777.00    1.07817   0.96869   14.950
 6778.00    1.04725   0.96611   15.152
 6779.00    1.03255   0.96258   15.308
 6780.00    1.03802   0.95912   15.521
 6781.00    1.05255   0.95601   15.925
 6782.00    1.05597   0.95327   16.511
 6783.00    1.03849   0.95172   17.017
 6784.00    1.00785   0.95125   16.960
 6785.00    0.97694   0.95119   16.317
 6786.00    0.95668   0.95185   15.615
 6787.00    0.95137   0.95295   15.126
 6788.00    0.95927   0.95352   14.775
 6789.00    0.98248   0.95389   14.485
 6790.00    1.02471   0.95442   14.284
 6791.00    1.06919   0.95449   14.273
 6792.00    1.08393   0.95444   14.575
 6793.00    1.06657   0.95490   15.118
 6794.00    1.04530   0.95549   15.615
 6795.00    1.03308   0.95615   15.919
 6796.00    1.02194   0.95714   16.096
 6797.00    1.00951   0.95818   16.047
 6798.00    1.00026   0.95905   15.628
 6799.00    0.98734   0.95959   15.232
 6800.00    0.95934   0.95996   15.420
 6801.00    0.92901   0.96014   16.015
 6802.00    0.92257   0.95964   16.312
 6803.00    0.93875   0.95911   16.418
 6804.00    0.95568   0.95878   17.027
 6805.00    0.96660   0.95787   17.845
 6806.00    0.97733   0.95708   17.753
 6807.00    0.98601   0.95675   16.721
 6808.00    0.98779   0.95612   15.580
 6809.00    0.99081   0.95567   14.648
 6810.00    1.00751   0.95561   13.922
 6811.00    1.03494   0.95556   13.471
 6812.00    1.05978   0.95582   13.394
 6813.00    1.07203   0.95628   13.750
 6814.00    1.06865   0.95685   14.519
 6815.00    1.05536   0.95775   15.463
 6816.00    1.04138   0.95871   16.127
 6817.00    1.03197   0.95970   16.161
 6818.00    1.02808   0.96078   15.704
 6819.00    1.02759   0.96174   15.454
 6820.00    1.02789   0.96244   15.869
 6821.00    1.02869   0.96286   16.490
 6822.00    1.02967   0.96294   16.523
 6823.00    1.02777   0.96251   15.947
 6824.00    1.02095   0.96183   15.318
 6825.00    1.01183   0.96119   15.180
 6826.00    1.00381   0.96047   15.668
 6827.00    0.99715   0.95988   16.201
 6828.00    0.99084   0.95961   16.214
 6829.00    0.98472   0.95941   16.088
 6830.00    0.98004   0.95910   16.275
 6831.00    0.97960   0.95840   16.541
 6832.00    0.98596   0.95710   16.387
 6833.00    0.99975   0.95523   15.572
 6834.00    1.01711   0.95256   14.412
 6835.00    1.02907   0.94929   13.521
 6836.00    1.02889   0.94603   13.137
 6837.00    1.01669   0.94296   13.103
 6838.00    0.99657   0.94056   13.371
 6839.00    0.97404   0.93938   14.175
 6840.00    0.95197   0.93941   15.514
 6841.00    0.92987   0.94061   16.611
 6842.00    0.91189   0.94279   16.869
 6843.00    0.90869   0.94551   16.861
 6844.00    0.92527   0.94825   17.027
 6845.00    0.95584   0.95060   17.065
 6846.00    0.98920   0.95234   16.838
 6847.00    1.01234   0.95309   16.676
 6848.00    1.01486   0.95293   16.768
 6849.00    0.99306   0.95209   16.985
 6850.00    0.95872   0.95023   17.068
 6851.00    0.93575   0.94799   16.795
 6852.00    0.93602   0.94604   16.286
 6853.00    0.95333   0.94366   15.880
 6854.00    0.97409   0.94158   15.612
 6855.00    0.98505   0.94070   15.266
 6856.00    0.98531   0.93994   14.857
 6857.00    0.98419   0.93949   14.623
 6858.00    0.98423   0.94022   14.740
 6859.00    0.98107   0.94114   15.248
 6860.00    0.97652   0.94180   15.905
 6861.00    0.97682   0.94281   16.224
 6862.00    0.97927   0.94376   16.048
 6863.00    0.97587   0.94401   15.649
 6864.00    0.96921   0.94391   15.305
 6865.00    0.96903   0.94387   15.169
 6866.00    0.97709   0.94356   15.276
 6867.00    0.98819   0.94302   15.569
 6868.00    0.99885   0.94294   15.929
 6869.00    1.00690   0.94331   16.218
 6870.00    1.00741   0.94370   16.389
 6871.00    0.99515   0.94438   16.470
 6872.00    0.96981   0.94556   16.472
 6873.00    0.93634   0.94668   16.420
 6874.00    0.90372   0.94748   16.424
 6875.00    0.88267   0.94814   16.549
 6876.00    0.88221   0.94857   16.615
 6877.00    0.90510   0.94849   16.432
 6878.00    0.94256   0.94807   16.174
 6879.00    0.97911   0.94783   16.068
 6880.00    1.00017   0.94799   16.022
 6881.00    0.99958   0.94832   15.916
 6882.00    0.98656   0.94924   15.949
 6883.00    0.97470   0.95124   16.289
 6884.00    0.96916   0.95337   16.678
 6885.00    0.96962   0.95543   16.779
 6886.00    0.97479   0.95803   16.684
 6887.00    0.98352   0.96021   16.617
 6888.00    0.99529   0.96145   16.579
 6889.00    1.00853   0.96255   16.473
 6890.00    1.01893   0.96319   16.244
 6891.00    1.01897   0.96295   16.017
 6892.00    0.99919   0.96262   16.107
 6893.00    0.96076   0.96238   16.512
 6894.00    0.92277   0.96194   16.573
 6895.00    0.90386   0.96163   15.976
 6896.00    0.90936   0.96168   15.369
 6897.00    0.93552   0.96200   15.123
 6898.00    0.97337   0.96239   14.913
 6899.00    1.01059   0.96297   14.607
 6900.00    1.03385   0.96384   14.593
 6901.00    1.03589   0.96461   15.098
 6902.00    1.01909   0.96534   15.893
 6903.00    0.99287   0.96604   16.573
 6904.00    0.97036   0.96628   16.821
 6905.00    0.96026   0.96630   16.709
 6906.00    0.96316   0.96582   16.666
 6907.00    0.97376   0.96457   16.803
 6908.00    0.98300   0.96328   16.804
 6909.00    0.98219   0.96150   16.671
 6910.00    0.96646   0.95937   16.830
 6911.00    0.94075   0.95804   17.276
 6912.00    0.91848   0.95685   17.422
 6913.00    0.90811   0.95596   17.065
 6914.00    0.90925   0.95630   16.616
 6915.00    0.91676   0.95685   16.336
 6916.00    0.92400   0.95740   16.201
 6917.00    0.92821   0.95833   16.118
 6918.00    0.93182   0.95885   15.989
 6919.00    0.94139   0.95878   15.725
 6920.00    0.96290   0.95845   15.321
 6921.00    0.99069   0.95779   14.979
 6922.00    1.00997   0.95701   14.981
 6923.00    1.01048   0.95646   15.413
 6924.00    0.99168   0.95621   16.107
 6925.00    0.96624   0.95631   16.528
 6926.00    0.95136   0.95675   16.179
 6927.00    0.94924   0.95742   15.668
 6928.00    0.95108   0.95808   15.862
 6929.00    0.95358   0.95864   16.425
 6930.00    0.95927   0.95936   16.327
 6931.00    0.97082   0.96002   15.647
 6932.00    0.98559   0.96048   15.161
 6933.00    0.98905   0.96127   15.062
 6934.00    0.96926   0.96199   15.163
 6935.00    0.94067   0.96234   15.277
 6936.00    0.92714   0.96267   15.278
 6937.00    0.93185   0.96258   15.161
 6938.00    0.94260   0.96180   15.019
 6939.00    0.94567   0.96091   14.991
 6940.00    0.93421   0.95968   15.134
 6941.00    0.91567   0.95807   15.290
 6942.00    0.90205   0.95710   15.317
 6943.00    0.89742   0.95629   15.396
 6944.00    0.90094   0.95543   15.693
 6945.00    0.91160   0.95549   15.955
 6946.00    0.92629   0.95555   15.896
 6947.00    0.93789   0.95522   15.685
 6948.00    0.94050   0.95550   15.568
 6949.00    0.93476   0.95570   15.500
 6950.00    0.92722   0.95560   15.420
 6951.00    0.92838   0.95622   15.476
 6952.00    0.94276   0.95716   15.691
 6953.00    0.96207   0.95809   15.726
 6954.00    0.97571   0.95960   15.422
 6955.00    0.97933   0.96128   15.158
 6956.00    0.97532   0.96269   15.210
 6957.00    0.97128   0.96424   15.413
 6958.00    0.97006   0.96552   15.477
 6959.00    0.96523   0.96635   15.260
 6960.00    0.95421   0.96732   14.979
 6961.00    0.94477   0.96787   15.095
 6962.00    0.94443   0.96810   15.357
 6963.00    0.95387   0.96864   14.563
 6964.00    0.96611   0.96868   12.790
 6965.00    0.96896   0.96845   11.354
 6966.00    0.95908   0.96827   10.666
 6967.00    0.94578   0.96715   10.513
 6968.00    0.93697   0.96544   10.623
 6969.00    0.93348   0.96329   10.734
 6970.00    0.93324   0.95990   10.732
 6971.00    0.93425   0.95574   10.696
 6972.00    0.93809   0.95147   10.654
 6973.00    0.94861   0.94708   10.545
 6974.00    0.96232   0.94290   10.393
 6975.00    0.96882   0.94014   10.321
 6976.00    0.96404   0.93926   10.372
 6977.00    0.95280   0.93959   10.496
 6978.00    0.94235   0.94177   10.612
 6979.00    0.93848   0.94565   10.655
 6980.00    0.94063   0.94977   10.631
 6981.00    0.94305   0.95401   10.604
 6982.00    0.94183   0.95802   10.618
 6983.00    0.93768   0.96107   10.665
 6984.00    0.93779   0.96321   10.663
 6985.00    0.94977   0.96458   10.529
 6986.00    0.96713   0.96537   10.340
 6987.00    0.97571   0.96572   10.249
 6988.00    0.97431   0.96583   10.264
 6989.00    0.97128   0.96583   10.296
 6990.00    0.96909   0.96558   10.319
 6991.00    0.96636   0.96517   10.348
 6992.00    0.96711   0.96442   10.340
 6993.00    0.97505   0.96318   10.256
 6994.00    0.98149   0.96179   10.189
 6995.00    0.97467   0.96007   10.260
 6996.00    0.95750   0.95809   10.444
 6997.00    0.93990   0.95634   10.639
 6998.00    0.92384   0.95478   10.824
 6999.00    0.90877   0.95338   11.004
 7000.00    0.90138   0.95244   11.094
 7001.00    0.90926   0.95201   -2.000
 7002.00    0.93089   0.95191   -2.000
 7003.00    0.95638   0.95214   -2.000
 7004.00    0.97037   0.95269   -2.000
 7005.00    0.96169   0.95336   -2.000
 7006.00    0.93329   0.95385   -2.000
 7007.00    0.89896   0.95404   -2.000
 7008.00    0.87752   0.95384   -2.000
 7009.00    0.87904   0.95289   -2.000
 7010.00    0.89392   0.95159   -2.000
 7011.00    0.90948   0.95024   -2.000
 7012.00    0.92463   0.94849   -2.000
 7013.00    0.94051   0.94736   -2.000
 7014.00    0.95281   0.94714   -2.000
 7015.00    0.95892   0.94704   -2.000
 7016.00    0.96295   0.94762   -2.000
 7017.00    0.96795   0.94877   -2.000
 7018.00    0.97146   0.94960   -2.000
 7019.00    0.97466   0.95027   -2.000
 7020.00    0.98626   0.95087   -2.000
 7021.00    1.00776   0.95130   -2.000
 7022.00    1.02713   0.95184   -2.000
 7023.00    1.03591   0.95266   -2.000
 7024.00    1.03750   0.95388   -2.000
 7025.00    1.03695   0.95541   -2.000
 7026.00    1.03538   0.95716   -2.000
 7027.00    1.03023   0.95887   -2.000
 7028.00    1.01734   0.96016   -2.000
 7029.00    0.99866   0.96143   -2.000
 7030.00    0.98325   0.96226   -2.000
 7031.00    0.97661   0.96237   -2.000
 7032.00    0.97691   0.96297   -2.000
 7033.00    0.97855   0.96371   -2.000
 7034.00    0.97597   0.96417   -2.000
 7035.00    0.97169   0.96580   -2.000
 7036.00    0.97483   0.96831   -2.000
 7037.00    0.98670   0.97072   -2.000
 7038.00    0.99972   0.97387   -2.000
 7039.00    1.00966   0.97744   -2.000
 7040.00    1.01680   0.98032   -2.000
 7041.00    1.01828   0.98279   -2.000
 7042.00    1.00892   0.98482   -2.000
 7043.00    0.98949   0.98569   -2.000
 7044.00    0.96718   0.98570   -2.000
 7045.00    0.95109   0.98471   -2.000
 7046.00    0.94835   0.98242   -2.000
 7047.00    0.95818   0.97932   -2.000
 7048.00    0.97244   0.97513   -2.000
 7049.00    0.98000   0.97019   -2.000
 7050.00    0.97238   0.96526   -2.000
 7051.00    0.95273   0.96026   -2.000
 7052.00    0.93251   0.95571   -2.000
 7053.00    0.92209   0.95188   -2.000
 7054.00    0.92529   0.94883   -2.000
 7055.00    0.93365   0.94644   -2.000
 7056.00    0.93437   0.94435   -2.000
 7057.00    0.92439   0.94306   -2.000
 7058.00    0.91191   0.94196   -2.000
 7059.00    0.91414   0.94061   -2.000
 7060.00    0.93770   0.93994   -2.000
 7061.00    0.95444   0.93908   -2.000
 7062.00    0.93328   0.93792   -2.000
 7063.00    0.88318   0.93757   -2.000
 7064.00    0.83370   0.93714   -2.000
 7065.00    0.80528   0.93695   -2.000
 7066.00    0.80168   0.93803   -2.000
 7067.00    0.80714   0.93943   -2.000
 7068.00    0.80665   0.94125   -2.000
 7069.00    0.80533   0.94388   -2.000
 7070.00    0.81071   0.94647   -2.000
 7071.00    0.81574   0.94881   -2.000
 7072.00    0.81413   0.95086   -2.000
 7073.00    0.81368   0.95228   -2.000
 7074.00    0.82234   0.95295   -2.000
 7075.00    0.83688   0.95265   -2.000
 7076.00    0.85232   0.95142   -2.000
 7077.00    0.86893   0.94901   -2.000
 7078.00    0.88601   0.94547   -2.000
 7079.00    0.89759   0.94131   -2.000
 7080.00    0.89611   0.93596   -2.000
 7081.00    0.87620   0.93022   -2.000
 7082.00    0.84144   0.92506   -2.000
 7083.00    0.80634   0.91955   -2.000
 7084.00    0.78434   0.91485   -2.000
 7085.00    0.78040   0.91157   -2.000
 7086.00    0.78989   0.90841   -2.000
 7087.00    0.80063   0.90652   -2.000
 7088.00    0.80555   0.90576   -2.000
 7089.00    0.80782   0.90508   -2.000
 7090.00    0.81563   0.90551   -2.000
 7091.00    0.83598   0.90643   -2.000
 7092.00    0.85970   0.90759   -2.000
 7093.00    0.86391   0.90932   -2.000
 7094.00    0.84567   0.91108   -2.000
 7095.00    0.82707   0.91307   -2.000
 7096.00    0.82557   0.91493   -2.000
 7097.00    0.84424   0.91663   -2.000
 7098.00    0.87671   0.91824   -2.000
 7099.00    0.91007   0.91925   -2.000
 7100.00    0.92818   0.91993   -2.000
 7101.00    0.91703   0.92039   -2.000
 7102.00    0.87670   0.92033   -2.000
 7103.00    0.82067   0.91973   -2.000
 7104.00    0.76486   0.91886   -2.000
 7105.00    0.72431   0.91787   -2.000
 7106.00    0.71255   0.91666   -2.000
 7107.00    0.73549   0.91542   -2.000
 7108.00    0.77844   0.91449   -2.000
 7109.00    0.81477   0.91407   -2.000
 7110.00    0.83038   0.91391   -2.000
 7111.00    0.82595   0.91409   -2.000
 7112.00    0.81063   0.91474   -2.000
 7113.00    0.79539   0.91538   -2.000
 7114.00    0.78377   0.91599   -2.000
 7115.00    0.77881   0.91624   -2.000
 7116.00    0.79697   0.91624   -2.000
 7117.00    0.85127   0.91618   -2.000
 7118.00    0.92244   0.91514   -2.000
 7119.00    0.97902   0.91401   -2.000
 7120.00    1.01311   0.91295   -2.000
 7121.00    1.03506   0.91105   -2.000
 7122.00    1.05830   0.90917   -2.000
 7123.00    1.08544   0.90709   -2.000
 7124.00    1.09520   0.90487   -2.000
 7125.00    1.07007   0.90318   -2.000
 7126.00    1.02819   0.90140   -2.000
 7127.00    0.99187   0.90035   -2.000
 7128.00    0.95186   0.90049   -2.000
 7129.00    0.89749   0.90091   -2.000
 7130.00    0.84818   0.90248   -2.000
 7131.00    0.82185   0.90476   -2.000
 7132.00    0.80503   0.90680   -2.000
 7133.00    0.78167   0.90948   -2.000
 7134.00    0.75898   0.91197   -2.000
 7135.00    0.75124   0.91337   -2.000
 7136.00    0.76457   0.91476   -2.000
 7137.00    0.79695   0.91582   -2.000
 7138.00    0.83910   0.91568   -2.000
 7139.00    0.87615   0.91541   -2.000
 7140.00    0.89179   0.91484   -2.000
 7141.00    0.88919   0.91311   -2.000
 7142.00    0.89687   0.91193   -2.000
 7143.00    0.92096   0.91077   -2.000
 7144.00    0.92602   0.90884   -2.000
 7145.00    0.89515   0.90852   -2.000
 7146.00    0.85665   0.90911   -2.000
 7147.00    0.83825   0.90970   -2.000
 7148.00    0.84399   0.91175   -2.000
 7149.00    0.86475   0.91458   -2.000
 7150.00    0.88610   0.91753   -2.000
 7151.00    0.89761   0.92032   -2.000
 7152.00    0.89770   0.92281   -2.000
 7153.00    0.89594   0.92501   -2.000
 7154.00    0.90935   0.92596   -2.000
 7155.00    0.94489   0.92613   -2.000
 7156.00    0.99304   0.92554   -2.000
 7157.00    1.03026   0.92381   -2.000
 7158.00    1.02908   0.92194   -2.000
 7159.00    0.98739   0.91976   -2.000
 7160.00    0.92936   0.91736   -2.000
 7161.00    0.87772   0.91572   -2.000
 7162.00    0.84643   0.91510   -2.000
 7163.00    0.84559   0.91544   -2.000
 7164.00    0.87840   0.91684   -2.000
 7165.00    0.92968   0.91917   -2.000
 7166.00    0.97037   0.92198   -2.000
 7167.00    0.97632   0.92509   -2.000
 7168.00    0.94014   0.92799   -2.000
 7169.00    0.88631   0.93004   -2.000
 7170.00    0.85111   0.93148   -2.000
 7171.00    0.83452   0.93214   -2.000
 7172.00    0.81478   0.93147   -2.000
 7173.00    0.79674   0.93029   -2.000
 7174.00    0.80086   0.92883   -2.000
 7175.00    0.82616   0.92669   -2.000
 7176.00    0.85482   0.92452   -2.000
 7177.00    0.87192   0.92234   -2.000
 7178.00    0.87163   0.92036   -2.000
 7179.00    0.86120   0.91904   -2.000
 7180.00    0.85302   0.91721   -2.000
 7181.00    0.85252   0.91546   -2.000
 7182.00    0.86254   0.91420   -2.000
 7183.00    0.89047   0.91209   -2.000
 7184.00    0.93110   0.91048   -2.000
 7185.00    0.94677   0.90934   -2.000
 7186.00    0.90794   0.90802   -2.000
 7187.00    0.84057   0.90801   -2.000
 7188.00    0.78885   0.90844   -2.000
 7189.00    0.76940   0.90905   -2.000
 7190.00    0.77951   0.91052   -2.000
 7191.00    0.81098   0.91245   -2.000
 7192.00    0.85573   0.91418   -2.000
 7193.00    0.90965   0.91549   -2.000
 7194.00    0.96981   0.91707   -2.000
 7195.00    1.03164   0.91822   -2.000
 7196.00    1.08769   0.91884   -2.000
 7197.00    1.12643   0.91930   -2.000
 7198.00    1.12991   0.91894   -2.000
 7199.00    1.07687   0.91854   -2.000
 7200.00    0.97749   0.91773   -2.000
 7201.00    0.88802   0.91643   -2.000
 7202.00    0.84372   0.91508   -2.000
 7203.00    0.82279   0.91314   -2.000
 7204.00    0.80285   0.91219   -2.000
 7205.00    0.79247   0.91177   -2.000
 7206.00    0.80486   0.91137   -2.000
 7207.00    0.84023   0.91243   -2.000
 7208.00    0.87813   0.91367   -2.000
 7209.00    0.88291   0.91496   -2.000
 7210.00    0.84708   0.91702   -2.000
 7211.00    0.80278   0.91881   -2.000
 7212.00    0.77682   0.92033   -2.000
 7213.00    0.77385   0.92199   -2.000
 7214.00    0.79369   0.92338   -2.000
 7215.00    0.83568   0.92435   -2.000
 7216.00    0.88580   0.92520   -2.000
 7217.00    0.91970   0.92597   -2.000
 7218.00    0.93158   0.92681   -2.000
