###################################################################
## OUTPUT of StarlightChains_v04.for    [Cid@UFSC - 01/Apr/2007] ##
###################################################################

## Some input info
2000de.txt                               [arq_obs]
Base.CB07.vall.4m                        [arq_base]
Masks.EmLines.NEW.gm                     [arq_masks]
StCv04.C11.config                        [arq_config]
   66                                    [N_base]
    0                                    [N_YAV_components = # of components with extra extinction!]
    0                                    [i_FitPowerLaw (1/0 = Yes/No)]
-9.99                                    [alpha_PowerLaw]
CCM                                      [red_law_option]
 1.458241                                [q_norm = A(l_norm)/A(V)]

## (Re)Sampling Parameters
 3741.00                                 [l_ini (A)]
 7218.00                                 [l_fin (A)]
    1.00                                 [dl    (A)]     (OBS: dl_cushion =    50.00 A)

## Normalization info
 4020.00                                 [l_norm (A) - for base]
 4010.00                                 [llow_norm (A) - window for f_obs]
 4060.00                                 [lupp_norm (A) - window for f_obs]
1.841365E-15                             [fobs_norm (in input units)]

## S/N
 3691.00                                 [llow_SN (A) - window for S/N]
 7268.00                                 [lupp_SN (A) - window for S/N]
   4.051                                 [S/N in S/N window]
   6.255                                 [S/N in norm. window]
  13.835                                 [S/N_err in S/N window]
  21.362                                 [S/N_err in norm. window]
  1.0000                                 [fscale_chi2]

## etc...
    -2007248                             [idum_orig]
  2383                                   [NOl_eff]
  2380                                   [Nl_eff]
     3    NSIGMA                         [Ntot_cliped & clip_method]
  1407140                                [Nglobal_steps]
   7                                     [N_chains]
  20                                     [NEX0s_base = N_base in EX0s-fits]
 0   0   1        1   2.0   6.307E+01    [Clip-Bug, RC-Crash & Burn-In warning-flags, n_censored_weights, wei_nsig_threshold & wei_limit]
    16     16.013     15.518      0.495  [idt_all, wdt_TotTime, wdt_UsrTime & wdt_SysTime (sec)]

## Synthesis Results - Best model ##

 2.99379E-01                             [chi2/Nl_eff]
     2.67564                             [adev (%)]

    99.48607                             [sum-of-x (%)]
 2.57450E-15                             [Flux_tot (units of input spectrum!)]
 5.14764E-12                             [Mini_tot (???)]
 2.90016E-12                             [Mcor_tot (???)]

 -50.75                                  [v0_min  (km/s)]
 313.48                                  [vd_min  (km/s)]
 0.2534                                  [AV_min  (mag)]
 0.0000                                  [YAV_min (mag)]

# j     x_j(%)      Mini_j(%)     Mcor_j(%)     age_j(yr)     Z_j      (L/M)_j    YAV?  Mstars   component_j        a/Fe...       SSP_chi2r SSP_adev(%)   SSP_AV   SSP_x(%)
  1      0.0000     0.0000E+00    0.0000E+00    1.000000E+06  0.00400  1.094E-02    0   1.0000   age020_m42            0.0000     1.1722E+00     6.2915   2.1153    80.1471
  2      0.0000     0.0000E+00    0.0000E+00    3.160000E+06  0.00400  4.007E-02    0   0.9999   age045_m42            0.0000     8.9058E-01     5.1779   1.3488    87.4797
  3      0.0000     0.0000E+00    0.0000E+00    5.010000E+06  0.00400  2.539E-02    0   0.9488   age055_m42            0.0000     9.5383E-01     5.4768   1.6814    84.7552
  4      0.0000     0.0000E+00    0.0000E+00    6.610000E+06  0.00400  2.620E-02    0   0.9220   age061_m42            0.0000     8.0784E-01     4.9076   1.2638    88.1403
  5      0.0000     0.0000E+00    0.0000E+00    1.000000E+07  0.00400  1.322E-02    0   0.8862   age070_m42            0.0000     4.5362E-01     3.5622   0.9304    91.9432
  6      0.0072     4.5766E-04    6.9624E-04    1.445000E+07  0.00400  7.883E-03    0   0.8571   age078_m42            0.0000     5.4407E-01     4.0085   1.2743    88.9161
  7      0.5746     5.5007E-02    7.9806E-02    2.512000E+07  0.00400  5.251E-03    0   0.8174   age090_m42            0.0000     4.0619E-01     3.3164   0.7873    92.9711
  8      0.8679     1.1957E-01    1.6662E-01    4.000000E+07  0.00400  3.649E-03    0   0.7851   age104_m42            0.0000     3.9696E-01     3.2199   0.5581    93.8747
  9      0.0000     0.0000E+00    0.0000E+00    5.500000E+07  0.00400  3.098E-03    0   0.7629   age110_m42            0.0000     5.0897E-01     3.6990   0.7272    93.3782
 10      0.0000     0.0000E+00    0.0000E+00    1.015200E+08  0.00400  2.228E-03    0   0.7207   age116_m42            0.0000     6.2292E-01     4.0981   0.7568    93.2538
 11      0.0000     0.0000E+00    0.0000E+00    2.861200E+08  0.00400  1.093E-03    0   0.6648   age125_m42            0.0000     5.0025E-01     3.5400   0.1546    97.6285
 12      0.0000     0.0000E+00    0.0000E+00    5.088000E+08  0.00400  6.597E-04    0   0.6365   age130_m42            0.0000     6.9214E-01     4.1395   0.1637    97.6948
 13      0.0017     3.9216E-03    4.0358E-03    1.434000E+09  0.00400  2.132E-04    0   0.5798   age139_m42            0.0000     7.9223E-01     4.5070  -0.7991    99.1559
 14      0.0000     0.0000E+00    0.0000E+00    4.250000E+09  0.00400  5.895E-05    0   0.5377   age158_m42            0.0000     1.3483E+00     6.6304  -1.0000    85.0868
 15      0.6203     8.8845E+00    8.2191E+00    7.500000E+09  0.00400  3.510E-05    0   0.5212   age171_m42            0.0000     2.0975E+00     8.3511  -1.0000    77.1674
 16      0.4943     1.2394E+01    1.1074E+01    1.300000E+10  0.00400  2.005E-05    0   0.5034   age193_m42            0.0000     3.0011E+00    10.0929  -1.0000    70.7801
 17      0.0000     0.0000E+00    0.0000E+00    1.800000E+10  0.00400  1.525E-05    0   0.4967   age213_m42            0.0000     3.1316E+00    10.3979  -1.0000    69.6133
 18      0.2831     1.1498E-02    2.0408E-02    1.000000E+06  0.00800  1.238E-02    0   1.0000   age020_m52            0.0000     1.1746E+00     6.2975   2.1116    80.3022
 19      0.0000     0.0000E+00    0.0000E+00    3.160000E+06  0.00800  3.074E-02    0   0.9966   age045_m52            0.0000     1.1640E+00     6.2354   2.0326    81.1163
 20      0.0000     0.0000E+00    0.0000E+00    5.010000E+06  0.00800  2.668E-02    0   0.9443   age055_m52            0.0000     9.7230E-01     5.5536   1.7663    83.8592
 21      0.0000     0.0000E+00    0.0000E+00    6.610000E+06  0.00800  2.136E-02    0   0.9177   age061_m52            0.0000     4.9572E-01     3.7638   0.4438    92.3419
 22      0.2559     1.0588E-02    1.6589E-02    1.000000E+07  0.00800  1.215E-02    0   0.8827   age070_m52            0.0000     4.2616E-01     3.5051   1.1018    92.0090
 23      0.0000     0.0000E+00    0.0000E+00    1.445000E+07  0.00800  8.717E-03    0   0.8552   age078_m52            0.0000     5.0137E-01     3.8110   1.2328    90.4197
 24      0.0349     3.1403E-03    4.5494E-03    2.512000E+07  0.00800  5.592E-03    0   0.8162   age090_m52            0.0000     3.7502E-01     3.1580   0.8449    94.3529
 25      4.0677     5.2487E-01    7.3049E-01    4.000000E+07  0.00800  3.896E-03    0   0.7841   age104_m52            0.0000     3.7941E-01     3.1487   0.7585    95.1562
 26      3.4249     8.0157E-01    1.0281E+00    1.015200E+08  0.00800  2.148E-03    0   0.7226   age116_m52            0.0000     5.0207E-01     3.6328   0.7125    94.4774
 27      0.0017     8.5049E-04    1.0089E-03    2.861200E+08  0.00800  9.925E-04    0   0.6683   age125_m52            0.0000     6.7880E-01     4.0659   0.2271    98.6474
 28      0.0000     0.0000E+00    0.0000E+00    9.047900E+08  0.00800  3.141E-04    0   0.6138   age135_m52            0.0000     9.9709E-01     5.1574  -0.5472   101.7927
 29      0.0000     0.0000E+00    0.0000E+00    1.434000E+09  0.00800  1.719E-04    0   0.5853   age139_m52            0.0000     1.1134E+00     5.7895  -1.0000    93.7858
 30      0.0000     0.0000E+00    0.0000E+00    2.500000E+09  0.00800  7.872E-05    0   0.5600   age150_m52            0.0000     2.1131E+00     8.2919  -1.0000    80.1884
 31      0.0000     0.0000E+00    0.0000E+00    4.250000E+09  0.00800  4.336E-05    0   0.5426   age158_m52            0.0000     2.1825E+00     8.4177  -1.0000    78.8530
 32      0.0000     0.0000E+00    0.0000E+00    6.250000E+09  0.00800  3.159E-05    0   0.5319   age166_m52            0.0000     3.3711E+00    10.5880  -1.0000    71.3979
 33      0.0000     0.0000E+00    0.0000E+00    1.300000E+10  0.00800  1.361E-05    0   0.5073   age193_m52            0.0000     6.9144E+00    16.3515  -1.0000    55.8954
 34      0.8467     4.3057E+01    3.8136E+01    1.800000E+10  0.00800  9.886E-06    0   0.4990   age213_m52            0.0000     7.8832E+00    17.5068  -1.0000    52.7295
 35      0.0000     0.0000E+00    0.0000E+00    1.000000E+06  0.02000  1.544E-02    0   1.0000   age020_m62            0.0000     1.1825E+00     6.3276   2.1080    80.4753
 36      0.0000     0.0000E+00    0.0000E+00    3.160000E+06  0.02000  3.762E-02    0   0.9858   age045_m62            0.0000     1.1856E+00     6.3194   2.0473    81.1985
 37      0.0000     0.0000E+00    0.0000E+00    5.010000E+06  0.02000  3.296E-02    0   0.9342   age055_m62            0.0000     9.5476E-01     5.4556   1.6385    85.9804
 38     47.8394     2.0840E+00    3.2777E+00    8.710000E+06  0.02000  1.154E-02    0   0.8861   age067_m62            0.0000     7.9795E-01     4.6117   0.4829    97.0648
 39      0.0000     0.0000E+00    0.0000E+00    1.445000E+07  0.02000  7.663E-03    0   0.8472   age078_m62            0.0000     4.1180E-01     3.3180   0.7204    95.2256
 40      0.0000     0.0000E+00    0.0000E+00    2.512000E+07  0.02000  4.532E-03    0   0.8099   age090_m62            0.0000     4.2416E-01     3.3289   0.7024    95.4379
 41      0.0005     9.7404E-05    1.3131E-04    5.500000E+07  0.02000  2.733E-03    0   0.7595   age110_m62            0.0000     3.9488E-01     3.2295   0.7441    94.3143
 42      0.0000     0.0000E+00    0.0000E+00    1.609000E+08  0.02000  1.369E-03    0   0.6985   age120_m62            0.0000     5.7774E-01     3.8166   0.5888    96.9024
 43      3.5156     1.9609E+00    2.3368E+00    2.861200E+08  0.02000  9.013E-04    0   0.6714   age125_m62            0.0000     7.7291E-01     4.2895   0.3381    99.7761
 44     12.9035     1.2901E+01    1.4768E+01    5.088000E+08  0.02000  5.028E-04    0   0.6449   age130_m62            0.0000     1.1224E+00     5.3959  -0.0092   101.2195
 45      0.0000     0.0000E+00    0.0000E+00    9.047900E+08  0.02000  2.428E-04    0   0.6179   age135_m62            0.0000     1.2051E+00     5.8697  -0.5707    99.5544
 46      0.0000     0.0000E+00    0.0000E+00    1.434000E+09  0.02000  1.263E-04    0   0.5908   age139_m62            0.0000     1.3342E+00     6.2837  -0.9962    97.2206
 47      0.0000     0.0000E+00    0.0000E+00    2.500000E+09  0.02000  5.985E-05    0   0.5673   age150_m62            0.0000     2.4026E+00     8.8073  -1.0000    80.5552
 48      0.0000     0.0000E+00    0.0000E+00    4.250000E+09  0.02000  3.271E-05    0   0.5468   age158_m62            0.0000     4.2418E+00    11.9203  -1.0000    68.7221
 49      0.0000     0.0000E+00    0.0000E+00    1.000000E+10  0.02000  1.360E-05    0   0.5167   age181_m62            0.0000     6.9532E+00    15.9295  -1.0000    57.4495
 50      0.0000     0.0000E+00    0.0000E+00    1.800000E+10  0.02000  7.124E-06    0   0.5013   age213_m62            0.0000     8.7752E+00    18.2540  -1.0000    51.2833
 51      0.0000     0.0000E+00    0.0000E+00    1.000000E+06  0.05000  2.592E-02    0   0.9998   age020_m72            0.0000     1.2005E+00     6.4040   2.1012    80.4023
 52      0.0000     0.0000E+00    0.0000E+00    3.160000E+06  0.05000  4.845E-02    0   0.9577   age045_m72            0.0000     1.1299E+00     6.0617   1.9225    82.6484
 53      0.0000     0.0000E+00    0.0000E+00    5.010000E+06  0.05000  3.072E-02    0   0.9147   age055_m72            0.0000     6.0445E-01     4.3234   1.3593    89.7271
 54      0.0000     0.0000E+00    0.0000E+00    6.610000E+06  0.05000  1.455E-02    0   0.8877   age061_m72            0.0000     2.1651E+00     6.8955   0.5124    99.3066
 55      0.0000     0.0000E+00    0.0000E+00    1.000000E+07  0.05000  9.074E-03    0   0.8524   age070_m72            0.0000     8.8332E-01     5.0541   1.5557    89.4334
 56      0.0000     0.0000E+00    0.0000E+00    2.512000E+07  0.05000  4.250E-03    0   0.7902   age090_m72            0.0000     5.8651E-01     4.0148   1.2195    92.3459
 57      0.0000     0.0000E+00    0.0000E+00    4.000000E+07  0.05000  3.087E-03    0   0.7618   age104_m72            0.0000     5.7967E-01     3.8262   0.9702    94.7721
 58      0.0011     3.2995E-04    4.1558E-04    1.015200E+08  0.05000  1.700E-03    0   0.7096   age116_m72            0.0000     4.9591E-01     3.5283   0.7176    97.0811
 59     22.1394     1.5073E+01    1.7746E+01    2.861200E+08  0.05000  7.384E-04    0   0.6633   age125_m72            0.0000     9.3919E-01     4.7860   0.2166   100.7386
 60      1.6056     2.1135E+00    2.3904E+00    5.088000E+08  0.05000  3.819E-04    0   0.6372   age130_m72            0.0000     1.2172E+00     5.8618  -0.2410   100.8198
 61      0.0000     0.0000E+00    0.0000E+00    9.047900E+08  0.05000  1.676E-04    0   0.6110   age135_m72            0.0000     1.7551E+00     7.4272  -0.8758    96.4250
 62      0.0000     0.0000E+00    0.0000E+00    1.434000E+09  0.05000  8.837E-05    0   0.5874   age139_m72            0.0000     2.5375E+00     9.0271  -1.0000    81.7180
 63      0.0000     0.0000E+00    0.0000E+00    2.500000E+09  0.05000  4.233E-05    0   0.5598   age150_m72            0.0000     4.3721E+00    12.0351  -1.0000    69.3561
 64      0.0000     0.0000E+00    0.0000E+00    6.250000E+09  0.05000  1.435E-05    0   0.5249   age166_m72            0.0000     7.7790E+00    17.0656  -1.0000    54.4633
 65      0.0000     0.0000E+00    0.0000E+00    1.300000E+10  0.05000  6.513E-06    0   0.5036   age193_m72            0.0000     1.0282E+01    20.0978  -1.0000    47.7019
 66      0.0000     0.0000E+00    0.0000E+00    1.800000E+10  0.05000  4.527E-06    0   0.4945   age213_m72            0.0000     1.1767E+01    21.7444  -1.0000    43.8621


## Synthesis Results - Average & Chains ##

# j      x_j: min, <> & last-chain-values for 1 ...  7 chains
  1      0.0000      0.2284      0.0000      0.0000      0.3621      0.0000      0.0000      0.0000      0.0000
  2      0.0000      0.2423      0.0000      1.4131      0.0000      0.0000      0.0000      0.8028      0.0000
  3      0.0000      0.1345      0.0000      0.0000      0.0000      0.0000      0.0000      0.0000      0.0000
  4      0.0000      0.2730      0.0000      0.0000      1.2583      0.0996      0.0000      0.0000      0.0000
  5      0.0000      0.3799      0.0000      0.0000      0.0000      0.3808      0.0000      1.3221      0.0000
  6      0.0072      0.4065      2.9572      0.2986      0.0000      0.0000      1.0897      0.2163      0.0000
  7      0.5746      1.1086      1.8345      2.4858      1.4053      2.3996      2.0474      0.0000      2.3438
  8      0.8679      1.8983      2.0022      4.9297      3.3838      0.0000      4.1706      0.0000      1.2293
  9      0.0000      1.0256      0.0000      0.6065      0.0000      0.4444      2.0080      0.0000      3.3511
 10      0.0000      0.6048      0.0000      0.0000      0.0000      2.3609      0.0000      0.5617      0.2077
 11      0.0000      1.2015      0.0000      0.3707      0.7791      3.3315      1.1681      0.2189      1.1816
 12      0.0000      0.8675      0.0000      0.4815      0.2480      0.0000      1.2004      0.8805      0.0000
 13      0.0017      0.3725      2.5649      0.0000      0.0000      0.4137      0.0000      0.1852      0.0000
 14      0.0000      0.0597      0.0000      0.0000      0.0000      0.0000      0.0000      0.0000      0.0995
 15      0.6203      0.0331      0.5501      0.0000      0.0000      0.0000      0.0000      0.0000      0.0000
 16      0.4943      0.0575      0.5483      0.0000      0.0000      0.0000      0.0000      0.0000      0.0000
 17      0.0000      0.0068      0.0000      0.0000      0.0000      0.0000      0.0000      0.0000      0.0000
 18      0.2831      0.1123      1.3703      0.0000      0.0000      1.5182      0.1085      0.0000      0.0000
 19      0.0000      0.1550      0.0000      0.7540      0.0000      0.0000      0.7754      0.0000      0.0000
 20      0.0000      0.1184      0.0000      0.0000      0.0000      0.0000      0.0000      0.4946      0.0000
 21      0.0000      1.1026      0.0000      0.0717      0.7354      0.0000      0.0000      0.5472      0.0000
 22      0.2559      0.7342      2.2045      1.0003      0.5242      0.0000      0.0000      0.7147      0.0000
 23      0.0000      0.3287      0.3329      0.0000      0.0000      0.0000      0.0000      0.0000      0.0000
 24      0.0349      0.8474      1.2291      0.0000      1.2616      0.0000      1.3692      0.8745      0.0000
 25      4.0677      1.7621      2.4337      2.6156      1.5226      2.2168      0.7729      0.0000      1.6197
 26      3.4249      2.0723      4.5818      0.0000      2.6400      3.1857      2.9164      4.2554      3.7808
 27      0.0017      1.6304      1.2016      2.1176      2.7624      0.0000      0.1254      1.1577      0.0000
 28      0.0000      0.1943      0.3784      0.0000      0.0000      0.0000      0.0000      0.0000      0.1228
 29      0.0000      0.0654      0.0000      0.0000      0.6208      0.0000      0.0000      0.0000      0.0000
 30      0.0000      0.0333      0.0000      0.0000      0.0000      0.0000      0.0000      0.0000      0.0000
 31      0.0000      0.0464      0.0000      0.0000      0.1746      0.0000      0.0000      0.0000      0.0000
 32      0.0000      0.0148      0.0000      0.0000      0.0000      0.0000      0.0000      0.0000      0.0000
 33      0.0000      0.0038      0.0000      0.0000      0.0000      0.0000      0.0000      0.0000      0.0000
 34      0.8467      0.0830      0.7594      0.2228      0.0000      0.0000      0.2663      0.0000      0.0312
 35      0.0000      0.2267      0.0000      0.0000      0.8446      0.1618      0.0000      0.0000      0.0000
 36      0.0000      0.1114      0.0000      0.0000      0.0000      0.0000      0.0000      0.0000      0.0000
 37      0.0000      0.3128      0.0000      0.0000      0.0000      0.0000      0.0000      1.0413      0.3976
 38     47.8394     39.9939     35.0537     44.4732     44.3877     44.0427     43.0101     45.0211     43.9399
 39      0.0000      0.8729      0.0000      0.0000      0.3885      0.3046      0.7647      0.0000      0.0000
 40      0.0000      1.1815      0.0000      0.0000      0.0000      1.0938      0.0000      0.9179      1.4078
 41      0.0005      1.3222      5.7078      0.0000      0.0000      0.0000      0.3964      1.1612      1.2107
 42      0.0000      1.8109      0.0000      0.0000      1.1570      1.1870      2.6641      1.5554      0.0895
 43      3.5156      9.5294     11.8559     10.9938      7.4897     11.0092     10.2951     10.9064      8.9296
 44     12.9035      6.9571      4.3354      5.3601      6.1064      8.9389      9.4220      8.8949      6.1167
 45      0.0000      0.3372      0.0000      0.0000      0.0000      0.0000      0.0000      0.0000      0.0000
 46      0.0000      0.1741      0.0000      0.0000      0.3949      0.6185      0.0000      0.0155      0.7249
 47      0.0000      0.0619      0.0000      0.0000      0.0000      0.0000      0.0000      0.3562      0.0000
 48      0.0000      0.0121      0.0000      0.0000      0.0000      0.0000      0.0000      0.0000      0.0886
 49      0.0000      0.0263      0.0000      0.0211      0.0000      0.0000      0.0000      0.0000      0.2492
 50      0.0000      0.0125      0.4146      0.0257      0.0000      0.0000      0.0000      0.0000      0.0000
 51      0.0000      0.1244      0.0000      0.0000      0.1229      0.0000      0.0000      0.0000      0.0000
 52      0.0000      0.0919      0.0000      0.0000      0.0000      0.1128      0.0000      0.0000      0.0000
 53      0.0000      0.1974      0.4743      0.0000      0.0000      0.0000      0.0000      0.0000      0.0000
 54      0.0000      0.5095      0.0000      0.0000      0.0000      0.0000      0.0000      0.0000      0.0000
 55      0.0000      0.1117      0.0000      0.0000      0.0000      0.0000      0.0000      0.0000      0.0000
 56      0.0000      0.3412      0.0000      0.0000      0.0000      0.0000      0.8890      0.0000      0.0228
 57      0.0000      0.3330      0.0000      0.6835      0.0212      0.0000      0.0000      0.0000      0.0000
 58      0.0011      0.9011      4.4006      0.0000      0.0000      0.0000      0.0000      0.6961      2.2652
 59     22.1394     11.0795      3.5138     15.1012     16.7354     11.2401      9.4673     12.0705     17.1542
 60      1.6056      3.4928      7.8047      4.2833      3.2690      3.7346      3.4610      3.1345      2.0245
 61      0.0000      0.0569      0.0000      0.2193      0.0000      0.0000      0.0000      0.0000      0.0000
 62      0.0000      0.0689      0.0000      0.0000      0.0000      0.0000      0.0978      0.0000      0.0000
 63      0.0000      0.0496      0.0000      0.0000      0.0000      0.0000      0.0000      0.5667      0.0312
 64      0.0000      0.0039      0.0000      0.0000      0.0000      0.0000      0.0332      0.0000      0.0000
 65      0.0000      0.0022      0.0000      0.0000      0.0000      0.0000      0.0000      0.0000      0.0000
 66      0.0000      0.0119      0.0000      0.0000      0.0000      0.0000      0.1168      0.0000      0.0000

# j      m_j: min, <> & last-chain-values for 1 ...  7 chains
  1  0.0000E+00  3.5273E-02  0.0000E+00  0.0000E+00  6.7270E-02  0.0000E+00  0.0000E+00  0.0000E+00  0.0000E+00
  2  0.0000E+00  1.0216E-02  0.0000E+00  6.0354E-02  0.0000E+00  0.0000E+00  0.0000E+00  3.5879E-02  0.0000E+00
  3  0.0000E+00  8.4888E-03  0.0000E+00  0.0000E+00  0.0000E+00  0.0000E+00  0.0000E+00  0.0000E+00  0.0000E+00
  4  0.0000E+00  1.6230E-02  0.0000E+00  0.0000E+00  9.0005E-02  7.1236E-03  0.0000E+00  0.0000E+00  0.0000E+00
  5  0.0000E+00  4.3028E-02  0.0000E+00  0.0000E+00  0.0000E+00  5.1903E-02  0.0000E+00  1.5872E-01  0.0000E+00
  6  6.9624E-04  7.4665E-02  2.3262E-01  5.5569E-02  0.0000E+00  0.0000E+00  1.6394E-01  4.2125E-02  0.0000E+00
  7  7.9806E-02  2.9155E-01  2.0661E-01  6.6232E-01  4.4466E-01  7.5946E-01  4.4097E-01  0.0000E+00  6.1250E-01
  8  1.6662E-01  6.9001E-01  3.1167E-01  1.8154E+00  1.4799E+00  0.0000E+00  1.2415E+00  0.0000E+00  4.4401E-01
  9  0.0000E+00  4.2669E-01  0.0000E+00  2.5565E-01  0.0000E+00  2.2248E-01  6.8418E-01  0.0000E+00  1.3853E+00
 10  0.0000E+00  3.3053E-01  0.0000E+00  0.0000E+00  0.0000E+00  1.5527E+00  0.0000E+00  3.2541E-01  1.1280E-01
 11  0.0000E+00  1.2346E+00  0.0000E+00  3.8595E-01  9.6316E-01  4.1199E+00  9.8300E-01  2.3840E-01  1.2065E+00
 12  0.0000E+00  1.4140E+00  0.0000E+00  7.9521E-01  4.8634E-01  0.0000E+00  1.6025E+00  1.5214E+00  0.0000E+00
 13  4.0358E-03  1.7114E+00  5.0465E+00  0.0000E+00  0.0000E+00  2.2874E+00  0.0000E+00  9.0219E-01  0.0000E+00
 14  0.0000E+00  9.2070E-01  0.0000E+00  0.0000E+00  0.0000E+00  0.0000E+00  0.0000E+00  0.0000E+00  1.5233E+00
 15  8.2191E+00  8.3096E-01  5.9100E+00  0.0000E+00  0.0000E+00  0.0000E+00  0.0000E+00  0.0000E+00  0.0000E+00
 16  1.1074E+01  2.4381E+00  9.9603E+00  0.0000E+00  0.0000E+00  0.0000E+00  0.0000E+00  0.0000E+00  0.0000E+00
 17  0.0000E+00  3.7514E-01  0.0000E+00  0.0000E+00  0.0000E+00  0.0000E+00  0.0000E+00  0.0000E+00  0.0000E+00
 18  2.0408E-02  1.5332E-02  8.0081E-02  0.0000E+00  0.0000E+00  2.4934E-01  1.2131E-02  0.0000E+00  0.0000E+00
 19  0.0000E+00  8.4917E-03  0.0000E+00  4.1841E-02  0.0000E+00  0.0000E+00  3.4780E-02  0.0000E+00  0.0000E+00
 20  0.0000E+00  7.0827E-03  0.0000E+00  0.0000E+00  0.0000E+00  0.0000E+00  0.0000E+00  3.1348E-02  0.0000E+00
 21  0.0000E+00  8.0028E-02  0.0000E+00  5.2693E-03  6.4225E-02  0.0000E+00  0.0000E+00  4.2101E-02  0.0000E+00
 22  1.6589E-02  9.0115E-02  1.1587E-01  1.2438E-01  7.7412E-02  0.0000E+00  0.0000E+00  9.2984E-02  0.0000E+00
 23  0.0000E+00  5.4486E-02  2.3629E-02  0.0000E+00  0.0000E+00  0.0000E+00  0.0000E+00  0.0000E+00  0.0000E+00
 24  4.5494E-03  2.0896E-01  1.2979E-01  0.0000E+00  3.7428E-01  0.0000E+00  2.7651E-01  2.2858E-01  0.0000E+00
 25  7.3049E-01  5.9913E-01  3.5436E-01  9.0100E-01  6.2286E-01  9.0709E-01  2.1523E-01  0.0000E+00  5.4725E-01
 26  1.0281E+00  1.1778E+00  1.1151E+00  0.0000E+00  1.8052E+00  2.1789E+00  1.3574E+00  2.5638E+00  2.1352E+00
 27  1.0089E-03  1.8547E+00  5.8537E-01  2.4406E+00  3.7808E+00  0.0000E+00  1.1686E-01  1.3960E+00  0.0000E+00
 28  0.0000E+00  6.4159E-01  5.3493E-01  0.0000E+00  0.0000E+00  0.0000E+00  0.0000E+00  0.0000E+00  4.0298E-01
 29  0.0000E+00  3.7610E-01  0.0000E+00  0.0000E+00  4.2967E+00  0.0000E+00  0.0000E+00  0.0000E+00  0.0000E+00
 30  0.0000E+00  4.0040E-01  0.0000E+00  0.0000E+00  0.0000E+00  0.0000E+00  0.0000E+00  0.0000E+00  0.0000E+00
 31  0.0000E+00  9.8198E-01  0.0000E+00  0.0000E+00  4.4405E+00  0.0000E+00  0.0000E+00  0.0000E+00  0.0000E+00
 32  0.0000E+00  4.2190E-01  0.0000E+00  0.0000E+00  0.0000E+00  0.0000E+00  0.0000E+00  0.0000E+00  0.0000E+00
 33  0.0000E+00  2.4114E-01  0.0000E+00  0.0000E+00  0.0000E+00  0.0000E+00  0.0000E+00  0.0000E+00  0.0000E+00
 34  3.8136E+01  7.0761E+00  2.7733E+01  1.9246E+01  0.0000E+00  0.0000E+00  1.8594E+01  0.0000E+00  2.6476E+00
 35  0.0000E+00  2.4808E-02  0.0000E+00  0.0000E+00  1.1119E-01  2.1312E-02  0.0000E+00  0.0000E+00  0.0000E+00
 36  0.0000E+00  4.9311E-03  0.0000E+00  0.0000E+00  0.0000E+00  0.0000E+00  0.0000E+00  0.0000E+00  0.0000E+00
 37  0.0000E+00  1.4977E-02  0.0000E+00  0.0000E+00  0.0000E+00  0.0000E+00  0.0000E+00  5.2855E-02  1.8918E-02
 38  3.2777E+00  5.1882E+00  1.9473E+00  5.8450E+00  6.9279E+00  6.8758E+00  4.5694E+00  6.1911E+00  5.6640E+00
 39  0.0000E+00  1.6304E-01  0.0000E+00  0.0000E+00  8.7316E-02  6.8463E-02  1.1697E-01  0.0000E+00  0.0000E+00
 40  0.0000E+00  3.5671E-01  0.0000E+00  0.0000E+00  0.0000E+00  3.9744E-01  0.0000E+00  2.9377E-01  4.2234E-01
 41  1.3131E-04  6.2077E-01  1.1476E+00  0.0000E+00  0.0000E+00  0.0000E+00  1.5241E-01  5.7792E-01  5.6484E-01
 42  0.0000E+00  1.5610E+00  0.0000E+00  0.0000E+00  1.2000E+00  1.2314E+00  1.8807E+00  1.4213E+00  7.6682E-02
 43  2.3368E+00  1.1993E+01  6.3896E+00  1.4017E+01  1.1341E+01  1.6674E+01  1.0611E+01  1.4550E+01  1.1167E+01
 44  1.4768E+01  1.5075E+01  4.0230E+00  1.1767E+01  1.5920E+01  2.3311E+01  1.6721E+01  2.0432E+01  1.3171E+01
 45  0.0000E+00  1.4498E+00  0.0000E+00  0.0000E+00  0.0000E+00  0.0000E+00  0.0000E+00  0.0000E+00  0.0000E+00
 46  0.0000E+00  1.3759E+00  0.0000E+00  0.0000E+00  3.7551E+00  5.8827E+00  0.0000E+00  1.2996E-01  5.6925E+00
 47  0.0000E+00  9.9117E-01  0.0000E+00  0.0000E+00  0.0000E+00  0.0000E+00  0.0000E+00  6.0464E+00  0.0000E+00
 48  0.0000E+00  3.4126E-01  0.0000E+00  0.0000E+00  0.0000E+00  0.0000E+00  0.0000E+00  0.0000E+00  2.4870E+00
 49  0.0000E+00  1.6863E+00  0.0000E+00  1.3733E+00  0.0000E+00  0.0000E+00  0.0000E+00  0.0000E+00  1.5893E+01
 50  0.0000E+00  1.4822E+00  2.1109E+01  3.0994E+00  0.0000E+00  0.0000E+00  0.0000E+00  0.0000E+00  0.0000E+00
 51  0.0000E+00  8.1052E-03  0.0000E+00  0.0000E+00  9.6354E-03  0.0000E+00  0.0000E+00  0.0000E+00  0.0000E+00
 52  0.0000E+00  3.0695E-03  0.0000E+00  0.0000E+00  0.0000E+00  4.5337E-03  0.0000E+00  0.0000E+00  0.0000E+00
 53  0.0000E+00  9.9291E-03  1.0217E-02  0.0000E+00  0.0000E+00  0.0000E+00  0.0000E+00  0.0000E+00  0.0000E+00
 54  0.0000E+00  5.2518E-02  0.0000E+00  0.0000E+00  0.0000E+00  0.0000E+00  0.0000E+00  0.0000E+00  0.0000E+00
 55  0.0000E+00  1.7722E-02  0.0000E+00  0.0000E+00  0.0000E+00  0.0000E+00  0.0000E+00  0.0000E+00  0.0000E+00
 56  0.0000E+00  1.0717E-01  0.0000E+00  0.0000E+00  0.0000E+00  0.0000E+00  2.2870E-01  0.0000E+00  7.1013E-03
 57  0.0000E+00  1.3883E-01  0.0000E+00  2.8870E-01  1.0637E-02  0.0000E+00  0.0000E+00  0.0000E+00  0.0000E+00
 58  4.1558E-04  6.3543E-01  1.3289E+00  0.0000E+00  0.0000E+00  0.0000E+00  0.0000E+00  5.2039E-01  1.5873E+00
 59  1.7746E+01  1.6814E+01  2.2836E+00  2.3219E+01  3.0557E+01  2.0529E+01  1.1767E+01  1.9419E+01  2.5869E+01
 60  2.3904E+00  9.8457E+00  9.4212E+00  1.2232E+01  1.1087E+01  1.2669E+01  7.9900E+00  9.3661E+00  5.6707E+00
 61  0.0000E+00  3.5015E-01  0.0000E+00  1.3683E+00  0.0000E+00  0.0000E+00  0.0000E+00  0.0000E+00  0.0000E+00
 62  0.0000E+00  7.7396E-01  0.0000E+00  0.0000E+00  0.0000E+00  0.0000E+00  8.9905E-01  0.0000E+00  0.0000E+00
 63  0.0000E+00  1.1073E+00  0.0000E+00  0.0000E+00  0.0000E+00  0.0000E+00  0.0000E+00  1.3421E+01  6.9223E-01
 64  0.0000E+00  2.4088E-01  0.0000E+00  0.0000E+00  0.0000E+00  0.0000E+00  1.6824E+00  0.0000E+00  0.0000E+00
 65  0.0000E+00  2.8221E-01  0.0000E+00  0.0000E+00  0.0000E+00  0.0000E+00  0.0000E+00  0.0000E+00  0.0000E+00
 66  0.0000E+00  2.1967E+00  0.0000E+00  0.0000E+00  0.0000E+00  0.0000E+00  1.7659E+01  0.0000E+00  0.0000E+00

# AV, chi2 & Mass for <> & i_chain = 1 ...  7 solutions
AV       0.2534      0.3646      0.2820      0.3643      0.3574      0.3577      0.3582      0.3527      0.3564
chi2 2.9938E-01  3.0852E-01  3.0510E-01  3.0620E-01  3.0640E-01  3.0632E-01  3.0659E-01  3.0645E-01  3.0576E-01
Mass 2.9002E-12  1.7786E-12  3.7171E-12  1.7547E-12  1.4641E-12  1.4643E-12  2.1532E-12  1.6513E-12  1.7704E-12
 -50.75                                  [v0_min (km/s) before EX0s...]
 313.48                                  [vd_min (km/s) before EX0s...]


## Synthetic spectrum (Best Model) ##l_obs f_obs f_syn wei
 3478    [Nl_obs]
 3741.00    0.72308   0.72642    0.000
 3742.00    0.73062   0.72545    0.000
 3743.00    0.73376   0.71868    0.000
 3744.00    0.73498   0.70708    0.000
 3745.00    0.72616   0.69270   13.771
 3746.00    0.69459   0.67745   14.397
 3747.00    0.65187   0.66390   15.340
 3748.00    0.63270   0.65465   15.805
 3749.00    0.64328   0.65125   15.545
 3750.00    0.65429   0.65403   15.284
 3751.00    0.65257   0.66329   15.324
 3752.00    0.65321   0.67869   15.309
 3753.00    0.66962   0.69751   14.934
 3754.00    0.70094   0.71766   14.266
 3755.00    0.72847   0.73776   13.727
 3756.00    0.72458   0.75575   13.801
 3757.00    0.68582   0.77033   14.581
 3758.00    0.63932   0.78061   15.642
 3759.00    0.62647   0.78614   15.962
 3760.00    0.67736   0.78684   14.763
 3761.00    0.75152   0.78276   13.306
 3762.00    0.76148   0.77366   13.132
 3763.00    0.69657   0.76005   14.356
 3764.00    0.62693   0.74320   15.951
 3765.00    0.60575   0.72412   16.508
 3766.00    0.63990   0.70454   15.627
 3767.00    0.69117   0.68657   14.468
 3768.00    0.70239   0.67229   14.237
 3769.00    0.66335   0.66400   15.075
 3770.00    0.60900   0.66290   16.420
 3771.00    0.56884   0.66874   17.580
 3772.00    0.55859   0.68222   17.902
 3773.00    0.59242   0.70269   16.880
 3774.00    0.67305   0.72691   14.858
 3775.00    0.76211   0.75350   13.121
 3776.00    0.80396   0.78102   12.438
 3777.00    0.79466   0.80713   12.584
 3778.00    0.77252   0.83072   12.945
 3779.00    0.76250   0.85060   13.115
 3780.00    0.76971   0.86630   12.992
 3781.00    0.79217   0.87782   12.624
 3782.00    0.82291   0.88446   12.152
 3783.00    0.84872   0.88644   11.782
 3784.00    0.85813   0.88419   11.653
 3785.00    0.85681   0.87777   11.671
 3786.00    0.85602   0.86725   11.682
 3787.00    0.84628   0.85269   11.816
 3788.00    0.81237   0.83464   12.310
 3789.00    0.76855   0.81316   13.012
 3790.00    0.74414   0.78838   13.438
 3791.00    0.74758   0.76142   13.377
 3792.00    0.76532   0.73355   13.066
 3793.00    0.77183   0.70609   12.956
 3794.00    0.75015   0.68107   13.331
 3795.00    0.72080   0.66066   13.874
 3796.00    0.71517   0.64683   13.983
 3797.00    0.72834   0.64124   13.730
 3798.00    0.73462   0.64387   13.613
 3799.00    0.72209   0.65458   13.849
 3800.00    0.69773   0.67345   14.332
 3801.00    0.68613   0.69779   14.574
 3802.00    0.70672   0.72480   14.150
 3803.00    0.74422   0.75354   13.437
 3804.00    0.77502   0.78205   12.903
 3805.00    0.80603   0.80873   12.407
 3806.00    0.84955   0.83301   11.771
 3807.00    0.88643   0.85372   11.281
 3808.00    0.89233   0.87133   11.207
 3809.00    0.87496   0.88579   11.429
 3810.00    0.85876   0.89611   11.645
 3811.00    0.86040   0.90278   11.623
 3812.00    0.87751   0.90594   11.396
 3813.00    0.88164   0.90619   11.342
 3814.00    0.85297   0.90398   11.724
 3815.00    0.81671   0.89941   12.244
 3816.00    0.80678   0.89392   12.395
 3817.00    0.82388   0.88767   12.138
 3818.00    0.84652   0.88132   11.813
 3819.00    0.84885   0.87539   11.781
 3820.00    0.82327   0.86798   12.147
 3821.00    0.79815   0.86061   12.529
 3822.00    0.80447   0.85331   12.430
 3823.00    0.84275   0.84351   11.866
 3824.00    0.88653   0.83109   11.280
 3825.00    0.89266   0.81523   11.202
 3826.00    0.84155   0.79613   11.883
 3827.00    0.76712   0.77381   13.036
 3828.00    0.70887   0.74807   14.107
 3829.00    0.67158   0.72076   14.890
 3830.00    0.65068   0.69281   15.368
 3831.00    0.65343   0.66599   15.304
 3832.00    0.67782   0.64315   14.753
 3833.00    0.69840   0.62533   14.318
 3834.00    0.69608   0.61480   14.366
 3835.00    0.67936   0.61292   14.720
 3836.00    0.66562   0.61892   15.024
 3837.00    0.66557   0.63389   15.025
 3838.00    0.67862   0.65612   14.736
 3839.00    0.69283   0.68255   14.433
 3840.00    0.70311   0.71249   14.223
 3841.00    0.72078   0.74344   13.874
 3842.00    0.75415   0.77348   13.260
 3843.00    0.79727   0.80194   12.543
 3844.00    0.84329   0.82758   11.858
 3845.00    0.89162   0.85008   11.216
 3846.00    0.93699   0.86932   10.672
 3847.00    0.96454   0.88557    0.000
 3848.00    0.96196   0.89935    0.000
 3849.00    0.92820   0.91045    0.000
 3850.00    0.88034   0.91967    0.000
 3851.00    0.85044   0.92680    0.000
 3852.00    0.84877   0.93238    0.000
 3853.00    0.85199   0.93764    0.000
 3854.00    0.84751   0.94116    0.000
 3855.00    0.85102   0.94382    0.000
 3856.00    0.87543   0.94627    0.000
 3857.00    0.91620   0.94782    0.000
 3858.00    0.95940   0.94975    0.000
 3859.00    0.98786   0.95133    0.000
 3860.00    0.98966   0.95189    0.000
 3861.00    0.96459   0.95247    0.000
 3862.00    0.93510   0.95306    0.000
 3863.00    0.93867   0.95252    0.000
 3864.00    0.97586   0.95137    0.000
 3865.00    1.00504   0.94983    0.000
 3866.00    1.01365   0.94728    0.000
 3867.00    1.03058   0.94401    0.000
 3868.00    1.05633   0.93917    0.000
 3869.00    1.05185   0.93388    0.000
 3870.00    1.00429   0.92832    0.000
 3871.00    0.94208   0.92097    0.000
 3872.00    0.89478   0.91254    0.000
 3873.00    0.87511   0.90307    0.000
 3874.00    0.87036   0.89260    0.000
 3875.00    0.85265   0.88126    0.000
 3876.00    0.82250   0.86800    0.000
 3877.00    0.80761   0.85229    0.000
 3878.00    0.81097   0.83466    0.000
 3879.00    0.80950   0.81437    0.000
 3880.00    0.80370   0.79165    0.000
 3881.00    0.81528   0.76688   12.266
 3882.00    0.83273   0.73967   12.009
 3883.00    0.81944   0.71157   12.204
 3884.00    0.78451   0.68420   12.747
 3885.00    0.77491   0.65928   12.905
 3886.00    0.79614   0.63905   12.561
 3887.00    0.81627   0.62469   12.251
 3888.00    0.83630   0.61808   11.957
 3889.00    0.88075   0.61935   11.354
 3890.00    0.92521   0.62830   -1.000
 3891.00    0.91511   0.64525   10.928
 3892.00    0.85783   0.66776   11.657
 3893.00    0.80935   0.69357   12.356
 3894.00    0.78815   0.72093   12.688
 3895.00    0.77599   0.74826   12.887
 3896.00    0.76804   0.77457   13.020
 3897.00    0.77425   0.79936   12.916
 3898.00    0.79652   0.82190   12.555
 3899.00    0.82674   0.84156   12.096
 3900.00    0.85385   0.85933   11.712
 3901.00    0.87004   0.87501   11.494
 3902.00    0.87973   0.88917   11.367
 3903.00    0.89192   0.90218   11.212
 3904.00    0.90198   0.91316   11.087
 3905.00    0.90108   0.92366   11.098
 3906.00    0.90002   0.93298   11.111
 3907.00    0.91618   0.94060   10.915
 3908.00    0.94232   0.94783   10.612
 3909.00    0.95884   0.95352   10.429
 3910.00    0.96466   0.95761   10.366
 3911.00    0.96809   0.96061   10.330
 3912.00    0.96327   0.96168   10.381
 3913.00    0.94140   0.96172   10.622
 3914.00    0.91479   0.96071   10.931
 3915.00    0.90237   0.95841   11.082
 3916.00    0.90173   0.95601   11.090
 3917.00    0.89866   0.95313   11.128
 3918.00    0.88793   0.95037   11.262
 3919.00    0.87409   0.94732   11.441
 3920.00    0.86736   0.94394   11.529
 3921.00    0.87500   0.94068   11.429
 3922.00    0.89037   0.93662   11.231
 3923.00    0.90012   0.93239   11.110
 3924.00    0.89590   0.92643   11.162
 3925.00    0.87627   0.91891   11.412
 3926.00    0.84716   0.91054   11.804
 3927.00    0.81937   0.90036   12.204
 3928.00    0.80472   0.89001   12.427
 3929.00    0.80453   0.87910   12.430
 3930.00    0.79832   0.86933   12.526
 3931.00    0.76906   0.86253   13.003
 3932.00    0.73213   0.85808   13.659
 3933.00    0.71280   0.85714   14.029
 3934.00    0.71794   0.85881   13.929
 3935.00    0.74098   0.86425   13.496
 3936.00    0.77096   0.87377   12.971
 3937.00    0.79913   0.88405   12.514
 3938.00    0.82422   0.89459   12.133
 3939.00    0.84659   0.90435   11.812
 3940.00    0.86269   0.91260   11.592
 3941.00    0.87441   0.92006   11.436
 3942.00    0.89616   0.92554   11.159
 3943.00    0.93092   0.92886   10.742
 3944.00    0.95140   0.93074   10.511
 3945.00    0.93922   0.93113   10.647
 3946.00    0.91693   0.93091   10.906
 3947.00    0.90816   0.93013   11.011
 3948.00    0.90488   0.92763   11.051
 3949.00    0.90260   0.92415   11.079
 3950.00    0.92534   0.91995   10.807
 3951.00    0.97321   0.91467   10.275
 3952.00    0.98906   0.90801   10.111
 3953.00    0.94062   0.89960   10.631
 3954.00    0.87603   0.88983   11.415
 3955.00    0.84874   0.87840   11.782
 3956.00    0.86160   0.86466   11.606
 3957.00    0.88884   0.84795   11.251
 3958.00    0.89759   0.82870   11.141
 3959.00    0.87047   0.80706   11.488
 3960.00    0.81808   0.78199    0.000
 3961.00    0.76308   0.75428    0.000
 3962.00    0.72641   0.72437    0.000
 3963.00    0.70968   0.69306    0.000
 3964.00    0.69208   0.66213    0.000
 3965.00    0.67781   0.63220    0.000
 3966.00    0.71133   0.60592    0.000
 3967.00    0.79361   0.58608    0.000
 3968.00    0.85084   0.57288    0.000
 3969.00    0.84357   0.56727    0.000
 3970.00    0.81384   0.57033    0.000
 3971.00    0.79442   0.58186    0.000
 3972.00    0.76930   0.60145    0.000
 3973.00    0.73672   0.62680    0.000
 3974.00    0.73109   0.65537    0.000
 3975.00    0.75957   0.68599    0.000
 3976.00    0.78440   0.71698    0.000
 3977.00    0.79697   0.74660    0.000
 3978.00    0.83599   0.77390    0.000
 3979.00    0.90051   0.79865    0.000
 3980.00    0.92996   0.82079    0.000
 3981.00    0.90069   0.84040   11.103
 3982.00    0.85625   0.85739   11.679
 3983.00    0.84436   0.87213   11.843
 3984.00    0.88419   0.88550   11.310
 3985.00    0.95025   0.89734   10.524
 3986.00    0.98529   0.90785   10.149
 3987.00    0.97551   0.91694   10.251
 3988.00    0.96121   0.92475   10.404
 3989.00    0.96124   0.93167   10.403
 3990.00    0.95844   0.93705   10.434
 3991.00    0.95619   0.94126   10.458
 3992.00    0.98107   0.94487   10.193
 3993.00    1.01715   0.94764    9.831
 3994.00    1.01106   0.94993    9.891
 3995.00    0.96862   0.95173   10.324
 3996.00    0.95354   0.95301   10.487
 3997.00    0.97420   0.95428   10.265
 3998.00    0.97881   0.95519   10.216
 3999.00    0.95926   0.95562   10.425
 4000.00    0.95642   0.95592   10.456
 4001.00    0.97481   0.95531   10.258
 4002.00    0.98045   0.95450   10.199
 4003.00    0.97114   0.95353   10.297
 4004.00    0.97506   0.95235   10.256
 4005.00    0.98870   0.95129   10.114
 4006.00    0.98134   0.95050   10.190
 4007.00    0.95461   0.95100   10.476
 4008.00    0.93989   0.95220   10.640
 4009.00    0.94961   0.95418   10.531
 4010.00    0.97324   0.95631   10.275
 4011.00    1.00000   0.95927   10.000
 4012.00    1.02273   0.96294    9.778
 4013.00    1.03322   0.96567    9.679
 4014.00    1.02825   0.96834    9.725
 4015.00    1.02555   0.97013    9.751
 4016.00    1.04809   0.97084    9.541
 4017.00    1.08212   0.97036    9.241
 4018.00    1.09099   0.96810    9.166
 4019.00    1.06412   0.96476    9.397
 4020.00    1.01875   0.96016    9.816
 4021.00    0.98097   0.95449   10.194
 4022.00    0.97260   0.94824   10.282
 4023.00    0.99363   0.94280   10.064
 4024.00    1.02276   0.93830    9.778
 4025.00    1.02599   0.93440    9.747
 4026.00    0.98256   0.93167   10.177
 4027.00    0.92694   0.93040   10.788
 4028.00    0.91072   0.93191   10.980
 4029.00    0.92431   0.93453   10.819
 4030.00    0.93134   0.93765   10.737
 4031.00    0.94816   0.94112   10.547
 4032.00    1.00337   0.94518    9.966
 4033.00    1.05326   0.95020    9.494
 4034.00    1.03789   0.95470    9.635
 4035.00    0.98755   0.95894   10.126
 4036.00    0.96918   0.96225   10.318
 4037.00    0.98286   0.96484   10.174
 4038.00    0.99729   0.96674   10.027
 4039.00    1.02198   0.96707    9.785
 4040.00    1.07212   0.96611    9.327
 4041.00    1.10793   0.96430    9.026
 4042.00    1.08324   0.96195    9.232
 4043.00    1.01989   0.96040    9.805
 4044.00    0.97285   0.95881   10.279
 4045.00    0.97119   0.95710   10.297
 4046.00    1.00592   0.95609    9.941
 4047.00    1.02767   0.95560    9.731
 4048.00    0.99749   0.95620   10.025
 4049.00    0.94526   0.95651   10.579
 4050.00    0.92639   0.95621   10.795
 4051.00    0.96281   0.95575   10.386
 4052.00    1.03390   0.95502    9.672
 4053.00    1.07857   0.95361    9.272
 4054.00    1.05686   0.95174    9.462
 4055.00    1.01046   0.94976    9.897
 4056.00    0.99316   0.94753   10.069
 4057.00    0.99579   0.94543   10.042
 4058.00    0.98645   0.94285   10.137
 4059.00    0.95755   0.94003   10.443
 4060.00    0.91787   0.93767   10.895
 4061.00    0.88096   0.93546   11.351
 4062.00    0.86742   0.93312   11.528
 4063.00    0.90413   0.93051   11.060
 4064.00    0.98549   0.92778   10.147
 4065.00    1.04697   0.92536    9.551
 4066.00    1.04201   0.92326    9.597
 4067.00    1.00350   0.92060    9.965
 4068.00    0.98040   0.91733   10.200
 4069.00    0.98226   0.91446   10.181
 4070.00    0.99247   0.91143   10.076
 4071.00    0.98566   0.90777   10.145
 4072.00    0.95527   0.90412   10.468
 4073.00    0.92878   0.90062   10.767
 4074.00    0.92667   0.89837   10.791
 4075.00    0.93541   0.89659   10.690
 4076.00    0.94160   0.89458   10.620
 4077.00    0.95372   0.89306   10.485
 4078.00    0.97284   0.89181   10.279
 4079.00    0.97689   0.89086   10.237
 4080.00    0.95822   0.88991   10.436
 4081.00    0.94330   0.88832   10.601
 4082.00    0.95341   0.88588   10.489
 4083.00    0.98013   0.88218   10.203
 4084.00    0.99649   0.87725   10.035
 4085.00    0.97227   0.87104   10.285
 4086.00    0.91782   0.86353   10.895
 4087.00    0.89350   0.85462   11.192
 4088.00    0.91657   0.84384   10.910
 4089.00    0.92729   0.83074   10.784
 4090.00    0.90040   0.81531   11.106
 4091.00    0.88686   0.79738   11.276
 4092.00    0.90161   0.77693    0.000
 4093.00    0.88526   0.75405    0.000
 4094.00    0.82019   0.72915    0.000
 4095.00    0.76970   0.70333    0.000
 4096.00    0.77315   0.67719    0.000
 4097.00    0.80663   0.65232    0.000
 4098.00    0.84846   0.63090    0.000
 4099.00    0.90355   0.61451    0.000
 4100.00    0.96831   0.60374    0.000
 4101.00    1.01871   0.59927    0.000
 4102.00    1.03059   0.60131    0.000
 4103.00    0.99233   0.61031    0.000
 4104.00    0.91856   0.62599    0.000
 4105.00    0.84825   0.64568    0.000
 4106.00    0.81505   0.66802    0.000
 4107.00    0.83063   0.69167    0.000
 4108.00    0.86925   0.71517    0.000
 4109.00    0.88182   0.73779    0.000
 4110.00    0.86828   0.75866    0.000
 4111.00    0.87737   0.77743    0.000
 4112.00    0.90992   0.79381    0.000
 4113.00    0.91291   0.80796   11.301
 4114.00    0.87925   0.81990   11.594
 4115.00    0.85791   0.82976   11.527
 4116.00    0.87153   0.83801   11.403
 4117.00    0.90041   0.84487   11.143
 4118.00    0.92148   0.85102   10.864
 4119.00    0.92238   0.85624   10.848
 4120.00    0.90488   0.86072   11.078
 4121.00    0.88302   0.86507   11.263
 4122.00    0.87521   0.86888   11.328
 4123.00    0.89395   0.87245   11.380
 4124.00    0.92485   0.87531   11.080
 4125.00    0.93697   0.87746   10.060
 4126.00    0.92622   0.87908    9.001
 4127.00    0.91542   0.87995    8.627
 4128.00    0.92290   0.88066    8.792
 4129.00    0.95090   0.88135    8.904
 4130.00    0.97860   0.88293    8.772
 4131.00    0.97732   0.88477    8.661
 4132.00    0.95001   0.88697    8.704
 4133.00    0.92517   0.88945    8.844
 4134.00    0.92024   0.89223    8.990
 4135.00    0.93525   0.89478    9.069
 4136.00    0.95863   0.89644    9.102
 4137.00    0.97525   0.89694    9.161
 4138.00    0.98044   0.89612    9.236
 4139.00    0.97819   0.89465    9.262
 4140.00    0.97107   0.89261    9.247
 4141.00    0.96029   0.89066    9.222
 4142.00    0.94980   0.88868    9.129
 4143.00    0.94419   0.88700    8.952
 4144.00    0.94331   0.88581    8.985
 4145.00    0.94520   0.88581    9.548
 4146.00    0.95293   0.88765   10.335
 4147.00    0.96638   0.88957   10.554
 4148.00    0.96642   0.89154   10.392
 4149.00    0.93709   0.89342   10.596
 4150.00    0.90607   0.89483   11.020
 4151.00    0.91202   0.89618   10.995
 4152.00    0.94153   0.89763   10.627
 4153.00    0.95687   0.89903   10.438
 4154.00    0.95511   0.90027   10.467
 4155.00    0.95358   0.90155   10.499
 4156.00    0.95377   0.90305   10.489
 4157.00    0.94484   0.90460   10.556
 4158.00    0.91770   0.90602   10.886
 4159.00    0.88010   0.90755   11.451
 4160.00    0.87213   0.90860   11.501
 4161.00    0.91947   0.90906   10.532
 4162.00    0.97123   0.90892    9.557
 4163.00    0.96599   0.90820    9.311
 4164.00    0.92551   0.90710    9.475
 4165.00    0.90794   0.90505    9.488
 4166.00    0.93366   0.90255    9.353
 4167.00    0.98271   0.89951    9.310
 4168.00    1.00579   0.89617    9.313
 4169.00    0.96930   0.89284    9.235
 4170.00    0.90317   0.88971    9.147
 4171.00    0.86093   0.88696    9.163
 4172.00    0.86779   0.88447    9.254
 4173.00    0.91205   0.88249    9.329
 4174.00    0.94586   0.88154    9.343
 4175.00    0.93505   0.88146    9.310
 4176.00    0.90640   0.88207    9.280
 4177.00    0.89308   0.88315    9.299
 4178.00    0.87965   0.88434    9.364
 4179.00    0.85308   0.88578    9.439
 4180.00    0.85101   0.88728    9.473
 4181.00    0.89579   0.88873    9.446
 4182.00    0.93707   0.89010    9.399
 4183.00    0.93465   0.89091    9.382
 4184.00    0.92873   0.89185    9.406
 4185.00    0.95429   0.89247    9.472
 4186.00    0.97046   0.89306    9.601
 4187.00    0.94098   0.89392    9.789
 4188.00    0.89917   0.89421    9.970
 4189.00    0.88554   0.89470   10.077
 4190.00    0.89680   0.89499   10.106
 4191.00    0.91486   0.89491   10.076
 4192.00    0.93154   0.89435   10.001
 4193.00    0.94286   0.89318    9.958
 4194.00    0.94373   0.89198   10.113
 4195.00    0.93043   0.89001   10.543
 4196.00    0.90408   0.88773   11.088
 4197.00    0.88067   0.88561   11.412
 4198.00    0.89043   0.88392   11.220
 4199.00    0.92658   0.88256   10.771
 4200.00    0.92662   0.88208   10.798
 4201.00    0.87523   0.88252   11.447
 4202.00    0.85078   0.88351   11.744
 4203.00    0.89316   0.88484   11.156
 4204.00    0.93928   0.88666   10.669
 4205.00    0.94301   0.88875   10.702
 4206.00    0.93618   0.89060   10.607
 4207.00    0.95032   0.89239   10.084
 4208.00    0.97560   0.89369    9.710
 4209.00    0.99551   0.89429    9.757
 4210.00    1.00494   0.89447    9.929
 4211.00    0.99671   0.89443    9.965
 4212.00    0.95945   0.89408    9.938
 4213.00    0.90525   0.89365    9.952
 4214.00    0.87456   0.89277    9.994
 4215.00    0.89018   0.89203   10.037
 4216.00    0.93698   0.89052   10.089
 4217.00    0.97627   0.88900   10.133
 4218.00    0.96538   0.88733   10.121
 4219.00    0.91121   0.88484   10.066
 4220.00    0.87340   0.88185   10.051
 4221.00    0.87227   0.87803   10.101
 4222.00    0.86807   0.87459   10.151
 4223.00    0.84575   0.87084   10.165
 4224.00    0.83618   0.86760   10.168
 4225.00    0.85279   0.86508   10.149
 4226.00    0.87452   0.86317   10.054
 4227.00    0.88228   0.86224    9.936
 4228.00    0.87419   0.86222    9.935
 4229.00    0.86660   0.86348   10.027
 4230.00    0.88389   0.86492   10.034
 4231.00    0.92278   0.86651    9.970
 4232.00    0.95060   0.86804   10.052
 4233.00    0.94421   0.86928   10.292
 4234.00    0.90452   0.87028   10.453
 4235.00    0.85757   0.87163   10.477
 4236.00    0.83984   0.87318   10.542
 4237.00    0.85251   0.87456   10.668
 4238.00    0.86527   0.87635   10.681
 4239.00    0.87277   0.87796   10.559
 4240.00    0.89554   0.87925   10.446
 4241.00    0.93084   0.88027   10.358
 4242.00    0.95242   0.88092   10.212
 4243.00    0.95160   0.88093   10.106
 4244.00    0.93955   0.88018   10.231
 4245.00    0.92095   0.87899   10.501
 4246.00    0.89419   0.87722   10.596
 4247.00    0.87115   0.87473   10.506
 4248.00    0.86943   0.87214   10.505
 4249.00    0.88015   0.86977   10.645
 4250.00    0.87862   0.86780   10.766
 4251.00    0.86907   0.86601   10.803
 4252.00    0.87497   0.86465   10.824
 4253.00    0.89134   0.86409   10.881
 4254.00    0.89269   0.86368   10.975
 4255.00    0.87590   0.86372   11.046
 4256.00    0.85917   0.86441   11.024
 4257.00    0.85816   0.86536   10.948
 4258.00    0.87628   0.86646   10.926
 4259.00    0.89609   0.86727   11.015
 4260.00    0.89462   0.86799   11.222
 4261.00    0.87645   0.86819   11.545
 4262.00    0.86346   0.86824   11.933
 4263.00    0.86253   0.86785   12.204
 4264.00    0.86797   0.86680   12.193
 4265.00    0.87728   0.86488   12.110
 4266.00    0.88608   0.86221   12.267
 4267.00    0.87503   0.85912   12.545
 4268.00    0.83356   0.85536   12.595
 4269.00    0.80211   0.85214   12.445
 4270.00    0.82611   0.84936   12.348
 4271.00    0.87109   0.84716   12.334
 4272.00    0.87265   0.84580   12.296
 4273.00    0.83611   0.84524   12.238
 4274.00    0.80928   0.84579   12.189
 4275.00    0.81673   0.84686   12.044
 4276.00    0.85450   0.84828   11.704
 4277.00    0.89825   0.84990   11.283
 4278.00    0.92050   0.85139   10.948
 4279.00    0.91337   0.85234   10.738
 4280.00    0.89075   0.85274   10.624
 4281.00    0.88472   0.85213   10.582
 4282.00    0.91047   0.85087   10.593
 4283.00    0.92472   0.84901   10.640
 4284.00    0.88468   0.84666   10.732
 4285.00    0.82543   0.84437   10.935
 4286.00    0.80460   0.84176   11.253
 4287.00    0.82465   0.83947   11.470
 4288.00    0.85103   0.83714   11.405
 4289.00    0.84677   0.83502   11.270
 4290.00    0.80447   0.83305   11.300
 4291.00    0.77344   0.83100   11.332
 4292.00    0.80005   0.82937   11.142
 4293.00    0.86252   0.82736   10.834
 4294.00    0.90783   0.82525   10.635
 4295.00    0.89994   0.82228   10.662
 4296.00    0.84359   0.81915   10.893
 4297.00    0.79759   0.81562   11.118
 4298.00    0.80765   0.81193   11.179
 4299.00    0.84463   0.80834   11.238
 4300.00    0.85936   0.80468   11.486
 4301.00    0.83843   0.80158   11.836
 4302.00    0.79295   0.79917   12.081
 4303.00    0.74319   0.79748   12.113
 4304.00    0.71186   0.79629   11.991
 4305.00    0.71745   0.79612   11.905
 4306.00    0.75838   0.79637   11.927
 4307.00    0.80348   0.79728   11.855
 4308.00    0.82200   0.79881   11.582
 4309.00    0.80862   0.80062   11.341
 4310.00    0.78163   0.80318   11.302
 4311.00    0.77526   0.80587   11.354
 4312.00    0.80170   0.80882   11.365
 4313.00    0.82928   0.81139   11.358
 4314.00    0.83240   0.81354   -2.000
 4315.00    0.82478   0.81496   -2.000
 4316.00    0.82839   0.81538   -2.000
 4317.00    0.84935   0.81491   -2.000
 4318.00    0.87370   0.81295   -2.000
 4319.00    0.87159   0.80992   -2.000
 4320.00    0.83809   0.80542   -2.000
 4321.00    0.81059   0.80003   -2.000
 4322.00    0.81178   0.79356   -2.000
 4323.00    0.81961   0.78674   -2.000
 4324.00    0.80779   0.77929   -2.000
 4325.00    0.77199   0.77148   -2.000
 4326.00    0.73403   0.76315   -2.000
 4327.00    0.73412   0.75420   -2.000
 4328.00    0.78003   0.74460   -2.000
 4329.00    0.82894   0.73347   -2.000
 4330.00    0.84277   0.72065    0.000
 4331.00    0.81811   0.70561    0.000
 4332.00    0.78175   0.68834    0.000
 4333.00    0.77762   0.66962    0.000
 4334.00    0.81851   0.64990    0.000
 4335.00    0.87643   0.63028    0.000
 4336.00    0.95026   0.61168    0.000
 4337.00    1.07767   0.59550    0.000
 4338.00    1.23965   0.58286    0.000
 4339.00    1.34299   0.57478    0.000
 4340.00    1.33869   0.57215    0.000
 4341.00    1.25789   0.57474    0.000
 4342.00    1.13695   0.58287    0.000
 4343.00    0.99200   0.59540    0.000
 4344.00    0.84939   0.61116    0.000
 4345.00    0.74916   0.62907    0.000
 4346.00    0.70814   0.64770    0.000
 4347.00    0.71215   0.66624    0.000
 4348.00    0.74244   0.68395    0.000
 4349.00    0.78346   0.70074    0.000
 4350.00    0.81387   0.71616    0.000
 4351.00    0.81335   0.73037   12.058
 4352.00    0.79652   0.74338   12.084
 4353.00    0.80375   0.75538   12.135
 4354.00    0.83176   0.76676   12.120
 4355.00    0.83744   0.77721   12.014
 4356.00    0.82435   0.78697   11.904
 4357.00    0.83988   0.79582   11.922
 4358.00    0.88028   0.80362   12.029
 4359.00    0.89310   0.81040   12.041
 4360.00    0.87245   0.81610   11.925
 4361.00    0.86129   0.82094   11.819
 4362.00    0.87560   0.82475   11.825
 4363.00    0.89501   0.82768   11.948
 4364.00    0.89859   0.82974   12.080
 4365.00    0.87813   0.83088   12.071
 4366.00    0.84526   0.83140   11.991
 4367.00    0.82240   0.83120   12.043
 4368.00    0.81574   0.83073   12.211
 4369.00    0.81769   0.82998   12.271
 4370.00    0.82954   0.82930   12.071
 4371.00    0.85616   0.82857   11.666
 4372.00    0.88081   0.82804   11.348
 4373.00    0.87876   0.82737   11.386
 4374.00    0.86032   0.82665   11.627
 4375.00    0.85662   0.82542   11.668
 4376.00    0.86806   0.82391   11.516
 4377.00    0.87078   0.82178   11.485
 4378.00    0.85368   0.81918   11.643
 4379.00    0.82412   0.81585   11.807
 4380.00    0.80236   0.81198   11.740
 4381.00    0.80241   0.80786   11.436
 4382.00    0.79923   0.80376   11.463
 4383.00    0.76434   0.80029   12.371
 4384.00    0.74098   0.79752   13.380
 4385.00    0.78833   0.79614   12.815
 4386.00    0.86057   0.79604   11.644
 4387.00    0.86933   0.79751   11.467
 4388.00    0.82616   0.80012   12.096
 4389.00    0.80115   0.80363   12.494
 4390.00    0.81430   0.80771   12.282
 4391.00    0.84404   0.81189   11.852
 4392.00    0.86992   0.81605   11.499
 4393.00    0.87853   0.82002   11.361
 4394.00    0.86217   0.82317   11.588
 4395.00    0.82437   0.82579   12.205
 4396.00    0.78729   0.82751   12.738
 4397.00    0.77441   0.82857   12.590
 4398.00    0.78492   0.82899   12.110
 4399.00    0.80319   0.82873   11.917
 4400.00    0.81706   0.82812   11.994
 4401.00    0.82167   0.82696   12.060
 4402.00    0.82103   0.82579   12.054
 4403.00    0.82258   0.82479   12.053
 4404.00    0.82997   0.82399   12.078
 4405.00    0.84083   0.82352   12.107
 4406.00    0.84597   0.82332   12.133
 4407.00    0.84002   0.82339   12.152
 4408.00    0.83316   0.82364   12.146
 4409.00    0.83581   0.82399   12.110
 4410.00    0.84113   0.82425   12.085
 4411.00    0.84158   0.82425   12.105
 4412.00    0.84725   0.82410   12.137
 4413.00    0.86416   0.82396   12.149
 4414.00    0.87167   0.82389   12.177
 4415.00    0.85248   0.82394   12.278
 4416.00    0.82285   0.82430   12.476
 4417.00    0.80467   0.82510   12.735
 4418.00    0.79692   0.82615   12.943
 4419.00    0.79522   0.82767   12.998
 4420.00    0.81040   0.82922   12.908
 4421.00    0.84527   0.83057   12.768
 4422.00    0.87521   0.83168   12.703
 4423.00    0.87965   0.83219   12.748
 4424.00    0.86835   0.83231   12.773
 4425.00    0.85537   0.83197   12.702
 4426.00    0.83745   0.83134   12.680
 4427.00    0.81312   0.83047   12.781
 4428.00    0.79741   0.82939   12.802
 4429.00    0.80161   0.82816   12.626
 4430.00    0.81761   0.82700   12.471
 4431.00    0.82722   0.82589   12.510
 4432.00    0.81293   0.82508   12.647
 4433.00    0.77942   0.82447   12.741
 4434.00    0.76241   0.82414   12.774
 4435.00    0.78230   0.82420   12.752
 4436.00    0.81646   0.82438   12.637
 4437.00    0.83775   0.82468   12.488
 4438.00    0.84105   0.82515   12.497
 4439.00    0.83655   0.82563   12.700
 4440.00    0.84092   0.82620   12.844
 4441.00    0.85613   0.82660   12.783
 4442.00    0.86147   0.82700   12.721
 4443.00    0.84491   0.82725   12.800
 4444.00    0.81942   0.82744   12.910
 4445.00    0.80484   0.82757   12.949
 4446.00    0.81447   0.82767   12.963
 4447.00    0.84260   0.82747   12.990
 4448.00    0.86329   0.82698   12.984
 4449.00    0.85948   0.82587   12.930
 4450.00    0.83678   0.82423   12.891
 4451.00    0.81166   0.82209   12.902
 4452.00    0.80231   0.81978   12.930
 4453.00    0.81617   0.81718   12.944
 4454.00    0.84467   0.81457   12.950
 4455.00    0.86791   0.81223   12.970
 4456.00    0.86359   0.80997   13.022
 4457.00    0.83628   0.80818   13.083
 4458.00    0.81972   0.80661   13.085
 4459.00    0.82774   0.80547   13.022
 4460.00    0.84029   0.80459   12.967
 4461.00    0.83861   0.80365    0.000
 4462.00    0.82084   0.80277    0.000
 4463.00    0.80132   0.80166    0.000
 4464.00    0.80183   0.80063    0.000
 4465.00    0.82017   0.79937    0.000
 4466.00    0.83033   0.79837    0.000
 4467.00    0.83002   0.79764    0.000
 4468.00    0.84433   0.79715    0.000
 4469.00    0.87297   0.79743    0.000
 4470.00    0.88550   0.79828    0.000
 4471.00    0.87298   0.79995    0.000
 4472.00    0.85620   0.80192    0.000
 4473.00    0.85082   0.80432    0.000
 4474.00    0.85675   0.80660    0.000
 4475.00    0.86370   0.80867    0.000
 4476.00    0.85840   0.81048    0.000
 4477.00    0.84039   0.81159    0.000
 4478.00    0.82152   0.81221    0.000
 4479.00    0.80975   0.81254    0.000
 4480.00    0.80620   0.81299    0.000
 4481.00    0.81085   0.81348    0.000
 4482.00    0.82238   0.81422   12.945
 4483.00    0.83308   0.81510   13.091
 4484.00    0.83350   0.81628   13.213
 4485.00    0.82809   0.81761   13.275
 4486.00    0.83080   0.81910   13.300
 4487.00    0.84358   0.82006   13.358
 4488.00    0.85579   0.82073   13.510
 4489.00    0.85683   0.82111   13.678
 4490.00    0.84233   0.82135   13.711
 4491.00    0.82065   0.82153   13.651
 4492.00    0.80652   0.82193   13.656
 4493.00    0.80358   0.82261   13.690
 4494.00    0.80744   0.82373   13.592
 4495.00    0.82106   0.82509   13.395
 4496.00    0.84761   0.82683   13.268
 4497.00    0.86919   0.82867   13.300
 4498.00    0.86241   0.83079   13.459
 4499.00    0.83798   0.83310   13.592
 4500.00    0.82729   0.83538   13.534
 4501.00    0.84078   0.83754   13.366
 4502.00    0.86617   0.83936   13.292
 4503.00    0.88128   0.84074   13.345
 4504.00    0.87171   0.84156   13.428
 4505.00    0.85679   0.84192   13.457
 4506.00    0.86437   0.84188   13.420
 4507.00    0.88058   0.84117   13.426
 4508.00    0.87370   0.83994   13.583
 4509.00    0.84744   0.83829   13.808
 4510.00    0.82690   0.83639   13.920
 4511.00    0.82183   0.83436   13.911
 4512.00    0.82728   0.83234   13.884
 4513.00    0.83422   0.83037   13.877
 4514.00    0.83574   0.82842   13.881
 4515.00    0.83342   0.82647   13.908
 4516.00    0.83113   0.82460   13.973
 4517.00    0.82534   0.82270   14.050
 4518.00    0.81338   0.82072   14.091
 4519.00    0.80603   0.81855   14.047
 4520.00    0.81362   0.81620   13.926
 4521.00    0.82636   0.81337   13.842
 4522.00    0.82968   0.81038   13.888
 4523.00    0.82626   0.80714   13.997
 4524.00    0.82580   0.80382   14.060
 4525.00    0.82907   0.80064   14.094
 4526.00    0.82839   0.79751   14.144
 4527.00    0.81184   0.79517   14.135
 4528.00    0.77937   0.79315   14.004
 4529.00    0.75813   0.79208   13.852
 4530.00    0.76924   0.79156   13.810
 4531.00    0.79196   0.79203   13.894
 4532.00    0.79792   0.79301   14.031
 4533.00    0.79000   0.79485   14.101
 4534.00    0.78492   0.79698   14.051
 4535.00    0.79135   0.79944   13.995
 4536.00    0.80923   0.80187   14.034
 4537.00    0.83122   0.80404   14.091
 4538.00    0.84314   0.80604   14.073
 4539.00    0.82659   0.80752   14.034
 4540.00    0.78236   0.80854   14.070
 4541.00    0.74732   0.80883   14.204
 4542.00    0.75160   0.80844   14.377
 4543.00    0.78251   0.80750   14.451
 4544.00    0.81230   0.80602   14.382
 4545.00    0.82471   0.80432   14.340
 4546.00    0.81744   0.80237   14.454
 4547.00    0.80110   0.80040   14.614
 4548.00    0.78624   0.79848   14.673
 4549.00    0.77439   0.79694   14.615
 4550.00    0.76791   0.79587    0.000
 4551.00    0.77580   0.79532    0.000
 4552.00    0.79719   0.79546    0.000
 4553.00    0.81220   0.79616    0.000
 4554.00    0.80672   0.79771    0.000
 4555.00    0.78865   0.79945    0.000
 4556.00    0.77406   0.80166    0.000
 4557.00    0.77560   0.80386    0.000
 4558.00    0.79189   0.80604    0.000
 4559.00    0.80510   0.80799    0.000
 4560.00    0.80697   0.80968    0.000
 4561.00    0.81064   0.81094    0.000
 4562.00    0.82093   0.81180    0.000
 4563.00    0.82095   0.81239    0.000
 4564.00    0.80351   0.81262    0.000
 4565.00    0.78589   0.81277    0.000
 4566.00    0.78649   0.81267    0.000
 4567.00    0.81025   0.81253    0.000
 4568.00    0.84401   0.81231    0.000
 4569.00    0.86075   0.81201    0.000
 4570.00    0.85182   0.81162    0.000
 4571.00    0.83695   0.81108    0.000
 4572.00    0.82954   0.81037    0.000
 4573.00    0.82334   0.80945    0.000
 4574.00    0.81512   0.80830    0.000
 4575.00    0.81221   0.80695    0.000
 4576.00    0.81490   0.80551    0.000
 4577.00    0.81248   0.80390    0.000
 4578.00    0.80252   0.80226    0.000
 4579.00    0.79526   0.80069    0.000
 4580.00    0.79445   0.79919    0.000
 4581.00    0.79313   0.79796    0.000
 4582.00    0.79104   0.79700    0.000
 4583.00    0.79636   0.79632    0.000
 4584.00    0.80426   0.79598    0.000
 4585.00    0.79731   0.79582    0.000
 4586.00    0.77989   0.79589    0.000
 4587.00    0.77847   0.79594    0.000
 4588.00    0.79490   0.79608    0.000
 4589.00    0.80281   0.79604    0.000
 4590.00    0.79627   0.79603    0.000
 4591.00    0.79625   0.79586    0.000
 4592.00    0.81330   0.79569    0.000
 4593.00    0.83710   0.79549    0.000
 4594.00    0.84551   0.79535    0.000
 4595.00    0.81999   0.79530    0.000
 4596.00    0.78242   0.79532    0.000
 4597.00    0.78091   0.79555    0.000
 4598.00    0.81379   0.79587    0.000
 4599.00    0.83357   0.79646    0.000
 4600.00    0.82471   0.79708    0.000
 4601.00    0.81022   0.79808    0.000
 4602.00    0.80590   0.79908    0.000
 4603.00    0.80992   0.80049    0.000
 4604.00    0.81084   0.80178    0.000
 4605.00    0.79826   0.80340    0.000
 4606.00    0.78341   0.80475    0.000
 4607.00    0.78807   0.80626    0.000
 4608.00    0.80504   0.80739    0.000
 4609.00    0.80854   0.80839    0.000
 4610.00    0.80156   0.80895    0.000
 4611.00    0.80771   0.80924    0.000
 4612.00    0.82674   0.80923    0.000
 4613.00    0.83750   0.80894    0.000
 4614.00    0.82706   0.80852    0.000
 4615.00    0.79839   0.80789    0.000
 4616.00    0.77184   0.80738    0.000
 4617.00    0.77144   0.80679    0.000
 4618.00    0.79722   0.80645    0.000
 4619.00    0.82848   0.80605    0.000
 4620.00    0.84193   0.80591    0.000
 4621.00    0.82557   0.80560    0.000
 4622.00    0.79692   0.80542    0.000
 4623.00    0.78572   0.80501    0.000
 4624.00    0.79694   0.80456    0.000
 4625.00    0.81548   0.80384    0.000
 4626.00    0.82636   0.80305    0.000
 4627.00    0.82153   0.80195    0.000
 4628.00    0.80478   0.80073    0.000
 4629.00    0.78641   0.79931    0.000
 4630.00    0.77321   0.79776    0.000
 4631.00    0.76868   0.79608    0.000
 4632.00    0.77545   0.79432    0.000
 4633.00    0.79139   0.79250    0.000
 4634.00    0.80360   0.79061    0.000
 4635.00    0.79995   0.78871    0.000
 4636.00    0.78613   0.78685    0.000
 4637.00    0.77646   0.78498    0.000
 4638.00    0.77747   0.78315    0.000
 4639.00    0.78511   0.78131    0.000
 4640.00    0.78523   0.77956    0.000
 4641.00    0.77224   0.77778    0.000
 4642.00    0.77064   0.77614    0.000
 4643.00    0.79968   0.77450    0.000
 4644.00    0.82942   0.77315    0.000
 4645.00    0.82620   0.77196    0.000
 4646.00    0.81000   0.77126    0.000
 4647.00    0.80975   0.77091    0.000
 4648.00    0.80758   0.77120    0.000
 4649.00    0.78103   0.77187    0.000
 4650.00    0.75331   0.77321    0.000
 4651.00    0.75262   0.77476    0.000
 4652.00    0.76564   0.77680    0.000
 4653.00    0.77182   0.77881    0.000
 4654.00    0.78089   0.78095    0.000
 4655.00    0.80533   0.78278    0.000
 4656.00    0.83150   0.78434    0.000
 4657.00    0.84319   0.78532    0.000
 4658.00    0.84513   0.78568    0.000
 4659.00    0.84752   0.78537    0.000
 4660.00    0.85027   0.78431    0.000
 4661.00    0.84803   0.78272    0.000
 4662.00    0.83640   0.78054    0.000
 4663.00    0.81669   0.77825    0.000
 4664.00    0.79801   0.77579    0.000
 4665.00    0.78410   0.77371    0.000
 4666.00    0.76503   0.77190    0.000
 4667.00    0.74119   0.77081    0.000
 4668.00    0.73774   0.77017    0.000
 4669.00    0.76290   0.77032    0.000
 4670.00    0.78224   0.77079    0.000
 4671.00    0.77302   0.77183    0.000
 4672.00    0.75958   0.77284    0.000
 4673.00    0.76709   0.77408    0.000
 4674.00    0.78963   0.77498    0.000
 4675.00    0.81034   0.77591    0.000
 4676.00    0.81778   0.77637    0.000
 4677.00    0.81306   0.77681    0.000
 4678.00    0.81069   0.77684    0.000
 4679.00    0.81723   0.77690    0.000
 4680.00    0.82124   0.77669    0.000
 4681.00    0.81573   0.77662    0.000
 4682.00    0.80918   0.77641    0.000
 4683.00    0.80672   0.77636    0.000
 4684.00    0.80193   0.77624    0.000
 4685.00    0.79512   0.77626    0.000
 4686.00    0.79888   0.77619    0.000
 4687.00    0.80969   0.77621    0.000
 4688.00    0.80111   0.77610    0.000
 4689.00    0.77014   0.77601    0.000
 4690.00    0.75109   0.77572    0.000
 4691.00    0.76102   0.77533    0.000
 4692.00    0.77913   0.77469    0.000
 4693.00    0.78446   0.77383    0.000
 4694.00    0.77386   0.77270    0.000
 4695.00    0.75652   0.77129    0.000
 4696.00    0.74753   0.76970    0.000
 4697.00    0.75230   0.76790    0.000
 4698.00    0.76226   0.76609    0.000
 4699.00    0.76677   0.76424    0.000
 4700.00    0.76076   0.76259    0.000
 4701.00    0.75386   0.76103    0.000
 4702.00    0.76508   0.75984    0.000
 4703.00    0.78726   0.75878    0.000
 4704.00    0.78732   0.75817    0.000
 4705.00    0.76082   0.75763    0.000
 4706.00    0.74007   0.75758    0.000
 4707.00    0.74510   0.75750    0.000
 4708.00    0.76828   0.75799    0.000
 4709.00    0.78602   0.75837    0.000
 4710.00    0.77424   0.75945    0.000
 4711.00    0.74389   0.76040    0.000
 4712.00    0.73374   0.76213    0.000
 4713.00    0.74794   0.76369    0.000
 4714.00    0.75519   0.76597    0.000
 4715.00    0.75093   0.76796    0.000
 4716.00    0.75898   0.77040    0.000
 4717.00    0.77630   0.77234    0.000
 4718.00    0.77531   0.77433    0.000
 4719.00    0.75925   0.77559    0.000
 4720.00    0.75796   0.77653    0.000
 4721.00    0.77069   0.77665    0.000
 4722.00    0.76936   0.77626    0.000
 4723.00    0.75044   0.77518    0.000
 4724.00    0.73585   0.77367    0.000
 4725.00    0.73819   0.77178    0.000
 4726.00    0.75407   0.76977    0.000
 4727.00    0.77111   0.76777    0.000
 4728.00    0.77537   0.76602    0.000
 4729.00    0.76444   0.76455    0.000
 4730.00    0.74745   0.76358    0.000
 4731.00    0.73756   0.76298    0.000
 4732.00    0.74402   0.76290    0.000
 4733.00    0.75936   0.76309    0.000
 4734.00    0.76796   0.76365    0.000
 4735.00    0.76983   0.76430    0.000
 4736.00    0.77447   0.76513    0.000
 4737.00    0.77835   0.76592    0.000
 4738.00    0.77130   0.76674    0.000
 4739.00    0.75800   0.76749    0.000
 4740.00    0.75165   0.76816    0.000
 4741.00    0.75408   0.76877    0.000
 4742.00    0.75861   0.76925    0.000
 4743.00    0.76209   0.76965    0.000
 4744.00    0.76487   0.76987    0.000
 4745.00    0.76673   0.76994    0.000
 4746.00    0.76673   0.76982    0.000
 4747.00    0.76408   0.76944    0.000
 4748.00    0.75897   0.76888    0.000
 4749.00    0.75370   0.76802    0.000
 4750.00    0.75174   0.76705    0.000
 4751.00    0.75612   0.76578    0.000
 4752.00    0.76792   0.76449    0.000
 4753.00    0.78432   0.76295    0.000
 4754.00    0.79704   0.76147    0.000
 4755.00    0.79159   0.75978    0.000
 4756.00    0.76317   0.75818    0.000
 4757.00    0.73743   0.75640    0.000
 4758.00    0.74257   0.75473    0.000
 4759.00    0.76919   0.75294    0.000
 4760.00    0.78858   0.75133    0.000
 4761.00    0.78362   0.74972   17.306
 4762.00    0.75577   0.74842   17.318
 4763.00    0.72744   0.74731   17.269
 4764.00    0.72144   0.74661   17.149
 4765.00    0.73651   0.74625   17.453
 4766.00    0.75670   0.74630   18.210
 4767.00    0.76600   0.74670   17.701
 4768.00    0.75607   0.74740   15.378
 4769.00    0.73270   0.74832   13.682
 4770.00    0.71218   0.74934   13.586
 4771.00    0.71501   0.75037   13.982
 4772.00    0.74643   0.75130   13.562
 4773.00    0.77982   0.75203   12.822
 4774.00    0.78877   0.75251   12.593
 4775.00    0.77895   0.75267   12.841
 4776.00    0.76841   0.75253   13.145
 4777.00    0.76557   0.75204   13.050
 4778.00    0.76771   0.75130   12.708
 4779.00    0.76307   0.75032   13.160
 4780.00    0.74847   0.74923   15.146
 4781.00    0.74167   0.74808   17.512
 4782.00    0.75236   0.74702   17.824
 4783.00    0.76011   0.74612   17.090
 4784.00    0.74867   0.74547   17.127
 4785.00    0.73282   0.74514   17.649
 4786.00    0.73058   0.74515   17.840
 4787.00    0.74055   0.74552   17.650
 4788.00    0.75229   0.74618   17.406
 4789.00    0.75627   0.74711   17.310
 4790.00    0.74887   0.74817   17.394
 4791.00    0.73532   0.74928   17.533
 4792.00    0.72758   0.75032   17.590
 4793.00    0.73965   0.75119   17.539
 4794.00    0.76660   0.75181   17.457
 4795.00    0.77703   0.75213   17.480
 4796.00    0.75824   0.75215   17.642
 4797.00    0.73908   0.75189   17.784
 4798.00    0.73958   0.75136   17.788
 4799.00    0.74383   0.75066   17.718
 4800.00    0.73852   0.74979   17.650
 4801.00    0.73341   0.74890   17.584
 4802.00    0.73568   0.74793   17.531
 4803.00    0.73720   0.74703   17.551
 4804.00    0.73360   0.74614   17.660
 4805.00    0.73232   0.74539   17.792
 4806.00    0.73486   0.74472   17.862
 4807.00    0.73052   0.74421   17.827
 4808.00    0.71626   0.74385   17.751
 4809.00    0.70429   0.74363   17.787
 4810.00    0.70629   0.74357   17.929
 4811.00    0.72465   0.74358   17.965
 4812.00    0.75067   0.74367   17.888
 4813.00    0.76799   0.74373   17.983
 4814.00    0.77136   0.74371   18.284
 4815.00    0.77095   0.74354   18.444
 4816.00    0.77139   0.74313   18.408
 4817.00    0.76620   0.74247   18.597
 4818.00    0.75542   0.74148   19.116
 4819.00    0.74875   0.74025   19.536
 4820.00    0.74633   0.73874   19.599
 4821.00    0.73634   0.73708   19.510
 4822.00    0.71812   0.73528   19.407
 4823.00    0.70625   0.73346   19.216
 4824.00    0.70982   0.73168   18.973
 4825.00    0.72516   0.72995   18.850
 4826.00    0.73973   0.72839   18.826
 4827.00    0.73969   0.72686   18.701
 4828.00    0.73038   0.72552   18.515
 4829.00    0.73209   0.72414   18.531
 4830.00    0.74121   0.72287   18.738
 4831.00    0.73251   0.72147   18.831
 4832.00    0.71046   0.72007   18.731
 4833.00    0.70729   0.71847   18.644
 4834.00    0.72338   0.71673   18.613
 4835.00    0.72692   0.71476   18.505
 4836.00    0.71124   0.71254   18.347
 4837.00    0.69913   0.71008   18.301
 4838.00    0.70332   0.70730   18.331
 4839.00    0.71752   0.70428   18.245
 4840.00    0.72543   0.70087   18.091
 4841.00    0.71223   0.69716   18.107
 4842.00    0.68744   0.69299   18.313
 4843.00    0.67672   0.68838   18.519
 4844.00    0.68498   0.68316   18.604
 4845.00    0.69614   0.67728   18.588
 4846.00    0.69706   0.67061   18.575
 4847.00    0.68443   0.66300   18.669
 4848.00    0.66610   0.65441    0.000
 4849.00    0.65552   0.64465    0.000
 4850.00    0.65866   0.63385    0.000
 4851.00    0.67097   0.62185    0.000
 4852.00    0.67828   0.60906    0.000
 4853.00    0.67462   0.59538    0.000
 4854.00    0.69818   0.58161    0.000
 4855.00    0.80522   0.56778    0.000
 4856.00    1.00198   0.55498    0.000
 4857.00    1.25848   0.54332    0.000
 4858.00    1.56263   0.53399    0.000
 4859.00    1.89004   0.52697    0.000
 4860.00    2.12954   0.52321    0.000
 4861.00    2.15243   0.52239    0.000
 4862.00    1.96257   0.52496    0.000
 4863.00    1.65865   0.53022    0.000
 4864.00    1.31929   0.53813    0.000
 4865.00    0.99870   0.54783    0.000
 4866.00    0.75349   0.55893    0.000
 4867.00    0.62321   0.57070    0.000
 4868.00    0.59234   0.58272    0.000
 4869.00    0.61131   0.59455    0.000
 4870.00    0.63950   0.60593    0.000
 4871.00    0.65413   0.61667    0.000
 4872.00    0.65287   0.62669    0.000
 4873.00    0.64688   0.63593    0.000
 4874.00    0.64942   0.64439    0.000
 4875.00    0.66413   0.65203   19.199
 4876.00    0.67244   0.65884   19.446
 4877.00    0.65881   0.66481   19.499
 4878.00    0.64497   0.66991   19.484
 4879.00    0.65765   0.67421   19.579
 4880.00    0.68239   0.67768   19.590
 4881.00    0.69073   0.68048   19.307
 4882.00    0.68095   0.68265   18.986
 4883.00    0.66904   0.68446   18.924
 4884.00    0.67068   0.68597   18.993
 4885.00    0.68811   0.68749   18.943
 4886.00    0.69938   0.68908   18.801
 4887.00    0.68671   0.69098   18.705
 4888.00    0.66734   0.69321   18.681
 4889.00    0.66467   0.69586   18.698
 4890.00    0.67486   0.69888   18.746
 4891.00    0.68468   0.70216   18.824
 4892.00    0.69289   0.70567   18.927
 4893.00    0.70203   0.70904   19.029
 4894.00    0.70883   0.71238   19.077
 4895.00    0.71154   0.71523   19.049
 4896.00    0.71666   0.71777   18.997
 4897.00    0.72631   0.71964   18.952
 4898.00    0.72788   0.72113   18.848
 4899.00    0.71430   0.72201   18.677
 4900.00    0.70064   0.72251   18.597
 4901.00    0.70171   0.72260   18.680
 4902.00    0.71271   0.72245   18.728
 4903.00    0.72173   0.72206   18.607
 4904.00    0.72178   0.72154   18.499
 4905.00    0.71324   0.72091   18.555
 4906.00    0.70405   0.72016   18.645
 4907.00    0.70044   0.71929   18.648
 4908.00    0.70089   0.71826   18.655
 4909.00    0.70384   0.71704   18.732
 4910.00    0.71241   0.71551   18.754
 4911.00    0.72291   0.71368   18.709
 4912.00    0.71965   0.71133   18.857
 4913.00    0.69829   0.70879   19.268
 4914.00    0.67807   0.70557   19.541
 4915.00    0.67308   0.70257   19.431
 4916.00    0.67542   0.69896   19.268
 4917.00    0.67512   0.69616   19.270
 4918.00    0.67274   0.69308   19.206
 4919.00    0.67329   0.69154   18.937
 4920.00    0.68083   0.69009   18.685
 4921.00    0.69140   0.69052   18.633
 4922.00    0.69262   0.69129   18.735
 4923.00    0.68410   0.69369   18.893
 4924.00    0.68451   0.69633   19.046
 4925.00    0.70442   0.69988   19.124
 4926.00    0.73319   0.70321   19.048
 4927.00    0.75064   0.70660   18.879
 4928.00    0.73892   0.70943   18.822
 4929.00    0.70838   0.71164   18.881
 4930.00    0.69818   0.71318   18.797
 4931.00    0.71628   0.71387   18.566
 4932.00    0.72420   0.71407   18.534
 4933.00    0.70593   0.71361   18.752
 4934.00    0.68922   0.71319   18.840
 4935.00    0.69071   0.71243   18.725
 4936.00    0.69731   0.71220   18.818
 4937.00    0.69759   0.71189   19.187
 4938.00    0.69357   0.71235   19.371
 4939.00    0.69033   0.71288   19.234
 4940.00    0.69124   0.71413    0.000
 4941.00    0.69772   0.71537    0.000
 4942.00    0.70845   0.71710    0.000
 4943.00    0.71658   0.71864    0.000
 4944.00    0.71281   0.72028    0.000
 4945.00    0.70061   0.72150    0.000
 4946.00    0.69594   0.72247    0.000
 4947.00    0.70624   0.72287    0.000
 4948.00    0.72426   0.72276    0.000
 4949.00    0.73370   0.72213    0.000
 4950.00    0.72113   0.72086    0.000
 4951.00    0.70692   0.71927    0.000
 4952.00    0.73299   0.71711    0.000
 4953.00    0.79233   0.71500    0.000
 4954.00    0.83663   0.71286    0.000
 4955.00    0.86750   0.71095    0.000
 4956.00    0.92973   0.70924    0.000
 4957.00    1.00897   0.70785    0.000
 4958.00    1.03877   0.70692    0.000
 4959.00    1.00625   0.70625    0.000
 4960.00    0.95321   0.70594    0.000
 4961.00    0.89647   0.70577    0.000
 4962.00    0.82599   0.70590    0.000
 4963.00    0.75758   0.70600    0.000
 4964.00    0.72481   0.70627    0.000
 4965.00    0.72379   0.70651    0.000
 4966.00    0.72073   0.70683    0.000
 4967.00    0.70369   0.70717    0.000
 4968.00    0.68523   0.70747    0.000
 4969.00    0.67820   0.70777    0.000
 4970.00    0.68673   0.70787    0.000
 4971.00    0.69954   0.70777    0.000
 4972.00    0.69968   0.70734    0.000
 4973.00    0.68799   0.70649    0.000
 4974.00    0.67889   0.70520    0.000
 4975.00    0.68094   0.70346    0.000
 4976.00    0.69367   0.70131    0.000
 4977.00    0.70951   0.69876    0.000
 4978.00    0.71702   0.69611    0.000
 4979.00    0.70645   0.69350    0.000
 4980.00    0.67842   0.69111    0.000
 4981.00    0.65662   0.68909    0.000
 4982.00    0.66517   0.68760    0.000
 4983.00    0.68577   0.68662    0.000
 4984.00    0.68502   0.68616    0.000
 4985.00    0.67240   0.68621    0.000
 4986.00    0.67682   0.68656    0.000
 4987.00    0.69279   0.68731    0.000
 4988.00    0.69749   0.68803    0.000
 4989.00    0.69109   0.68883    0.000
 4990.00    0.68536   0.68940    0.000
 4991.00    0.67721   0.68976    0.000
 4992.00    0.66084   0.68973    0.000
 4993.00    0.65020   0.68931    0.000
 4994.00    0.66000   0.68843    0.000
 4995.00    0.67575   0.68704    0.000
 4996.00    0.67561   0.68542    0.000
 4997.00    0.66492   0.68326    0.000
 4998.00    0.66387   0.68125    0.000
 4999.00    0.68559   0.67873    0.000
 5000.00    0.73975   0.67663    0.000
 5001.00    0.84004   0.67416    0.000
 5002.00    0.99470   0.67229    0.000
 5003.00    1.19360   0.67032    0.000
 5004.00    1.40327   0.66888    0.000
 5005.00    1.56527   0.66740    0.000
 5006.00    1.62677   0.66621    0.000
 5007.00    1.57488   0.66492    0.000
 5008.00    1.43038   0.66368    0.000
 5009.00    1.23540   0.66244    0.000
 5010.00    1.03580   0.66101    0.000
 5011.00    0.86395   0.65993    0.000
 5012.00    0.73997   0.65857    0.000
 5013.00    0.67371   0.65783    0.000
 5014.00    0.65516   0.65699    0.000
 5015.00    0.64872   0.65691    0.000
 5016.00    0.63176   0.65691    0.000
 5017.00    0.62647   0.65771    0.000
 5018.00    0.65078   0.65865    0.000
 5019.00    0.67644   0.66024    0.000
 5020.00    0.67564   0.66192    0.000
 5021.00    0.66136   0.66407    0.000
 5022.00    0.65673   0.66609    0.000
 5023.00    0.66697   0.66830    0.000
 5024.00    0.68385   0.67034    0.000
 5025.00    0.69273   0.67224    0.000
 5026.00    0.68657   0.67405    0.000
 5027.00    0.67499   0.67543    0.000
 5028.00    0.67147   0.67660    0.000
 5029.00    0.68238   0.67718   20.344
 5030.00    0.70068   0.67746   20.495
 5031.00    0.70529   0.67700   20.705
 5032.00    0.68627   0.67629   20.751
 5033.00    0.65909   0.67483   20.782
 5034.00    0.64174   0.67343   20.900
 5035.00    0.63913   0.67146   20.918
 5036.00    0.64647   0.66966   20.800
 5037.00    0.65353   0.66773   20.860
 5038.00    0.65454   0.66634   21.155
 5039.00    0.65311   0.66523   21.208
 5040.00    0.65496   0.66492   20.840
 5041.00    0.66267   0.66473   20.540
 5042.00    0.67102   0.66515   20.563
 5043.00    0.66835   0.66572   20.604
 5044.00    0.65819   0.66651   20.471
 5045.00    0.66393   0.66740   20.377
 5046.00    0.68960   0.66824   20.416
 5047.00    0.70686   0.66934   20.374
 5048.00    0.69762   0.67010   20.200
 5049.00    0.67242   0.67125   20.146
 5050.00    0.64996   0.67201   20.324
 5051.00    0.64393   0.67331   20.552
 5052.00    0.65175   0.67410   20.676
 5053.00    0.65605   0.67547   20.713
 5054.00    0.65448   0.67634   20.720
 5055.00    0.66506   0.67775   20.728
 5056.00    0.68893   0.67846   20.751
 5057.00    0.70281   0.67935   20.792
 5058.00    0.69722   0.67963   20.823
 5059.00    0.68617   0.67972   20.789
 5060.00    0.67948   0.67922   20.652
 5061.00    0.67469   0.67840   20.435
 5062.00    0.67126   0.67713   20.313
 5063.00    0.67289   0.67585   20.522
 5064.00    0.67509   0.67430   20.960
 5065.00    0.66643   0.67268   21.168
 5066.00    0.64982   0.67106   21.030
 5067.00    0.64209   0.66955   20.887
 5068.00    0.64566   0.66812   20.878
 5069.00    0.64708   0.66665   20.844
 5070.00    0.64495   0.66539   20.756
 5071.00    0.65168   0.66420   20.748
 5072.00    0.66873   0.66294   20.784
 5073.00    0.68406   0.66178   20.671
 5074.00    0.68929   0.66049   20.469
 5075.00    0.68393   0.65945   20.451
 5076.00    0.67172   0.65804   20.696
 5077.00    0.65801   0.65709   21.049
 5078.00    0.64583   0.65624   21.314
 5079.00    0.63601   0.65588   21.372
 5080.00    0.63069   0.65564   21.313
 5081.00    0.63262   0.65585   21.339
 5082.00    0.64099   0.65645   21.423
 5083.00    0.65132   0.65728   21.380
 5084.00    0.65801   0.65842   21.288
 5085.00    0.65820   0.65960   21.379
 5086.00    0.65881   0.66100   21.532
 5087.00    0.66938   0.66212   21.420
 5088.00    0.68183   0.66323   21.180
 5089.00    0.67969   0.66395   21.214
 5090.00    0.66908   0.66449   21.486
 5091.00    0.66954   0.66451   21.637
 5092.00    0.67951   0.66414   21.597
 5093.00    0.68207   0.66339   21.575
 5094.00    0.67234   0.66229   21.691
 5095.00    0.65828   0.66109   21.902
 5096.00    0.65000   0.65960   22.008
 5097.00    0.65231   0.65835   21.837
 5098.00    0.65525   0.65711   21.603
 5099.00    0.64661   0.65608   21.637
 5100.00    0.63774   0.65509   21.842
 5101.00    0.64801   0.65429   21.909
 5102.00    0.66941   0.65369   21.889
 5103.00    0.68032   0.65327   21.958
 5104.00    0.67950   0.65299   21.841
 5105.00    0.67648   0.65287   21.284
 5106.00    0.66700   0.65310   20.867
 5107.00    0.64651   0.65328   21.109
 5108.00    0.63686   0.65388   21.178
 5109.00    0.65942   0.65455   20.152
 5110.00    0.68959   0.65529   19.186
 5111.00    0.69121   0.65611   19.516
 5112.00    0.67568   0.65689   20.525
 5113.00    0.67330   0.65752   20.794
 5114.00    0.68128   0.65792   20.529
 5115.00    0.68120   0.65800   20.760
 5116.00    0.67227   0.65753   21.446
 5117.00    0.66415   0.65675   21.959
 5118.00    0.66146   0.65535   22.131
 5119.00    0.66156   0.65376   22.196
 5120.00    0.65510   0.65172   22.374
 5121.00    0.63810   0.64960   22.751
 5122.00    0.62503   0.64759   23.210
 5123.00    0.62942   0.64560   23.570
 5124.00    0.64047   0.64396   23.785
 5125.00    0.64134   0.64248   23.914
 5126.00    0.63224   0.64162   24.026
 5127.00    0.62352   0.64087   24.093
 5128.00    0.62454   0.64089   23.923
 5129.00    0.63560   0.64082   23.469
 5130.00    0.64225   0.64123   23.086
 5131.00    0.63344   0.64148   23.016
 5132.00    0.61918   0.64208   22.995
 5133.00    0.61455   0.64228   22.778
 5134.00    0.62272   0.64234   22.624
 5135.00    0.63694   0.64224   22.799
 5136.00    0.64523   0.64173   23.134
 5137.00    0.64172   0.64126   23.372
 5138.00    0.63513   0.64063   23.522
 5139.00    0.63421   0.63960   23.649
 5140.00    0.63544   0.63864   23.651
 5141.00    0.63376   0.63765   23.467
 5142.00    0.63159   0.63673   23.232
 5143.00    0.63141   0.63564   23.065
 5144.00    0.62991   0.63498   22.925
 5145.00    0.62476   0.63409   22.784
 5146.00    0.61962   0.63383   22.742
 5147.00    0.61865   0.63336   22.820
 5148.00    0.62251   0.63336   22.841
 5149.00    0.63057   0.63341   22.731
 5150.00    0.64226   0.63374   22.689
 5151.00    0.65394   0.63431   22.769
 5152.00    0.65802   0.63491   22.673
 5153.00    0.65205   0.63590   22.332
 5154.00    0.64350   0.63645   22.177
 5155.00    0.63910   0.63721   22.367
 5156.00    0.63870   0.63705   22.455
 5157.00    0.64161   0.63676   22.221
 5158.00    0.64969   0.63550   22.098
 5159.00    0.66090   0.63357   22.372
 5160.00    0.66659   0.63077   22.802
 5161.00    0.65948   0.62731   23.060
 5162.00    0.63873   0.62304   23.041
 5163.00    0.61146   0.61830   22.911
 5164.00    0.59061   0.61324   23.000
 5165.00    0.57966   0.60837   23.338
 5166.00    0.56900   0.60408   23.507
 5167.00    0.55975   0.60052   23.307
 5168.00    0.56861   0.59773   23.038
 5169.00    0.59036   0.59553   22.942
 5170.00    0.59181   0.59450   22.980
 5171.00    0.57254   0.59450   23.019
 5172.00    0.57649   0.59536   22.945
 5173.00    0.61033   0.59670   22.811
 5174.00    0.62546   0.59837   22.814
 5175.00    0.60741   0.60014   22.988
 5176.00    0.59749   0.60173   23.129
 5177.00    0.61318   0.60318   23.112
 5178.00    0.62738   0.60423   23.016
 5179.00    0.62542   0.60507   22.980
 5180.00    0.62013   0.60546   23.116
 5181.00    0.61643   0.60592   23.398
 5182.00    0.60424   0.60673   23.665
 5183.00    0.58571   0.60762   23.842
 5184.00    0.57823   0.60892   23.978
 5185.00    0.58730   0.61020   24.024
 5186.00    0.60158   0.61161   23.852
 5187.00    0.61075   0.61333   23.574
 5188.00    0.61208   0.61467   23.487
 5189.00    0.61026   0.61625   23.560
 5190.00    0.61290   0.61755    0.000
 5191.00    0.61669   0.61914    0.000
 5192.00    0.61121   0.62023    0.000
 5193.00    0.60374   0.62147    0.000
 5194.00    0.61567   0.62234    0.000
 5195.00    0.64908   0.62294    0.000
 5196.00    0.68527   0.62348    0.000
 5197.00    0.70993   0.62324    0.000
 5198.00    0.71886   0.62300    0.000
 5199.00    0.71298   0.62194    0.000
 5200.00    0.69582   0.62095    0.000
 5201.00    0.67084   0.61925    0.000
 5202.00    0.64179   0.61762    0.000
 5203.00    0.61510   0.61590    0.000
 5204.00    0.59804   0.61466    0.000
 5205.00    0.59259   0.61356    0.000
 5206.00    0.59546   0.61318    0.000
 5207.00    0.60190   0.61349    0.000
 5208.00    0.60835   0.61431    0.000
 5209.00    0.61622   0.61610    0.000
 5210.00    0.62779   0.61808    0.000
 5211.00    0.63600   0.62072   23.423
 5212.00    0.63163   0.62316   23.344
 5213.00    0.62231   0.62581   23.356
 5214.00    0.62375   0.62824   23.494
 5215.00    0.63430   0.63046   23.742
 5216.00    0.64101   0.63238   24.052
 5217.00    0.64138   0.63366   24.411
 5218.00    0.64096   0.63452   24.815
 5219.00    0.64101   0.63457   25.179
 5220.00    0.63868   0.63421   25.382
 5221.00    0.63151   0.63323   25.413
 5222.00    0.61983   0.63201   25.363
 5223.00    0.60910   0.63052   25.357
 5224.00    0.60579   0.62913   25.460
 5225.00    0.60999   0.62819   25.545
 5226.00    0.61658   0.62774   25.429
 5227.00    0.61943   0.62763   25.115
 5228.00    0.61531   0.62819   24.752
 5229.00    0.60871   0.62880   24.482
 5230.00    0.60702   0.62981   24.372
 5231.00    0.61230   0.63117   24.336
 5232.00    0.62095   0.63275   24.254
 5233.00    0.62530   0.63472   24.150
 5234.00    0.62095   0.63671   24.118
 5235.00    0.61576   0.63874   24.205
 5236.00    0.61918   0.64060   24.386
 5237.00    0.62711   0.64218   24.541
 5238.00    0.63099   0.64349   24.560
 5239.00    0.63156   0.64439   24.472
 5240.00    0.63291   0.64485   24.379
 5241.00    0.63349   0.64496   24.355
 5242.00    0.63115   0.64466   24.411
 5243.00    0.62978   0.64393   24.481
 5244.00    0.63246   0.64287   24.471
 5245.00    0.63349   0.64170   24.336
 5246.00    0.62730   0.64046   24.147
 5247.00    0.61861   0.63914   24.121
 5248.00    0.61428   0.63813   24.390
 5249.00    0.61395   0.63712   24.769
 5250.00    0.61405   0.63639   24.977
 5251.00    0.61292   0.63578   24.940
 5252.00    0.61177   0.63510   24.767
 5253.00    0.61465   0.63460   24.648
 5254.00    0.62361   0.63377   24.696
 5255.00    0.63443   0.63290   24.825
 5256.00    0.64079   0.63154   24.889
 5257.00    0.63868   0.62962   24.817
 5258.00    0.62957   0.62709   24.643
 5259.00    0.62167   0.62401   24.495
 5260.00    0.61974   0.62056   24.475
 5261.00    0.61761   0.61671   24.565
 5262.00    0.61014   0.61298   24.696
 5263.00    0.60236   0.60919   24.805
 5264.00    0.59940   0.60620   24.876
 5265.00    0.59872   0.60364   24.950
 5266.00    0.59535   0.60168   25.019
 5267.00    0.58691   0.60055   24.965
 5268.00    0.57785   0.60026   24.799
 5269.00    0.57991   0.60097   24.779
 5270.00    0.59500   0.60256   25.027
 5271.00    0.60689   0.60496   25.315
 5272.00    0.60821   0.60752   25.430
 5273.00    0.61439   0.61068   25.433
 5274.00    0.63073   0.61412   25.437
 5275.00    0.63643   0.61764   25.456
 5276.00    0.62341   0.62124   25.472
 5277.00    0.61474   0.62449   25.493
 5278.00    0.62292   0.62747   25.562
 5279.00    0.63000   0.63029   25.750
 5280.00    0.62367   0.63288   26.032
 5281.00    0.61512   0.63520   26.245
 5282.00    0.61538   0.63760   26.272
 5283.00    0.62308   0.63974   26.155
 5284.00    0.63311   0.64184   26.002
 5285.00    0.64202   0.64363   25.904
 5286.00    0.64951   0.64502   25.864
 5287.00    0.65769   0.64601   25.793
 5288.00    0.66455   0.64652   25.683
 5289.00    0.66299   0.64669   25.644
 5290.00    0.65252   0.64623   25.679
 5291.00    0.64181   0.64556   25.642
 5292.00    0.63458   0.64437   25.526
 5293.00    0.62610   0.64307   25.513
 5294.00    0.61709   0.64154   25.647
 5295.00    0.61621   0.63996   25.758
 5296.00    0.62378   0.63871   25.771
 5297.00    0.62911   0.63786   25.788
 5298.00    0.62862   0.63755   25.826
 5299.00    0.62983   0.63776   25.752
 5300.00    0.63723   0.63828   25.464
 5301.00    0.64727   0.63929   25.005
 5302.00    0.65198   0.64064   24.641
 5303.00    0.64413   0.64215   24.711
 5304.00    0.63023   0.64362   25.082
 5305.00    0.62760   0.64492   25.174
 5306.00    0.63767   0.64617   24.870
 5307.00    0.64464   0.64717   24.618
 5308.00    0.64297   0.64790   24.585
 5309.00    0.64096   0.64819   24.565
 5310.00    0.64170   0.64795   24.481
 5311.00    0.64060   0.64749   24.463
 5312.00    0.63722   0.64654   24.574
 5313.00    0.63621   0.64531   24.758
 5314.00    0.63854   0.64381   24.930
 5315.00    0.64039   0.64203   25.033
 5316.00    0.63746   0.64006   25.118
 5317.00    0.62821   0.63802   25.301
 5318.00    0.61882   0.63579   25.557
 5319.00    0.61853   0.63327   25.766
 5320.00    0.62401   0.63073   25.976
 5321.00    0.62343   0.62796   26.339
 5322.00    0.61721   0.62540   26.699
 5323.00    0.61568   0.62285   26.718
 5324.00    0.62023   0.62062   26.529
 5325.00    0.62269   0.61856   26.560
 5326.00    0.61538   0.61719   26.756
 5327.00    0.59711   0.61614   26.711
 5328.00    0.58061   0.61601   26.414
 5329.00    0.58288   0.61652   26.178
 5330.00    0.60099   0.61736   26.114
 5331.00    0.61822   0.61851   26.135
 5332.00    0.62829   0.61974   26.163
 5333.00    0.63481   0.62119   26.176
 5334.00    0.63965   0.62252   26.218
 5335.00    0.64100   0.62371   26.347
 5336.00    0.63466   0.62449   26.537
 5337.00    0.61952   0.62526   26.703
 5338.00    0.60676   0.62587   26.804
 5339.00    0.60851   0.62637   26.836
 5340.00    0.61506   0.62668   26.774
 5341.00    0.61018   0.62734   26.651
 5342.00    0.60395   0.62784   26.677
 5343.00    0.61556   0.62848   27.008
 5344.00    0.63610   0.62933   27.326
 5345.00    0.64426   0.63025   27.231
 5346.00    0.64099   0.63161   27.051
 5347.00    0.63859   0.63322   27.321
 5348.00    0.63575   0.63492   27.859
 5349.00    0.62651   0.63705   28.137
 5350.00    0.61870   0.63913   28.128
 5351.00    0.62263   0.64133   28.104
 5352.00    0.63159   0.64309   28.067
 5353.00    0.63389   0.64474   27.894
 5354.00    0.63277   0.64609   27.647
 5355.00    0.63703   0.64689   27.501
 5356.00    0.64533   0.64736   27.608
 5357.00    0.65069   0.64708   27.979
 5358.00    0.64923   0.64644   28.338
 5359.00    0.64182   0.64504   28.373
 5360.00    0.63454   0.64333   28.128
 5361.00    0.63278   0.64107   27.846
 5362.00    0.63447   0.63875   27.704
 5363.00    0.63339   0.63648   27.754
 5364.00    0.62424   0.63404   27.902
 5365.00    0.60781   0.63194   28.026
 5366.00    0.59520   0.62995   28.105
 5367.00    0.59537   0.62831   28.124
 5368.00    0.60259   0.62706   27.979
 5369.00    0.60924   0.62630   27.740
 5370.00    0.61917   0.62619   27.831
 5371.00    0.63402   0.62668   28.223
 5372.00    0.64039   0.62777   27.776
 5373.00    0.62982   0.62896   26.582
 5374.00    0.61684   0.63017   27.252
 5375.00    0.61634   0.63154   30.059
 5376.00    0.62274   0.63261   27.511
 5377.00    0.62471   0.63371   19.988
 5378.00    0.61972   0.63448   15.965
 5379.00    0.61295   0.63500   15.552
 5380.00    0.61411   0.63509   16.357
 5381.00    0.62587   0.63496   16.293
 5382.00    0.63661   0.63450   15.668
 5383.00    0.63819   0.63359   15.457
 5384.00    0.63858   0.63266   15.713
 5385.00    0.64602   0.63124   15.858
 5386.00    0.65746   0.62970   15.082
 5387.00    0.66754   0.62773   14.117
 5388.00    0.67509   0.62592   15.255
 5389.00    0.67668   0.62382   20.848
 5390.00    0.66374   0.62189   30.037
 5391.00    0.63602   0.61991   31.401
 5392.00    0.60859   0.61802   28.016
 5393.00    0.59526   0.61610   27.652
 5394.00    0.59759   0.61411   28.839
 5395.00    0.60676   0.61239   29.133
 5396.00    0.60787   0.61054   28.882
 5397.00    0.59691   0.60936   28.965
 5398.00    0.58724   0.60823   29.190
 5399.00    0.58743   0.60714   29.223
 5400.00    0.59081   0.60595   29.150
 5401.00    0.59175   0.60512   29.129
 5402.00    0.59337   0.60431   29.177
 5403.00    0.59651   0.60361   29.194
 5404.00    0.59556   0.60337   29.039
 5405.00    0.58935   0.60357   28.851
 5406.00    0.58482   0.60439   29.043
 5407.00    0.58600   0.60539   29.571
 5408.00    0.59004   0.60681   -2.000
 5409.00    0.59553   0.60832   -2.000
 5410.00    0.60475   0.61039   -2.000
 5411.00    0.61463   0.61266   -2.000
 5412.00    0.61589   0.61492   -2.000
 5413.00    0.60780   0.61721   -2.000
 5414.00    0.60137   0.61919   -2.000
 5415.00    0.60396   0.62113   -2.000
 5416.00    0.61368   0.62272   -2.000
 5417.00    0.62471   0.62383   -2.000
 5418.00    0.63088   0.62461   -2.000
 5419.00    0.63020   0.62469   -2.000
 5420.00    0.62539   0.62458   -2.000
 5421.00    0.61882   0.62415   -2.000
 5422.00    0.61125   0.62336   -2.000
 5423.00    0.60439   0.62218   29.048
 5424.00    0.60079   0.62093   29.423
 5425.00    0.60016   0.61975   29.718
 5426.00    0.59943   0.61817   29.715
 5427.00    0.59773   0.61677   29.506
 5428.00    0.59632   0.61535   29.460
 5429.00    0.59325   0.61418   29.674
 5430.00    0.58508   0.61381   29.913
 5431.00    0.57747   0.61339   29.951
 5432.00    0.58179   0.61335   29.730
 5433.00    0.59512   0.61382   29.463
 5434.00    0.60280   0.61438   29.456
 5435.00    0.60320   0.61545   29.626
 5436.00    0.60753   0.61632   29.581
 5437.00    0.61900   0.61767   29.259
 5438.00    0.63063   0.61869   28.955
 5439.00    0.63550   0.61941   28.913
 5440.00    0.63086   0.62006   29.196
 5441.00    0.62115   0.62001   29.614
 5442.00    0.61459   0.62000   29.850
 5443.00    0.61317   0.61920   29.909
 5444.00    0.61275   0.61828   30.060
 5445.00    0.60946   0.61696   30.339
 5446.00    0.60253   0.61566   30.557
 5447.00    0.59672   0.61478   30.598
 5448.00    0.59763   0.61379   30.483
 5449.00    0.60038   0.61298   30.329
 5450.00    0.59576   0.61194   30.271
 5451.00    0.58815   0.61121   30.366
 5452.00    0.58902   0.61026   30.576
 5453.00    0.59631   0.60970   30.771
 5454.00    0.59943   0.60933   30.834
 5455.00    0.59727   0.60933   30.879
 5456.00    0.59549   0.60968   31.086
 5457.00    0.59477   0.60991   31.325
 5458.00    0.59263   0.61017   31.339
 5459.00    0.59079   0.61017   31.241
 5460.00    0.59303   0.61018   31.274
 5461.00    0.59925   0.61024   31.245
 5462.00    0.60699   0.61019   30.876
 5463.00    0.61541   0.61033   30.499
 5464.00    0.62345   0.61048   30.609
 5465.00    0.62581   0.61015   31.090
 5466.00    0.61844   0.60963   31.457
 5467.00    0.60768   0.60895   31.473
 5468.00    0.60339   0.60816   31.224
 5469.00    0.60678   0.60709   31.006
 5470.00    0.61233   0.60612   31.024
 5471.00    0.61346   0.60519   31.057
 5472.00    0.60721   0.60408   30.837
 5473.00    0.59915   0.60290   30.625
 5474.00    0.59597   0.60220   30.751
 5475.00    0.59521   0.60147   30.965
 5476.00    0.59258   0.60088   30.897
 5477.00    0.59261   0.60106   30.760
 5478.00    0.60005   0.60126   30.876
 5479.00    0.60821   0.60166   31.018
 5480.00    0.60796   0.60186   30.915
 5481.00    0.60003   0.60273   30.910
 5482.00    0.59055   0.60367   31.332
 5483.00    0.58436   0.60451   31.724
 5484.00    0.58452   0.60568   31.522
 5485.00    0.59228   0.60644   31.001
 5486.00    0.60432   0.60708   30.673
 5487.00    0.61070   0.60739   30.621
 5488.00    0.60583   0.60804   30.717
 5489.00    0.59889   0.60848   30.870
 5490.00    0.60051   0.60865   31.012
 5491.00    0.60901   0.60900   31.070
 5492.00    0.61672   0.60873   31.049
 5493.00    0.61756   0.60841   31.096
 5494.00    0.61084   0.60806   31.268
 5495.00    0.60325   0.60765   31.357
 5496.00    0.60069   0.60709   31.250
 5497.00    0.60144   0.60630   31.223
 5498.00    0.60176   0.60588   31.450
 5499.00    0.60127   0.60489   31.625
 5500.00    0.60276   0.60393   31.489
 5501.00    0.61089   0.60299   31.270
 5502.00    0.62528   0.60214   31.214
 5503.00    0.63633   0.60130   31.246
 5504.00    0.63586   0.60038   31.322
 5505.00    0.62509   0.59978   31.655
 5506.00    0.61111   0.59904   32.252
 5507.00    0.60269   0.59885   32.603
 5508.00    0.60185   0.59860   32.435
 5509.00    0.60020   0.59852   32.233
 5510.00    0.59444   0.59881   32.350
 5511.00    0.59459   0.59897   32.516
 5512.00    0.60510   0.59950   32.492
 5513.00    0.61476   0.60022   32.470
 5514.00    0.61412   0.60123   32.564
 5515.00    0.60608   0.60239   32.549
 5516.00    0.59922   0.60331   32.345
 5517.00    0.60172   0.60436   32.227
 5518.00    0.61152   0.60509   32.263
 5519.00    0.61473   0.60559   -2.000
 5520.00    0.60848   0.60593   -2.000
 5521.00    0.60833   0.60616   -2.000
 5522.00    0.61671   0.60624   -2.000
 5523.00    0.61285   0.60606   -2.000
 5524.00    0.59178   0.60563   -2.000
 5525.00    0.57788   0.60504   -2.000
 5526.00    0.58663   0.60441   -2.000
 5527.00    0.61075   0.60366   -2.000
 5528.00    0.64929   0.60343   -2.000
 5529.00    0.71225   0.60343   -2.000
 5530.00    0.77415   0.60341   -2.000
 5531.00    0.77211   0.60346   -2.000
 5532.00    0.69456   0.60357   -2.000
 5533.00    0.60248   0.60393   -2.000
 5534.00    0.54593   0.60421   -2.000
 5535.00    0.53218   0.60485   -2.000
 5536.00    0.54918   0.60575   -2.000
 5537.00    0.57819   0.60635   -2.000
 5538.00    0.60243   0.60702   -2.000
 5539.00    0.61206   0.60765   -2.000
 5540.00    0.60976   0.60828   -2.000
 5541.00    0.60828   0.60874   -2.000
 5542.00    0.61362   0.60915   -2.000
 5543.00    0.62091   0.60967   32.334
 5544.00    0.62213   0.61006   32.794
 5545.00    0.61213   0.61036   33.275
 5546.00    0.59865   0.61065   33.368
 5547.00    0.59802   0.61095   33.147
 5548.00    0.61007   0.61101   32.913
 5549.00    0.61826   0.61087   32.959
 5550.00    0.61613   0.61065   33.213
 5551.00    0.61112   0.61037   33.321
 5552.00    0.61011   0.60983   33.252
 5553.00    0.61409   0.60921   33.290
 5554.00    0.61649   0.60853   33.435
 5555.00    0.60843   0.60770   33.424
 5556.00    0.59454   0.60678   33.306
 5557.00    0.58966   0.60564   33.379
 5558.00    0.59838   0.60463   33.572
 5559.00    0.61313   0.60350   33.529
 5560.00    0.62405   0.60238   33.268
 5561.00    0.62384   0.60133   33.130
 5562.00    0.61321   0.60019   33.230
 5563.00    0.59958   0.59947   33.444
 5564.00    0.59096   0.59852   33.650
 5565.00    0.59163   0.59767   33.801
 5566.00    0.59617   0.59726   33.943
 5567.00    0.59598   0.59684   34.125
 5568.00    0.59614   0.59659   34.193
 5569.00    0.60740   0.59637   33.957
 5570.00    0.62151   0.59658   33.664
 5571.00    0.62087   0.59661   33.692
 5572.00    0.60870   0.59645   33.843
 5573.00    0.60232   0.59682   33.690
 5574.00    0.60786   0.59694   33.554
 5575.00    0.61888   0.59679   33.864
 5576.00    0.62395   0.59659   33.690
 5577.00    0.61513   0.59625   32.446
 5578.00    0.60007   0.59545   32.959
 5579.00    0.59258   0.59440   37.436
 5580.00    0.59256   0.59333   36.522
 5581.00    0.59212   0.59189   24.913
 5582.00    0.59183   0.59045   17.611
 5583.00    0.59557   0.58889   15.800
 5584.00    0.59815   0.58725   16.526
 5585.00    0.59291   0.58561   17.281
 5586.00    0.58612   0.58393   17.144
 5587.00    0.58705   0.58283   16.792
 5588.00    0.59013   0.58205   16.877
 5589.00    0.58563   0.58155   17.446
 5590.00    0.57831   0.58131   17.425
 5591.00    0.57763   0.58110   16.418
 5592.00    0.58090   0.58127   16.879
 5593.00    0.58143   0.58146   22.102
 5594.00    0.58221   0.58197   34.141
 5595.00    0.58863   0.58283   39.979
 5596.00    0.59706   0.58369   34.805
 5597.00    0.60049   0.58435   33.172
 5598.00    0.59733   0.58527   34.947
 5599.00    0.59028   0.58637   35.630
 5600.00    0.58364   0.58730   34.917
 5601.00    0.58190   0.58854   34.853
 5602.00    0.58825   0.58965   35.476
 5603.00    0.60117   0.59122   35.852
 5604.00    0.61159   0.59247   35.651
 5605.00    0.61166   0.59367   35.204
 5606.00    0.60417   0.59466   35.166
 5607.00    0.59674   0.59486   35.820
 5608.00    0.59461   0.59527   36.469
 5609.00    0.59810   0.59534   36.367
 5610.00    0.60125   0.59532   35.886
 5611.00    0.59858   0.59486   35.643
 5612.00    0.59146   0.59394   35.612
 5613.00    0.58517   0.59292   35.532
 5614.00    0.58509   0.59141   35.316
 5615.00    0.59096   0.59029   35.063
 5616.00    0.59358   0.58943   35.014
 5617.00    0.58914   0.58848   35.235
 5618.00    0.58952   0.58776   35.408
 5619.00    0.60116   0.58703   35.254
 5620.00    0.60947   0.58668   34.914
 5621.00    0.60260   0.58659   34.694
 5622.00    0.58935   0.58656   34.826
 5623.00    0.58224   0.58670   35.185
 5624.00    0.58388   0.58686   35.174
 5625.00    0.59127   0.58749   34.637
 5626.00    0.59990   0.58811   34.367
 5627.00    0.60526   0.58857   34.781
 5628.00    0.60420   0.58911   35.219
 5629.00    0.59820   0.58936   35.124
 5630.00    0.59422   0.58961   34.875
 5631.00    0.59617   0.58968   34.849
 5632.00    0.60017   0.58969   34.860
 5633.00    0.60202   0.58945   34.735
 5634.00    0.60159   0.58909   34.640
 5635.00    0.59882   0.58860   34.730
 5636.00    0.59214   0.58801   34.943
 5637.00    0.58380   0.58759   35.080
 5638.00    0.58127   0.58709   34.913
 5639.00    0.58617   0.58678   34.483
 5640.00    0.59016   0.58623   34.149
 5641.00    0.58759   0.58608   34.105
 5642.00    0.58133   0.58603   34.218
 5643.00    0.57565   0.58596   34.378
 5644.00    0.57245   0.58619   34.643
 5645.00    0.57225   0.58618   35.030
 5646.00    0.57464   0.58630   35.424
 5647.00    0.57790   0.58620   35.779
 5648.00    0.57944   0.58616   36.165
 5649.00    0.57917   0.58599   36.481
 5650.00    0.58006   0.58543   36.441
 5651.00    0.58307   0.58501   36.200
 5652.00    0.58583   0.58439   36.380
 5653.00    0.58659   0.58354   36.989
 5654.00    0.58550   0.58246   37.234
 5655.00    0.58261   0.58160   36.884
 5656.00    0.57747   0.58085   36.625
 5657.00    0.57071   0.57968   36.845
 5658.00    0.56444   0.57899   37.332
 5659.00    0.56099   0.57886   37.816
 5660.00    0.56190   0.57865   38.150
 5661.00    0.56651   0.57846   38.170
 5662.00    0.57192   0.57850   37.763
 5663.00    0.57490   0.57915   37.265
 5664.00    0.57361   0.57993   37.246
 5665.00    0.57060   0.58075   37.580
 5666.00    0.57125   0.58164   37.522
 5667.00    0.57531   0.58245   37.070
 5668.00    0.57711   0.58358   36.951
 5669.00    0.57533   0.58452   37.154
 5670.00    0.57383   0.58544   36.989
 5671.00    0.57478   0.58628   36.570
 5672.00    0.57739   0.58699   36.684
 5673.00    0.58067   0.58752   37.185
 5674.00    0.58404   0.58749   37.126
 5675.00    0.58675   0.58760   36.589
 5676.00    0.58794   0.58766   36.561
 5677.00    0.58726   0.58740   37.258
 5678.00    0.58509   0.58694   38.071
 5679.00    0.58245   0.58635   38.473
 5680.00    0.58039   0.58588   38.344
 5681.00    0.57839   0.58517   37.971
 5682.00    0.57530   0.58454   37.797
 5683.00    0.57241   0.58430   37.967
 5684.00    0.57266   0.58410   38.322
 5685.00    0.57708   0.58383   38.571
 5686.00    0.58352   0.58351   38.494
 5687.00    0.58591   0.58344   38.310
 5688.00    0.57910   0.58348   38.399
 5689.00    0.56903   0.58370   38.592
 5690.00    0.56698   0.58365   38.444
 5691.00    0.57339   0.58369   38.119
 5692.00    0.58062   0.58345   38.088
 5693.00    0.58518   0.58292   38.227
 5694.00    0.58817   0.58233   38.111
 5695.00    0.59127   0.58152   37.907
 5696.00    0.59463   0.58083   38.068
 5697.00    0.59466   0.57964   38.516
 5698.00    0.58746   0.57839   38.816
 5699.00    0.57550   0.57712   38.804
 5700.00    0.56491   0.57558   38.627
 5701.00    0.55897   0.57419   38.570
 5702.00    0.55743   0.57304   38.837
 5703.00    0.55739   0.57206   39.272
 5704.00    0.55650   0.57114   39.522
 5705.00    0.55760   0.57030   39.403
 5706.00    0.56342   0.56969   38.988
 5707.00    0.56803   0.56968   38.581
 5708.00    0.56453   0.56975   38.449
 5709.00    0.55781   0.57040   38.499
 5710.00    0.55720   0.57134   38.483
 5711.00    0.56366   0.57211   38.326
 5712.00    0.57202   0.57374   38.124
 5713.00    0.57672   0.57530   38.058
 5714.00    0.57593   0.57695   38.206
 5715.00    0.57549   0.57874   38.338
 5716.00    0.58128   0.58029   38.146
 5717.00    0.58946   0.58199   37.612
 5718.00    0.59349   0.58336   36.962
 5719.00    0.59366   0.58458   36.536
 5720.00    0.59305   0.58561   36.539
 5721.00    0.59164   0.58639   36.839
 5722.00    0.58849   0.58705   37.208
 5723.00    0.58492   0.58728   37.606
 5724.00    0.58254   0.58749   38.044
 5725.00    0.58099   0.58742   38.382
 5726.00    0.57922   0.58708   38.524
 5727.00    0.57703   0.58710   38.635
 5728.00    0.57493   0.58708   38.881
 5729.00    0.57354   0.58696   39.154
 5730.00    0.57274   0.58648   39.295
 5731.00    0.57107   0.58611   39.332
 5732.00    0.56868   0.58623   39.345
 5733.00    0.56951   0.58620   39.324
 5734.00    0.57456   0.58624   39.264
 5735.00    0.57688   0.58594   39.243
 5736.00    0.57183   0.58584   39.266
 5737.00    0.56549   0.58578   39.148
 5738.00    0.56540   0.58569   38.737
 5739.00    0.57250   0.58573   38.114
 5740.00    0.58253   0.58547    0.000
 5741.00    0.58845   0.58535    0.000
 5742.00    0.58621   0.58484    0.000
 5743.00    0.57866   0.58478    0.000
 5744.00    0.57121   0.58478    0.000
 5745.00    0.56815   0.58446    0.000
 5746.00    0.57001   0.58401    0.000
 5747.00    0.57266   0.58319    0.000
 5748.00    0.57268   0.58299    0.000
 5749.00    0.57088   0.58296    0.000
 5750.00    0.57002   0.58278    0.000
 5751.00    0.57283   0.58238    0.000
 5752.00    0.57962   0.58174    0.000
 5753.00    0.58724   0.58139    0.000
 5754.00    0.59254   0.58135    0.000
 5755.00    0.59439   0.58149    0.000
 5756.00    0.59320   0.58148    0.000
 5757.00    0.59040   0.58141    0.000
 5758.00    0.58817   0.58141    0.000
 5759.00    0.58870   0.58149    0.000
 5760.00    0.59129   0.58165    0.000
 5761.00    0.59180   0.58183    0.000
 5762.00    0.58774   0.58212    0.000
 5763.00    0.58065   0.58262    0.000
 5764.00    0.57390   0.58299    0.000
 5765.00    0.57090   0.58315    0.000
 5766.00    0.57255   0.58320    0.000
 5767.00    0.57651   0.58328    0.000
 5768.00    0.58011   0.58315    0.000
 5769.00    0.58184   0.58289    0.000
 5770.00    0.58174   0.58248    0.000
 5771.00    0.58116   0.58164    0.000
 5772.00    0.58095   0.58074    0.000
 5773.00    0.58074   0.57946    0.000
 5774.00    0.57917   0.57801    0.000
 5775.00    0.57479   0.57655    0.000
 5776.00    0.56893   0.57499    0.000
 5777.00    0.56541   0.57349    0.000
 5778.00    0.56492   0.57186    0.000
 5779.00    0.56408   0.57019    0.000
 5780.00    0.56037   0.56855    0.000
 5781.00    0.55406   0.56772    0.000
 5782.00    0.54868   0.56713    0.000
 5783.00    0.54912   0.56671    0.000
 5784.00    0.55534   0.56631    0.000
 5785.00    0.56230   0.56615    0.000
 5786.00    0.56717   0.56712    0.000
 5787.00    0.57058   0.56794    0.000
 5788.00    0.57267   0.56915    0.000
 5789.00    0.57291   0.57024    0.000
 5790.00    0.57332   0.57110    0.000
 5791.00    0.57702   0.57271    0.000
 5792.00    0.58092   0.57404    0.000
 5793.00    0.57841   0.57561    0.000
 5794.00    0.57289   0.57707    0.000
 5795.00    0.57501   0.57804    0.000
 5796.00    0.58499   0.57892    0.000
 5797.00    0.59329   0.57963    0.000
 5798.00    0.59531   0.58060    0.000
 5799.00    0.59291   0.58154    0.000
 5800.00    0.58834   0.58200    0.000
 5801.00    0.58306   0.58230    0.000
 5802.00    0.57896   0.58249    0.000
 5803.00    0.57765   0.58242    0.000
 5804.00    0.57822   0.58257    0.000
 5805.00    0.57811   0.58263    0.000
 5806.00    0.57622   0.58259    0.000
 5807.00    0.57339   0.58254    0.000
 5808.00    0.57182   0.58218    0.000
 5809.00    0.57365   0.58203    0.000
 5810.00    0.57822   0.58193    0.000
 5811.00    0.58305   0.58185    0.000
 5812.00    0.58678   0.58192    0.000
 5813.00    0.58988   0.58184    0.000
 5814.00    0.59460   0.58183    0.000
 5815.00    0.60171   0.58176    0.000
 5816.00    0.60490   0.58191    0.000
 5817.00    0.59762   0.58230    0.000
 5818.00    0.58668   0.58249    0.000
 5819.00    0.58407   0.58274    0.000
 5820.00    0.58926   0.58285    0.000
 5821.00    0.59397   0.58300    0.000
 5822.00    0.59502   0.58322    0.000
 5823.00    0.59373   0.58328    0.000
 5824.00    0.59150   0.58351    0.000
 5825.00    0.58970   0.58343    0.000
 5826.00    0.59028   0.58336    0.000
 5827.00    0.59387   0.58325    0.000
 5828.00    0.59686   0.58305    0.000
 5829.00    0.59559   0.58292    0.000
 5830.00    0.59262   0.58266    0.000
 5831.00    0.59245   0.58249    0.000
 5832.00    0.59477   0.58219    0.000
 5833.00    0.59543   0.58183    0.000
 5834.00    0.58932   0.58150    0.000
 5835.00    0.57619   0.58141   -2.000
 5836.00    0.56663   0.58126   -2.000
 5837.00    0.57080   0.58079   -2.000
 5838.00    0.58413   0.58035   -2.000
 5839.00    0.59473   0.57998   -2.000
 5840.00    0.59427   0.57965   -2.000
 5841.00    0.58278   0.57903   -2.000
 5842.00    0.57163   0.57821   -2.000
 5843.00    0.57124   0.57737   -2.000
 5844.00    0.57805   0.57640   -2.000
 5845.00    0.58334   0.57532   -2.000
 5846.00    0.58381   0.57390   -2.000
 5847.00    0.57982   0.57243   -2.000
 5848.00    0.57253   0.57120   -2.000
 5849.00    0.56413   0.56985   -2.000
 5850.00    0.55800   0.56850   -2.000
 5851.00    0.55649   0.56677   -2.000
 5852.00    0.55885   0.56518   -2.000
 5853.00    0.56291   0.56427   -2.000
 5854.00    0.56668   0.56353    0.000
 5855.00    0.56844   0.56287    0.000
 5856.00    0.56684   0.56174    0.000
 5857.00    0.56276   0.56100    0.000
 5858.00    0.56032   0.56106    0.000
 5859.00    0.56233   0.56126    0.000
 5860.00    0.56687   0.56150    0.000
 5861.00    0.57070   0.56123    0.000
 5862.00    0.57206   0.56134    0.000
 5863.00    0.57086   0.56185    0.000
 5864.00    0.56852   0.56227    0.000
 5865.00    0.56648   0.56246    0.000
 5866.00    0.56530   0.56211    0.000
 5867.00    0.56618   0.56229    0.000
 5868.00    0.57168   0.56210    0.000
 5869.00    0.58363   0.56172    0.000
 5870.00    0.60197   0.56118    0.000
 5871.00    0.62651   0.56007    0.000
 5872.00    0.65757   0.55964    0.000
 5873.00    0.69203   0.55815    0.000
 5874.00    0.72150   0.55662    0.000
 5875.00    0.73586   0.55507    0.000
 5876.00    0.72685   0.55310    0.000
 5877.00    0.69564   0.55161    0.000
 5878.00    0.65510   0.54846    0.000
 5879.00    0.61867   0.54533    0.000
 5880.00    0.59374   0.54229    0.000
 5881.00    0.58082   0.53898    0.000
 5882.00    0.57436   0.53529    0.000
 5883.00    0.56849   0.53019    0.000
 5884.00    0.56022   0.52505    0.000
 5885.00    0.55059   0.52086    0.000
 5886.00    0.54396   0.51722    0.000
 5887.00    0.54247   0.51292    0.000
 5888.00    0.54392   0.50833    0.000
 5889.00    0.54430   0.50370    0.000
 5890.00    0.53987   0.50141    0.000
 5891.00    0.53128   0.50122    0.000
 5892.00    0.52360   0.50064    0.000
 5893.00    0.51951   0.50081    0.000
 5894.00    0.51774   0.50065    0.000
 5895.00    0.51852   0.50227    0.000
 5896.00    0.52447   0.50636    0.000
 5897.00    0.53494   0.51039    0.000
 5898.00    0.54526   0.51438    0.000
 5899.00    0.55211   0.51793    0.000
 5900.00    0.55544   0.52197    0.000
 5901.00    0.55765   0.52679   40.625
 5902.00    0.56179   0.53133   40.352
 5903.00    0.56684   0.53519   40.383
 5904.00    0.56830   0.53840   40.353
 5905.00    0.56563   0.54138   40.262
 5906.00    0.56245   0.54413   40.540
 5907.00    0.55933   0.54642   41.296
 5908.00    0.55397   0.54792   42.173
 5909.00    0.54902   0.54921   42.720
 5910.00    0.55048   0.55024   42.646
 5911.00    0.55616   0.55104   42.146
 5912.00    0.55728   0.55161   41.753
 5913.00    0.55292   0.55153   41.763
 5914.00    0.54978   0.55192   42.130
 5915.00    0.54994   0.55219   42.487
 5916.00    0.55014   0.55234   42.388
 5917.00    0.54895   0.55265   42.004
 5918.00    0.54749   0.55245   41.905
 5919.00    0.54646   0.55273   42.116
 5920.00    0.54575   0.55310   42.242
 5921.00    0.54555   0.55316   42.300
 5922.00    0.54640   0.55344   42.560
 5923.00    0.54866   0.55340   42.661
 5924.00    0.55204   0.55334   41.998
 5925.00    0.55494   0.55373   41.071
 5926.00    0.55552   0.55381   40.884
 5927.00    0.55419   0.55382   41.445
 5928.00    0.55278   0.55367   42.050
 5929.00    0.55177   0.55323   42.402
 5930.00    0.55047   0.55353   42.678
 5931.00    0.54882   0.55374   43.040
 5932.00    0.54761   0.55361   43.466
 5933.00    0.54822   0.55351   43.625
 5934.00    0.55157   0.55305   43.266
 5935.00    0.55620   0.55318   42.942
 5936.00    0.55908   0.55342   43.317
 5937.00    0.55775   0.55326   43.848
 5938.00    0.55186   0.55330   43.524
 5939.00    0.54497   0.55303   42.724
 5940.00    0.54189   0.55290   42.475
 5941.00    0.54371   0.55294   42.893
 5942.00    0.54857   0.55267   43.417
 5943.00    0.55409   0.55255   43.445
 5944.00    0.55784   0.55245   42.830
 5945.00    0.55735   0.55225   42.361
 5946.00    0.55207   0.55194   42.778
 5947.00    0.54589   0.55143   43.495
 5948.00    0.54367   0.55120   43.481
 5949.00    0.54593   0.55129   42.983
 5950.00    0.54972   0.55116   42.809
 5951.00    0.55107   0.55080   43.026
 5952.00    0.54828   0.55042   43.274
 5953.00    0.54539   0.55061   43.364
 5954.00    0.54675   0.55111   43.366
 5955.00    0.54977   0.55122   43.592
 5956.00    0.54988   0.55140   44.229
 5957.00    0.54745   0.55161   44.900
 5958.00    0.54601   0.55231   45.139
 5959.00    0.54891   0.55314   45.106
 5960.00    0.55687   0.55344   45.125
 5961.00    0.56589   0.55406   45.059
 5962.00    0.57078   0.55454   44.766
 5963.00    0.56940   0.55516   44.599
 5964.00    0.56386   0.55573   44.848
 5965.00    0.56070   0.55578   45.165
 5966.00    0.56459   0.55612   45.148
 5967.00    0.57226   0.55620   45.004
 5968.00    0.57737   0.55615   45.061
 5969.00    0.57597   0.55601   45.263
 5970.00    0.56849   0.55547   45.445
 5971.00    0.56064   0.55505   45.607
 5972.00    0.55793   0.55440   45.715
 5973.00    0.56078   0.55362   45.532
 5974.00    0.56573   0.55294   45.043
 5975.00    0.56742   0.55207   44.737
 5976.00    0.56371   0.55123   44.817
 5977.00    0.55906   0.55031   44.713
 5978.00    0.55753   0.54937   44.320
 5979.00    0.55748   0.54891   44.706
 5980.00    0.55674   0.54849   45.592
 5981.00    0.55659   0.54798   44.021
 5982.00    0.55786   0.54757   41.409
 5983.00    0.55835   0.54718   44.911
 5984.00    0.55659   0.54737   53.700
 5985.00    0.55429   0.54764   40.992
 5986.00    0.55345   0.54764   23.625
 5987.00    0.55422   0.54782   17.508
 5988.00    0.55548   0.54805   17.071
 5989.00    0.55562   0.54845   18.166
 5990.00    0.55428   0.54880   18.243
 5991.00    0.55301   0.54871   18.102
 5992.00    0.55286   0.54883   18.426
 5993.00    0.55302   0.54908   17.825
 5994.00    0.55269   0.54902   16.900
 5995.00    0.55210   0.54894   19.200
 5996.00    0.55181   0.54835   29.896
 5997.00    0.55207   0.54779   51.816
 5998.00    0.55147   0.54779   53.985
 5999.00    0.54720   0.54733   44.960
 6000.00    0.53989   0.54691   44.407
 6001.00    0.53489   0.54613   47.212
 6002.00    0.53524   0.54500   47.515
 6003.00    0.53869   0.54496   46.169
 6004.00    0.54166   0.54474   45.419
 6005.00    0.54177   0.54421   45.559
 6006.00    0.53978   0.54362   46.022
 6007.00    0.53933   0.54249   45.989
 6008.00    0.54162   0.54249   45.430
 6009.00    0.54406   0.54273   45.211
 6010.00    0.54503   0.54221   45.591
 6011.00    0.54535   0.54178   45.894
 6012.00    0.54556   0.54113   45.769
 6013.00    0.54498   0.54111   45.598
 6014.00    0.54284   0.54155   45.634
 6015.00    0.53898   0.54129   45.751
 6016.00    0.53452   0.54111   45.845
 6017.00    0.53157   0.54123   45.945
 6018.00    0.53097   0.54145   46.023
 6019.00    0.53181   0.54210   45.983
 6020.00    0.53284   0.54248   45.914
 6021.00    0.53325   0.54285   46.067
 6022.00    0.53366   0.54375   46.500
 6023.00    0.53547   0.54444   47.029
 6024.00    0.53759   0.54542   47.486
 6025.00    0.53703   0.54634   47.816
 6026.00    0.53402   0.54703   48.019
 6027.00    0.53221   0.54822   48.118
 6028.00    0.53402   0.54909   48.115
 6029.00    0.53914   0.54997   47.994
 6030.00    0.54488   0.55075   47.783
 6031.00    0.54772   0.55123   47.549
 6032.00    0.54745   0.55219   47.367
 6033.00    0.54692   0.55270   47.275
 6034.00    0.54804   0.55304   47.207
 6035.00    0.55098   0.55349   47.047
 6036.00    0.55496   0.55358   46.810
 6037.00    0.55870   0.55415   46.632
 6038.00    0.56087   0.55435   46.615
 6039.00    0.56070   0.55427   46.758
 6040.00    0.55912   0.55458   46.861
 6041.00    0.55801   0.55453   46.672
 6042.00    0.55772   0.55471   46.297
 6043.00    0.55720   0.55478   46.082
 6044.00    0.55573   0.55453   46.187
 6045.00    0.55350   0.55455   46.520
 6046.00    0.55180   0.55434   46.767
 6047.00    0.55188   0.55403   46.629
 6048.00    0.55252   0.55372   46.310
 6049.00    0.55108   0.55330   46.264
 6050.00    0.54685   0.55290   46.518
 6051.00    0.54147   0.55234   46.764
 6052.00    0.53851   0.55166   46.783
 6053.00    0.54092   0.55118   46.577
 6054.00    0.54653   0.55065   46.424
 6055.00    0.55054   0.55016   46.573
 6056.00    0.55134   0.54963   46.738
 6057.00    0.55018   0.54909   46.499
 6058.00    0.54874   0.54902   46.164
 6059.00    0.54813   0.54861   46.270
 6060.00    0.54803   0.54853   46.587
 6061.00    0.54769   0.54869   46.573
 6062.00    0.54766   0.54864   46.373
 6063.00    0.54821   0.54916   46.435
 6064.00    0.54667   0.54906   46.699
 6065.00    0.54121   0.54941   46.894
 6066.00    0.53662   0.55032   47.148
 6067.00    0.53875   0.55055   47.585
 6068.00    0.54549   0.55106   47.616
 6069.00    0.55089   0.55112   46.833
 6070.00    0.55250   0.55120   46.255
 6071.00    0.55068   0.55168   46.899
 6072.00    0.54648   0.55140   48.054
 6073.00    0.54182   0.55104   48.406
 6074.00    0.54001   0.55068   48.105
 6075.00    0.54287   0.54994   47.911
 6076.00    0.54753   0.54923   47.709
 6077.00    0.54935   0.54833   47.166
 6078.00    0.54609   0.54734   46.638
 6079.00    0.53875   0.54660   46.604
 6080.00    0.53177   0.54563   47.019
 6081.00    0.52925   0.54445   47.564
 6082.00    0.53090   0.54378   47.980
 6083.00    0.53392   0.54319   48.178
 6084.00    0.53556   0.54237   48.304
 6085.00    0.53439   0.54187   48.439
 6086.00    0.53123   0.54130   48.313
 6087.00    0.52825   0.54105   47.782
 6088.00    0.52786   0.54097   47.269
 6089.00    0.53102   0.54035   47.205
 6090.00    0.53593   0.54030   47.552
 6091.00    0.54028   0.54014   47.999
 6092.00    0.54334   0.53977   48.171
 6093.00    0.54518   0.53978   47.970
 6094.00    0.54585   0.53943   47.803
 6095.00    0.54538   0.53945   47.940
 6096.00    0.54378   0.53882   48.060
 6097.00    0.54089   0.53806   47.959
 6098.00    0.53640   0.53826   48.062
 6099.00    0.53100   0.53801   48.537
 6100.00    0.52697   0.53807   48.685
 6101.00    0.52549   0.53731   48.123
 6102.00    0.52498   0.53642   47.591
 6103.00    0.52339   0.53727   47.649
 6104.00    0.52017   0.53761   47.925
 6105.00    0.51678   0.53759   48.012
 6106.00    0.51659   0.53755   48.057
 6107.00    0.52132   0.53719   48.173
 6108.00    0.52914   0.53800   48.086
 6109.00    0.53770   0.53864   47.767
 6110.00    0.54583   0.53809   47.718
 6111.00    0.55121   0.53791   48.147
 6112.00    0.54979   0.53790   48.577
 6113.00    0.54215   0.53763   48.634
 6114.00    0.53568   0.53746   48.509
 6115.00    0.53476   0.53643   48.371
 6116.00    0.53616   0.53529   48.100
 6117.00    0.53632   0.53513   47.781
 6118.00    0.53513   0.53433   47.838
 6119.00    0.53343   0.53339   48.266
 6120.00    0.53161   0.53270   48.408
 6121.00    0.52980   0.53144   48.061
 6122.00    0.52812   0.53123   47.868
 6123.00    0.52698   0.53110   48.178
 6124.00    0.52705   0.53044   48.641
 6125.00    0.52816   0.53025   48.894
 6126.00    0.52903   0.52965   48.897
 6127.00    0.52849   0.52936   48.755
 6128.00    0.52619   0.52923   48.600
 6129.00    0.52318   0.52893   48.541
 6130.00    0.52160   0.52870   48.631
 6131.00    0.52185   0.52794   48.859
 6132.00    0.52225   0.52754   49.130
 6133.00    0.52234   0.52736   49.196
 6134.00    0.52333   0.52707   48.775
 6135.00    0.52465   0.52672   48.111
 6136.00    0.52372   0.52584   47.854
 6137.00    0.52066   0.52598   48.060
 6138.00    0.51868   0.52687   48.166
 6139.00    0.51883   0.52713   48.158
 6140.00    0.51936   0.52701   48.620
 6141.00    0.52021   0.52685   49.343
 6142.00    0.52332   0.52762   49.295
 6143.00    0.52832   0.52865   48.547
 6144.00    0.53221   0.52885   48.285
 6145.00    0.53332   0.52875   48.800
 6146.00    0.53213   0.52869   49.320
 6147.00    0.52948   0.52877   49.291
 6148.00    0.52610   0.52845   48.779
 6149.00    0.52301   0.52757   48.198
 6150.00    0.52127   0.52681   48.022
 6151.00    0.52121   0.52581   48.385
 6152.00    0.52243   0.52453   49.037
 6153.00    0.52440   0.52291   49.439
 6154.00    0.52648   0.52098   49.113
 6155.00    0.52728   0.51917   48.484
 6156.00    0.52521   0.51721   48.463
 6157.00    0.52008   0.51519   49.059
 6158.00    0.51318   0.51347   49.524
 6159.00    0.50640   0.51175   49.559
 6160.00    0.50168   0.50966   49.450
 6161.00    0.50014   0.50799   49.487
 6162.00    0.50172   0.50709   49.757
 6163.00    0.50459   0.50637   50.002
 6164.00    0.50595   0.50593   49.837
 6165.00    0.50373   0.50551   49.333
 6166.00    0.49804   0.50562   48.887
 6167.00    0.49302   0.50642   48.711
 6168.00    0.49403   0.50672   48.731
 6169.00    0.50114   0.50732   48.587
 6170.00    0.50992   0.50875   48.037
 6171.00    0.51566   0.51014   47.693
 6172.00    0.51585   0.51132   48.331
 6173.00    0.51303   0.51231   49.502
 6174.00    0.51182   0.51333   50.059
 6175.00    0.51272   0.51471   49.935
 6176.00    0.51362   0.51572   49.847
 6177.00    0.51432   0.51629   49.954
 6178.00    0.51614   0.51699   49.826
 6179.00    0.51981   0.51735   48.842
 6180.00    0.52463   0.51746   46.871
 6181.00    0.52772   0.51755   44.894
 6182.00    0.52638   0.51702   43.855
 6183.00    0.52174   0.51667   43.568
 6184.00    0.51696   0.51647   43.482
 6185.00    0.51365   0.51538   43.687
 6186.00    0.51208   0.51469   44.499
 6187.00    0.51219   0.51418   45.666
 6188.00    0.51309   0.51355   46.628
 6189.00    0.51239   0.51350   47.194
 6190.00    0.50875   0.51250   47.529
 6191.00    0.50519   0.51199   47.887
 6192.00    0.50544   0.51273   48.386
 6193.00    0.50879   0.51266   48.788
 6194.00    0.51217   0.51285   48.907
 6195.00    0.51352   0.51310   49.124
 6196.00    0.51238   0.51334   49.763
 6197.00    0.51003   0.51436   50.274
 6198.00    0.50823   0.51447   50.119
 6199.00    0.50769   0.51445   49.912
 6200.00    0.50835   0.51519   50.112
 6201.00    0.50971   0.51544   49.615
 6202.00    0.51166   0.51551   47.634
 6203.00    0.51503   0.51535   45.493
 6204.00    0.52036   0.51464   44.466
 6205.00    0.52652   0.51431   44.404
 6206.00    0.53127   0.51373   44.748
 6207.00    0.53220   0.51247   45.303
 6208.00    0.52864   0.51155   46.070
 6209.00    0.52322   0.51021   47.035
 6210.00    0.51864   0.50857   47.997
 6211.00    0.51488   0.50750   48.465
 6212.00    0.51122   0.50578   48.287
 6213.00    0.50815   0.50419   48.136
 6214.00    0.50659   0.50311   48.531
 6215.00    0.50692   0.50153   49.091
 6216.00    0.50823   0.50068   49.373
 6217.00    0.50805   0.49996   49.600
 6218.00    0.50503   0.49863   49.977
 6219.00    0.50072   0.49809   50.153
 6220.00    0.49697   0.49755   49.934
 6221.00    0.49396   0.49692   49.782
 6222.00    0.49105   0.49688   50.028
 6223.00    0.48761   0.49629   50.380
 6224.00    0.48392   0.49578   50.555
 6225.00    0.48149   0.49586   50.726
 6226.00    0.48095   0.49544   51.119
 6227.00    0.48085   0.49526   51.696
 6228.00    0.47981   0.49527   52.115
 6229.00    0.47791   0.49453   51.810
 6230.00    0.47654   0.49440   50.731
 6231.00    0.47797   0.49440   49.549
 6232.00    0.48331   0.49403   48.488
 6233.00    0.49130   0.49413   47.074
 6234.00    0.49844   0.49362   45.720
 6235.00    0.50001   0.49336   45.852
 6236.00    0.49533   0.49333   47.182
 6237.00    0.48949   0.49265   47.067
 6238.00    0.48698   0.49241   46.960
 6239.00    0.48816   0.49195   53.690
 6240.00    0.49014   0.49174   61.955
 6241.00    0.48802   0.49178   43.254
 6242.00    0.47861   0.49083   -2.000
 6243.00    0.46242   0.49045   -2.000
 6244.00    0.44416   0.49042   -2.000
 6245.00    0.43177   0.48984   -2.000
 6246.00    0.43072   0.48968   -2.000
 6247.00    0.44145   0.48928   -2.000
 6248.00    0.45994   0.48876   -2.000
 6249.00    0.47901   0.48862   -2.000
 6250.00    0.49230   0.48811   -2.000
 6251.00    0.49657   0.48761   -2.000
 6252.00    0.49377   0.48731   -2.000
 6253.00    0.48992   0.48711   -2.000
 6254.00    0.48731   0.48730   46.941
 6255.00    0.48342   0.48726   46.608
 6256.00    0.47859   0.48719   52.830
 6257.00    0.47725   0.48746   38.916
 6258.00    0.48161   0.48808   24.036
 6259.00    0.48972   0.48913   19.309
 6260.00    0.49752   0.48967   19.449
 6261.00    0.50089   0.49048   20.284
 6262.00    0.49979   0.49185   20.101
 6263.00    0.49799   0.49289   20.187
 6264.00    0.49749   0.49375   20.453
 6265.00    0.49744   0.49461   19.440
 6266.00    0.49666   0.49585   18.982
 6267.00    0.49485   0.49700   23.373
 6268.00    0.49338   0.49751   38.948
 6269.00    0.49451   0.49827   60.148
 6270.00    0.49810   0.49903   54.167
 6271.00    0.50190   0.49950   47.203
 6272.00    0.50461   0.50012   48.688
 6273.00    0.50644   0.50029   50.385
 6274.00    0.50787   0.50071   48.506
 6275.00    0.50900   0.50137   46.775
 6276.00    0.50886   0.50122   46.578
 6277.00    0.50602   0.50165   46.757
 6278.00    0.50029   0.50220   47.173
 6279.00    0.49313   0.50206   48.654
 6280.00    0.48731   0.50267    0.000
 6281.00    0.48539   0.50286    0.000
 6282.00    0.48632   0.50303    0.000
 6283.00    0.48689   0.50383    0.000
 6284.00    0.48641   0.50348    0.000
 6285.00    0.48648   0.50379    0.000
 6286.00    0.48802   0.50426    0.000
 6287.00    0.49102   0.50377    0.000
 6288.00    0.49517   0.50401    0.000
 6289.00    0.49983   0.50363    0.000
 6290.00    0.50361   0.50320    0.000
 6291.00    0.50524   0.50325    0.000
 6292.00    0.50521   0.50227    0.000
 6293.00    0.50666   0.50191    0.000
 6294.00    0.51616   0.50179    0.000
 6295.00    0.53964   0.50100    0.000
 6296.00    0.57522   0.50063    0.000
 6297.00    0.61420   0.50017    0.000
 6298.00    0.64517   0.50014    0.000
 6299.00    0.65881   0.50033    0.000
 6300.00    0.65441   0.49997    0.000
 6301.00    0.63673   0.49989    0.000
 6302.00    0.60965   0.50017    0.000
 6303.00    0.57702   0.50049    0.000
 6304.00    0.54537   0.50072    0.000
 6305.00    0.52142   0.50064    0.000
 6306.00    0.50799   0.50088    0.000
 6307.00    0.50373   0.50136    0.000
 6308.00    0.50398   0.50137    0.000
 6309.00    0.50424   0.50108    0.000
 6310.00    0.50468   0.50103    0.000
 6311.00    0.50701   0.50105    0.000
 6312.00    0.50980   0.50123    0.000
 6313.00    0.51064   0.50108    0.000
 6314.00    0.50941   0.50062    0.000
 6315.00    0.50749   0.50105    0.000
 6316.00    0.50628   0.50134    0.000
 6317.00    0.50609   0.50118    0.000
 6318.00    0.50523   0.50148    0.000
 6319.00    0.50260   0.50199    0.000
 6320.00    0.50036   0.50281    0.000
 6321.00    0.50079   0.50318   51.727
 6322.00    0.50286   0.50349   51.303
 6323.00    0.50472   0.50433   51.620
 6324.00    0.50648   0.50493   51.887
 6325.00    0.50832   0.50552   51.448
 6326.00    0.50854   0.50552   51.207
 6327.00    0.50588   0.50561   51.893
 6328.00    0.50176   0.50639   52.521
 6329.00    0.49871   0.50610   52.091
 6330.00    0.49848   0.50576   51.367
 6331.00    0.50050   0.50579   51.165
 6332.00    0.50103   0.50542   50.987
 6333.00    0.49723   0.50535   50.451
 6334.00    0.49054   0.50457   50.367
 6335.00    0.48419   0.50357   51.356
 6336.00    0.48089   0.50379   52.803
 6337.00    0.48130   0.50344   53.780
 6338.00    0.48329   0.50260   54.035
 6339.00    0.48531   0.50246   53.789
 6340.00    0.48850   0.50223   53.382
 6341.00    0.49335   0.50207   53.128
 6342.00    0.49752   0.50179   53.227
 6343.00    0.49932   0.50121   53.567
 6344.00    0.50009   0.50146   53.655
 6345.00    0.50171   0.50150   53.327
 6346.00    0.50487   0.50089   53.121
 6347.00    0.50884   0.50092   53.387
 6348.00    0.51163   0.50091   53.796
 6349.00    0.51176   0.50035   53.896
 6350.00    0.50920   0.49986   53.535
 6351.00    0.50494   0.49930   53.015
 6352.00    0.50043   0.49882   52.976
 6353.00    0.49708   0.49809   53.569
 6354.00    0.49573   0.49701   54.141
 6355.00    0.49612   0.49647   54.212
 6356.00    0.49690   0.49605   54.023
 6357.00    0.49776   0.49514   53.838
 6358.00    0.50031   0.49438   53.598
 6359.00    0.50637   0.49425   53.278
 6360.00    0.51691   0.49427   53.011
 6361.00    0.53091   0.49398   52.800
 6362.00    0.54504   0.49412   52.470
 6363.00    0.55469   0.49479   -1.000
 6364.00    0.55547   0.49559   -1.000
 6365.00    0.54751   0.49638   52.535
 6366.00    0.53628   0.49698   53.050
 6367.00    0.52685   0.49815   53.275
 6368.00    0.52131   0.49949   53.158
 6369.00    0.51904   0.50004   52.990
 6370.00    0.51765   0.50089   53.212
 6371.00    0.51594   0.50198   53.664
 6372.00    0.51463   0.50275   53.602
 6373.00    0.51415   0.50344   53.142
 6374.00    0.51399   0.50365   53.321
 6375.00    0.51371   0.50398   54.158
 6376.00    0.51328   0.50446   54.432
 6377.00    0.51260   0.50427   53.860
 6378.00    0.51140   0.50419   53.466
 6379.00    0.50941   0.50430   53.650
 6380.00    0.50661   0.50403   53.896
 6381.00    0.50381   0.50388   53.918
 6382.00    0.50222   0.50371   53.936
 6383.00    0.50172   0.50331   54.210
 6384.00    0.50101   0.50290   54.834
 6385.00    0.50008   0.50265   55.568
 6386.00    0.50014   0.50245   55.932
 6387.00    0.50105   0.50204   55.763
 6388.00    0.50113   0.50161   55.304
 6389.00    0.49919   0.50133   54.846
 6390.00    0.49517   0.50106   54.558
 6391.00    0.49047   0.50065   54.382
 6392.00    0.48732   0.50018   54.146
 6393.00    0.48702   0.50005   53.943
 6394.00    0.48939   0.50021   54.003
 6395.00    0.49261   0.50007   54.173
 6396.00    0.49428   0.49968   54.050
 6397.00    0.49380   0.50007   53.672
 6398.00    0.49244   0.50024   53.408
 6399.00    0.49183   0.49954   53.294
 6400.00    0.49320   0.50004   53.126
 6401.00    0.49678   0.50057   53.003
 6402.00    0.50153   0.50031   53.160
 6403.00    0.50520   0.50070   53.359
 6404.00    0.50537   0.50051   53.115
 6405.00    0.50170   0.50061   52.490
 6406.00    0.49579   0.50103   51.917
 6407.00    0.48997   0.50008   51.526
 6408.00    0.48626   0.50032   51.190
 6409.00    0.48491   0.50092   50.830
 6410.00    0.48495   0.50008   50.452
 6411.00    0.48591   0.50014   50.115
 6412.00    0.48782   0.50022   49.902
 6413.00    0.49062   0.49988   49.894
 6414.00    0.49385   0.50024   50.108
 6415.00    0.49634   0.50002   50.426
 6416.00    0.49677   0.49995   50.731
 6417.00    0.49484   0.50043   51.188
 6418.00    0.49124   0.50031   51.995
 6419.00    0.48737   0.50040   52.883
 6420.00    0.48532   0.50072   53.351
 6421.00    0.48768   0.50071   53.302
 6422.00    0.49484   0.50113   53.065
 6423.00    0.50113   0.50138   53.172
 6424.00    0.50021   0.50122   53.945
 6425.00    0.49355   0.50151   54.947
 6426.00    0.48694   0.50150   55.415
 6427.00    0.48400   0.50121   55.167
 6428.00    0.48510   0.50150   54.628
 6429.00    0.48738   0.50125   54.512
 6430.00    0.48778   0.50086   55.177
 6431.00    0.48679   0.50125   55.913
 6432.00    0.48659   0.50113   55.849
 6433.00    0.48811   0.50109   55.367
 6434.00    0.49084   0.50120   55.231
 6435.00    0.49304   0.50088   55.393
 6436.00    0.49301   0.50137   55.535
 6437.00    0.49056   0.50131   55.793
 6438.00    0.48699   0.50059   56.223
 6439.00    0.48474   0.50128   56.143
 6440.00    0.48615   0.50137   54.892
 6441.00    0.49209   0.50090   52.755
 6442.00    0.50111   0.50108   50.489
 6443.00    0.50901   0.50058   48.744
 6444.00    0.51176   0.50042   47.894
 6445.00    0.50840   0.50012   48.022
 6446.00    0.50044   0.49909   48.948
 6447.00    0.49088   0.49920   50.145
 6448.00    0.48335   0.49876   51.073
 6449.00    0.48110   0.49782   51.626
 6450.00    0.48460   0.49800   51.991
 6451.00    0.48989   0.49763   52.392
 6452.00    0.49273   0.49736   52.874
 6453.00    0.49213   0.49753   53.172
 6454.00    0.48884   0.49719   53.231
 6455.00    0.48391   0.49729   53.561
 6456.00    0.47864   0.49748   54.407
 6457.00    0.47464   0.49751   55.123
 6458.00    0.47333   0.49777   55.273
 6459.00    0.47548   0.49795   55.486
 6460.00    0.48026   0.49842   56.164
 6461.00    0.48489   0.49850   56.605
 6462.00    0.48703   0.49829   56.369
 6463.00    0.48658   0.49879   56.183
 6464.00    0.48538   0.49915   56.366
 6465.00    0.48650   0.49922   55.992
 6466.00    0.49055   0.49947   54.767
 6467.00    0.49405   0.49958   53.902
 6468.00    0.49409   0.49971   54.078
 6469.00    0.49116   0.49974   54.607
 6470.00    0.48698   0.49941   54.864
 6471.00    0.48312   0.49940   55.089
 6472.00    0.48108   0.49962   55.383
 6473.00    0.48228   0.49934   55.185
 6474.00    0.48690   0.49880   54.082
 6475.00    0.49342   0.49859   52.271
 6476.00    0.49981   0.49835   50.242
 6477.00    0.50423   0.49763   48.531
 6478.00    0.50482   0.49683   47.765
 6479.00    0.50015   0.49623   48.596
 6480.00    0.49170   0.49556   50.813
 6481.00    0.48418   0.49446   52.863
 6482.00    0.48094   0.49315   53.843
 6483.00    0.48204   0.49218   54.701
 6484.00    0.48623   0.49108   55.743
 6485.00    0.49172   0.48943   55.683
 6486.00    0.49537   0.48791   54.342
 6487.00    0.49340   0.48634   53.292
 6488.00    0.48585   0.48476   53.280
 6489.00    0.47729   0.48308   53.749
 6490.00    0.47165   0.48105   54.206
 6491.00    0.46998   0.47993   54.681
 6492.00    0.47096   0.47884   55.236
 6493.00    0.47181   0.47719   55.692
 6494.00    0.47091   0.47673   55.500
 6495.00    0.46878   0.47636   54.030
 6496.00    0.46748   0.47605   51.638
 6497.00    0.46930   0.47671   49.463
 6498.00    0.47330   0.47700   48.332
 6499.00    0.47570   0.47793   48.606
 6500.00    0.47577   0.47934   50.099
 6501.00    0.47648   0.48021   52.092
 6502.00    0.47983   0.48171   53.924
 6503.00    0.48537   0.48323   55.269
 6504.00    0.49057   0.48436   56.042
 6505.00    0.49244   0.48590   56.339
 6506.00    0.49167   0.48705   56.297
 6507.00    0.49194   0.48792   56.059
 6508.00    0.49399   0.48887   55.847
 6509.00    0.49544   0.48960   55.859
 6510.00    0.49516   0.49020   55.953
 6511.00    0.49383   0.49046   55.773
 6512.00    0.49200   0.49065   55.337
 6513.00    0.48962   0.49108   54.984
 6514.00    0.48658   0.49095   54.822
 6515.00    0.48307   0.49077   54.763
 6516.00    0.48027   0.49104   54.925
 6517.00    0.47972   0.49092   55.419
 6518.00    0.48127   0.49082   55.606
 6519.00    0.48354   0.49083   54.520
 6520.00    0.48582   0.49069   52.393
 6521.00    0.48774   0.49078   50.379
 6522.00    0.48754   0.49047   49.505
 6523.00    0.48366   0.49018   50.283
 6524.00    0.47880   0.49038   52.073
 6525.00    0.47769   0.48996   53.482
 6526.00    0.48067   0.48954   54.242
 6527.00    0.48442   0.48951   55.098
 6528.00    0.48610   0.48910    0.000
 6529.00    0.48480   0.48875    0.000
 6530.00    0.48260   0.48828    0.000
 6531.00    0.48255   0.48767    0.000
 6532.00    0.48471   0.48729    0.000
 6533.00    0.48703   0.48648    0.000
 6534.00    0.48814   0.48558    0.000
 6535.00    0.48789   0.48498    0.000
 6536.00    0.48729   0.48382    0.000
 6537.00    0.48785   0.48254    0.000
 6538.00    0.49044   0.48139    0.000
 6539.00    0.49592   0.47966    0.000
 6540.00    0.50628   0.47798    0.000
 6541.00    0.52650   0.47613    0.000
 6542.00    0.56653   0.47362    0.000
 6543.00    0.63519   0.47144    0.000
 6544.00    0.73064   0.46890    0.000
 6545.00    0.83854   0.46571    0.000
 6546.00    0.93198   0.46285    0.000
 6547.00    0.98233   0.45939    0.000
 6548.00    0.97417   0.45567    0.000
 6549.00    0.90915   0.45215    0.000
 6550.00    0.80770   0.44755    0.000
 6551.00    0.69919   0.44308    0.000
 6552.00    0.60893   0.43916    0.000
 6553.00    0.55549   0.43438    0.000
 6554.00    0.55137   0.42982    0.000
 6555.00    0.63062   0.42559    0.000
 6556.00    0.87823   0.42137    0.000
 6557.00    1.39384   0.41801    0.000
 6558.00    2.24074   0.41418    0.000
 6559.00    3.37007   0.41093    0.000
 6560.00    4.55221   0.41011    0.000
 6561.00    5.47345   0.40861    0.000
 6562.00    5.85464   0.40709    0.000
 6563.00    5.56239   0.40873    0.000
 6564.00    4.70217   0.41058    0.000
 6565.00    3.53633   0.41177    0.000
 6566.00    2.38292   0.41474    0.000
 6567.00    1.48855   0.41824    0.000
 6568.00    0.92284   0.42152    0.000
 6569.00    0.63564   0.42531    0.000
 6570.00    0.52340   0.42916    0.000
 6571.00    0.48731   0.43334    0.000
 6572.00    0.47775   0.43764    0.000
 6573.00    0.47743   0.44128    0.000
 6574.00    0.48366   0.44488    0.000
 6575.00    0.50360   0.44880    0.000
 6576.00    0.55175   0.45201    0.000
 6577.00    0.65282   0.45459    0.000
 6578.00    0.83981   0.45754    0.000
 6579.00    1.12151   0.46011    0.000
 6580.00    1.45960   0.46187    0.000
 6581.00    1.78110   0.46397    0.000
 6582.00    1.99458   0.46567    0.000
 6583.00    2.03343   0.46692    0.000
 6584.00    1.88567   0.46846    0.000
 6585.00    1.59390   0.46924    0.000
 6586.00    1.24676   0.46992    0.000
 6587.00    0.93153   0.47102    0.000
 6588.00    0.70211   0.47128    0.000
 6589.00    0.57114   0.47139    0.000
 6590.00    0.51166   0.47213    0.000
 6591.00    0.48938   0.47236    0.000
 6592.00    0.48210   0.47232    0.000
 6593.00    0.47847   0.47278    0.000
 6594.00    0.47561   0.47309    0.000
 6595.00    0.47330   0.47326    0.000
 6596.00    0.47090   0.47370    0.000
 6597.00    0.46843   0.47394    0.000
 6598.00    0.46697   0.47416    0.000
 6599.00    0.46736   0.47464    0.000
 6600.00    0.46962   0.47488    0.000
 6601.00    0.47343   0.47509    0.000
 6602.00    0.47811   0.47543    0.000
 6603.00    0.48186   0.47570    0.000
 6604.00    0.48205   0.47594    0.000
 6605.00    0.47849   0.47610    0.000
 6606.00    0.47414   0.47644    0.000
 6607.00    0.47143   0.47689    0.000
 6608.00    0.47089   0.47709    0.000
 6609.00    0.47251   0.47730   56.655
 6610.00    0.47604   0.47772   56.858
 6611.00    0.47967   0.47827   56.756
 6612.00    0.48047   0.47844   56.430
 6613.00    0.47786   0.47856   56.168
 6614.00    0.47431   0.47907   56.293
 6615.00    0.47264   0.47922   56.776
 6616.00    0.47449   0.47920   57.223
 6617.00    0.47858   0.47931   57.416
 6618.00    0.48146   0.47918   57.411
 6619.00    0.48228   0.47911   57.131
 6620.00    0.48314   0.47874   56.453
 6621.00    0.48461   0.47821   55.936
 6622.00    0.48498   0.47816   56.461
 6623.00    0.48270   0.47754   57.553
 6624.00    0.47743   0.47675   57.565
 6625.00    0.47057   0.47659   56.507
 6626.00    0.46499   0.47600   55.963
 6627.00    0.46347   0.47536   56.214
 6628.00    0.46738   0.47511   56.276
 6629.00    0.47415   0.47452   55.954
 6630.00    0.47853   0.47411   55.932
 6631.00    0.47778   0.47406   56.395
 6632.00    0.47279   0.47368   56.954
 6633.00    0.46705   0.47342   57.430
 6634.00    0.46466   0.47360   57.902
 6635.00    0.46614   0.47345   58.232
 6636.00    0.46892   0.47324   58.118
 6637.00    0.47119   0.47360   57.592
 6638.00    0.47250   0.47367   57.007
 6639.00    0.47279   0.47338   56.728
 6640.00    0.47234   0.47363   56.937
 6641.00    0.47226   0.47388   57.372
 6642.00    0.47375   0.47375   57.519
 6643.00    0.47631   0.47382   57.233
 6644.00    0.47827   0.47388   56.769
 6645.00    0.47861   0.47399   56.491
 6646.00    0.47749   0.47402   56.565
 6647.00    0.47651   0.47378   56.523
 6648.00    0.47735   0.47383   55.837
 6649.00    0.47889   0.47380   55.135
 6650.00    0.47853   0.47336   55.355
 6651.00    0.47548   0.47327   56.066
 6652.00    0.47092   0.47311   56.189
 6653.00    0.46716   0.47254   55.930
 6654.00    0.46631   0.47229   56.167
 6655.00    0.46826   0.47199   56.744
 6656.00    0.47118   0.47132   56.954
 6657.00    0.47292   0.47101   56.845
 6658.00    0.47200   0.47069   56.919
 6659.00    0.46875   0.46989   57.246
 6660.00    0.46464   0.46958   57.581
 6661.00    0.46099   0.46946   57.738
 6662.00    0.45897   0.46873   57.705
 6663.00    0.45985   0.46843   57.695
 6664.00    0.46395   0.46840   57.845
 6665.00    0.46921   0.46796   57.804
 6666.00    0.47273   0.46782   57.277
 6667.00    0.47319   0.46762   56.779
 6668.00    0.47094   0.46729   56.895
 6669.00    0.46778   0.46730   57.324
 6670.00    0.46604   0.46691   57.469
 6671.00    0.46747   0.46649   57.345
 6672.00    0.47284   0.46661   57.233
 6673.00    0.48151   0.46611   57.109
 6674.00    0.49203   0.46545   56.851
 6675.00    0.50282   0.46565   56.554
 6676.00    0.51184   0.46563   56.357
 6677.00    0.51634   0.46507   56.251
 6678.00    0.51435   0.46516   56.196
 6679.00    0.50642   0.46558   56.268
 6680.00    0.49507   0.46548   56.498
 6681.00    0.48402   0.46560   56.695
 6682.00    0.47622   0.46609   56.697
 6683.00    0.47218   0.46628   56.623
 6684.00    0.47108   0.46652   56.639
 6685.00    0.47204   0.46693   56.725
 6686.00    0.47428   0.46715   56.794
 6687.00    0.47717   0.46743   56.822
 6688.00    0.48007   0.46760   56.841
 6689.00    0.48220   0.46759   56.902
 6690.00    0.48265   0.46791   56.982
 6691.00    0.48049   0.46793   56.942
 6692.00    0.47559   0.46757   56.852
 6693.00    0.46916   0.46773   57.191
 6694.00    0.46324   0.46766   58.083
 6695.00    0.45999   0.46723   58.724
 6696.00    0.46019   0.46731    0.000
 6697.00    0.46233   0.46710    0.000
 6698.00    0.46487   0.46674    0.000
 6699.00    0.46768   0.46674    0.000
 6700.00    0.47081   0.46631    0.000
 6701.00    0.47356   0.46605    0.000
 6702.00    0.47517   0.46601    0.000
 6703.00    0.47546   0.46537    0.000
 6704.00    0.47516   0.46509    0.000
 6705.00    0.47587   0.46495    0.000
 6706.00    0.47872   0.46413    0.000
 6707.00    0.48422   0.46374    0.000
 6708.00    0.49742   0.46344    0.000
 6709.00    0.53106   0.46264    0.000
 6710.00    0.60492   0.46216    0.000
 6711.00    0.74156   0.46169    0.000
 6712.00    0.94468   0.46112    0.000
 6713.00    1.18747   0.46064    0.000
 6714.00    1.41830   0.46013    0.000
 6715.00    1.57061   0.46000    0.000
 6716.00    1.59661   0.45980    0.000
 6717.00    1.48638   0.45948    0.000
 6718.00    1.27267   0.45961    0.000
 6719.00    1.02443   0.45970    0.000
 6720.00    0.80595   0.45979    0.000
 6721.00    0.65520   0.46003    0.000
 6722.00    0.57978   0.46017    0.000
 6723.00    0.56181   0.46057    0.000
 6724.00    0.58716   0.46089    0.000
 6725.00    0.65621   0.46098    0.000
 6726.00    0.77114   0.46143    0.000
 6727.00    0.92648   0.46163    0.000
 6728.00    1.09486   0.46161    0.000
 6729.00    1.22770   0.46188    0.000
 6730.00    1.28235   0.46184    0.000
 6731.00    1.23694   0.46170    0.000
 6732.00    1.10327   0.46170    0.000
 6733.00    0.92457   0.46140    0.000
 6734.00    0.74871   0.46116    0.000
 6735.00    0.61344   0.46084    0.000
 6736.00    0.53120   0.46030    0.000
 6737.00    0.48967   0.46016    0.000
 6738.00    0.47224   0.45969    0.000
 6739.00    0.46585   0.45896    0.000
 6740.00    0.46210   0.45882    0.000
 6741.00    0.45742   0.45847    0.000
 6742.00    0.45264   0.45782    0.000
 6743.00    0.45103   0.45760    0.000
 6744.00    0.45309   0.45749    0.000
 6745.00    0.45611   0.45715    0.000
 6746.00    0.45799   0.45683    0.000
 6747.00    0.45824   0.45708    0.000
 6748.00    0.45742   0.45713    0.000
 6749.00    0.45664   0.45676    0.000
 6750.00    0.45646   0.45735    0.000
 6751.00    0.45683   0.45775    0.000
 6752.00    0.45741   0.45753    0.000
 6753.00    0.45773   0.45824   57.268
 6754.00    0.45736   0.45872   56.966
 6755.00    0.45639   0.45870   57.043
 6756.00    0.45633   0.45938   57.234
 6757.00    0.45910   0.45969   56.983
 6758.00    0.46405   0.45969   56.793
 6759.00    0.46846   0.46021   57.622
 6760.00    0.47005   0.46029   58.878
 6761.00    0.46809   0.46029   59.012
 6762.00    0.46429   0.46058   58.351
 6763.00    0.46154   0.46040   58.357
 6764.00    0.46102   0.46037   58.722
 6765.00    0.46220   0.46064   57.964
 6766.00    0.46436   0.46048   55.877
 6767.00    0.46698   0.46034   53.211
 6768.00    0.47003   0.46056   50.180
 6769.00    0.47325   0.46061   46.905
 6770.00    0.47473   0.46049   44.177
 6771.00    0.47263   0.46058   42.644
 6772.00    0.46865   0.46076   42.028
 6773.00    0.46633   0.46058   41.749
 6774.00    0.46704   0.46044   41.773
 6775.00    0.47025   0.46059   42.325
 6776.00    0.47531   0.46027   43.246
 6777.00    0.48063   0.45987   44.259
 6778.00    0.48232   0.45986   45.657
 6779.00    0.47761   0.45929   47.924
 6780.00    0.47044   0.45870   50.676
 6781.00    0.46682   0.45860   52.816
 6782.00    0.46692   0.45798   53.724
 6783.00    0.46706   0.45741   53.666
 6784.00    0.46426   0.45737   53.546
 6785.00    0.45807   0.45683   54.125
 6786.00    0.45199   0.45631   55.218
 6787.00    0.45014   0.45641   56.148
 6788.00    0.45277   0.45615   56.599
 6789.00    0.45755   0.45576   56.632
 6790.00    0.46202   0.45597   56.462
 6791.00    0.46438   0.45594   56.286
 6792.00    0.46408   0.45578   56.132
 6793.00    0.46204   0.45612   55.937
 6794.00    0.46061   0.45611   55.671
 6795.00    0.46156   0.45616   55.435
 6796.00    0.46381   0.45654   55.527
 6797.00    0.46538   0.45642   56.102
 6798.00    0.46556   0.45667   56.812
 6799.00    0.46399   0.45698   57.175
 6800.00    0.45961   0.45664   57.031
 6801.00    0.45399   0.45704   55.975
 6802.00    0.45399   0.45721   53.020
 6803.00    0.46247   0.45672   48.410
 6804.00    0.47020   0.45715   44.050
 6805.00    0.46807   0.45715   41.126
 6806.00    0.45862   0.45671   39.609
 6807.00    0.44741   0.45708   39.329
 6808.00    0.43488   0.45690   40.401
 6809.00    0.42304   0.45670   42.617
 6810.00    0.42089   0.45700   44.598
 6811.00    0.43502   0.45664   44.738
 6812.00    0.46170   0.45671   43.068
 6813.00    0.49138   0.45703   40.944
 6814.00    0.51353   0.45672   39.859
 6815.00    0.52260   0.45689   40.401
 6816.00    0.52181   0.45708   41.968
 6817.00    0.51771   0.45689   43.547
 6818.00    0.51552   0.45713   44.405
 6819.00    0.51622   0.45727   44.527
 6820.00    0.51543   0.45711   44.714
 6821.00    0.50951   0.45722   45.501
 6822.00    0.49955   0.45727   46.511
 6823.00    0.48872   0.45710   47.314
 6824.00    0.48000   0.45703   48.109
 6825.00    0.47411   0.45692   49.420
 6826.00    0.46909   0.45666   51.611
 6827.00    0.46582   0.45657   53.078
 6828.00    0.46986   0.45631   50.218
 6829.00    0.48090   0.45578   46.072
 6830.00    0.48864   0.45564   48.193
 6831.00    0.48611   0.45535   53.555
 6832.00    0.47659   0.45468   41.526
 6833.00    0.46698   0.45443   26.399
 6834.00    0.46317   0.45409   20.720
 6835.00    0.46603   0.45341   20.451
 6836.00    0.47068   0.45315   21.575
 6837.00    0.47273   0.45281   21.577
 6838.00    0.47167   0.45228   21.030
 6839.00    0.47109   0.45208   20.925
 6840.00    0.47638   0.45190   21.204
 6841.00    0.48457   0.45164   21.168
 6842.00    0.48385   0.45144   20.185
 6843.00    0.47412   0.45136   19.741
 6844.00    0.47054   0.45131   23.237
 6845.00    0.47701   0.45109   35.526
 6846.00    0.48035   0.45113   55.179
 6847.00    0.47627   0.45114   56.394
 6848.00    0.47533   0.45076   50.124
 6849.00    0.48053   0.45089   50.061
 6850.00    0.48240   0.45087   51.247
 6851.00    0.47689   0.45023   49.676
 6852.00    0.46965   0.45034   47.380
 6853.00    0.46465   0.45034   46.108
 6854.00    0.46109   0.44961   45.779
 6855.00    0.45858   0.44963   46.110
 6856.00    0.45815   0.44966   47.037
 6857.00    0.45875   0.44901   48.652
 6858.00    0.45781   0.44891   50.967
 6859.00    0.45710   0.44900   52.969
 6860.00    0.46140   0.44869   52.728
 6861.00    0.46816   0.44852   50.229
 6862.00    0.46893   0.44856   47.325
 6863.00    0.46462   0.44853   44.907
 6864.00    0.46445   0.44836   42.978
 6865.00    0.46865   0.44835   41.871
 6866.00    0.46878   0.44861   42.188
 6867.00    0.46340   0.44854   44.069
 6868.00    0.45882   0.44842   47.099
 6869.00    0.45830   0.44876   50.440
 6870.00    0.46032   0.44887   52.910
 6871.00    0.46234   0.44880   53.966
 6872.00    0.46283   0.44911   54.102
 6873.00    0.46385   0.44930   53.983
 6874.00    0.46847   0.44939   53.996
 6875.00    0.47320   0.44969   54.043
 6876.00    0.47128   0.44983   53.680
 6877.00    0.46449   0.45007   52.558
 6878.00    0.46048   0.45048   50.746
 6879.00    0.46043   0.45051   48.979
 6880.00    0.46028   0.45090   48.002
 6881.00    0.45966   0.45157   47.597
 6882.00    0.46073   0.45150   47.217
 6883.00    0.46160   0.45192   47.368
 6884.00    0.45896   0.45280   48.886
 6885.00    0.45605   0.45270   50.866
 6886.00    0.45910   0.45310   50.987
 6887.00    0.46754   0.45401   48.545
 6888.00    0.47543   0.45395   44.914
 6889.00    0.47803   0.45424   41.737
 6890.00    0.47403   0.45499   39.988
 6891.00    0.46720   0.45502   39.903
 6892.00    0.46250   0.45521   41.441
 6893.00    0.45901   0.45564   44.418
 6894.00    0.45438   0.45575   48.276
 6895.00    0.45376   0.45592   51.762
 6896.00    0.46307   0.45604   53.418
 6897.00    0.47621   0.45616   53.425
 6898.00    0.48235   0.45628   53.073
 6899.00    0.48027   0.45630   52.815
 6900.00    0.47546   0.45640   52.519
 6901.00    0.47251   0.45636   52.285
 6902.00    0.47274   0.45637   52.343
 6903.00    0.47283   0.45647   52.753
 6904.00    0.46932   0.45621   53.382
 6905.00    0.46480   0.45622   53.906
 6906.00    0.46327   0.45629   53.903
 6907.00    0.46296   0.45577   53.064
 6908.00    0.46023   0.45579   51.527
 6909.00    0.45543   0.45584   50.077
 6910.00    0.45155   0.45515   49.382
 6911.00    0.45135   0.45517   49.402
 6912.00    0.45499   0.45520   49.855
 6913.00    0.45806   0.45449   50.701
 6914.00    0.45687   0.45448   51.724
 6915.00    0.45450   0.45448   51.984
 6916.00    0.45539   0.45391   50.773
 6917.00    0.45903   0.45385   48.751
 6918.00    0.46301   0.45380   46.841
 6919.00    0.46693   0.45341   45.291
 6920.00    0.47008   0.45336   44.364
 6921.00    0.46901   0.45330   44.878
 6922.00    0.46164   0.45309   47.270
 6923.00    0.45118   0.45306   50.418
 6924.00    0.44227   0.45303   52.606
 6925.00    0.43699   0.45301   53.736
 6926.00    0.43531   0.45294   54.508
 6927.00    0.43593   0.45297   54.833
 6928.00    0.43712   0.45314   54.608
 6929.00    0.43745   0.45305   54.508
 6930.00    0.43687   0.45312   54.883
 6931.00    0.43714   0.45338   54.951
 6932.00    0.43855   0.45327   54.250
 6933.00    0.43785   0.45335   53.698
 6934.00    0.43399   0.45362   53.918
 6935.00    0.43185   0.45340   54.166
 6936.00    0.43511   0.45347   53.745
 6937.00    0.44111   0.45366   53.086
 6938.00    0.44539   0.45326   52.853
 6939.00    0.44540   0.45333   53.263
 6940.00    0.44163   0.45349   53.806
 6941.00    0.43754   0.45294   53.273
 6942.00    0.43518   0.45303   51.807
 6943.00    0.43294   0.45316   51.440
 6944.00    0.43035   0.45253   52.264
 6945.00    0.43044   0.45265   51.241
 6946.00    0.43390   0.45284   49.758
 6947.00    0.43654   0.45227   55.143
 6948.00    0.43766   0.45244   63.070
 6949.00    0.44309   0.45275   46.114
 6950.00    0.45283   0.45236   27.336
 6951.00    0.45661   0.45259   21.090
 6952.00    0.45039   0.45297   21.166
 6953.00    0.44313   0.45276   22.883
 6954.00    0.44149   0.45309   23.052
 6955.00    0.44279   0.45349   22.467
 6956.00    0.44309   0.45336   22.431
 6957.00    0.44140   0.45377   22.700
 6958.00    0.43808   0.45411   22.877
 6959.00    0.43390   0.45392   23.029
 6960.00    0.42999   0.45434   23.238
 6961.00    0.42748   0.45450   23.399
 6962.00    0.42643   0.45418   23.457
 6963.00    0.42580   0.45449   23.483
 6964.00    0.42571   0.45434   23.488
 6965.00    0.42784   0.45378   23.374
 6966.00    0.43246   0.45394   23.124
 6967.00    0.43773   0.45354   22.845
 6968.00    0.44190   0.45270   22.629
 6969.00    0.44433   0.45261   22.506
 6970.00    0.44604   0.45214   22.419
 6971.00    0.44882   0.45116   22.281
 6972.00    0.45124   0.45085   22.161
 6973.00    0.44916   0.45054   22.264
 6974.00    0.44294   0.44972   22.576
 6975.00    0.43765   0.44940   22.849
 6976.00    0.43471   0.44937   23.004
 6977.00    0.43109   0.44888   23.197
 6978.00    0.42683   0.44874   23.428
 6979.00    0.42574   0.44902   23.489
 6980.00    0.42921   0.44892   23.299
 6981.00    0.43515   0.44902   22.981
 6982.00    0.44102   0.44950   22.675
 6983.00    0.44488   0.44967   22.478
 6984.00    0.44546   0.44990   22.449
 6985.00    0.44281   0.45041   22.583
 6986.00    0.44013   0.45066   22.721
 6987.00    0.44119   0.45082   22.666
 6988.00    0.44203   0.45118   22.623
 6989.00    0.43470   0.45135   23.005
 6990.00    0.42299   0.45131   23.641
 6991.00    0.41951   0.45145   23.837
 6992.00    0.42716   0.45149   23.410
 6993.00    0.43834   0.45126   22.813
 6994.00    0.44525   0.45117   22.459
 6995.00    0.44432   0.45110   22.506
 6996.00    0.44021   0.45080   22.717
 6997.00    0.44118   0.45053   22.666
 6998.00    0.44679   0.45039   22.382
 6999.00    0.44988   0.45014   22.228
 7000.00    0.44752   0.44978   22.345
 7001.00    0.44165   0.44959   -2.000
 7002.00    0.43541   0.44947   -2.000
 7003.00    0.43139   0.44908   -2.000
 7004.00    0.42980   0.44887   -2.000
 7005.00    0.42902   0.44887   -2.000
 7006.00    0.42732   0.44843   -2.000
 7007.00    0.42410   0.44819   -2.000
 7008.00    0.42138   0.44834   -2.000
 7009.00    0.42183   0.44789   -2.000
 7010.00    0.42487   0.44763   -2.000
 7011.00    0.42780   0.44786   -2.000
 7012.00    0.42907   0.44747   -2.000
 7013.00    0.42862   0.44720   -2.000
 7014.00    0.42744   0.44747   -2.000
 7015.00    0.42670   0.44720   -2.000
 7016.00    0.42646   0.44702   -2.000
 7017.00    0.42634   0.44733   -2.000
 7018.00    0.42691   0.44722   -2.000
 7019.00    0.42849   0.44714   -2.000
 7020.00    0.42920   0.44750   -2.000
 7021.00    0.42746   0.44761   -2.000
 7022.00    0.42590   0.44763   -2.000
 7023.00    0.42749   0.44803   -2.000
 7024.00    0.42985   0.44835   -2.000
 7025.00    0.42951   0.44843   -2.000
 7026.00    0.42840   0.44890   -2.000
 7027.00    0.42985   0.44944   -2.000
 7028.00    0.43259   0.44953   -2.000
 7029.00    0.43387   0.45004   -2.000
 7030.00    0.43417   0.45081   -2.000
 7031.00    0.43500   0.45090   -2.000
 7032.00    0.43571   0.45143   -2.000
 7033.00    0.43475   0.45237   -2.000
 7034.00    0.43154   0.45247   -2.000
 7035.00    0.42756   0.45296   -2.000
 7036.00    0.42672   0.45396   -2.000
 7037.00    0.43026   0.45406   -2.000
 7038.00    0.43196   0.45441   -2.000
 7039.00    0.42738   0.45530   -2.000
 7040.00    0.42295   0.45527   -2.000
 7041.00    0.42496   0.45538   -2.000
 7042.00    0.42862   0.45591   -2.000
 7043.00    0.42804   0.45564   -2.000
 7044.00    0.42613   0.45539   -2.000
 7045.00    0.42778   0.45541   -2.000
 7046.00    0.43283   0.45476   -2.000
 7047.00    0.43825   0.45410   -2.000
 7048.00    0.44072   0.45360   -2.000
 7049.00    0.43872   0.45260   -2.000
 7050.00    0.43392   0.45160   -2.000
 7051.00    0.42864   0.45077   -2.000
 7052.00    0.42389   0.44959   -2.000
 7053.00    0.42071   0.44839   -2.000
 7054.00    0.42086   0.44750   -2.000
 7055.00    0.42350   0.44637   -2.000
 7056.00    0.42338   0.44514   -2.000
 7057.00    0.41788   0.44448   -2.000
 7058.00    0.41154   0.44360   -2.000
 7059.00    0.41019   0.44251   -2.000
 7060.00    0.41630   0.44220   -2.000
 7061.00    0.42707   0.44169   -2.000
 7062.00    0.43465   0.44085   -2.000
 7063.00    0.43487   0.44092   -2.000
 7064.00    0.43182   0.44079   -2.000
 7065.00    0.42976   0.44023   -2.000
 7066.00    0.42827   0.44056   -2.000
 7067.00    0.42595   0.44073   -2.000
 7068.00    0.42281   0.44040   -2.000
 7069.00    0.42015   0.44076   -2.000
 7070.00    0.41977   0.44107   -2.000
 7071.00    0.42018   0.44078   -2.000
 7072.00    0.41649   0.44092   -2.000
 7073.00    0.41146   0.44115   -2.000
 7074.00    0.41730   0.44066   -2.000
 7075.00    0.43332   0.44037   -2.000
 7076.00    0.44031   0.44033   -2.000
 7077.00    0.43210   0.43946   -2.000
 7078.00    0.42551   0.43865   -2.000
 7079.00    0.42921   0.43832   -2.000
 7080.00    0.43299   0.43705   -2.000
 7081.00    0.43004   0.43586   -2.000
 7082.00    0.42500   0.43533   -2.000
 7083.00    0.42168   0.43385   -2.000
 7084.00    0.41864   0.43256   -2.000
 7085.00    0.41499   0.43203   -2.000
 7086.00    0.41192   0.43065   -2.000
 7087.00    0.40810   0.42954   -2.000
 7088.00    0.40024   0.42919   -2.000
 7089.00    0.39318   0.42817   -2.000
 7090.00    0.39818   0.42743   -2.000
 7091.00    0.41086   0.42731   -2.000
 7092.00    0.41234   0.42677   -2.000
 7093.00    0.40434   0.42640   -2.000
 7094.00    0.40949   0.42646   -2.000
 7095.00    0.42670   0.42636   -2.000
 7096.00    0.42946   0.42624   -2.000
 7097.00    0.41492   0.42636   -2.000
 7098.00    0.40739   0.42653   -2.000
 7099.00    0.41448   0.42650   -2.000
 7100.00    0.42137   0.42659   -2.000
 7101.00    0.41968   0.42684   -2.000
 7102.00    0.41341   0.42681   -2.000
 7103.00    0.40803   0.42682   -2.000
 7104.00    0.40712   0.42703   -2.000
 7105.00    0.41260   0.42697   -2.000
 7106.00    0.42353   0.42692   -2.000
 7107.00    0.43297   0.42704   -2.000
 7108.00    0.43206   0.42696   -2.000
 7109.00    0.42333   0.42687   -2.000
 7110.00    0.41758   0.42690   -2.000
 7111.00    0.41686   0.42681   -2.000
 7112.00    0.41587   0.42666   -2.000
 7113.00    0.41654   0.42659   -2.000
 7114.00    0.42572   0.42647   -2.000
 7115.00    0.44088   0.42620   -2.000
 7116.00    0.45188   0.42601   -2.000
 7117.00    0.45283   0.42581   -2.000
 7118.00    0.44374   0.42539   -2.000
 7119.00    0.42787   0.42505   -2.000
 7120.00    0.41136   0.42473   -2.000
 7121.00    0.40359   0.42420   -2.000
 7122.00    0.41092   0.42377   -2.000
 7123.00    0.42461   0.42334   -2.000
 7124.00    0.42968   0.42286   -2.000
 7125.00    0.42693   0.42247   -2.000
 7126.00    0.42742   0.42200   -2.000
 7127.00    0.43381   0.42175   -2.000
 7128.00    0.44047   0.42154   -2.000
 7129.00    0.44070   0.42110   -2.000
 7130.00    0.43424   0.42118   -2.000
 7131.00    0.43706   0.42125   -2.000
 7132.00    0.46438   0.42084   -2.000
 7133.00    0.50012   0.42124   -2.000
 7134.00    0.51681   0.42156   -2.000
 7135.00    0.51543   0.42112   -2.000
 7136.00    0.51109   0.42172   -2.000
 7137.00    0.50112   0.42219   -2.000
 7138.00    0.47726   0.42167   -2.000
 7139.00    0.45057   0.42232   -2.000
 7140.00    0.43785   0.42286   -2.000
 7141.00    0.43699   0.42225   -2.000
 7142.00    0.43608   0.42286   -2.000
 7143.00    0.43115   0.42345   -2.000
 7144.00    0.42527   0.42282   -2.000
 7145.00    0.42382   0.42337   -2.000
 7146.00    0.42906   0.42401   -2.000
 7147.00    0.43447   0.42351   -2.000
 7148.00    0.43266   0.42396   -2.000
 7149.00    0.42574   0.42464   -2.000
 7150.00    0.42000   0.42436   -2.000
 7151.00    0.41803   0.42468   -2.000
 7152.00    0.41932   0.42534   -2.000
 7153.00    0.42205   0.42529   -2.000
 7154.00    0.42368   0.42544   -2.000
 7155.00    0.42171   0.42600   -2.000
 7156.00    0.41648   0.42613   -2.000
 7157.00    0.41353   0.42613   -2.000
 7158.00    0.41615   0.42656   -2.000
 7159.00    0.41831   0.42682   -2.000
 7160.00    0.41380   0.42674   -2.000
 7161.00    0.40565   0.42707   -2.000
 7162.00    0.40094   0.42744   -2.000
 7163.00    0.40456   0.42736   -2.000
 7164.00    0.41488   0.42766   -2.000
 7165.00    0.42153   0.42809   -2.000
 7166.00    0.41790   0.42804   -2.000
 7167.00    0.41120   0.42832   -2.000
 7168.00    0.40974   0.42875   -2.000
 7169.00    0.41194   0.42866   -2.000
 7170.00    0.41313   0.42886   -2.000
 7171.00    0.41199   0.42916   -2.000
 7172.00    0.41062   0.42896   -2.000
 7173.00    0.41354   0.42901   -2.000
 7174.00    0.42225   0.42907   -2.000
 7175.00    0.43200   0.42872   -2.000
 7176.00    0.43900   0.42861   -2.000
 7177.00    0.44508   0.42837   -2.000
 7178.00    0.45043   0.42791   -2.000
 7179.00    0.44963   0.42774   -2.000
 7180.00    0.44186   0.42723   -2.000
 7181.00    0.43629   0.42677   -2.000
 7182.00    0.43954   0.42665   -2.000
 7183.00    0.44807   0.42601   -2.000
 7184.00    0.45546   0.42562   -2.000
 7185.00    0.45738   0.42566   -2.000
 7186.00    0.45223   0.42505   -2.000
 7187.00    0.44119   0.42479   -2.000
 7188.00    0.42674   0.42502   -2.000
 7189.00    0.41183   0.42459   -2.000
 7190.00    0.40012   0.42443   -2.000
 7191.00    0.39545   0.42478   -2.000
 7192.00    0.39831   0.42459   -2.000
 7193.00    0.40472   0.42447   -2.000
 7194.00    0.41108   0.42481   -2.000
 7195.00    0.41638   0.42485   -2.000
 7196.00    0.41970   0.42470   -2.000
 7197.00    0.41899   0.42488   -2.000
 7198.00    0.41101   0.42512   -2.000
 7199.00    0.39415   0.42492   -2.000
 7200.00    0.38128   0.42487   -2.000
 7201.00    0.39405   0.42526   -2.000
 7202.00    0.41161   0.42508   -2.000
 7203.00    0.37428   0.42481   -2.000
 7204.00    0.29914   0.42536   -2.000
 7205.00    0.28938   0.42531   -2.000
 7206.00    0.36307   0.42494   -2.000
 7207.00    0.42210   0.42565   -2.000
 7208.00    0.41963   0.42584   -2.000
 7209.00    0.40166   0.42550   -2.000
 7210.00    0.40018   0.42631   -2.000
 7211.00    0.40353   0.42680   -2.000
 7212.00    0.40551   0.42660   -2.000
 7213.00    0.41732   0.42743   -2.000
 7214.00    0.44242   0.42817   -2.000
 7215.00    0.47116   0.42819   -2.000
 7216.00    0.49420   0.42892   -2.000
 7217.00    0.50563   0.42983   -2.000
 7218.00    0.49740   0.43008   -2.000
