###################################################################
## OUTPUT of StarlightChains_v04.for    [Cid@UFSC - 01/Apr/2007] ##
###################################################################

## Some input info
2000fn.txt                               [arq_obs]
Base.CB07.vall.4m                        [arq_base]
Masks.EmLines.NEW.gm                     [arq_masks]
StCv04.C11.config                        [arq_config]
   66                                    [N_base]
    0                                    [N_YAV_components = # of components with extra extinction!]
    0                                    [i_FitPowerLaw (1/0 = Yes/No)]
-9.99                                    [alpha_PowerLaw]
CCM                                      [red_law_option]
 1.458241                                [q_norm = A(l_norm)/A(V)]

## (Re)Sampling Parameters
 3741.00                                 [l_ini (A)]
 7218.00                                 [l_fin (A)]
    1.00                                 [dl    (A)]     (OBS: dl_cushion =    50.00 A)

## Normalization info
 4020.00                                 [l_norm (A) - for base]
 4010.00                                 [llow_norm (A) - window for f_obs]
 4060.00                                 [lupp_norm (A) - window for f_obs]
1.066287E-16                             [fobs_norm (in input units)]

## S/N
 3691.00                                 [llow_SN (A) - window for S/N]
 7268.00                                 [lupp_SN (A) - window for S/N]
   5.960                                 [S/N in S/N window]
   7.765                                 [S/N in norm. window]
  10.120                                 [S/N_err in S/N window]
  13.185                                 [S/N_err in norm. window]
  1.0000                                 [fscale_chi2]

## etc...
    -2007249                             [idum_orig]
  2384                                   [NOl_eff]
  2369                                   [Nl_eff]
    15    NSIGMA                         [Ntot_cliped & clip_method]
  1412670                                [Nglobal_steps]
   7                                     [N_chains]
  24                                     [NEX0s_base = N_base in EX0s-fits]
 0   0   1        3   2.0   2.683E+01    [Clip-Bug, RC-Crash & Burn-In warning-flags, n_censored_weights, wei_nsig_threshold & wei_limit]
    13     13.034     12.538      0.496  [idt_all, wdt_TotTime, wdt_UsrTime & wdt_SysTime (sec)]

## Synthesis Results - Best model ##

 4.67090E-01                             [chi2/Nl_eff]
     4.80822                             [adev (%)]

   101.43880                             [sum-of-x (%)]
 1.23628E-16                             [Flux_tot (units of input spectrum!)]
 5.01264E-13                             [Mini_tot (???)]
 2.88534E-13                             [Mcor_tot (???)]

-178.54                                  [v0_min  (km/s)]
 213.10                                  [vd_min  (km/s)]
 0.0995                                  [AV_min  (mag)]
 0.0000                                  [YAV_min (mag)]

# j     x_j(%)      Mini_j(%)     Mcor_j(%)     age_j(yr)     Z_j      (L/M)_j    YAV?  Mstars   component_j        a/Fe...       SSP_chi2r SSP_adev(%)   SSP_AV   SSP_x(%)
  1      1.8044     4.0101E-02    6.9666E-02    1.000000E+06  0.00400  1.094E-02    0   1.0000   age020_m42            0.0000     1.0173E+00     7.2241   2.6269    80.5524
  2      1.4763     8.9580E-03    1.5561E-02    3.160000E+06  0.00400  4.007E-02    0   0.9999   age045_m42            0.0000     7.2264E-01     6.1228   1.8353    88.9925
  3      1.0585     1.0136E-02    1.6708E-02    5.010000E+06  0.00400  2.539E-02    0   0.9488   age055_m42            0.0000     8.2194E-01     6.4799   2.1825    85.5987
  4      0.0000     0.0000E+00    0.0000E+00    6.610000E+06  0.00400  2.620E-02    0   0.9220   age061_m42            0.0000     6.9807E-01     5.9584   1.7548    89.4377
  5      0.0000     0.0000E+00    0.0000E+00    1.000000E+07  0.00400  1.322E-02    0   0.8862   age070_m42            0.0000     6.8702E-01     5.6658   1.4648    91.1861
  6      0.0000     0.0000E+00    0.0000E+00    1.445000E+07  0.00400  7.883E-03    0   0.8571   age078_m42            0.0000     7.6111E-01     5.9732   1.8087    88.1801
  7      0.0000     0.0000E+00    0.0000E+00    2.512000E+07  0.00400  5.251E-03    0   0.8174   age090_m42            0.0000     6.8126E-01     5.6002   1.3282    91.9070
  8      0.0142     9.4318E-04    1.2864E-03    4.000000E+07  0.00400  3.649E-03    0   0.7851   age104_m42            0.0000     6.3002E-01     5.4032   1.0899    93.2394
  9      0.0000     0.0000E+00    0.0000E+00    5.500000E+07  0.00400  3.098E-03    0   0.7629   age110_m42            0.0000     6.1335E-01     5.3726   1.2359    93.8529
 10      0.0000     0.0000E+00    0.0000E+00    1.015200E+08  0.00400  2.228E-03    0   0.7207   age116_m42            0.0000     6.2359E-01     5.4193   1.2497    94.4927
 11      0.0000     0.0000E+00    0.0000E+00    2.861200E+08  0.00400  1.093E-03    0   0.6648   age125_m42            0.0000     6.0524E-01     5.2967   0.6530    98.4463
 12      0.0000     0.0000E+00    0.0000E+00    5.088000E+08  0.00400  6.597E-04    0   0.6365   age130_m42            0.0000     6.1413E-01     5.3882   0.6354    99.9335
 13     31.6013     3.6038E+01    3.6300E+01    1.434000E+09  0.00400  2.132E-04    0   0.5798   age139_m42            0.0000     5.1984E-01     5.1175  -0.3478   102.6640
 14      8.6906     3.5844E+01    3.3483E+01    4.250000E+09  0.00400  5.895E-05    0   0.5377   age158_m42            0.0000     6.6653E-01     5.9303  -0.7500    97.1959
 15      0.0000     0.0000E+00    0.0000E+00    7.500000E+09  0.00400  3.510E-05    0   0.5212   age171_m42            0.0000     7.8475E-01     6.3731  -0.9314    96.3910
 16      0.0000     0.0000E+00    0.0000E+00    1.300000E+10  0.00400  2.005E-05    0   0.5034   age193_m42            0.0000     9.4404E-01     6.7976  -1.0000    91.9466
 17      0.0000     0.0000E+00    0.0000E+00    1.800000E+10  0.00400  1.525E-05    0   0.4967   age213_m42            0.0000     9.4668E-01     6.7803  -1.0000    90.5468
 18      0.0000     0.0000E+00    0.0000E+00    1.000000E+06  0.00800  1.238E-02    0   1.0000   age020_m52            0.0000     1.0168E+00     7.2212   2.6223    80.7418
 19      0.0000     0.0000E+00    0.0000E+00    3.160000E+06  0.00800  3.074E-02    0   0.9966   age045_m52            0.0000     9.8595E-01     7.1142   2.5419    81.6351
 20      0.0000     0.0000E+00    0.0000E+00    5.010000E+06  0.00800  2.668E-02    0   0.9443   age055_m52            0.0000     8.5202E-01     6.5714   2.2728    84.4770
 21      0.0000     0.0000E+00    0.0000E+00    6.610000E+06  0.00800  2.136E-02    0   0.9177   age061_m52            0.0000     6.6207E-01     5.5988   0.9759    91.7794
 22      4.0619     8.1282E-02    1.2465E-01    1.000000E+07  0.00800  1.215E-02    0   0.8827   age070_m52            0.0000     7.5243E-01     5.8629   1.6481    90.6295
 23      0.3901     1.0882E-02    1.6168E-02    1.445000E+07  0.00800  8.717E-03    0   0.8552   age078_m52            0.0000     7.2586E-01     5.8132   1.7672    89.6892
 24      0.0000     0.0000E+00    0.0000E+00    2.512000E+07  0.00800  5.592E-03    0   0.8162   age090_m52            0.0000     6.6986E-01     5.5072   1.3844    93.3024
 25      1.5178     9.4720E-02    1.2903E-01    4.000000E+07  0.00800  3.896E-03    0   0.7841   age104_m52            0.0000     6.2134E-01     5.3322   1.2839    94.7565
 26      0.0000     0.0000E+00    0.0000E+00    1.015200E+08  0.00800  2.148E-03    0   0.7226   age116_m52            0.0000     5.7975E-01     5.2553   1.2136    95.2896
 27      0.0000     0.0000E+00    0.0000E+00    2.861200E+08  0.00800  9.925E-04    0   0.6683   age125_m52            0.0000     6.0892E-01     5.3247   0.6968   100.9915
 28      0.0000     0.0000E+00    0.0000E+00    9.047900E+08  0.00800  3.141E-04    0   0.6138   age135_m52            0.0000     6.3328E-01     5.6735  -0.1279   106.9618
 29      0.0000     0.0000E+00    0.0000E+00    1.434000E+09  0.00800  1.719E-04    0   0.5853   age139_m52            0.0000     6.2383E-01     5.7657  -0.6862   103.6560
 30      0.0009     2.6556E-03    2.5836E-03    2.500000E+09  0.00800  7.872E-05    0   0.5600   age150_m52            0.0000     8.1032E-01     6.5617  -0.9299   100.0727
 31      0.0000     0.0000E+00    0.0000E+00    4.250000E+09  0.00800  4.336E-05    0   0.5426   age158_m52            0.0000     8.5410E-01     6.6586  -0.9378    98.8026
 32      0.0000     0.0000E+00    0.0000E+00    6.250000E+09  0.00800  3.159E-05    0   0.5319   age166_m52            0.0000     1.1160E+00     7.2995  -1.0000    93.0049
 33      0.0000     0.0000E+00    0.0000E+00    1.300000E+10  0.00800  1.361E-05    0   0.5073   age193_m52            0.0000     2.6409E+00    10.8010  -1.0000    74.2215
 34      0.1926     4.7359E+00    4.1055E+00    1.800000E+10  0.00800  9.886E-06    0   0.4990   age213_m52            0.0000     3.2803E+00    12.0000  -1.0000    70.1976
 35      0.0071     1.1180E-04    1.9423E-04    1.000000E+06  0.02000  1.544E-02    0   1.0000   age020_m62            0.0000     1.0240E+00     7.2539   2.6201    80.8615
 36      0.0000     0.0000E+00    0.0000E+00    3.160000E+06  0.02000  3.762E-02    0   0.9858   age045_m62            0.0000     1.0135E+00     7.2104   2.5579    81.6361
 37      0.0000     0.0000E+00    0.0000E+00    5.010000E+06  0.02000  3.296E-02    0   0.9342   age055_m62            0.0000     7.7783E-01     6.3331   2.1308    87.2257
 38     14.8534     3.1294E-01    4.8175E-01    8.710000E+06  0.02000  1.154E-02    0   0.8861   age067_m62            0.0000     1.3614E+00     8.1659   1.1016    91.8557
 39      0.0173     5.4967E-04    8.0901E-04    1.445000E+07  0.02000  7.663E-03    0   0.8472   age078_m62            0.0000     8.6085E-01     6.1847   1.2858    92.7277
 40      0.0000     0.0000E+00    0.0000E+00    2.512000E+07  0.02000  4.532E-03    0   0.8099   age090_m62            0.0000     8.8734E-01     6.2562   1.2703    92.7612
 41      0.0000     0.0000E+00    0.0000E+00    5.500000E+07  0.02000  2.733E-03    0   0.7595   age110_m62            0.0000     6.3813E-01     5.3793   1.2734    93.7426
 42      0.0132     2.3372E-03    2.8362E-03    1.609000E+08  0.02000  1.369E-03    0   0.6985   age120_m62            0.0000     6.1591E-01     5.2753   1.0815    98.1432
 43      0.0000     0.0000E+00    0.0000E+00    2.861200E+08  0.02000  9.013E-04    0   0.6714   age125_m62            0.0000     6.6234E-01     5.4209   0.8079   102.2885
 44      0.0003     1.3903E-04    1.5577E-04    5.088000E+08  0.02000  5.028E-04    0   0.6449   age130_m62            0.0000     7.2265E-01     5.8935   0.4107   106.4561
 45      0.0000     0.0000E+00    0.0000E+00    9.047900E+08  0.02000  2.428E-04    0   0.6179   age135_m62            0.0000     7.0058E-01     6.0397  -0.1660   105.5342
 46      0.0494     9.5091E-02    9.7600E-02    1.434000E+09  0.02000  1.263E-04    0   0.5908   age139_m62            0.0000     7.7759E-01     6.3592  -0.5915   103.1156
 47      0.0000     0.0000E+00    0.0000E+00    2.500000E+09  0.02000  5.985E-05    0   0.5673   age150_m62            0.0000     1.0088E+00     7.2536  -0.9395   101.1023
 48      0.0000     0.0000E+00    0.0000E+00    4.250000E+09  0.02000  3.271E-05    0   0.5468   age158_m62            0.0000     1.5387E+00     8.4491  -1.0000    90.0297
 49      0.0000     0.0000E+00    0.0000E+00    1.000000E+10  0.02000  1.360E-05    0   0.5167   age181_m62            0.0000     2.9439E+00    11.1954  -1.0000    76.2217
 50      0.0000     0.0000E+00    0.0000E+00    1.800000E+10  0.02000  7.124E-06    0   0.5013   age213_m62            0.0000     4.0956E+00    13.2082  -1.0000    68.3621
 51      0.0000     0.0000E+00    0.0000E+00    1.000000E+06  0.05000  2.592E-02    0   0.9998   age020_m72            0.0000     1.0527E+00     7.3541   2.6173    80.6335
 52      0.0000     0.0000E+00    0.0000E+00    3.160000E+06  0.05000  4.845E-02    0   0.9577   age045_m72            0.0000     9.1926E-01     6.8939   2.4227    83.5328
 53      0.0000     0.0000E+00    0.0000E+00    5.010000E+06  0.05000  3.072E-02    0   0.9147   age055_m72            0.0000     9.2032E-01     6.4972   1.8974    88.4753
 54      0.0000     0.0000E+00    0.0000E+00    6.610000E+06  0.05000  1.455E-02    0   0.8877   age061_m72            0.0000     2.3786E+00    10.6285   1.1323    92.8312
 55      0.0000     0.0000E+00    0.0000E+00    1.000000E+07  0.05000  9.074E-03    0   0.8524   age070_m72            0.0000     1.1698E+00     7.2151   2.0732    88.5568
 56      0.0000     0.0000E+00    0.0000E+00    2.512000E+07  0.05000  4.250E-03    0   0.7902   age090_m72            0.0000     8.9151E-01     6.3079   1.7458    91.4153
 57      0.0000     0.0000E+00    0.0000E+00    4.000000E+07  0.05000  3.087E-03    0   0.7618   age104_m72            0.0000     8.7418E-01     6.1973   1.5010    93.6145
 58      0.0000     0.0000E+00    0.0000E+00    1.015200E+08  0.05000  1.700E-03    0   0.7096   age116_m72            0.0000     6.3644E-01     5.3079   1.2232    97.5657
 59      0.0000     0.0000E+00    0.0000E+00    2.861200E+08  0.05000  7.384E-04    0   0.6633   age125_m72            0.0000     6.9146E-01     5.6249   0.6628   104.5669
 60     35.6895     2.2721E+01    2.5152E+01    5.088000E+08  0.05000  3.819E-04    0   0.6372   age130_m72            0.0000     7.0132E-01     5.9796   0.1676   106.7889
 61      0.0000     0.0000E+00    0.0000E+00    9.047900E+08  0.05000  1.676E-04    0   0.6110   age135_m72            0.0000     9.5740E-01     7.1287  -0.4968   103.7559
 62      0.0000     0.0000E+00    0.0000E+00    1.434000E+09  0.05000  8.837E-05    0   0.5874   age139_m72            0.0000     1.0807E+00     7.4648  -0.9478   102.9942
 63      0.0000     0.0000E+00    0.0000E+00    2.500000E+09  0.05000  4.233E-05    0   0.5598   age150_m72            0.0000     1.6683E+00     8.7980  -1.0000    90.8540
 64      0.0000     0.0000E+00    0.0000E+00    6.250000E+09  0.05000  1.435E-05    0   0.5249   age166_m72            0.0000     3.4045E+00    12.1293  -1.0000    72.4471
 65      0.0000     0.0000E+00    0.0000E+00    1.300000E+10  0.05000  6.513E-06    0   0.5036   age193_m72            0.0000     5.0140E+00    14.8595  -1.0000    63.7829
 66      0.0000     0.0000E+00    0.0000E+00    1.800000E+10  0.05000  4.527E-06    0   0.4945   age213_m72            0.0000     6.0093E+00    16.5009  -1.0000    58.7551


## Synthesis Results - Average & Chains ##

# j      x_j: min, <> & last-chain-values for 1 ...  7 chains
  1      1.8044      0.4071      1.4766      0.0000      0.2805      0.0000      0.4272      0.2046      0.0000
  2      1.4763      0.5328      0.4095      2.7000      0.4372      0.0000      0.7705      0.0000      0.3512
  3      1.0585      1.3784      1.4372      0.0000      1.8774      0.5907      4.1095      1.8548      1.5090
  4      0.0000      0.5148      0.0000      0.1144      0.1214      1.5959      0.0000      0.0000      1.2790
  5      0.0000      0.3603      0.4932      0.0478      1.6568      2.0648      0.3401      0.0000      0.0000
  6      0.0000      0.3776      0.0000      0.0000      0.8616      0.2067      0.0000      0.0000      1.1328
  7      0.0000      0.9300      1.0134      1.0202      0.0000      0.0000      1.2548      0.0000      0.8217
  8      0.0142      1.2355      0.6211      5.5596      2.3509      0.0000      0.6904      0.0000      0.0000
  9      0.0000      0.5048      0.6894      0.2424      0.0000      0.0000      0.0000      0.0000      0.0000
 10      0.0000      1.2242      0.1740      0.1873      0.2489      0.6807      1.9746      0.0000      0.8644
 11      0.0000      0.7842      2.0739      0.0000      0.0000      0.0000      0.0000      1.5975      0.0000
 12      0.0000      1.0382      0.0997      1.3433      0.8340      0.0000      0.5117      0.6060      1.3069
 13     31.6013     12.0215     14.5641     13.2934     13.5302     15.0818     12.0233     12.0496     13.6775
 14      8.6906      3.8944      4.2467      4.0568      4.9948      4.4562      5.6748      6.2893      3.5496
 15      0.0000      0.2567      0.3761      0.0000      0.0000      0.0000      0.0597      1.8287      0.7431
 16      0.0000      0.6637      0.0000      0.8510      0.0000      0.9642      0.0000      0.0000      0.7509
 17      0.0000      0.2292      1.4426      0.0000      0.3597      0.0000      0.0000      1.2368      0.0505
 18      0.0000      0.5984      0.0000      2.2262      0.7845      0.3415      0.0000      0.0000      1.9546
 19      0.0000      0.2390      0.9949      0.0000      0.0000      0.0000      0.0000      0.0000      0.0000
 20      0.0000      0.3116      0.0000      0.0000      0.0000      0.0000      0.0000      2.4679      0.0000
 21      0.0000      1.0456      0.0000      0.5069      0.0000      1.2469      0.0000      0.0000      1.9594
 22      4.0619      4.1118      3.8659      3.7063      3.1270      5.6412      4.3231      5.5912      5.0992
 23      0.3901      0.6250      0.0000      0.0000      0.0000      0.0000      1.1966      0.0000      0.0000
 24      0.0000      0.5192      0.0000      0.2762      0.1643      0.0000      0.1745      1.5225      0.0000
 25      1.5178      1.6082      3.1710      0.0000      3.5223      1.0254      1.5163      0.0000      1.5170
 26      0.0000      1.2721      1.6888      0.0000      1.0222      3.2663      0.2382      3.6517      1.5025
 27      0.0000      0.7890      1.1009      0.3289      2.5986      0.0000      0.0000      0.0000      0.6666
 28      0.0000      4.3743      2.6048      2.1869      1.4109      2.1684      1.9329      6.1511      1.1108
 29      0.0000      0.7259      0.2000      0.0000      0.0000      0.0000      1.8506      0.0000      0.0000
 30      0.0009      0.1641      0.0000      0.0000      0.0000      0.0000      0.3937      0.0000      0.0000
 31      0.0000      0.1874      0.0000      0.0000      0.0000      0.0000      0.0000      0.0000      0.0000
 32      0.0000      0.0573      0.0000      0.0000      0.0000      0.0000      0.0000      0.0000      0.0000
 33      0.0000      0.0533      0.0000      0.0000      0.0000      0.0000      0.0000      0.0000      0.0000
 34      0.1926      0.3112      0.6727      0.5082      0.0000      0.5585      0.7697      0.0000      0.5497
 35      0.0071      0.1900      1.0284      0.0000      0.0000      0.0000      0.8900      0.0000      0.0000
 36      0.0000      0.4092      0.3761      0.7990      0.0000      0.0000      0.0000      0.0000      0.8817
 37      0.0000      0.2441      0.9287      0.0000      0.0000      0.0000      0.0000      0.6064      0.0000
 38     14.8534      7.0633      6.4497      7.9667      9.9166      7.5467     12.0094      6.1757      8.0069
 39      0.0173      1.7662      3.4953      0.0000      1.2128      4.1959      1.1177      0.7560      2.2393
 40      0.0000      0.4344      0.0000      1.2604      0.0000      0.0000      0.0000      0.0000      0.0000
 41      0.0000      0.9195      1.7548      2.1314      0.2441      0.0000      0.0000      3.5630      1.6909
 42      0.0132      0.7787      0.0886      0.0000      1.2255      0.0000      0.8554      3.2577      1.6921
 43      0.0000      1.9604      2.2418      3.9669      1.3111      0.0000      0.0000      3.9089      0.0000
 44      0.0003      2.8195      1.6580      2.1276      2.0956      6.1410      6.1183      2.8730      2.5409
 45      0.0000      1.9150      3.3808      0.9078      2.6062      2.5436      0.0000      0.2544      2.1032
 46      0.0494      3.8672      4.2045      7.3235      5.0482      3.7964      2.9952      2.7306      5.7757
 47      0.0000      0.2932      0.0000      0.0000      0.0000      0.0000      0.0000      0.4709      0.0000
 48      0.0000      0.1841      0.0453      0.0000      0.0000      0.3093      0.0000      0.0000      0.0000
 49      0.0000      0.0885      0.0000      0.0000      0.0000      0.0000      0.0000      0.0000      0.0000
 50      0.0000      0.1130      0.0000      0.0000      0.4565      0.5311      0.0000      0.6271      0.0000
 51      0.0000      0.2598      0.0000      1.3871      0.5272      1.0432      0.0000      1.7190      0.0000
 52      0.0000      0.2763      0.0000      0.0000      0.0000      1.4294      0.0000      0.0000      0.0000
 53      0.0000      0.3896      0.0000      0.6254      2.2079      0.0000      0.0000      0.0000      0.0000
 54      0.0000      0.4548      0.0000      0.0000      0.0000      0.0000      0.0000      0.0000      0.0000
 55      0.0000      0.3518      0.0000      0.0000      0.0000      0.0000      0.6483      0.0000      0.0000
 56      0.0000      0.3921      0.0000      0.0000      0.2563      1.7995      0.0000      0.0000      0.0000
 57      0.0000      0.3228      1.0431      0.0000      0.2668      0.0000      0.0000      0.0000      0.0000
 58      0.0000      0.6511      0.0000      0.0000      0.0000      0.5734      0.0080      0.0000      0.0000
 59      0.0000      0.9134      1.0995      0.0000      0.0000      0.8418      0.3771      1.1677      2.9207
 60     35.6895     29.4155     28.1156     31.4795     32.6861     29.3970     35.4833     27.8866     31.2032
 61      0.0000      0.5689      1.7122      0.5885      0.0000      1.0259      0.0000      0.0000      0.3407
 62      0.0000      0.5221      0.0000      1.3419      0.8551      0.0000      0.0000      0.0047      1.3171
 63      0.0000      0.0594      0.0000      0.1444      0.0000      0.0000      0.2572      0.0000      0.0000
 64      0.0000      0.1048      0.0000      0.0000      0.0000      0.0000      0.2177      0.0000      0.0000
 65      0.0000      0.0344      0.0000      0.0000      0.0000      0.0000      0.0733      0.0000      0.0000
 66      0.0000      0.0419      0.0000      0.0000      0.0000      0.0000      0.0000      0.0000      0.0000

# j      m_j: min, <> & last-chain-values for 1 ...  7 chains
  1  6.9666E-02  1.4986E-02  5.1174E-02  0.0000E+00  1.1163E-02  0.0000E+00  1.6293E-02  6.3885E-03  0.0000E+00
  2  1.5561E-02  5.3548E-03  3.8748E-03  2.8393E-02  4.7498E-03  0.0000E+00  8.0225E-03  0.0000E+00  3.6925E-03
  3  1.6708E-02  2.0746E-02  2.0363E-02  0.0000E+00  3.0543E-02  8.1622E-03  6.4077E-02  2.3681E-02  2.3760E-02
  4  0.0000E+00  7.2963E-03  0.0000E+00  1.6963E-03  1.8593E-03  2.0767E-02  0.0000E+00  0.0000E+00  1.8964E-02
  5  0.0000E+00  9.7265E-03  1.2535E-02  1.3497E-03  4.8352E-02  5.1182E-02  9.5138E-03  0.0000E+00  0.0000E+00
  6  0.0000E+00  1.6537E-02  0.0000E+00  0.0000E+00  4.0786E-02  8.3099E-03  0.0000E+00  0.0000E+00  5.1898E-02
  7  0.0000E+00  5.8303E-02  5.9813E-02  6.6926E-02  0.0000E+00  0.0000E+00  8.1501E-02  0.0000E+00  5.3896E-02
  8  1.2864E-03  1.0706E-01  5.0668E-02  5.0409E-01  2.2021E-01  0.0000E+00  6.1979E-02  0.0000E+00  0.0000E+00
  9  0.0000E+00  5.0061E-02  6.4371E-02  2.5151E-02  0.0000E+00  0.0000E+00  0.0000E+00  0.0000E+00  0.0000E+00
 10  0.0000E+00  1.5949E-01  2.1340E-02  2.5527E-02  3.5057E-02  8.1416E-02  2.6651E-01  0.0000E+00  1.1781E-01
 11  0.0000E+00  1.9211E-01  4.7827E-01  0.0000E+00  0.0000E+00  0.0000E+00  0.0000E+00  3.3197E-01  0.0000E+00
 12  0.0000E+00  4.0342E-01  3.6462E-02  5.4620E-01  3.5034E-01  0.0000E+00  2.0600E-01  1.9977E-01  5.3129E-01
 13  3.6300E+01  1.3167E+01  1.5017E+01  1.5235E+01  1.6019E+01  1.5166E+01  1.3643E+01  1.1196E+01  1.5673E+01
 14  3.3483E+01  1.4306E+01  1.4687E+01  1.5594E+01  1.9835E+01  1.5030E+01  2.1598E+01  1.9599E+01  1.3642E+01
 15  0.0000E+00  1.5354E+00  2.1174E+00  0.0000E+00  0.0000E+00  0.0000E+00  3.7012E-01  9.2772E+00  4.6495E+00
 16  0.0000E+00  6.7110E+00  0.0000E+00  9.0036E+00  0.0000E+00  8.9520E+00  0.0000E+00  0.0000E+00  7.9433E+00
 17  0.0000E+00  3.0066E+00  1.7815E+01  0.0000E+00  5.1003E+00  0.0000E+00  0.0000E+00  1.3763E+01  6.9365E-01
 18  0.0000E+00  1.9468E-02  0.0000E+00  7.5779E-02  2.7589E-02  1.0201E-02  0.0000E+00  0.0000E+00  6.6527E-02
 19  0.0000E+00  3.1205E-03  1.2229E-02  0.0000E+00  0.0000E+00  0.0000E+00  0.0000E+00  0.0000E+00  0.0000E+00
 20  0.0000E+00  4.4424E-03  0.0000E+00  0.0000E+00  0.0000E+00  0.0000E+00  0.0000E+00  2.9842E-02  0.0000E+00
 21  0.0000E+00  1.8092E-02  0.0000E+00  9.1769E-03  0.0000E+00  1.9809E-02  0.0000E+00  0.0000E+00  3.5471E-02
 22  1.2465E-01  1.2031E-01  1.0649E-01  1.1347E-01  9.8905E-02  1.5154E-01  1.3105E-01  1.3878E-01  1.5609E-01
 23  1.6168E-02  2.4695E-02  0.0000E+00  0.0000E+00  0.0000E+00  0.0000E+00  4.8985E-02  0.0000E+00  0.0000E+00
 24  0.0000E+00  3.0521E-02  0.0000E+00  1.6990E-02  1.0442E-02  0.0000E+00  1.0628E-02  7.5921E-02  0.0000E+00
 25  1.2903E-01  1.3035E-01  2.4197E-01  0.0000E+00  3.0863E-01  7.6311E-02  1.2733E-01  0.0000E+00  1.2864E-01
 26  0.0000E+00  1.7235E-01  2.1540E-01  0.0000E+00  1.4970E-01  4.0631E-01  3.3438E-02  4.1970E-01  2.1297E-01
 27  0.0000E+00  2.1396E-01  2.8107E-01  9.3342E-02  7.6178E-01  0.0000E+00  0.0000E+00  0.0000E+00  1.8913E-01
 28  0.0000E+00  3.4427E+00  1.9299E+00  1.8009E+00  1.2003E+00  1.5669E+00  1.5761E+00  4.1067E+00  9.1459E-01
 29  0.0000E+00  9.9546E-01  2.5822E-01  0.0000E+00  0.0000E+00  0.0000E+00  2.6292E+00  0.0000E+00  0.0000E+00
 30  2.5836E-03  4.7024E-01  0.0000E+00  0.0000E+00  0.0000E+00  0.0000E+00  1.1686E+00  0.0000E+00  0.0000E+00
 31  0.0000E+00  9.4467E-01  0.0000E+00  0.0000E+00  0.0000E+00  0.0000E+00  0.0000E+00  0.0000E+00  0.0000E+00
 32  0.0000E+00  3.8860E-01  0.0000E+00  0.0000E+00  0.0000E+00  0.0000E+00  0.0000E+00  0.0000E+00  0.0000E+00
 33  0.0000E+00  7.9966E-01  0.0000E+00  0.0000E+00  0.0000E+00  0.0000E+00  0.0000E+00  0.0000E+00  0.0000E+00
 34  4.1055E+00  6.3255E+00  1.2874E+01  1.0810E+01  0.0000E+00  1.0424E+01  1.6210E+01  0.0000E+00  1.1692E+01
 35  1.9423E-04  4.9560E-03  2.5254E-02  0.0000E+00  0.0000E+00  0.0000E+00  2.4052E-02  0.0000E+00  0.0000E+00
 36  0.0000E+00  4.3187E-03  3.7363E-03  8.8232E-03  0.0000E+00  0.0000E+00  0.0000E+00  0.0000E+00  9.7347E-03
 37  0.0000E+00  2.7870E-03  9.9800E-03  0.0000E+00  0.0000E+00  0.0000E+00  0.0000E+00  5.8717E-03  0.0000E+00
 38  4.8175E-01  2.1843E-01  1.8777E-01  2.5779E-01  3.3150E-01  2.1427E-01  3.8477E-01  1.6201E-01  2.5905E-01
 39  8.0901E-04  7.8643E-02  1.4652E-01  0.0000E+00  5.8376E-02  1.7153E-01  5.1562E-02  2.8556E-02  1.0431E-01
 40  0.0000E+00  3.1263E-02  0.0000E+00  9.4919E-02  0.0000E+00  0.0000E+00  0.0000E+00  0.0000E+00  0.0000E+00
 41  0.0000E+00  1.0292E-01  1.8489E-01  2.4961E-01  2.9531E-02  0.0000E+00  0.0000E+00  3.3829E-01  1.9800E-01
 42  2.8362E-03  1.6001E-01  1.7142E-02  0.0000E+00  2.7222E-01  0.0000E+00  1.8211E-01  5.6788E-01  3.6377E-01
 43  0.0000E+00  5.8814E-01  6.3319E-01  1.2453E+00  4.2519E-01  0.0000E+00  0.0000E+00  9.9482E-01  0.0000E+00
 44  1.5577E-04  1.4565E+00  8.0630E-01  1.1500E+00  1.1702E+00  2.9126E+00  3.2744E+00  1.2590E+00  1.3732E+00
 45  0.0000E+00  1.9628E+00  3.2622E+00  9.7352E-01  2.8876E+00  2.3936E+00  0.0000E+00  2.2115E-01  2.2553E+00
 46  9.7600E-02  7.2857E+00  7.4570E+00  1.4437E+01  1.0281E+01  6.5666E+00  5.8461E+00  4.3639E+00  1.1384E+01
 47  0.0000E+00  1.1194E+00  0.0000E+00  0.0000E+00  0.0000E+00  0.0000E+00  0.0000E+00  1.5250E+00  0.0000E+00
 48  0.0000E+00  1.2396E+00  2.8723E-01  0.0000E+00  0.0000E+00  1.9118E+00  0.0000E+00  0.0000E+00  0.0000E+00
 49  0.0000E+00  1.3540E+00  0.0000E+00  0.0000E+00  0.0000E+00  0.0000E+00  0.0000E+00  0.0000E+00  0.0000E+00
 50  0.0000E+00  3.2020E+00  0.0000E+00  0.0000E+00  1.3985E+01  1.3820E+01  0.0000E+00  1.5077E+01  0.0000E+00
 51  0.0000E+00  4.0366E-03  0.0000E+00  2.2548E-02  8.8528E-03  1.4879E-02  0.0000E+00  2.2653E-02  0.0000E+00
 52  0.0000E+00  2.1999E-03  0.0000E+00  0.0000E+00  0.0000E+00  1.0448E-02  0.0000E+00  0.0000E+00  0.0000E+00
 53  0.0000E+00  4.6724E-03  0.0000E+00  7.8472E-03  2.8621E-02  0.0000E+00  0.0000E+00  0.0000E+00  0.0000E+00
 54  0.0000E+00  1.1176E-02  0.0000E+00  0.0000E+00  0.0000E+00  0.0000E+00  0.0000E+00  0.0000E+00  0.0000E+00
 55  0.0000E+00  1.3311E-02  0.0000E+00  0.0000E+00  0.0000E+00  0.0000E+00  2.5411E-02  0.0000E+00  0.0000E+00
 56  0.0000E+00  2.9358E-02  0.0000E+00  0.0000E+00  2.0748E-02  1.2372E-01  0.0000E+00  0.0000E+00  0.0000E+00
 57  0.0000E+00  3.2087E-02  9.7596E-02  0.0000E+00  2.8661E-02  0.0000E+00  0.0000E+00  0.0000E+00  0.0000E+00
 58  0.0000E+00  1.0946E-01  0.0000E+00  0.0000E+00  0.0000E+00  8.8498E-02  1.3932E-03  0.0000E+00  0.0000E+00
 59  0.0000E+00  3.3045E-01  3.7448E-01  0.0000E+00  0.0000E+00  2.7961E-01  1.4133E-01  3.5837E-01  1.1055E+00
 60  2.5152E+01  1.9767E+01  1.7786E+01  2.2134E+01  2.3743E+01  1.8137E+01  2.4703E+01  1.5897E+01  2.1937E+01
 61  0.0000E+00  8.3526E-01  2.3666E+00  9.0414E-01  0.0000E+00  1.3830E+00  0.0000E+00  0.0000E+00  5.2330E-01
 62  0.0000E+00  1.3978E+00  0.0000E+00  3.7588E+00  2.4745E+00  0.0000E+00  0.0000E+00  1.0689E-02  3.6890E+00
 63  0.0000E+00  3.1639E-01  0.0000E+00  8.0477E-01  0.0000E+00  0.0000E+00  1.4194E+00  0.0000E+00  0.0000E+00
 64  0.0000E+00  1.5444E+00  0.0000E+00  0.0000E+00  0.0000E+00  0.0000E+00  3.3220E+00  0.0000E+00  0.0000E+00
 65  0.0000E+00  1.0722E+00  0.0000E+00  0.0000E+00  0.0000E+00  0.0000E+00  2.3635E+00  0.0000E+00  0.0000E+00
 66  0.0000E+00  1.8438E+00  0.0000E+00  0.0000E+00  0.0000E+00  0.0000E+00  0.0000E+00  0.0000E+00  0.0000E+00

# AV, chi2 & Mass for <> & i_chain = 1 ...  7 solutions
AV       0.0995      0.2513      0.2351      0.2246      0.2600      0.2371      0.2508      0.2344      0.2445
chi2 4.6709E-01  4.7610E-01  4.7467E-01  4.7461E-01  4.7525E-01  4.7448E-01  4.7433E-01  4.7471E-01  4.7488E-01
Mass 2.8853E-13  3.7107E-13  3.8565E-13  3.4211E-13  3.4729E-13  3.9649E-13  3.5792E-13  4.2758E-13  3.5142E-13
-178.54                                  [v0_min (km/s) before EX0s...]
 213.10                                  [vd_min (km/s) before EX0s...]


## Synthetic spectrum (Best Model) ##l_obs f_obs f_syn wei
 3478    [Nl_obs]
 3741.00    0.75013   0.63159    0.000
 3742.00    0.71886   0.61203    0.000
 3743.00    0.66240   0.58646    0.000
 3744.00    0.61714   0.55864    0.000
 3745.00    0.61143   0.53293   16.355
 3746.00    0.64321   0.51398   15.547
 3747.00    0.66842   0.50596   -1.000
 3748.00    0.62883   0.51137   15.903
 3749.00    0.54267   0.52982   18.427
 3750.00    0.48977   0.55800   20.418
 3751.00    0.49613   0.59052   20.156
 3752.00    0.53021   0.62147   18.860
 3753.00    0.57749   0.64630   17.316
 3754.00    0.63629   0.66308   15.716
 3755.00    0.66180   0.67262   15.110
 3756.00    0.59779   0.67727   16.728
 3757.00    0.47580   0.67942   -1.000
 3758.00    0.39338   0.68044   -1.000
 3759.00    0.42112   0.68026   -1.000
 3760.00    0.56586   0.67754   17.672
 3761.00    0.74136   0.67048   13.489
 3762.00    0.82528   0.65781   12.117
 3763.00    0.77175   0.63955   12.958
 3764.00    0.62047   0.61714   16.117
 3765.00    0.47296   0.59336   21.144
 3766.00    0.41254   0.57201   24.240
 3767.00    0.39130   0.55705   -1.000
 3768.00    0.33242   0.55189   -1.000
 3769.00    0.29945   0.55828   -1.000
 3770.00    0.38228   0.57574   -1.000
 3771.00    0.51426   0.60186   19.446
 3772.00    0.58554   0.63337   17.078
 3773.00    0.61461   0.66686   16.270
 3774.00    0.66900   0.69949   14.948
 3775.00    0.74744   0.72960   13.379
 3776.00    0.81942   0.75624   12.204
 3777.00    0.88281   0.77872   11.327
 3778.00    0.94082   0.79623   10.629
 3779.00    0.97418   0.80801   10.265
 3780.00    0.96974   0.81358   10.312
 3781.00    0.94808   0.81285   10.548
 3782.00    0.93084   0.80619   10.743
 3783.00    0.91083   0.79462   10.979
 3784.00    0.87511   0.77967   11.427
 3785.00    0.82681   0.76281   12.095
 3786.00    0.78393   0.74499   12.756
 3787.00    0.77111   0.72634   12.968
 3788.00    0.77408   0.70614   12.919
 3789.00    0.72153   0.68298   13.859
 3790.00    0.59703   0.65573   16.750
 3791.00    0.49735   0.62460   20.106
 3792.00    0.49147   0.59159   20.347
 3793.00    0.54009   0.56041   18.515
 3794.00    0.58661   0.53580   17.047
 3795.00    0.61359   0.52248   16.298
 3796.00    0.62908   0.52360   15.896
 3797.00    0.65040   0.53957   15.375
 3798.00    0.66907   0.56797   14.946
 3799.00    0.64867   0.60424   15.416
 3800.00    0.60370   0.64303   16.565
 3801.00    0.61064   0.67959   16.376
 3802.00    0.67918   0.71116   14.724
 3803.00    0.72421   0.73741   13.808
 3804.00    0.70337   0.75939   14.217
 3805.00    0.65832   0.77821   15.190
 3806.00    0.63738   0.79427   15.689
 3807.00    0.66084   0.80704   15.132
 3808.00    0.71343   0.81548   14.017
 3809.00    0.75805   0.81882   13.192
 3810.00    0.79040   0.81724   12.652
 3811.00    0.83620   0.81214   11.959
 3812.00    0.88252   0.80551   11.331
 3813.00    0.88314   0.79895   11.323
 3814.00    0.84095   0.79310   11.891
 3815.00    0.80508   0.78782   12.421
 3816.00    0.79367   0.78244   12.600
 3817.00    0.78898   0.77649   12.675
 3818.00    0.78218   0.76983   12.785
 3819.00    0.78059   0.76217   12.811
 3820.00    0.79552   0.75309   12.570
 3821.00    0.82588   0.74213   12.108
 3822.00    0.83022   0.72874   12.045
 3823.00    0.75993   0.71242   13.159
 3824.00    0.64012   0.69310   15.622
 3825.00    0.54636   0.67119   18.303
 3826.00    0.52559   0.64691   19.026
 3827.00    0.57128   0.61989   17.505
 3828.00    0.61058   0.58993   16.378
 3829.00    0.57238   0.55810   17.471
 3830.00    0.50204   0.52695   19.919
 3831.00    0.49349   0.50010   20.264
 3832.00    0.55279   0.48130   18.090
 3833.00    0.62627   0.47361   15.968
 3834.00    0.67513   0.47864   -1.000
 3835.00    0.69579   0.49587   -1.000
 3836.00    0.72894   0.52319   -1.000
 3837.00    0.80052   0.55767   -1.000
 3838.00    0.85066   0.59591   -1.000
 3839.00    0.82454   0.63493   12.128
 3840.00    0.78435   0.67238   12.749
 3841.00    0.80206   0.70645   12.468
 3842.00    0.83166   0.73598   12.024
 3843.00    0.80041   0.76049   12.494
 3844.00    0.71726   0.78013   13.942
 3845.00    0.65005   0.79572   15.383
 3846.00    0.68304   0.80834   14.640
 3847.00    0.82446   0.81894    0.000
 3848.00    0.94420   0.82803    0.000
 3849.00    0.95344   0.83558    0.000
 3850.00    0.94341   0.84127    0.000
 3851.00    1.00816   0.84488    0.000
 3852.00    1.10655   0.84634    0.000
 3853.00    1.17166   0.84575    0.000
 3854.00    1.19602   0.84407    0.000
 3855.00    1.19666   0.84285    0.000
 3856.00    1.18507   0.84338    0.000
 3857.00    1.15830   0.84632    0.000
 3858.00    1.10004   0.85163    0.000
 3859.00    1.01627   0.85831    0.000
 3860.00    0.94852   0.86517    0.000
 3861.00    0.92359   0.87126    0.000
 3862.00    0.92950   0.87552    0.000
 3863.00    0.94437   0.87716    0.000
 3864.00    0.95564   0.87608    0.000
 3865.00    0.97374   0.87253    0.000
 3866.00    1.02413   0.86664    0.000
 3867.00    1.08216   0.85864    0.000
 3868.00    1.07399   0.84906    0.000
 3869.00    1.00838   0.83878    0.000
 3870.00    0.98643   0.82870    0.000
 3871.00    1.01376   0.81926    0.000
 3872.00    0.97997   0.81034    0.000
 3873.00    0.86583   0.80121    0.000
 3874.00    0.77168   0.79101    0.000
 3875.00    0.74273   0.77891    0.000
 3876.00    0.74029   0.76455    0.000
 3877.00    0.75002   0.74811    0.000
 3878.00    0.79025   0.72961    0.000
 3879.00    0.82979   0.70845    0.000
 3880.00    0.80430   0.68373    0.000
 3881.00    0.73021   0.65465   13.695
 3882.00    0.68825   0.62169   14.530
 3883.00    0.69767   0.58765   14.333
 3884.00    0.71243   0.55664   14.037
 3885.00    0.69363   0.53284   14.417
 3886.00    0.63196   0.51994   15.824
 3887.00    0.55564   0.52040   17.997
 3888.00    0.51048   0.53424   19.590
 3889.00    0.51503   0.55874   19.416
 3890.00    0.56038   0.58982   17.845
 3891.00    0.62880   0.62324   15.903
 3892.00    0.70041   0.65523   14.277
 3893.00    0.75847   0.68363   13.184
 3894.00    0.79277   0.70809   12.614
 3895.00    0.80352   0.72923   12.445
 3896.00    0.79941   0.74774   12.509
 3897.00    0.79311   0.76413   12.609
 3898.00    0.79331   0.77857   12.605
 3899.00    0.79493   0.79114   12.580
 3900.00    0.79242   0.80230   12.620
 3901.00    0.79885   0.81271   12.518
 3902.00    0.82303   0.82298   12.150
 3903.00    0.83884   0.83370   11.921
 3904.00    0.81547   0.84562   12.263
 3905.00    0.75819   0.85892   13.189
 3906.00    0.70080   0.87253   14.269
 3907.00    0.68833   0.88506   14.528
 3908.00    0.73780   0.89511   13.554
 3909.00    0.80411   0.90138   12.436
 3910.00    0.84227   0.90359   11.873
 3911.00    0.86638   0.90247   11.542
 3912.00    0.89081   0.89900   11.226
 3913.00    0.87890   0.89405   11.378
 3914.00    0.82024   0.88834   12.192
 3915.00    0.78778   0.88267   12.694
 3916.00    0.82283   0.87753   12.153
 3917.00    0.85496   0.87316   11.696
 3918.00    0.83328   0.86981   12.001
 3919.00    0.81525   0.86717   12.266
 3920.00    0.85549   0.86422   11.689
 3921.00    0.92962   0.85953   10.757
 3922.00    0.98037   0.85144   10.200
 3923.00    0.95838   0.83837   10.434
 3924.00    0.86529   0.81926   11.557
 3925.00    0.76528   0.79402   13.067
 3926.00    0.70572   0.76343   14.170
 3927.00    0.67669   0.72946   14.778
 3928.00    0.64348   0.69529   15.540
 3929.00    0.57602   0.66491   17.360
 3930.00    0.50068   0.64284   19.973
 3931.00    0.49850   0.63300   20.060
 3932.00    0.58116   0.63755   17.207
 3933.00    0.66358   0.65600   15.070
 3934.00    0.69728   0.68537   14.341
 3935.00    0.71274   0.72071   14.030
 3936.00    0.75085   0.75602   13.318
 3937.00    0.83246   0.78633   12.013
 3938.00    0.95361   0.80948   10.486
 3939.00    1.08455   0.82577    9.220
 3940.00    1.17192   0.83680    8.533
 3941.00    1.16315   0.84432    8.597
 3942.00    1.07951   0.84991    9.263
 3943.00    0.99919   0.85467   10.008
 3944.00    0.93643   0.85886   10.679
 3945.00    0.84691   0.86231   11.808
 3946.00    0.74575   0.86470   13.409
 3947.00    0.69925   0.86545   14.301
 3948.00    0.71560   0.86429   13.974
 3949.00    0.75126   0.86172   13.311
 3950.00    0.79656   0.85797   12.554
 3951.00    0.86572   0.85258   11.551
 3952.00    0.92728   0.84499   10.784
 3953.00    0.93214   0.83499   10.728
 3954.00    0.90467   0.82255   11.054
 3955.00    0.91304   0.80710   10.952
 3956.00    0.97327   0.78789   10.275
 3957.00    1.05141   0.76470    9.511
 3958.00    1.10376   0.73743   -1.000
 3959.00    1.09395   0.70551   -1.000
 3960.00    1.00944   0.66857    0.000
 3961.00    0.86992   0.62716    0.000
 3962.00    0.73437   0.58296    0.000
 3963.00    0.66559   0.53849    0.000
 3964.00    0.67579   0.49674    0.000
 3965.00    0.72051   0.46148    0.000
 3966.00    0.70742   0.43710    0.000
 3967.00    0.58920   0.42732    0.000
 3968.00    0.47229   0.43387    0.000
 3969.00    0.46938   0.45618    0.000
 3970.00    0.51433   0.49140    0.000
 3971.00    0.50442   0.53509    0.000
 3972.00    0.47818   0.58231    0.000
 3973.00    0.51065   0.62884    0.000
 3974.00    0.58673   0.67187    0.000
 3975.00    0.65680   0.71000    0.000
 3976.00    0.70449   0.74257    0.000
 3977.00    0.74487   0.76962    0.000
 3978.00    0.81208   0.79180    0.000
 3979.00    0.91302   0.81005    0.000
 3980.00    0.99609   0.82546    0.000
 3981.00    1.02141   0.83912    9.790
 3982.00    1.01396   0.85190    9.862
 3983.00    1.01572   0.86443    9.845
 3984.00    1.04457   0.87685    9.573
 3985.00    1.08208   0.88871    9.241
 3986.00    1.07772   0.89944    9.279
 3987.00    1.02148   0.90872    9.790
 3988.00    0.97625   0.91641   10.243
 3989.00    0.97862   0.92216   10.219
 3990.00    0.98977   0.92566   10.103
 3991.00    0.97609   0.92731   10.245
 3992.00    0.95062   0.92784   10.519
 3993.00    0.93540   0.92789   10.691
 3994.00    0.93926   0.92832   10.647
 3995.00    0.95552   0.93006   10.465
 3996.00    0.96506   0.93348   10.362
 3997.00    0.95333   0.93782   10.490
 3998.00    0.92123   0.94175   10.855
 3999.00    0.89588   0.94429   11.162
 4000.00    0.91580   0.94486   10.919
 4001.00    0.95553   0.94341   10.465
 4002.00    0.93321   0.94112   10.716
 4003.00    0.85206   0.93974   11.736
 4004.00    0.81044   0.94035   12.339
 4005.00    0.84940   0.94327   11.773
 4006.00    0.92658   0.94854   10.792
 4007.00    1.01012   0.95546    9.900
 4008.00    1.09543   0.96247    9.129
 4009.00    1.16022   0.96827    8.619
 4010.00    1.16925   0.97277    8.552
 4011.00    1.12653   0.97653    8.877
 4012.00    1.06988   0.97987    9.347
 4013.00    1.01783   0.98289    9.825
 4014.00    0.97095   0.98569   10.299
 4015.00    0.94915   0.98800   10.536
 4016.00    0.97230   0.98928   10.285
 4017.00    0.99737   0.98888   10.026
 4018.00    0.96348   0.98661   10.379
 4019.00    0.91447   0.98291   10.935
 4020.00    0.94088   0.97827   10.628
 4021.00    1.01666   0.97327    9.836
 4022.00    1.05290   0.96874    9.498
 4023.00    1.05443   0.96500    9.484
 4024.00    1.07981   0.96173    9.261
 4025.00    1.12417   0.95845    8.895
 4026.00    1.14911   0.95482    8.702
 4027.00    1.16142   0.95076    8.610
 4028.00    1.18036   0.94666    8.472
 4029.00    1.17323   0.94384    8.523
 4030.00    1.11340   0.94401    8.981
 4031.00    1.06862   0.94834    9.358
 4032.00    1.10471   0.95671    9.052
 4033.00    1.15237   0.96738    8.678
 4034.00    1.12337   0.97808    8.902
 4035.00    1.06454   0.98700    9.394
 4036.00    1.04210   0.99256    9.596
 4037.00    1.00000   0.99344   10.000
 4038.00    0.89282   0.98911   11.200
 4039.00    0.82834   0.98058   12.072
 4040.00    0.89310   0.97013   11.197
 4041.00    0.98098   0.96007   10.194
 4042.00    0.96856   0.95234   10.325
 4043.00    0.88352   0.94819   11.318
 4044.00    0.80780   0.94795   12.379
 4045.00    0.78018   0.95136   12.818
 4046.00    0.79561   0.95759   12.569
 4047.00    0.81699   0.96468   12.240
 4048.00    0.82433   0.96995   12.131
 4049.00    0.84484   0.97167   11.837
 4050.00    0.90162   0.97012   11.091
 4051.00    0.97950   0.96655   10.209
 4052.00    1.05210   0.96219    9.505
 4053.00    1.10021   0.95825    9.089
 4054.00    1.10443   0.95541    9.054
 4055.00    1.04679   0.95332    9.553
 4056.00    0.95042   0.95098   10.522
 4057.00    0.88760   0.94767   11.266
 4058.00    0.89992   0.94355   11.112
 4059.00    0.96210   0.93913   10.394
 4060.00    1.02177   0.93470    9.787
 4061.00    1.03155   0.93077    9.694
 4062.00    0.99801   0.92829   10.020
 4063.00    0.98219   0.92780   10.181
 4064.00    1.00509   0.92897    9.949
 4065.00    1.02572   0.93070    9.749
 4066.00    1.02246   0.93151    9.780
 4067.00    1.01555   0.93056    9.847
 4068.00    1.02346   0.92800    9.771
 4069.00    1.04752   0.92381    9.546
 4070.00    1.07904   0.91755    9.268
 4071.00    1.10599   0.90972    9.042
 4072.00    1.12525   0.90221    8.887
 4073.00    1.13598   0.89663    8.803
 4074.00    1.10842   0.89322    9.022
 4075.00    1.00822   0.89180    9.918
 4076.00    0.88930   0.89259   11.245
 4077.00    0.86111   0.89564   11.613
 4078.00    0.93480   0.90010   10.697
 4079.00    1.03347   0.90445    9.676
 4080.00    1.11824   0.90708    8.943
 4081.00    1.19348   0.90727    8.379
 4082.00    1.24597   0.90539    8.026
 4083.00    1.24965   0.90233    8.002
 4084.00    1.20567   0.89878    8.294
 4085.00    1.13870   0.89469    8.782
 4086.00    1.07198   0.88930    9.329
 4087.00    1.02143   0.88163    9.790
 4088.00    0.99410   0.87056   10.059
 4089.00    0.98578   0.85511   10.144
 4090.00    0.97774   0.83517   10.228
 4091.00    0.94678   0.81115   10.562
 4092.00    0.88252   0.78333    0.000
 4093.00    0.79669   0.75188    0.000
 4094.00    0.73078   0.71713    0.000
 4095.00    0.71987   0.68033    0.000
 4096.00    0.74322   0.64477    0.000
 4097.00    0.76639   0.61480    0.000
 4098.00    0.80272   0.59376    0.000
 4099.00    0.87226   0.58388    0.000
 4100.00    0.94425   0.58625    0.000
 4101.00    0.96867   0.60049    0.000
 4102.00    0.92260   0.62484    0.000
 4103.00    0.83909   0.65585    0.000
 4104.00    0.82127   0.68881    0.000
 4105.00    0.91515   0.71999    0.000
 4106.00    0.99917   0.74785    0.000
 4107.00    0.97556   0.77233    0.000
 4108.00    0.94022   0.79392    0.000
 4109.00    0.99900   0.81327    0.000
 4110.00    1.10595   0.83083    0.000
 4111.00    1.17032   0.84642    0.000
 4112.00    1.15462   0.85931    0.000
 4113.00    1.07074   0.86921    9.339
 4114.00    0.96737   0.87644   10.337
 4115.00    0.89853   0.88139   11.129
 4116.00    0.89705   0.88479   11.148
 4117.00    0.94531   0.88772   10.579
 4118.00    0.97105   0.89111   10.298
 4119.00    0.93716   0.89554   10.671
 4120.00    0.88517   0.90074   11.297
 4121.00    0.85839   0.90556   11.650
 4122.00    0.85837   0.90885   11.650
 4123.00    0.86200   0.91035   11.601
 4124.00    0.84251   0.91003   11.869
 4125.00    0.82095   0.90765   12.181
 4126.00    0.86642   0.90350   11.542
 4127.00    0.97737   0.89915   10.232
 4128.00    1.05835   0.89645    9.449
 4129.00    1.06466   0.89677    9.393
 4130.00    1.04366   0.90035    9.582
 4131.00    1.03826   0.90644    9.632
 4132.00    1.04798   0.91467    9.542
 4133.00    1.03853   0.92449    9.629
 4134.00    0.97281   0.93424   10.279
 4135.00    0.90182   0.94158   11.089
 4136.00    0.93530   0.94426   10.692
 4137.00    1.04390   0.94147    9.579
 4138.00    1.07709   0.93512    9.284
 4139.00    1.01627   0.92803    9.840
 4140.00    0.97903   0.92163   10.214
 4141.00    1.00728   0.91699    9.928
 4142.00    1.04810   0.91500    9.541
 4143.00    1.06797   0.91595    9.364
 4144.00    1.07196   0.91988    9.328
 4145.00    1.07281   0.92572    9.321
 4146.00    1.07843   0.93080    9.274
 4147.00    1.08230   0.93318    9.240
 4148.00    1.06870   0.93299    9.354
 4149.00    1.02882   0.93138    9.717
 4150.00    0.96814   0.92950   10.339
 4151.00    0.91302   0.92828   10.961
 4152.00    0.89076   0.92824   11.193
 4153.00    0.89174   0.92953   11.192
 4154.00    0.89493   0.93223   11.270
 4155.00    0.92233   0.93627   10.893
 4156.00    0.99916   0.94137    9.795
 4157.00    1.07756   0.94684    9.192
 4158.00    1.09616   0.95181    9.681
 4159.00    1.08451   0.95567    9.452
 4160.00    1.09685   0.95787    7.307
 4161.00    1.10162   0.95817    5.747
 4162.00    1.05721   0.95709    5.402
 4163.00    1.02539   0.95503    5.598
 4164.00    1.07589   0.95163    5.612
 4165.00    1.15730   0.94628    5.415
 4166.00    1.18137   0.93884    5.294
 4167.00    1.13575   0.93003    5.242
 4168.00    1.05702   0.92139    5.178
 4169.00    0.98667   0.91405    5.182
 4170.00    0.95311   0.90805    5.322
 4171.00    0.95850   0.90329    5.484
 4172.00    0.98549   0.90041    5.503
 4173.00    1.00684   0.90054    5.381
 4174.00    1.00556   0.90376    5.231
 4175.00    0.99004   0.90839    5.172
 4176.00    0.97692   0.91265    5.223
 4177.00    0.97536   0.91618    5.256
 4178.00    0.98128   0.91955    5.198
 4179.00    0.97528   0.92305    5.165
 4180.00    0.93241   0.92593    5.243
 4181.00    0.83578   0.92692    5.346
 4182.00    0.71909   0.92644    5.390
 4183.00    0.67544   0.92637    5.415
 4184.00    0.73568   0.92738    5.454
 4185.00    0.81571   0.92893    5.459
 4186.00    0.85982   0.93091    5.425
 4187.00    0.90433   0.93385    5.430
 4188.00    0.95463   0.93780    5.485
 4189.00    0.94491   0.94134    5.483
 4190.00    0.88469   0.94251    5.411
 4191.00    0.89109   0.94055    5.400
 4192.00    0.98401   0.93581    5.487
 4193.00    1.03621   0.92903    5.560
 4194.00    0.98747   0.92118    5.569
 4195.00    0.90957   0.91321    5.599
 4196.00    0.87503   0.90643    5.662
 4197.00    0.90494   0.90226    5.656
 4198.00    0.98544   0.90125    5.552
 4199.00    1.07912   0.90324    5.436
 4200.00    1.14007   0.90796    5.390
 4201.00    1.13242   0.91444    5.452
 4202.00    1.07142   0.92163    5.571
 4203.00    1.01096   0.92903    5.644
 4204.00    0.96516   0.93584    5.695
 4205.00    0.91098   0.94138    5.850
 4206.00    0.86511   0.94581    6.043
 4207.00    0.87579   0.94890    6.033
 4208.00    0.94199   0.94982    5.860
 4209.00    1.01315   0.94815    5.773
 4210.00    1.04352   0.94466    5.781
 4211.00    1.01824   0.94143    5.736
 4212.00    0.97868   0.93969    5.675
 4213.00    0.98015   0.93894    5.745
 4214.00    0.99206   0.93869    5.893
 4215.00    0.95199   0.93899    5.934
 4216.00    0.91336   0.93950    5.868
 4217.00    0.97013   0.93886    5.833
 4218.00    1.06497   0.93490    5.855
 4219.00    1.06784   0.92618    5.883
 4220.00    0.97338   0.91314    5.912
 4221.00    0.86939   0.89800    5.962
 4222.00    0.82705   0.88438    6.012
 4223.00    0.86049   0.87579    6.038
 4224.00    0.89853   0.87322    6.089
 4225.00    0.87750   0.87585    6.205
 4226.00    0.87054   0.88239    6.281
 4227.00    0.95929   0.89109    6.200
 4228.00    1.05060   0.90028    6.078
 4229.00    1.02477   0.90799    6.077
 4230.00    0.93858   0.91200    6.210
 4231.00    0.89915   0.91241    6.397
 4232.00    0.89641   0.91136    6.546
 4233.00    0.88318   0.91054    6.605
 4234.00    0.87740   0.91127    6.623
 4235.00    0.91178   0.91411    6.677
 4236.00    0.97418   0.91835    6.786
 4237.00    1.02720   0.92332    6.905
 4238.00    1.03529   0.92873    6.930
 4239.00    0.99558   0.93392    6.831
 4240.00    0.95631   0.93754    6.744
 4241.00    0.95715   0.93847    6.767
 4242.00    0.98374   0.93656    6.833
 4243.00    1.01000   0.93265    6.847
 4244.00    1.03201   0.92733    6.786
 4245.00    1.05619   0.92067    6.668
 4246.00    1.08774   0.91416    6.501
 4247.00    1.12164   0.90958    6.288
 4248.00    1.14028   0.90683    6.038
 4249.00    1.13434   0.90525    5.811
 4250.00    1.11344   0.90520    5.702
 4251.00    1.09093   0.90730    5.722
 4252.00    1.07423   0.91048    5.760
 4253.00    1.06372   0.91224    5.741
 4254.00    1.05145   0.91192    5.707
 4255.00    1.01666   0.91106    5.740
 4256.00    0.93545   0.91140    5.909
 4257.00    0.83551   0.91348    6.168
 4258.00    0.79654   0.91658    6.319
 4259.00    0.83879   0.92055    6.268
 4260.00    0.89938   0.92562    6.139
 4261.00    0.94074   0.93084    6.017
 4262.00    0.97762   0.93434    5.882
 4263.00    1.00529   0.93462    5.748
 4264.00    0.99020   0.93062    5.673
 4265.00    0.93727   0.92198    5.655
 4266.00    0.89441   0.90964    5.646
 4267.00    0.88638   0.89659    5.685
 4268.00    0.90307   0.88583    5.855
 4269.00    0.93299   0.87797    5.988
 4270.00    0.96664   0.87351    5.820
 4271.00    0.97582   0.87380    5.838
 4272.00    0.92797   0.87906    7.074
 4273.00    0.83892   0.88762   10.593
 4274.00    0.76123   0.89634   14.625
 4275.00    0.71989   0.90330   14.472
 4276.00    0.70768   0.90863   13.569
 4277.00    0.71328   0.91183   13.797
 4278.00    0.73746   0.91228   13.877
 4279.00    0.81165   0.91017   12.460
 4280.00    0.95632   0.90593   10.203
 4281.00    1.09316   0.90072    9.011
 4282.00    1.11304   0.89525    9.501
 4283.00    1.03367   0.88879   10.101
 4284.00    0.95224   0.88083    8.283
 4285.00    0.91080   0.87275   -2.000
 4286.00    0.89546   0.86718   -2.000
 4287.00    0.87600   0.86495   -2.000
 4288.00    0.84362   0.86418   -2.000
 4289.00    0.85393   0.86323   -2.000
 4290.00    0.95414   0.86284   -2.000
 4291.00    1.07586   0.86306   -2.000
 4292.00    1.11930   0.86159   -2.000
 4293.00    1.08172   0.85605   -2.000
 4294.00    1.00692   0.84583   -2.000
 4295.00    0.90500   0.83379   -2.000
 4296.00    0.79568   0.82280   -2.000
 4297.00    0.76119   0.81281   -2.000
 4298.00    0.83910   0.80422   -2.000
 4299.00    0.91398   0.79835   -2.000
 4300.00    0.88129   0.79543    7.418
 4301.00    0.81098   0.79469    5.841
 4302.00    0.79875   0.79434    5.716
 4303.00    0.81949   0.79367    6.118
 4304.00    0.81922   0.79415    6.212
 4305.00    0.80436   0.79663    6.051
 4306.00    0.80751   0.80077    6.000
 4307.00    0.84972   0.80630    6.038
 4308.00    0.91329   0.81338    6.046
 4309.00    0.93552   0.82258    6.033
 4310.00    0.90391   0.83443    6.039
 4311.00    0.90462   0.84832    6.055
 4312.00    0.97616   0.86196    6.077
 4313.00    1.03090   0.87337    6.137
 4314.00    1.00353   0.88198    6.265
 4315.00    0.93433   0.88751    6.461
 4316.00    0.88340   0.88924    6.669
 4317.00    0.87652   0.88629    6.775
 4318.00    0.90346   0.87793    6.725
 4319.00    0.92608   0.86488    6.591
 4320.00    0.91703   0.84922    6.471
 4321.00    0.87825   0.83425    6.427
 4322.00    0.83351   0.82329    6.442
 4323.00    0.81646   0.81664    6.436
 4324.00    0.83652   0.81252    6.379
 4325.00    0.87240   0.80993    6.322
 4326.00    0.90804   0.80891    6.302
 4327.00    0.93863   0.80850    6.310
 4328.00    0.93564   0.80546    6.328
 4329.00    0.85942   0.79692    6.339
 4330.00    0.75058   0.78220    0.000
 4331.00    0.71636   0.76147    0.000
 4332.00    0.77712   0.73479    0.000
 4333.00    0.85375   0.70343    0.000
 4334.00    0.89022   0.66990    0.000
 4335.00    0.88600   0.63732    0.000
 4336.00    0.87399   0.61043    0.000
 4337.00    0.88926   0.59390    0.000
 4338.00    0.90600   0.58937    0.000
 4339.00    0.86446   0.59628    0.000
 4340.00    0.77912   0.61340    0.000
 4341.00    0.72511   0.63875    0.000
 4342.00    0.74262   0.66863    0.000
 4343.00    0.81514   0.69860    0.000
 4344.00    0.87467   0.72568    0.000
 4345.00    0.85593   0.74808    0.000
 4346.00    0.79939   0.76438    0.000
 4347.00    0.79313   0.77590    0.000
 4348.00    0.82701   0.78621    0.000
 4349.00    0.83784   0.79688    0.000
 4350.00    0.83510   0.80716    0.000
 4351.00    0.85573   0.81749    6.018
 4352.00    0.85733   0.82941    6.071
 4353.00    0.78890   0.84270    8.044
 4354.00    0.72036   0.85542   13.139
 4355.00    0.74967   0.86686   15.206
 4356.00    0.84652   0.87777   11.954
 4357.00    0.91883   0.88784   10.513
 4358.00    0.93082   0.89620   10.712
 4359.00    0.89857   0.90336   11.285
 4360.00    0.86304   0.91010   11.597
 4361.00    0.85980   0.91534   11.538
 4362.00    0.88847   0.91739   11.252
 4363.00    0.92331   0.91666   10.943
 4364.00    0.93123   0.91482   10.737
 4365.00    0.90192   0.91230   10.811
 4366.00    0.87219   0.90885   11.493
 4367.00    0.87817   0.90508   12.299
 4368.00    0.90988   0.90169   10.839
 4369.00    0.93414   0.89841    8.007
 4370.00    0.92260   0.89529    6.478
 4371.00    0.88540   0.89390    6.234
 4372.00    0.88568   0.89507    6.488
 4373.00    0.94349   0.89712    6.591
 4374.00    0.97742   0.89801    6.504
 4375.00    0.93746   0.89758    6.452
 4376.00    0.88730   0.89619    6.538
 4377.00    0.88022   0.89200    6.614
 4378.00    0.88427   0.88262    6.329
 4379.00    0.87092   0.86965    5.978
 4380.00    0.86314   0.85815    6.520
 4381.00    0.86827   0.85123    8.874
 4382.00    0.85030   0.84803   12.599
 4383.00    0.80573   0.84763   13.520
 4384.00    0.78893   0.85137   12.343
 4385.00    0.82070   0.85940   11.827
 4386.00    0.85642   0.86906   11.820
 4387.00    0.86392   0.87813   11.776
 4388.00    0.85292   0.88591   11.580
 4389.00    0.83385   0.89179   11.685
 4390.00    0.80699   0.89558   12.777
 4391.00    0.79684   0.89892   13.497
 4392.00    0.84471   0.90334   10.723
 4393.00    0.92630   0.90730    7.701
 4394.00    0.95657   0.90859    6.596
 4395.00    0.92167   0.90750    6.676
 4396.00    0.89006   0.90615    6.876
 4397.00    0.88840   0.90546    6.739
 4398.00    0.88426   0.90355    6.642
 4399.00    0.86516   0.89858    6.709
 4400.00    0.84776   0.89243    6.708
 4401.00    0.83134   0.88918    6.624
 4402.00    0.80424   0.88954    6.658
 4403.00    0.79766   0.89070    6.789
 4404.00    0.86050   0.89215    6.795
 4405.00    0.96179   0.89631    6.661
 4406.00    1.01533   0.90320    6.566
 4407.00    0.99492   0.90975    6.588
 4408.00    0.93907   0.91395    6.680
 4409.00    0.89991   0.91547    6.731
 4410.00    0.91103   0.91422    6.658
 4411.00    0.94794   0.91132    6.578
 4412.00    0.95974   0.90872    6.659
 4413.00    0.94312   0.90729    6.821
 4414.00    0.92406   0.90740    6.852
 4415.00    0.90180   0.90975    6.770
 4416.00    0.86846   0.91389    6.729
 4417.00    0.85562   0.91801    6.736
 4418.00    0.89416   0.92123    6.718
 4419.00    0.94411   0.92406    6.683
 4420.00    0.94876   0.92592    6.666
 4421.00    0.92511   0.92562    6.630
 4422.00    0.91926   0.92386    6.544
 4423.00    0.93140   0.92261    6.505
 4424.00    0.94183   0.92228    6.590
 4425.00    0.95438   0.92115    6.694
 4426.00    0.97490   0.91866    6.696
 4427.00    0.98270   0.91651    6.698
 4428.00    0.96496   0.91506    6.806
 4429.00    0.95385   0.91276    6.871
 4430.00    0.97927   0.90955    6.759
 4431.00    1.01894   0.90778    6.642
 4432.00    1.02432   0.90903    6.663
 4433.00    0.95646   0.91210    6.676
 4434.00    0.84710   0.91532    6.553
 4435.00    0.82996   0.91825    6.452
 4436.00    0.95663   0.92052    6.496
 4437.00    1.06944   0.92117    6.552
 4438.00    1.04471   0.91970    6.510
 4439.00    0.96649   0.91742    6.483
 4440.00    0.93735   0.91641    6.549
 4441.00    0.94340   0.91716    6.585
 4442.00    0.94325   0.91866    6.516
 4443.00    0.93116   0.92081    6.467
 4444.00    0.91205   0.92428    6.518
 4445.00    0.88535   0.92751    6.587
 4446.00    0.85761   0.92802    6.595
 4447.00    0.84773   0.92603    6.563
 4448.00    0.87100   0.92264    6.538
 4449.00    0.92736   0.91714    6.541
 4450.00    0.98897   0.90904    6.547
 4451.00    1.00652   0.90077    6.499
 4452.00    0.96903   0.89461    6.445
 4453.00    0.91988   0.88970    6.528
 4454.00    0.89875   0.88510    6.712
 4455.00    0.91459   0.88200    6.730
 4456.00    0.94589   0.88154    6.566
 4457.00    0.95436   0.88261    6.522
 4458.00    0.93397   0.88466    6.691
 4459.00    0.91603   0.88810    6.878
 4460.00    0.91792   0.89166    6.935
 4461.00    0.92747   0.89412    0.000
 4462.00    0.91549   0.89598    0.000
 4463.00    0.85774   0.89769    0.000
 4464.00    0.78735   0.89840    0.000
 4465.00    0.77589   0.89825    0.000
 4466.00    0.83214   0.89904    0.000
 4467.00    0.89969   0.90176    0.000
 4468.00    0.93254   0.90664    0.000
 4469.00    0.92217   0.91348    0.000
 4470.00    0.90982   0.92099    0.000
 4471.00    0.94651   0.92751    0.000
 4472.00    0.99556   0.93260    0.000
 4473.00    0.97987   0.93606    0.000
 4474.00    0.93241   0.93639    0.000
 4475.00    0.94107   0.93247    0.000
 4476.00    0.97158   0.92563    0.000
 4477.00    0.92870   0.91906    0.000
 4478.00    0.83899   0.91540    0.000
 4479.00    0.80429   0.91495    0.000
 4480.00    0.85717   0.91634    0.000
 4481.00    0.95757   0.91926    0.000
 4482.00    1.03304   0.92392    6.918
 4483.00    1.02745   0.92868    6.931
 4484.00    0.96330   0.93095    6.978
 4485.00    0.90326   0.93046    7.024
 4486.00    0.88089   0.92903    7.060
 4487.00    0.89592   0.92784    7.095
 4488.00    0.92305   0.92673    7.111
 4489.00    0.93716   0.92543    7.084
 4490.00    0.94163   0.92447    7.007
 4491.00    0.94080   0.92508    6.917
 4492.00    0.90753   0.92711    6.913
 4493.00    0.83393   0.92973    7.047
 4494.00    0.78366   0.93295    7.217
 4495.00    0.80745   0.93694    7.276
 4496.00    0.85842   0.94108    7.202
 4497.00    0.87851   0.94521    7.072
 4498.00    0.88361   0.95064    6.986
 4499.00    0.90686   0.95711    7.007
 4500.00    0.94353   0.96237    7.118
 4501.00    0.97647   0.96591    7.225
 4502.00    0.99972   0.96873    7.166
 4503.00    1.00568   0.97069    6.959
 4504.00    0.97819   0.97097    6.883
 4505.00    0.92786   0.96993    7.031
 4506.00    0.90731   0.96820    7.093
 4507.00    0.93360   0.96543    6.920
 4508.00    0.94980   0.96169    6.857
 4509.00    0.92659   0.95777    7.078
 4510.00    0.91269   0.95381    7.294
 4511.00    0.93382   0.94985    7.271
 4512.00    0.94737   0.94653    7.205
 4513.00    0.93804   0.94364    7.242
 4514.00    0.95170   0.94076    7.273
 4515.00    0.98665   0.93863    7.209
 4516.00    0.96732   0.93732    7.120
 4517.00    0.89550   0.93542    7.082
 4518.00    0.88009   0.93137    7.112
 4519.00    0.93714   0.92615    7.163
 4520.00    0.94932   0.92108    7.158
 4521.00    0.87988   0.91496    7.138
 4522.00    0.82212   0.90734    7.253
 4523.00    0.83399   0.89959    7.470
 4524.00    0.88752   0.89289    7.538
 4525.00    0.92929   0.88734    7.420
 4526.00    0.91720   0.88324    7.348
 4527.00    0.86384   0.88105    7.379
 4528.00    0.82884   0.88086    7.368
 4529.00    0.84945   0.88160    7.279
 4530.00    0.91613   0.88325    7.220
 4531.00    0.96914   0.88718    7.252
 4532.00    0.94250   0.89394    7.351
 4533.00    0.88158   0.90217    7.419
 4534.00    0.89615   0.90969    7.355
 4535.00    0.96357   0.91606    7.236
 4536.00    0.96882   0.92148    7.221
 4537.00    0.91635   0.92572    7.283
 4538.00    0.90418   0.92861    7.275
 4539.00    0.95551   0.92942    7.203
 4540.00    1.01501   0.92731    7.186
 4541.00    1.02094   0.92353    7.252
 4542.00    0.94740   0.92037    7.347
 4543.00    0.85266   0.91733    7.397
 4544.00    0.82502   0.91218    7.379
 4545.00    0.87170   0.90530    7.398
 4546.00    0.93695   0.90046    7.548
 4547.00    0.96685   0.89866    7.668
 4548.00    0.94108   0.89693    7.536
 4549.00    0.90210   0.89485    7.311
 4550.00    0.90235   0.89457    0.000
 4551.00    0.92470   0.89695    0.000
 4552.00    0.93029   0.90145    0.000
 4553.00    0.93538   0.90732    0.000
 4554.00    0.96138   0.91333    0.000
 4555.00    0.96402   0.91899    0.000
 4556.00    0.90588   0.92464    0.000
 4557.00    0.84523   0.92974    0.000
 4558.00    0.84742   0.93274    0.000
 4559.00    0.88188   0.93291    0.000
 4560.00    0.89348   0.93184    0.000
 4561.00    0.88389   0.93150    0.000
 4562.00    0.87365   0.93200    0.000
 4563.00    0.85950   0.93256    0.000
 4564.00    0.83107   0.93314    0.000
 4565.00    0.79076   0.93448    0.000
 4566.00    0.76641   0.93571    0.000
 4567.00    0.81069   0.93514    0.000
 4568.00    0.91956   0.93423    0.000
 4569.00    0.98704   0.93499    0.000
 4570.00    0.95318   0.93553    0.000
 4571.00    0.89571   0.93416    0.000
 4572.00    0.88682   0.93253    0.000
 4573.00    0.90283   0.93176    0.000
 4574.00    0.90998   0.92998    0.000
 4575.00    0.91614   0.92560    0.000
 4576.00    0.92612   0.92001    0.000
 4577.00    0.91974   0.91527    0.000
 4578.00    0.88903   0.91148    0.000
 4579.00    0.85673   0.90798    0.000
 4580.00    0.85896   0.90571    0.000
 4581.00    0.92368   0.90582    0.000
 4582.00    1.01499   0.90757    0.000
 4583.00    1.03754   0.90996    0.000
 4584.00    0.97583   0.91269    0.000
 4585.00    0.92236   0.91552    0.000
 4586.00    0.92772   0.91753    0.000
 4587.00    0.95672   0.91809    0.000
 4588.00    0.97181   0.91776    0.000
 4589.00    0.96469   0.91749    0.000
 4590.00    0.94624   0.91726    0.000
 4591.00    0.93362   0.91660    0.000
 4592.00    0.92178   0.91607    0.000
 4593.00    0.88821   0.91639    0.000
 4594.00    0.83810   0.91735    0.000
 4595.00    0.80456   0.91814    0.000
 4596.00    0.80695   0.91824    0.000
 4597.00    0.84122   0.91832    0.000
 4598.00    0.88886   0.91920    0.000
 4599.00    0.92763   0.92057    0.000
 4600.00    0.95162   0.92209    0.000
 4601.00    0.96942   0.92412    0.000
 4602.00    0.98744   0.92711    0.000
 4603.00    1.00459   0.93081    0.000
 4604.00    1.00994   0.93489    0.000
 4605.00    0.99061   0.93862    0.000
 4606.00    0.94876   0.94128    0.000
 4607.00    0.90436   0.94284    0.000
 4608.00    0.89220   0.94348    0.000
 4609.00    0.93025   0.94320    0.000
 4610.00    0.96755   0.94215    0.000
 4611.00    0.94350   0.94052    0.000
 4612.00    0.89830   0.93851    0.000
 4613.00    0.90341   0.93710    0.000
 4614.00    0.92869   0.93617    0.000
 4615.00    0.90836   0.93510    0.000
 4616.00    0.86411   0.93472    0.000
 4617.00    0.85661   0.93573    0.000
 4618.00    0.89641   0.93688    0.000
 4619.00    0.95344   0.93761    0.000
 4620.00    0.98631   0.93840    0.000
 4621.00    0.96940   0.93862    0.000
 4622.00    0.91864   0.93798    0.000
 4623.00    0.86335   0.93738    0.000
 4624.00    0.81323   0.93632    0.000
 4625.00    0.77569   0.93389    0.000
 4626.00    0.77402   0.93173    0.000
 4627.00    0.81006   0.93115    0.000
 4628.00    0.83404   0.93021    0.000
 4629.00    0.82142   0.92752    0.000
 4630.00    0.83259   0.92482    0.000
 4631.00    0.89864   0.92319    0.000
 4632.00    0.93780   0.92135    0.000
 4633.00    0.90290   0.91869    0.000
 4634.00    0.88195   0.91633    0.000
 4635.00    0.93103   0.91500    0.000
 4636.00    0.96709   0.91422    0.000
 4637.00    0.92720   0.91377    0.000
 4638.00    0.86706   0.91318    0.000
 4639.00    0.84773   0.91183    0.000
 4640.00    0.86365   0.90982    0.000
 4641.00    0.87701   0.90738    0.000
 4642.00    0.84907   0.90405    0.000
 4643.00    0.78465   0.90040    0.000
 4644.00    0.74247   0.89803    0.000
 4645.00    0.76185   0.89746    0.000
 4646.00    0.82976   0.89796    0.000
 4647.00    0.91216   0.89926    0.000
 4648.00    0.97341   0.90161    0.000
 4649.00    0.99017   0.90468    0.000
 4650.00    0.96032   0.90737    0.000
 4651.00    0.91379   0.90962    0.000
 4652.00    0.90003   0.91223    0.000
 4653.00    0.92257   0.91541    0.000
 4654.00    0.93486   0.91891    0.000
 4655.00    0.91946   0.92228    0.000
 4656.00    0.89997   0.92478    0.000
 4657.00    0.88079   0.92550    0.000
 4658.00    0.84395   0.92384    0.000
 4659.00    0.80569   0.91951    0.000
 4660.00    0.80936   0.91319    0.000
 4661.00    0.85186   0.90591    0.000
 4662.00    0.88565   0.89780    0.000
 4663.00    0.88541   0.88972    0.000
 4664.00    0.86000   0.88420    0.000
 4665.00    0.83420   0.88242    0.000
 4666.00    0.83352   0.88315    0.000
 4667.00    0.86070   0.88573    0.000
 4668.00    0.89874   0.89036    0.000
 4669.00    0.93038   0.89605    0.000
 4670.00    0.94549   0.90130    0.000
 4671.00    0.94652   0.90551    0.000
 4672.00    0.94153   0.90868    0.000
 4673.00    0.92877   0.91025    0.000
 4674.00    0.90381   0.90991    0.000
 4675.00    0.87704   0.90863    0.000
 4676.00    0.86769   0.90745    0.000
 4677.00    0.88799   0.90610    0.000
 4678.00    0.93340   0.90465    0.000
 4679.00    0.97307   0.90422    0.000
 4680.00    0.97500   0.90485    0.000
 4681.00    0.94401   0.90558    0.000
 4682.00    0.90633   0.90634    0.000
 4683.00    0.88077   0.90729    0.000
 4684.00    0.87087   0.90807    0.000
 4685.00    0.86163   0.90866    0.000
 4686.00    0.84197   0.90915    0.000
 4687.00    0.82994   0.90944    0.000
 4688.00    0.84437   0.91007    0.000
 4689.00    0.87202   0.91122    0.000
 4690.00    0.88949   0.91190    0.000
 4691.00    0.88972   0.91172    0.000
 4692.00    0.88175   0.91121    0.000
 4693.00    0.88525   0.90986    0.000
 4694.00    0.90357   0.90645    0.000
 4695.00    0.90524   0.90162    0.000
 4696.00    0.87522   0.89718    0.000
 4697.00    0.85211   0.89322    0.000
 4698.00    0.86199   0.88878    0.000
 4699.00    0.87187   0.88459    0.000
 4700.00    0.85601   0.88250    0.000
 4701.00    0.84021   0.88224    0.000
 4702.00    0.84664   0.88205    0.000
 4703.00    0.85912   0.88189    0.000
 4704.00    0.86260   0.88289    0.000
 4705.00    0.86594   0.88466    0.000
 4706.00    0.87626   0.88632    0.000
 4707.00    0.88485   0.88830    0.000
 4708.00    0.88162   0.89087    0.000
 4709.00    0.86378   0.89342    0.000
 4710.00    0.83630   0.89584    0.000
 4711.00    0.81119   0.89893    0.000
 4712.00    0.80405   0.90300    0.000
 4713.00    0.82553   0.90734    0.000
 4714.00    0.85111   0.91125    0.000
 4715.00    0.83216   0.91510    0.000
 4716.00    0.79839   0.91910    0.000
 4717.00    0.85266   0.92226    0.000
 4718.00    0.97986   0.92360    0.000
 4719.00    1.03492   0.92334    0.000
 4720.00    0.97861   0.92204    0.000
 4721.00    0.90985   0.91965    0.000
 4722.00    0.87272   0.91573    0.000
 4723.00    0.82753   0.91028    0.000
 4724.00    0.77564   0.90442    0.000
 4725.00    0.76858   0.89956    0.000
 4726.00    0.81392   0.89569    0.000
 4727.00    0.86811   0.89247    0.000
 4728.00    0.89603   0.89086    0.000
 4729.00    0.88786   0.89115    0.000
 4730.00    0.85767   0.89249    0.000
 4731.00    0.83476   0.89452    0.000
 4732.00    0.84410   0.89658    0.000
 4733.00    0.88932   0.89805    0.000
 4734.00    0.92733   0.89989    0.000
 4735.00    0.90430   0.90239    0.000
 4736.00    0.83961   0.90396    0.000
 4737.00    0.79600   0.90470    0.000
 4738.00    0.78820   0.90623    0.000
 4739.00    0.78954   0.90844    0.000
 4740.00    0.77710   0.90992    0.000
 4741.00    0.75503   0.91061    0.000
 4742.00    0.77620   0.91175    0.000
 4743.00    0.87714   0.91327    0.000
 4744.00    0.97594   0.91371    0.000
 4745.00    0.96861   0.91300    0.000
 4746.00    0.88901   0.91227    0.000
 4747.00    0.83551   0.91112    0.000
 4748.00    0.83948   0.90869    0.000
 4749.00    0.87716   0.90563    0.000
 4750.00    0.90936   0.90288    0.000
 4751.00    0.90693   0.90028    0.000
 4752.00    0.87397   0.89771    0.000
 4753.00    0.83044   0.89561    0.000
 4754.00    0.79044   0.89376    0.000
 4755.00    0.77040   0.89174    0.000
 4756.00    0.79659   0.88953    0.000
 4757.00    0.86846   0.88684    0.000
 4758.00    0.92857   0.88307    0.000
 4759.00    0.92966   0.87900    0.000
 4760.00    0.89338   0.87581    0.000
 4761.00    0.86135   0.87326    9.216
 4762.00    0.85009   0.87147    9.034
 4763.00    0.86009   0.87144    9.007
 4764.00    0.88491   0.87294    8.945
 4765.00    0.90436   0.87524    8.792
 4766.00    0.88564   0.87840    8.852
 4767.00    0.83073   0.88187    9.272
 4768.00    0.79748   0.88470    9.721
 4769.00    0.81942   0.88743    9.829
 4770.00    0.86242   0.89071    9.679
 4771.00    0.88759   0.89325    9.495
 4772.00    0.88808   0.89431    9.378
 4773.00    0.87027   0.89516    9.362
 4774.00    0.84321   0.89611    9.454
 4775.00    0.82531   0.89544    9.615
 4776.00    0.84058   0.89309    9.753
 4777.00    0.88192   0.89113    9.756
 4778.00    0.90565   0.88931    9.563
 4779.00    0.88881   0.88608    9.294
 4780.00    0.85055   0.88293    9.183
 4781.00    0.82750   0.88141    9.271
 4782.00    0.85005   0.87988    9.396
 4783.00    0.89445   0.87816    9.547
 4784.00    0.89425   0.87826    9.915
 4785.00    0.85066   0.87971   10.393
 4786.00    0.83753   0.88133   10.485
 4787.00    0.87701   0.88422   10.205
 4788.00    0.92200   0.88822   10.105
 4789.00    0.94050   0.89192   10.251
 4790.00    0.93309   0.89545   10.229
 4791.00    0.90140   0.89855    9.973
 4792.00    0.84909   0.90008    9.790
 4793.00    0.81087   0.90020    9.755
 4794.00    0.83251   0.89965    9.722
 4795.00    0.89993   0.89833    9.686
 4796.00    0.95132   0.89633    9.757
 4797.00    0.95084   0.89443    9.920
 4798.00    0.90444   0.89294   10.028
 4799.00    0.85257   0.89180    9.962
 4800.00    0.83984   0.89044    9.732
 4801.00    0.85697   0.88872    9.547
 4802.00    0.86201   0.88735    9.610
 4803.00    0.84459   0.88645    9.804
 4804.00    0.82209   0.88531    9.849
 4805.00    0.80905   0.88439    9.742
 4806.00    0.81098   0.88462    9.671
 4807.00    0.82363   0.88542    9.692
 4808.00    0.83882   0.88629    9.734
 4809.00    0.85361   0.88763    9.690
 4810.00    0.86672   0.88947    9.526
 4811.00    0.87172   0.89127    9.403
 4812.00    0.86755   0.89277    9.466
 4813.00    0.87239   0.89386    9.595
 4814.00    0.89687   0.89440    9.610
 4815.00    0.91007   0.89389    9.594
 4816.00    0.88289   0.89168    9.691
 4817.00    0.84182   0.88840    9.811
 4818.00    0.82522   0.88508    9.795
 4819.00    0.82899   0.88105    9.659
 4820.00    0.82895   0.87610    9.506
 4821.00    0.81129   0.87221    9.394
 4822.00    0.78174   0.87003    9.351
 4823.00    0.76846   0.86811    9.404
 4824.00    0.79001   0.86607    9.529
 4825.00    0.82827   0.86467    9.620
 4826.00    0.85321   0.86408    9.610
 4827.00    0.84770   0.86350    9.574
 4828.00    0.81999   0.86205    9.584
 4829.00    0.80640   0.86050    9.595
 4830.00    0.82606   0.85997    9.574
 4831.00    0.85272   0.85918    9.577
 4832.00    0.85895   0.85695    9.649
 4833.00    0.84602   0.85451    9.762
 4834.00    0.82582   0.85259    9.872
 4835.00    0.80707   0.84975    9.957
 4836.00    0.79154   0.84564    9.989
 4837.00    0.77481   0.84210    9.929
 4838.00    0.76187   0.83947    9.807
 4839.00    0.77012   0.83632    9.735
 4840.00    0.79844   0.83252    9.782
 4841.00    0.81905   0.82908    9.924
 4842.00    0.81932   0.82575   10.090
 4843.00    0.81441   0.82141   10.187
 4844.00    0.80839   0.81555   10.224
 4845.00    0.78729   0.80858   10.310
 4846.00    0.76797   0.80119   10.416
 4847.00    0.79525   0.79225   10.359
 4848.00    0.84793   0.78039    0.000
 4849.00    0.84054   0.76699    0.000
 4850.00    0.76957   0.75258    0.000
 4851.00    0.72594   0.73485    0.000
 4852.00    0.74804   0.71405    0.000
 4853.00    0.80070   0.69241    0.000
 4854.00    0.87547   0.67002    0.000
 4855.00    0.99799   0.64811    0.000
 4856.00    1.15084   0.62945    0.000
 4857.00    1.27165   0.61472    0.000
 4858.00    1.31372   0.60584    0.000
 4859.00    1.26543   0.60634    0.000
 4860.00    1.15380   0.61447    0.000
 4861.00    1.02606   0.62696    0.000
 4862.00    0.90463   0.64456    0.000
 4863.00    0.79457   0.66519    0.000
 4864.00    0.72455   0.68384    0.000
 4865.00    0.72493   0.70034    0.000
 4866.00    0.76403   0.71610    0.000
 4867.00    0.77913   0.72898    0.000
 4868.00    0.76222   0.73870    0.000
 4869.00    0.74545   0.74882    0.000
 4870.00    0.74394   0.75966    0.000
 4871.00    0.75362   0.76902    0.000
 4872.00    0.76622   0.77833    0.000
 4873.00    0.77607   0.78877    0.000
 4874.00    0.78626   0.79780    0.000
 4875.00    0.80105   0.80483   10.393
 4876.00    0.81369   0.81168   10.391
 4877.00    0.81469   0.81687   10.417
 4878.00    0.80581   0.81893   10.453
 4879.00    0.79974   0.82021   10.477
 4880.00    0.81547   0.82116   10.532
 4881.00    0.85298   0.82025   10.643
 4882.00    0.86730   0.81869   10.720
 4883.00    0.82203   0.81778   10.692
 4884.00    0.74926   0.81705   10.678
 4885.00    0.70386   0.81730   10.776
 4886.00    0.70841   0.81949   10.846
 4887.00    0.75456   0.82273   10.759
 4888.00    0.81221   0.82750   10.659
 4889.00    0.85544   0.83535   10.673
 4890.00    0.88381   0.84432   10.681
 4891.00    0.90516   0.85253   10.585
 4892.00    0.91946   0.86044   10.531
 4893.00    0.92187   0.86689   10.624
 4894.00    0.90672   0.87106   10.730
 4895.00    0.87100   0.87324   10.700
 4896.00    0.81803   0.87294   10.557
 4897.00    0.76557   0.87142   10.428
 4898.00    0.74625   0.87077   10.444
 4899.00    0.77364   0.86987   10.611
 4900.00    0.82401   0.86807   10.751
 4901.00    0.86363   0.86744   10.743
 4902.00    0.86921   0.86786   10.673
 4903.00    0.84339   0.86710   10.631
 4904.00    0.81627   0.86544   10.608
 4905.00    0.80905   0.86446   10.612
 4906.00    0.81741   0.86328   10.700
 4907.00    0.82771   0.86126   10.816
 4908.00    0.82809   0.86015   10.765
 4909.00    0.81945   0.85985   10.525
 4910.00    0.81391   0.85842   10.313
 4911.00    0.80734   0.85578   10.281
 4912.00    0.77807   0.85233   10.429
 4913.00    0.72899   0.84688   10.615
 4914.00    0.69359   0.83927   10.625
 4915.00    0.69425   0.83127   10.504
 4916.00    0.72726   0.82411   10.537
 4917.00    0.76755   0.81814   10.733
 4918.00    0.78474   0.81522   10.793
 4919.00    0.78715   0.81695   10.614
 4920.00    0.81000   0.82133   10.390
 4921.00    0.83834   0.82739   10.313
 4922.00    0.81924   0.83653   10.463
 4923.00    0.76083   0.84672   10.737
 4924.00    0.72557   0.85482   10.896
 4925.00    0.73959   0.86159   10.888
 4926.00    0.78444   0.86680   10.843
 4927.00    0.83660   0.86831   10.793
 4928.00    0.87580   0.86753   10.687
 4929.00    0.88172   0.86546   10.595
 4930.00    0.84841   0.86078   10.621
 4931.00    0.81472   0.85563   10.666
 4932.00    0.82840   0.85224   10.562
 4933.00    0.86563   0.84939   10.452
 4934.00    0.86867   0.84731   10.567
 4935.00    0.84220   0.84720   10.743
 4936.00    0.82622   0.84910   10.679
 4937.00    0.82052   0.85319   10.569
 4938.00    0.80499   0.85818   10.763
 4939.00    0.79146   0.86263   11.098
 4940.00    0.80647   0.86798    0.000
 4941.00    0.85335   0.87361    0.000
 4942.00    0.91172   0.87704    0.000
 4943.00    0.94622   0.87938    0.000
 4944.00    0.93221   0.88214    0.000
 4945.00    0.88593   0.88360    0.000
 4946.00    0.84300   0.88297    0.000
 4947.00    0.82706   0.88140    0.000
 4948.00    0.84018   0.87907    0.000
 4949.00    0.85853   0.87489    0.000
 4950.00    0.86105   0.86859    0.000
 4951.00    0.85809   0.86174    0.000
 4952.00    0.86531   0.85611    0.000
 4953.00    0.87690   0.85096    0.000
 4954.00    0.88354   0.84562    0.000
 4955.00    0.88975   0.84378    0.000
 4956.00    0.89881   0.84608    0.000
 4957.00    0.90033   0.84821    0.000
 4958.00    0.88721   0.84994    0.000
 4959.00    0.86878   0.85287    0.000
 4960.00    0.86024   0.85541    0.000
 4961.00    0.87149   0.85579    0.000
 4962.00    0.89014   0.85484    0.000
 4963.00    0.87819   0.85431    0.000
 4964.00    0.82625   0.85406    0.000
 4965.00    0.77970   0.85379    0.000
 4966.00    0.77545   0.85451    0.000
 4967.00    0.80596   0.85619    0.000
 4968.00    0.84440   0.85828    0.000
 4969.00    0.86520   0.86034    0.000
 4970.00    0.86883   0.86169    0.000
 4971.00    0.88397   0.86197    0.000
 4972.00    0.91430   0.86043    0.000
 4973.00    0.92371   0.85710    0.000
 4974.00    0.89205   0.85229    0.000
 4975.00    0.83585   0.84536    0.000
 4976.00    0.78171   0.83740    0.000
 4977.00    0.75141   0.83029    0.000
 4978.00    0.75152   0.82358    0.000
 4979.00    0.77027   0.81750    0.000
 4980.00    0.78161   0.81452    0.000
 4981.00    0.76138   0.81477    0.000
 4982.00    0.73568   0.81640    0.000
 4983.00    0.76471   0.81966    0.000
 4984.00    0.83720   0.82447    0.000
 4985.00    0.87527   0.82900    0.000
 4986.00    0.85309   0.83280    0.000
 4987.00    0.81002   0.83572    0.000
 4988.00    0.78332   0.83771    0.000
 4989.00    0.78792   0.83968    0.000
 4990.00    0.81600   0.84035    0.000
 4991.00    0.84476   0.83977    0.000
 4992.00    0.85508   0.83948    0.000
 4993.00    0.84033   0.83783    0.000
 4994.00    0.81478   0.83459    0.000
 4995.00    0.80010   0.83101    0.000
 4996.00    0.79364   0.82636    0.000
 4997.00    0.78281   0.82127    0.000
 4998.00    0.78558   0.81676    0.000
 4999.00    0.83149   0.81232    0.000
 5000.00    0.91287   0.80883    0.000
 5001.00    0.99980   0.80696    0.000
 5002.00    1.08056   0.80545    0.000
 5003.00    1.14616   0.80409    0.000
 5004.00    1.15667   0.80428    0.000
 5005.00    1.08138   0.80493    0.000
 5006.00    0.96367   0.80402    0.000
 5007.00    0.87187   0.80235    0.000
 5008.00    0.81895   0.80033    0.000
 5009.00    0.78721   0.79723    0.000
 5010.00    0.77390   0.79389    0.000
 5011.00    0.77670   0.79068    0.000
 5012.00    0.77155   0.78831    0.000
 5013.00    0.74499   0.78798    0.000
 5014.00    0.72958   0.78843    0.000
 5015.00    0.74899   0.78923    0.000
 5016.00    0.76192   0.79206    0.000
 5017.00    0.73518   0.79645    0.000
 5018.00    0.71418   0.80025    0.000
 5019.00    0.74294   0.80368    0.000
 5020.00    0.79016   0.80821    0.000
 5021.00    0.81317   0.81235    0.000
 5022.00    0.81559   0.81552    0.000
 5023.00    0.81567   0.81905    0.000
 5024.00    0.81752   0.82184    0.000
 5025.00    0.81711   0.82426    0.000
 5026.00    0.80969   0.82736    0.000
 5027.00    0.79858   0.82944    0.000
 5028.00    0.79819   0.83004    0.000
 5029.00    0.81470   0.82966   11.891
 5030.00    0.83499   0.82809   11.925
 5031.00    0.83988   0.82482   11.793
 5032.00    0.81490   0.81908   11.614
 5033.00    0.76221   0.81262   11.537
 5034.00    0.70456   0.80703   11.626
 5035.00    0.67027   0.80119   11.799
 5036.00    0.67993   0.79682   11.819
 5037.00    0.72266   0.79500   11.579
 5038.00    0.75591   0.79461   11.239
 5039.00    0.75898   0.79763   11.046
 5040.00    0.74910   0.80317   11.201
 5041.00    0.74094   0.80765   11.609
 5042.00    0.73271   0.81196   11.825
 5043.00    0.72410   0.81634   11.732
 5044.00    0.72248   0.81842   11.710
 5045.00    0.73746   0.81837   11.874
 5046.00    0.77405   0.81817   11.954
 5047.00    0.81688   0.81848   11.865
 5048.00    0.83629   0.81881   11.808
 5049.00    0.82534   0.81981   11.863
 5050.00    0.80227   0.82247   11.931
 5051.00    0.78073   0.82609   11.935
 5052.00    0.76616   0.82967   11.886
 5053.00    0.77187   0.83299   11.833
 5054.00    0.80931   0.83627   11.830
 5055.00    0.85137   0.83877   11.865
 5056.00    0.85218   0.83953   11.887
 5057.00    0.81791   0.83913   11.903
 5058.00    0.79409   0.83725   11.965
 5059.00    0.79704   0.83398   12.087
 5060.00    0.81136   0.83045   12.241
 5061.00    0.81932   0.82578   12.408
 5062.00    0.81084   0.82071   12.568
 5063.00    0.78987   0.81773   12.670
 5064.00    0.76907   0.81555   12.678
 5065.00    0.75777   0.81270   12.653
 5066.00    0.76048   0.81108   12.674
 5067.00    0.77822   0.81134   12.673
 5068.00    0.80554   0.81076   12.553
 5069.00    0.82582   0.80881   12.415
 5070.00    0.82300   0.80791   12.416
 5071.00    0.79962   0.80714   12.546
 5072.00    0.76986   0.80424   12.699
 5073.00    0.74581   0.80050   12.818
 5074.00    0.73264   0.79780   12.879
 5075.00    0.72559   0.79513   12.845
 5076.00    0.72049   0.79144   12.714
 5077.00    0.72607   0.78915   12.567
 5078.00    0.75111   0.78962   12.503
 5079.00    0.78859   0.79101   12.567
 5080.00    0.82096   0.79292   12.728
 5081.00    0.82902   0.79657   12.856
 5082.00    0.80590   0.80146   12.894
 5083.00    0.76859   0.80603   13.006
 5084.00    0.74114   0.80998   13.295
 5085.00    0.73720   0.81390   13.527
 5086.00    0.75315   0.81747   13.533
 5087.00    0.76706   0.81971   13.590
 5088.00    0.77065   0.82073   13.872
 5089.00    0.78919   0.82084   14.026
 5090.00    0.83118   0.81967   13.816
 5091.00    0.85695   0.81714   13.611
 5092.00    0.83987   0.81338   13.664
 5093.00    0.80503   0.80900   13.725
 5094.00    0.78327   0.80519   13.548
 5095.00    0.78053   0.80181   13.223
 5096.00    0.78922   0.79888   12.951
 5097.00    0.79821   0.79763   12.863
 5098.00    0.80266   0.79749   12.895
 5099.00    0.80670   0.79753   12.797
 5100.00    0.80791   0.79775   12.614
 5101.00    0.79368   0.79761   12.769
 5102.00    0.76604   0.79752   13.344
 5103.00    0.74734   0.79740   13.808
 5104.00    0.74763   0.79647   13.806
 5105.00    0.75517   0.79673   13.623
 5106.00    0.76382   0.79827   13.465
 5107.00    0.77988   0.79940   13.227
 5108.00    0.80020   0.80203   12.912
 5109.00    0.81022   0.80585   12.688
 5110.00    0.81073   0.80881   12.570
 5111.00    0.81867   0.81204   12.422
 5112.00    0.83403   0.81496   12.256
 5113.00    0.83726   0.81611   12.244
 5114.00    0.82019   0.81608   12.459
 5115.00    0.79340   0.81473   12.805
 5116.00    0.77672   0.81163   12.985
 5117.00    0.78536   0.80697   12.695
 5118.00    0.80084   0.80152   12.214
 5119.00    0.78664   0.79621   12.070
 5120.00    0.75027   0.79062   12.214
 5121.00    0.73180   0.78555   12.220
 5122.00    0.73524   0.78235   12.121
 5123.00    0.73684   0.78014   12.286
 5124.00    0.74240   0.77885   12.661
 5125.00    0.77421   0.77949   12.860
 5126.00    0.81539   0.78102   12.885
 5127.00    0.82799   0.78253   13.036
 5128.00    0.81218   0.78493   13.261
 5129.00    0.79387   0.78768   13.263
 5130.00    0.77987   0.78879   13.023
 5131.00    0.76429   0.78942   12.762
 5132.00    0.75350   0.79023   12.663
 5133.00    0.75646   0.78858   12.777
 5134.00    0.76284   0.78664   12.920
 5135.00    0.75915   0.78576   12.888
 5136.00    0.75711   0.78256   12.811
 5137.00    0.77414   0.78015   12.914
 5138.00    0.80090   0.78009   13.110
 5139.00    0.81628   0.77809   13.187
 5140.00    0.81296   0.77647   13.153
 5141.00    0.79812   0.77703   13.107
 5142.00    0.78871   0.77640   13.018
 5143.00    0.79154   0.77558   12.909
 5144.00    0.78384   0.77563   13.037
 5145.00    0.74701   0.77514   13.518
 5146.00    0.70260   0.77496   13.889
 5147.00    0.68110   0.77510   13.736
 5148.00    0.68783   0.77524   13.541
 5149.00    0.71159   0.77660   13.758
 5150.00    0.73668   0.77875   14.046
 5151.00    0.75232   0.78136   13.987
 5152.00    0.75935   0.78494   13.824
 5153.00    0.76564   0.78840   13.834
 5154.00    0.78042   0.79150   13.847
 5155.00    0.80350   0.79364   13.698
 5156.00    0.81981   0.79303   13.543
 5157.00    0.81822   0.79032   13.477
 5158.00    0.80363   0.78523   13.331
 5159.00    0.78403   0.77613   13.079
 5160.00    0.76192   0.76467   13.006
 5161.00    0.73758   0.75185   13.202
 5162.00    0.71218   0.73741   13.348
 5163.00    0.69208   0.72336   13.261
 5164.00    0.68793   0.71160   13.173
 5165.00    0.69711   0.70200   13.263
 5166.00    0.69908   0.69502   13.448
 5167.00    0.68086   0.69277   13.597
 5168.00    0.64867   0.69499   13.646
 5169.00    0.62082   0.69927   13.593
 5170.00    0.61901   0.70621   13.475
 5171.00    0.64728   0.71614   13.333
 5172.00    0.68792   0.72569   13.196
 5173.00    0.72231   0.73312   13.056
 5174.00    0.74091   0.73881   12.899
 5175.00    0.74697   0.74198   12.789
 5176.00    0.75146   0.74149   12.843
 5177.00    0.75101   0.73760   13.028
 5178.00    0.73031   0.73322   13.149
 5179.00    0.69549   0.72989   13.122
 5180.00    0.67342   0.72678   13.031
 5181.00    0.67579   0.72635   12.991
 5182.00    0.69516   0.72957   13.083
 5183.00    0.72613   0.73409   13.342
 5184.00    0.76632   0.74024   13.701
 5185.00    0.80276   0.74642   13.881
 5186.00    0.81883   0.75097   13.595
 5187.00    0.81982   0.75581   13.153
 5188.00    0.82222   0.75916   13.101
 5189.00    0.81539   0.76008   13.442
 5190.00    0.77540   0.76254    0.000
 5191.00    0.71339   0.76564    0.000
 5192.00    0.66704   0.76719    0.000
 5193.00    0.66233   0.76999    0.000
 5194.00    0.70219   0.77362    0.000
 5195.00    0.76101   0.77517    0.000
 5196.00    0.80452   0.77554    0.000
 5197.00    0.82523   0.77526    0.000
 5198.00    0.83353   0.77253    0.000
 5199.00    0.83338   0.76740    0.000
 5200.00    0.82211   0.76216    0.000
 5201.00    0.79656   0.75690    0.000
 5202.00    0.76016   0.75091    0.000
 5203.00    0.73045   0.74720    0.000
 5204.00    0.72163   0.74674    0.000
 5205.00    0.72168   0.74740    0.000
 5206.00    0.71445   0.75063    0.000
 5207.00    0.70904   0.75682    0.000
 5208.00    0.72037   0.76337    0.000
 5209.00    0.74343   0.77002    0.000
 5210.00    0.76272   0.77692    0.000
 5211.00    0.76631   0.78292   13.782
 5212.00    0.75596   0.78782   13.932
 5213.00    0.75303   0.79186   14.219
 5214.00    0.77051   0.79500   14.441
 5215.00    0.78952   0.79717   14.604
 5216.00    0.79252   0.79807   14.714
 5217.00    0.79108   0.79721   14.568
 5218.00    0.79558   0.79464   14.163
 5219.00    0.79216   0.79083   13.907
 5220.00    0.77426   0.78539   13.990
 5221.00    0.76332   0.77902   14.076
 5222.00    0.77270   0.77430   13.918
 5223.00    0.78529   0.77059   13.759
 5224.00    0.78611   0.76751   13.783
 5225.00    0.78189   0.76808   13.818
 5226.00    0.77981   0.77033   13.711
 5227.00    0.77551   0.77218   13.547
 5228.00    0.76626   0.77620   13.451
 5229.00    0.75755   0.78063   13.468
 5230.00    0.75466   0.78396   13.569
 5231.00    0.75830   0.78833   13.657
 5232.00    0.76749   0.79295   13.654
 5233.00    0.78065   0.79711   13.558
 5234.00    0.79347   0.80151   13.477
 5235.00    0.79982   0.80568   13.568
 5236.00    0.80014   0.80912   13.778
 5237.00    0.80146   0.81140   13.813
 5238.00    0.80256   0.81266   13.579
 5239.00    0.79278   0.81307   13.310
 5240.00    0.77096   0.81172   13.282
 5241.00    0.74978   0.80912   13.654
 5242.00    0.74505   0.80656   14.171
 5243.00    0.76571   0.80320   14.197
 5244.00    0.79548   0.79895   13.750
 5245.00    0.80119   0.79599   13.492
 5246.00    0.77645   0.79398   13.622
 5247.00    0.74537   0.79196   13.860
 5248.00    0.73360   0.79155   13.969
 5249.00    0.75341   0.79249   13.908
 5250.00    0.78787   0.79378   13.761
 5251.00    0.80417   0.79569   13.639
 5252.00    0.79622   0.79733   13.534
 5253.00    0.78157   0.79822   13.380
 5254.00    0.76965   0.79787   13.280
 5255.00    0.75964   0.79520   13.406
 5256.00    0.75244   0.79026   13.721
 5257.00    0.74985   0.78313   14.006
 5258.00    0.74786   0.77412   14.065
 5259.00    0.74072   0.76400   13.874
 5260.00    0.73075   0.75319   13.711
 5261.00    0.72464   0.74344   13.835
 5262.00    0.72391   0.73573   14.016
 5263.00    0.72619   0.72888   13.874
 5264.00    0.73009   0.72467   13.627
 5265.00    0.73459   0.72456   13.640
 5266.00    0.73718   0.72548   13.693
 5267.00    0.73797   0.72809   13.447
 5268.00    0.74534   0.73484   13.230
 5269.00    0.76487   0.74209   13.430
 5270.00    0.78445   0.74893   13.729
 5271.00    0.78746   0.75805   13.630
 5272.00    0.77146   0.76651   13.349
 5273.00    0.74743   0.77290   13.272
 5274.00    0.73492   0.77943   13.289
 5275.00    0.74369   0.78443   13.199
 5276.00    0.75659   0.78746   13.168
 5277.00    0.75434   0.79014   13.391
 5278.00    0.74095   0.79207   13.740
 5279.00    0.72946   0.79408   14.016
 5280.00    0.72628   0.79688   14.247
 5281.00    0.73363   0.80002   14.431
 5282.00    0.75256   0.80422   14.292
 5283.00    0.77972   0.80898   13.854
 5284.00    0.80515   0.81317   13.725
 5285.00    0.81716   0.81683   14.191
 5286.00    0.80760   0.81938   14.703
 5287.00    0.78219   0.82018   14.686
 5288.00    0.76344   0.81924   14.367
 5289.00    0.76143   0.81661   14.115
 5290.00    0.75958   0.81263   13.968
 5291.00    0.75162   0.80765   13.880
 5292.00    0.75848   0.80221   13.855
 5293.00    0.78662   0.79732   13.853
 5294.00    0.81007   0.79345   13.771
 5295.00    0.81148   0.79078   13.636
 5296.00    0.80016   0.79023   13.639
 5297.00    0.78568   0.79166   13.785
 5298.00    0.76783   0.79418   13.817
 5299.00    0.75614   0.79802   13.681
 5300.00    0.77084   0.80268   13.641
 5301.00    0.80568   0.80707   13.761
 5302.00    0.82399   0.81111   13.804
 5303.00    0.81074   0.81471   13.742
 5304.00    0.78630   0.81730   13.830
 5305.00    0.77434   0.81891   14.022
 5306.00    0.78625   0.81984   13.934
 5307.00    0.81256   0.81968   13.632
 5308.00    0.82945   0.81859   13.611
 5309.00    0.82966   0.81720   13.943
 5310.00    0.82439   0.81497   14.238
 5311.00    0.81691   0.81227   14.318
 5312.00    0.80125   0.81002   14.350
 5313.00    0.78225   0.80740   14.356
 5314.00    0.77256   0.80461   14.220
 5315.00    0.76911   0.80226   14.106
 5316.00    0.75863   0.79922   14.298
 5317.00    0.74694   0.79545   14.593
 5318.00    0.75129   0.79106   14.490
 5319.00    0.76578   0.78552   14.180
 5320.00    0.76860   0.77947   14.247
 5321.00    0.75512   0.77305   14.664
 5322.00    0.73739   0.76657   14.992
 5323.00    0.72820   0.76181   15.231
 5324.00    0.73340   0.75886   15.607
 5325.00    0.74428   0.75742   15.610
 5326.00    0.74784   0.75907   14.663
 5327.00    0.74669   0.76311   13.543
 5328.00    0.75145   0.76782   13.081
 5329.00    0.76284   0.77347   13.072
 5330.00    0.77431   0.77916   12.989
 5331.00    0.78068   0.78341   12.819
 5332.00    0.78042   0.78629   12.794
 5333.00    0.77671   0.78792   12.874
 5334.00    0.77344   0.78795   12.917
 5335.00    0.77000   0.78725   12.983
 5336.00    0.76484   0.78663   13.134
 5337.00    0.76057   0.78555   13.157
 5338.00    0.76055   0.78511   12.968
 5339.00    0.76432   0.78580   13.070
 5340.00    0.76835   0.78615   13.882
 5341.00    0.76786   0.78717   14.963
 5342.00    0.76098   0.78895   15.424
 5343.00    0.75252   0.79023   15.167
 5344.00    0.75036   0.79222   14.727
 5345.00    0.76097   0.79489   14.530
 5346.00    0.78122   0.79763   14.701
 5347.00    0.79424   0.80126   15.026
 5348.00    0.79236   0.80553   15.213
 5349.00    0.79289   0.80987   15.162
 5350.00    0.80688   0.81413   14.956
 5351.00    0.81777   0.81813   14.766
 5352.00    0.80969   0.82138   14.700
 5353.00    0.78757   0.82320   14.726
 5354.00    0.76512   0.82381   14.764
 5355.00    0.75440   0.82316   14.746
 5356.00    0.75713   0.82074   14.660
 5357.00    0.76201   0.81719   14.557
 5358.00    0.75921   0.81286   14.463
 5359.00    0.74898   0.80746   14.353
 5360.00    0.73990   0.80190   14.277
 5361.00    0.74439   0.79643   14.370
 5362.00    0.76166   0.79067   14.606
 5363.00    0.77417   0.78562   14.722
 5364.00    0.77220   0.78142   14.638
 5365.00    0.76248   0.77783   14.577
 5366.00    0.75317   0.77587   14.620
 5367.00    0.74742   0.77572   14.605
 5368.00    0.74592   0.77695   14.515
 5369.00    0.74785   0.77996   14.553
 5370.00    0.74987   0.78450   14.758
 5371.00    0.74819   0.78917   -2.000
 5372.00    0.74731   0.79390   -2.000
 5373.00    0.75773   0.79838   -2.000
 5374.00    0.77854   0.80131   -2.000
 5375.00    0.79708   0.80308   -2.000
 5376.00    0.80653   0.80415   -2.000
 5377.00    0.80932   0.80401   -2.000
 5378.00    0.81103   0.80328   -2.000
 5379.00    0.81716   0.80275   -2.000
 5380.00    0.82996   0.80184   -2.000
 5381.00    0.84559   0.80074   -2.000
 5382.00    0.84985   0.79994   -2.000
 5383.00    0.82912   0.79856   -2.000
 5384.00    0.79728   0.79656   -2.000
 5385.00    0.78223   0.79432   -2.000
 5386.00    0.78353   0.79131   15.498
 5387.00    0.78069   0.78779   15.923
 5388.00    0.76868   0.78408   16.052
 5389.00    0.75604   0.78015   15.776
 5390.00    0.74728   0.77660   15.501
 5391.00    0.74152   0.77330   15.671
 5392.00    0.73625   0.77052   16.032
 5393.00    0.72949   0.76873   16.042
 5394.00    0.72213   0.76709   15.901
 5395.00    0.71809   0.76593   16.059
 5396.00    0.72349   0.76527   16.211
 5397.00    0.73938   0.76379   15.864
 5398.00    0.75252   0.76199   15.394
 5399.00    0.75213   0.76028   15.322
 5400.00    0.75239   0.75777   15.458
 5401.00    0.76990   0.75522   15.410
 5402.00    0.79324   0.75375   15.298
 5403.00    0.80245   0.75296   15.351
 5404.00    0.79580   0.75318   15.373
 5405.00    0.78451   0.75508   15.160
 5406.00    0.78271   0.75813   14.980
 5407.00    0.79642   0.76199   15.043
 5408.00    0.81467   0.76693   15.037
 5409.00    0.82276   0.77201   14.729
 5410.00    0.81608   0.77684   14.507
 5411.00    0.80142   0.78178   14.682
 5412.00    0.79487   0.78576   14.997
 5413.00    0.80249   0.78882   15.127
 5414.00    0.80779   0.79133   15.155
 5415.00    0.80015   0.79243   15.205
 5416.00    0.79408   0.79272   15.139
 5417.00    0.79963   0.79259   14.919
 5418.00    0.80356   0.79124   14.810
 5419.00    0.79481   0.78979   14.966
 5420.00    0.78068   0.78832   15.218
 5421.00    0.77220   0.78572   15.380
 5422.00    0.77422   0.78354   15.457
 5423.00    0.78559   0.78133   15.553
 5424.00    0.79973   0.77791   15.763
 5425.00    0.80599   0.77528   16.017
 5426.00    0.79317   0.77272   16.064
 5427.00    0.76337   0.76989   15.912
 5428.00    0.73508   0.76868   15.924
 5429.00    0.72337   0.76805   16.164
 5430.00    0.73065   0.76844   16.242
 5431.00    0.74911   0.77094   16.097
 5432.00    0.76579   0.77410   16.151
 5433.00    0.77758   0.77810   16.416
 5434.00    0.79354   0.78289   16.353
 5435.00    0.81922   0.78717   15.933
 5436.00    0.85013   0.79057   15.743
 5437.00    0.87086   0.79279   15.975
 5438.00    0.86277   0.79315   16.314
 5439.00    0.82954   0.79186   16.436
 5440.00    0.79548   0.78950   16.274
 5441.00    0.77363   0.78604   16.133
 5442.00    0.76158   0.78246   16.422
 5443.00    0.75926   0.77956   16.952
 5444.00    0.76990   0.77694   17.014
 5445.00    0.78812   0.77551   16.563
 5446.00    0.80182   0.77478   16.190
 5447.00    0.80488   0.77381   16.110
 5448.00    0.79953   0.77353   16.154
 5449.00    0.79386   0.77313   16.118
 5450.00    0.79597   0.77207   15.917
 5451.00    0.80299   0.77163   15.756
 5452.00    0.80484   0.77130   15.877
 5453.00    0.79707   0.77122   16.064
 5454.00    0.78283   0.77186   15.893
 5455.00    0.77151   0.77222   15.476
 5456.00    0.77311   0.77302   15.198
 5457.00    0.78912   0.77400   15.106
 5458.00    0.81255   0.77419   15.042
 5459.00    0.83117   0.77471   14.955
 5460.00    0.83640   0.77528   14.864
 5461.00    0.83530   0.77559   14.770
 5462.00    0.83753   0.77615   14.699
 5463.00    0.83501   0.77648   14.790
 5464.00    0.81891   0.77663   15.122
 5465.00    0.80495   0.77620   15.457
 5466.00    0.81078   0.77502   15.525
 5467.00    0.82476   0.77337   15.531
 5468.00    0.82544   0.77056   15.748
 5469.00    0.80842   0.76741   15.990
 5470.00    0.78134   0.76432   15.977
 5471.00    0.75486   0.76096   15.857
 5472.00    0.74015   0.75847   15.909
 5473.00    0.74635   0.75666   16.185
 5474.00    0.77035   0.75583   16.516
 5475.00    0.78982   0.75655   16.557
 5476.00    0.78867   0.75771   16.263
 5477.00    0.77806   0.75975   16.187
 5478.00    0.77423   0.76265   16.596
 5479.00    0.77894   0.76528   16.869
 5480.00    0.78464   0.76798   16.528
 5481.00    0.78148   0.77056   -2.000
 5482.00    0.77080   0.77250   -2.000
 5483.00    0.77044   0.77422   -2.000
 5484.00    0.78446   0.77553   -2.000
 5485.00    0.78784   0.77619   -2.000
 5486.00    0.76401   0.77693   -2.000
 5487.00    0.72720   0.77748   -2.000
 5488.00    0.70732   0.77752   -2.000
 5489.00    0.73331   0.77752   -2.000
 5490.00    0.79613   0.77731   -2.000
 5491.00    0.83966   0.77692   -2.000
 5492.00    0.81896   0.77624   -2.000
 5493.00    0.73131   0.77519   -2.000
 5494.00    0.61562   0.77415   -2.000
 5495.00    0.53916   0.77289   -2.000
 5496.00    0.54344   0.77154   -2.000
 5497.00    0.62070   0.77001   -2.000
 5498.00    0.71995   0.76816   -2.000
 5499.00    0.77114   0.76688   -2.000
 5500.00    0.76453   0.76565   -2.000
 5501.00    0.75554   0.76390   -2.000
 5502.00    0.76995   0.76294   -2.000
 5503.00    0.78507   0.76225   -2.000
 5504.00    0.78554   0.76104   -2.000
 5505.00    0.77704   0.76053   15.794
 5506.00    0.76736   0.76008   15.676
 5507.00    0.76109   0.75962   15.765
 5508.00    0.76197   0.76004   15.982
 5509.00    0.77217   0.76055   16.045
 5510.00    0.78810   0.76179   15.922
 5511.00    0.80232   0.76403   15.826
 5512.00    0.81083   0.76642   15.856
 5513.00    0.81507   0.76939   15.962
 5514.00    0.82171   0.77245   16.075
 5515.00    0.83597   0.77504   16.154
 5516.00    0.84759   0.77714   16.231
 5517.00    0.84058   0.77815   16.351
 5518.00    0.81881   0.77828   16.425
 5519.00    0.79927   0.77734   16.332
 5520.00    0.78917   0.77510   16.170
 5521.00    0.78580   0.77282   16.141
 5522.00    0.78432   0.77035   16.289
 5523.00    0.78044   0.76756   16.533
 5524.00    0.77256   0.76562   16.772
 5525.00    0.76264   0.76449   16.920
 5526.00    0.75663   0.76395   16.946
 5527.00    0.75886   0.76413   16.894
 5528.00    0.76418   0.76503   16.883
 5529.00    0.76487   0.76631   17.004
 5530.00    0.76121   0.76765   17.180
 5531.00    0.75825   0.76930   17.245
 5532.00    0.75983   0.77088   17.093
 5533.00    0.76672   0.77247   16.798
 5534.00    0.77564   0.77409   16.666
 5535.00    0.78186   0.77520   16.819
 5536.00    0.78237   0.77644   16.830
 5537.00    0.77762   0.77751   16.409
 5538.00    0.77223   0.77784   16.078
 5539.00    0.76859   0.77841   16.227
 5540.00    0.76174   0.77908   16.427
 5541.00    0.75066   0.77938   16.350
 5542.00    0.74714   0.77996   16.556
 5543.00    0.76012   0.78079   17.019
 5544.00    0.78299   0.78150   16.046
 5545.00    0.80340   0.78219   13.697
 5546.00    0.81230   0.78254   12.187
 5547.00    0.80717   0.78259   12.087
 5548.00    0.79338   0.78244   12.673
 5549.00    0.77980   0.78159   13.044
 5550.00    0.77461   0.78055   12.821
 5551.00    0.77895   0.77957   12.480
 5552.00    0.78464   0.77823   13.009
 5553.00    0.78449   0.77690   14.767
 5554.00    0.77824   0.77558   16.394
 5555.00    0.77006   0.77410   16.434
 5556.00    0.76535   0.77273   16.151
 5557.00    0.76263   0.77100   16.521
 5558.00    0.75341   0.76902   16.867
 5559.00    0.74159   0.76737   16.671
 5560.00    0.74550   0.76549   16.413
 5561.00    0.76461   0.76343   16.447
 5562.00    0.77379   0.76187   16.636
 5563.00    0.76313   0.76068   16.820
 5564.00    0.74777   0.75933   16.988
 5565.00    0.73938   0.75849   17.154
 5566.00    0.73740   0.75858   17.315
 5567.00    0.73941   0.75839   17.494
 5568.00    0.74479   0.75857   17.710
 5569.00    0.75329   0.75978   17.819
 5570.00    0.76303   0.76068   17.616
 5571.00    0.76581   0.76184   17.321
 5572.00    0.75218   0.76343   17.390
 5573.00    0.72990   0.76424   17.694
 5574.00    0.71992   0.76513   17.621
 5575.00    0.73063   0.76573   17.126
 5576.00    0.75392   0.76484   16.710
 5577.00    0.77379   0.76356   16.627
 5578.00    0.77603   0.76152   16.823
 5579.00    0.76508   0.75810   17.056
 5580.00    0.75658   0.75441   17.049
 5581.00    0.75268   0.75007   16.846
 5582.00    0.74537   0.74552   16.703
 5583.00    0.73484   0.74185   16.684
 5584.00    0.72704   0.73860   16.693
 5585.00    0.72210   0.73653   16.654
 5586.00    0.71553   0.73572   16.553
 5587.00    0.70478   0.73580   16.456
 5588.00    0.69127   0.73712   16.421
 5589.00    0.68171   0.73848   16.360
 5590.00    0.68599   0.74009   16.167
 5591.00    0.71306   0.74229   15.934
 5592.00    0.76052   0.74345   15.818
 5593.00    0.80205   0.74393   15.847
 5594.00    0.81163   0.74456   15.936
 5595.00    0.79748   0.74491   15.942
 5596.00    0.78342   0.74548   15.793
 5597.00    0.77952   0.74642   15.628
 5598.00    0.78253   0.74782   15.603
 5599.00    0.78163   0.75075   15.672
 5600.00    0.77148   0.75429   15.695
 5601.00    0.76426   0.75793   15.573
 5602.00    0.76956   0.76193   15.370
 5603.00    0.77438   0.76565   15.357
 5604.00    0.76682   0.76865   15.666
 5605.00    0.75845   0.77044   15.994
 5606.00    0.76119   0.77090   16.062
 5607.00    0.76645   0.76993   16.112
 5608.00    0.76318   0.76806   16.410
 5609.00    0.75344   0.76528   16.800
 5610.00    0.74276   0.76127   17.039
 5611.00    0.73238   0.75798   17.143
 5612.00    0.72579   0.75557   17.240
 5613.00    0.73229   0.75329   17.407
 5614.00    0.75499   0.75188   17.576
 5615.00    0.78400   0.75110   17.520
 5616.00    0.80717   0.75101   17.220
 5617.00    0.81724   0.75163   17.009
 5618.00    0.81054   0.75203   17.067
 5619.00    0.78748   0.75216   17.240
 5620.00    0.76035   0.75282   17.364
 5621.00    0.75254   0.75410   17.434
 5622.00    0.77151   0.75517   17.456
 5623.00    0.79941   0.75646   17.385
 5624.00    0.81669   0.75826   17.238
 5625.00    0.81475   0.75996   17.118
 5626.00    0.79895   0.76168   17.062
 5627.00    0.78534   0.76289   17.010
 5628.00    0.78252   0.76338   16.916
 5629.00    0.78590   0.76352   16.795
 5630.00    0.78603   0.76299   16.712
 5631.00    0.77573   0.76184   16.747
 5632.00    0.76330   0.76035   16.877
 5633.00    0.76806   0.75876   16.961
 5634.00    0.78969   0.75747   16.842
 5635.00    0.80653   0.75631   16.487
 5636.00    0.80382   0.75518   16.190
 5637.00    0.78222   0.75484   16.349
 5638.00    0.75540   0.75495   16.803
 5639.00    0.74096   0.75517   16.937
 5640.00    0.73860   0.75595   16.760
 5641.00    0.73473   0.75670   16.830
 5642.00    0.72929   0.75765   17.145
 5643.00    0.73325   0.75885   17.242
 5644.00    0.74636   0.75939   17.150
 5645.00    0.75983   0.75979   17.272
 5646.00    0.77413   0.76009   17.542
 5647.00    0.79334   0.75973   17.589
 5648.00    0.80591   0.75882   17.519
 5649.00    0.79572   0.75708   17.695
 5650.00    0.77049   0.75464   17.965
 5651.00    0.75116   0.75246   17.941
 5652.00    0.74320   0.74979   17.827
 5653.00    0.73888   0.74623   18.014
 5654.00    0.73006   0.74372   18.177
 5655.00    0.71465   0.74245   17.829
 5656.00    0.70290   0.74132   17.449
 5657.00    0.70655   0.74060   17.660
 5658.00    0.72226   0.74087   18.082
 5659.00    0.73912   0.74226   17.990
 5660.00    0.75198   0.74421   17.593
 5661.00    0.76009   0.74598   17.433
 5662.00    0.76310   0.74772   17.472
 5663.00    0.76053   0.74991   17.445
 5664.00    0.75200   0.75218   17.347
 5665.00    0.73947   0.75417   17.305
 5666.00    0.72910   0.75597   17.387
 5667.00    0.72464   0.75796   17.530
 5668.00    0.72125   0.75989   17.509
 5669.00    0.71521   0.76140   17.254
 5670.00    0.71296   0.76242   17.100
 5671.00    0.71982   0.76321   17.226
 5672.00    0.73002   0.76370   17.251
 5673.00    0.73614   0.76328   16.932
 5674.00    0.73730   0.76222   16.705
 5675.00    0.73548   0.76090   16.878
 5676.00    0.73232   0.75924   17.139
 5677.00    0.73078   0.75693   17.135
 5678.00    0.73566   0.75461   16.951
 5679.00    0.74751   0.75278   16.742
 5680.00    0.75939   0.75121   16.488
 5681.00    0.76360   0.74989   16.221
 5682.00    0.75690   0.74896   16.126
 5683.00    0.74459   0.74881   16.299
 5684.00    0.73978   0.74950   16.640
 5685.00    0.74678   0.75071   17.042
 5686.00    0.75502   0.75211   17.482
 5687.00    0.75684   0.75378   17.887
 5688.00    0.75494   0.75546   18.087
 5689.00    0.75186   0.75665   18.034
 5690.00    0.74563   0.75739   17.883
 5691.00    0.73448   0.75757   17.821
 5692.00    0.71988   0.75706   17.963
 5693.00    0.70957   0.75561   18.278
 5694.00    0.71414   0.75396   18.581
 5695.00    0.72923   0.75194   18.655
 5696.00    0.73652   0.74926   18.389
 5697.00    0.73297   0.74686   17.957
 5698.00    0.73364   0.74435   17.672
 5699.00    0.74406   0.74194   17.486
 5700.00    0.75494   0.73963   17.089
 5701.00    0.75668   0.73692   16.557
 5702.00    0.74557   0.73481   16.262
 5703.00    0.72762   0.73306   16.271
 5704.00    0.71431   0.73131   16.392
 5705.00    0.70820   0.73085   16.571
 5706.00    0.70304   0.73101   16.890
 5707.00    0.69474   0.73185   17.257
 5708.00    0.68479   0.73438   17.441
 5709.00    0.68149   0.73725   17.456
 5710.00    0.69403   0.74062   17.476
 5711.00    0.71896   0.74473   17.411
 5712.00    0.74333   0.74852   17.101
 5713.00    0.75735   0.75231   16.881
 5714.00    0.75900   0.75593   17.172
 5715.00    0.75704   0.75876   17.633
 5716.00    0.76202   0.76113   17.542
 5717.00    0.76966   0.76301   17.092
 5718.00    0.76829   0.76413   16.950
 5719.00    0.75634   0.76474   17.224
 5720.00    0.74129   0.76486   17.634
 5721.00    0.73286   0.76431   17.882
 5722.00    0.73741   0.76339   17.837
 5723.00    0.75149   0.76268   17.721
 5724.00    0.76733   0.76195   17.795
 5725.00    0.78142   0.76120   17.954
 5726.00    0.79289   0.76048   17.973
 5727.00    0.80007   0.76019   17.897
 5728.00    0.80053   0.76050   17.896
 5729.00    0.79212   0.76075   18.019
 5730.00    0.77719   0.76115   18.179
 5731.00    0.76642   0.76148   18.178
 5732.00    0.76934   0.76181   17.971
 5733.00    0.78433   0.76222   17.881
 5734.00    0.80281   0.76227   18.090
 5735.00    0.81463   0.76230   18.218
 5736.00    0.81190   0.76227   17.951
 5737.00    0.79248   0.76201   17.639
 5738.00    0.76420   0.76167   17.585
 5739.00    0.74603   0.76147   17.555
 5740.00    0.74850   0.76121    0.000
 5741.00    0.76051   0.76080    0.000
 5742.00    0.76866   0.76011    0.000
 5743.00    0.77129   0.75905    0.000
 5744.00    0.77030   0.75829    0.000
 5745.00    0.76527   0.75750    0.000
 5746.00    0.75689   0.75639    0.000
 5747.00    0.74859   0.75525    0.000
 5748.00    0.74173   0.75420    0.000
 5749.00    0.73401   0.75354    0.000
 5750.00    0.72769   0.75334    0.000
 5751.00    0.73163   0.75326    0.000
 5752.00    0.74785   0.75313    0.000
 5753.00    0.76681   0.75330    0.000
 5754.00    0.78009   0.75351    0.000
 5755.00    0.78606   0.75352    0.000
 5756.00    0.78623   0.75351    0.000
 5757.00    0.78324   0.75334    0.000
 5758.00    0.77982   0.75335    0.000
 5759.00    0.77823   0.75393    0.000
 5760.00    0.77934   0.75454    0.000
 5761.00    0.78255   0.75529    0.000
 5762.00    0.78678   0.75632    0.000
 5763.00    0.79076   0.75732    0.000
 5764.00    0.79314   0.75821    0.000
 5765.00    0.79302   0.75871    0.000
 5766.00    0.79185   0.75882    0.000
 5767.00    0.79169   0.75844    0.000
 5768.00    0.78852   0.75779    0.000
 5769.00    0.77539   0.75671    0.000
 5770.00    0.75632   0.75505    0.000
 5771.00    0.74322   0.75332    0.000
 5772.00    0.73809   0.75117    0.000
 5773.00    0.73421   0.74866    0.000
 5774.00    0.73015   0.74595    0.000
 5775.00    0.72962   0.74278    0.000
 5776.00    0.73325   0.73971    0.000
 5777.00    0.73704   0.73714    0.000
 5778.00    0.73311   0.73486    0.000
 5779.00    0.71617   0.73319    0.000
 5780.00    0.69510   0.73221    0.000
 5781.00    0.68447   0.73216    0.000
 5782.00    0.68563   0.73323    0.000
 5783.00    0.69074   0.73460    0.000
 5784.00    0.69561   0.73654    0.000
 5785.00    0.70014   0.73871    0.000
 5786.00    0.70561   0.74086    0.000
 5787.00    0.71263   0.74331    0.000
 5788.00    0.71916   0.74538    0.000
 5789.00    0.72301   0.74735    0.000
 5790.00    0.72554   0.74925    0.000
 5791.00    0.72979   0.75080    0.000
 5792.00    0.73729   0.75226    0.000
 5793.00    0.74687   0.75358    0.000
 5794.00    0.75430   0.75485    0.000
 5795.00    0.75949   0.75599   -2.000
 5796.00    0.77312   0.75677   -2.000
 5797.00    0.79916   0.75745   -2.000
 5798.00    0.81788   0.75786   -2.000
 5799.00    0.81025   0.75790   -2.000
 5800.00    0.78218   0.75793   -2.000
 5801.00    0.75139   0.75765   -2.000
 5802.00    0.73250   0.75740   -2.000
 5803.00    0.72948   0.75716   -2.000
 5804.00    0.73215   0.75680   -2.000
 5805.00    0.73313   0.75669   -2.000
 5806.00    0.73941   0.75650   -2.000
 5807.00    0.75461   0.75635   -2.000
 5808.00    0.76743   0.75620   -2.000
 5809.00    0.76851   0.75595   -2.000
 5810.00    0.76142   0.75580   -2.000
 5811.00    0.75232   0.75571   -2.000
 5812.00    0.74335   0.75588   -2.000
 5813.00    0.73596   0.75631   -2.000
 5814.00    0.73281   0.75683    0.000
 5815.00    0.73581   0.75756    0.000
 5816.00    0.74454   0.75840    0.000
 5817.00    0.75376   0.75922    0.000
 5818.00    0.75450   0.76003    0.000
 5819.00    0.74545   0.76059    0.000
 5820.00    0.73609   0.76111    0.000
 5821.00    0.73520   0.76141    0.000
 5822.00    0.74497   0.76155    0.000
 5823.00    0.75996   0.76170    0.000
 5824.00    0.76964   0.76160    0.000
 5825.00    0.77017   0.76154    0.000
 5826.00    0.76631   0.76132    0.000
 5827.00    0.76106   0.76102    0.000
 5828.00    0.75334   0.76068    0.000
 5829.00    0.74370   0.76030    0.000
 5830.00    0.73572   0.75996    0.000
 5831.00    0.73383   0.75968    0.000
 5832.00    0.74088   0.75948    0.000
 5833.00    0.75322   0.75925    0.000
 5834.00    0.76257   0.75927    0.000
 5835.00    0.76500   0.75929    0.000
 5836.00    0.76253   0.75930    0.000
 5837.00    0.76044   0.75914    0.000
 5838.00    0.76302   0.75876    0.000
 5839.00    0.76552   0.75823    0.000
 5840.00    0.75842   0.75728    0.000
 5841.00    0.74134   0.75607    0.000
 5842.00    0.72219   0.75443    0.000
 5843.00    0.70877   0.75251    0.000
 5844.00    0.70563   0.75044    0.000
 5845.00    0.71172   0.74796    0.000
 5846.00    0.72152   0.74529    0.000
 5847.00    0.72813   0.74246    0.000
 5848.00    0.72782   0.73957    0.000
 5849.00    0.72637   0.73691    0.000
 5850.00    0.73114   0.73420    0.000
 5851.00    0.73736   0.73178    0.000
 5852.00    0.73599   0.72975    0.000
 5853.00    0.72819   0.72843    0.000
 5854.00    0.72000   0.72799    0.000
 5855.00    0.71231   0.72782    0.000
 5856.00    0.70409   0.72834    0.000
 5857.00    0.69822   0.72924    0.000
 5858.00    0.69959   0.73059    0.000
 5859.00    0.71169   0.73231    0.000
 5860.00    0.73238   0.73379    0.000
 5861.00    0.75041   0.73530    0.000
 5862.00    0.75571   0.73667    0.000
 5863.00    0.75010   0.73807    0.000
 5864.00    0.74128   0.73921    0.000
 5865.00    0.73589   0.73997    0.000
 5866.00    0.73908   0.74054    0.000
 5867.00    0.75448   0.74068    0.000
 5868.00    0.78154   0.74054    0.000
 5869.00    0.81365   0.73999    0.000
 5870.00    0.84159   0.73895    0.000
 5871.00    0.85692   0.73766    0.000
 5872.00    0.85547   0.73600    0.000
 5873.00    0.83977   0.73406    0.000
 5874.00    0.81821   0.73185    0.000
 5875.00    0.80276   0.72928    0.000
 5876.00    0.79861   0.72624    0.000
 5877.00    0.79906   0.72240    0.000
 5878.00    0.79602   0.71759    0.000
 5879.00    0.78616   0.71171    0.000
 5880.00    0.76791   0.70465    0.000
 5881.00    0.74072   0.69638    0.000
 5882.00    0.71115   0.68661    0.000
 5883.00    0.69258   0.67590    0.000
 5884.00    0.68803   0.66552    0.000
 5885.00    0.68543   0.65567    0.000
 5886.00    0.67570   0.64746    0.000
 5887.00    0.66034   0.64085    0.000
 5888.00    0.64657   0.63543    0.000
 5889.00    0.64307   0.63302    0.000
 5890.00    0.65205   0.63333    0.000
 5891.00    0.66704   0.63596    0.000
 5892.00    0.67644   0.64122    0.000
 5893.00    0.66927   0.64736    0.000
 5894.00    0.64917   0.65472    0.000
 5895.00    0.63349   0.66365    0.000
 5896.00    0.63420   0.67287    0.000
 5897.00    0.65228   0.68229    0.000
 5898.00    0.67989   0.69106    0.000
 5899.00    0.70462   0.69866    0.000
 5900.00    0.71886   0.70528    0.000
 5901.00    0.72186   0.71083   18.904
 5902.00    0.71790   0.71507   19.135
 5903.00    0.71310   0.71828   19.278
 5904.00    0.70926   0.72048   19.226
 5905.00    0.70413   0.72183   19.022
 5906.00    0.69551   0.72262   18.908
 5907.00    0.68390   0.72259   19.088
 5908.00    0.67576   0.72247   19.279
 5909.00    0.67925   0.72195   19.012
 5910.00    0.69477   0.72162   18.519
 5911.00    0.71642   0.72140   18.315
 5912.00    0.73822   0.72115   18.329
 5913.00    0.75554   0.72150   18.216
 5914.00    0.76564   0.72181   18.031
 5915.00    0.76752   0.72256   18.033
 5916.00    0.76172   0.72345   18.234
 5917.00    0.75116   0.72417   18.466
 5918.00    0.74232   0.72499   18.553
 5919.00    0.74156   0.72559   18.408
 5920.00    0.74983   0.72595   18.124
 5921.00    0.76262   0.72623   17.876
 5922.00    0.77125   0.72613   17.807
 5923.00    0.76927   0.72586   17.973
 5924.00    0.75956   0.72578   18.295
 5925.00    0.74974   0.72550   18.609
 5926.00    0.74588   0.72536   18.747
 5927.00    0.75078   0.72516   18.690
 5928.00    0.76304   0.72494   18.682
 5929.00    0.77811   0.72517   18.933
 5930.00    0.78973   0.72541   19.346
 5931.00    0.79227   0.72577   19.679
 5932.00    0.78309   0.72610   19.759
 5933.00    0.76471   0.72620   19.649
 5934.00    0.74579   0.72632   19.685
 5935.00    0.73418   0.72640   19.977
 5936.00    0.73145   0.72638   20.083
 5937.00    0.73413   0.72634   19.802
 5938.00    0.73582   0.72618   19.672
 5939.00    0.73325   0.72593   19.949
 5940.00    0.72958   0.72560   20.066
 5941.00    0.72838   0.72513   19.681
 5942.00    0.72994   0.72460   19.302
 5943.00    0.73369   0.72419   19.265
 5944.00    0.73953   0.72364   19.313
 5945.00    0.74614   0.72289   19.195
 5946.00    0.75037   0.72212   18.974
 5947.00    0.74961   0.72152   18.819
 5948.00    0.74305   0.72117   18.858
 5949.00    0.73174   0.72093   19.035
 5950.00    0.71875   0.72082   19.114
 5951.00    0.70980   0.72099   19.025
 5952.00    0.71163   0.72149   18.952
 5953.00    0.72376   0.72227   18.915
 5954.00    0.73750   0.72322   18.727
 5955.00    0.74646   0.72434   18.521
 5956.00    0.74969   0.72552   18.704
 5957.00    0.74730   0.72669   19.151
 5958.00    0.73920   0.72785   19.167
 5959.00    0.72657   0.72878   18.749
 5960.00    0.71225   0.72975   18.635
 5961.00    0.70028   0.73040   19.033
 5962.00    0.69488   0.73095   19.530
 5963.00    0.69830   0.73135   19.789
 5964.00    0.70979   0.73151   19.805
 5965.00    0.72505   0.73164   19.772
 5966.00    0.73800   0.73145   19.912
 5967.00    0.74574   0.73108   20.185
 5968.00    0.74913   0.73035   20.341
 5969.00    0.75082   0.72925   20.264
 5970.00    0.75306   0.72796   20.050
 5971.00    0.75387   0.72651   19.913
 5972.00    0.75025   0.72501   20.017
 5973.00    0.74625   0.72364   20.208
 5974.00    0.74848   0.72224   20.146
 5975.00    0.75404   0.72102   19.733
 5976.00    0.75359   0.71989   19.183
 5977.00    0.74156   0.71881   18.903
 5978.00    0.72014   0.71825   19.135
 5979.00    0.70235   0.71780   19.449
 5980.00    0.70228   0.71756   19.217
 5981.00    0.71920   0.71750   18.685
 5982.00    0.74182   0.71762   18.438
 5983.00    0.75882   0.71819   18.521
 5984.00    0.76318   0.71883   18.704
 5985.00    0.75597   0.71973   18.913
 5986.00    0.74377   0.72082   19.174
 5987.00    0.73452   0.72179   19.455
 5988.00    0.73409   0.72257   19.635
 5989.00    0.74293   0.72300   19.515
 5990.00    0.75645   0.72323   19.121
 5991.00    0.76641   0.72318   18.943
 5992.00    0.76665   0.72299   19.307
 5993.00    0.75867   0.72250   19.843
 5994.00    0.74709   0.72180   20.063
 5995.00    0.73484   0.72079   20.128
 5996.00    0.72461   0.71956   20.328
 5997.00    0.72025   0.71873   20.509
 5998.00    0.72370   0.71776   20.518
 5999.00    0.73230   0.71678   20.600
 6000.00    0.74051   0.71575   20.876
 6001.00    0.74206   0.71452   20.941
 6002.00    0.73476   0.71395   20.534
 6003.00    0.72336   0.71356   20.022
 6004.00    0.71421   0.71315   19.747
 6005.00    0.71076   0.71286   19.686
 6006.00    0.70961   0.71232   19.744
 6007.00    0.70066   0.71234   19.897
 6008.00    0.68318   0.71240   20.002
 6009.00    0.67220   0.71221   19.763
 6010.00    0.67745   0.71202   19.250
 6011.00    0.69314   0.71166   18.982
 6012.00    0.71029   0.71123   19.134
 6013.00    0.72385   0.71071   19.327
 6014.00    0.73319   0.71033   19.249
 6015.00    0.74110   0.71011   18.972
 6016.00    0.74877   0.71017   18.716
 6017.00    0.75442   0.71020   18.668
 6018.00    0.75746   0.71081   18.849
 6019.00    0.75926   0.71178   19.090
 6020.00    0.75876   0.71289   19.174
 6021.00    0.75191   0.71460   19.003
 6022.00    0.73623   0.71632   18.907
 6023.00    0.71318   0.71838   19.446
 6024.00    0.68977   0.72032   20.438
 6025.00    0.67635   0.72215   20.839
 6026.00    0.67789   0.72405   20.545
 6027.00    0.69146   0.72553   20.570
 6028.00    0.70764   0.72684   21.053
 6029.00    0.71502   0.72779   21.194
 6030.00    0.71122   0.72846   20.828
 6031.00    0.70271   0.72890   20.555
 6032.00    0.69617   0.72897   20.646
 6033.00    0.69577   0.72888   20.920
 6034.00    0.70247   0.72876   20.970
 6035.00    0.71381   0.72848   20.500
 6036.00    0.72392   0.72842   19.917
 6037.00    0.72661   0.72834   19.802
 6038.00    0.72182   0.72835   19.921
 6039.00    0.71424   0.72857   19.677
 6040.00    0.70776   0.72878   19.320
 6041.00    0.70465   0.72922   19.436
 6042.00    0.70599   0.72943   19.752
 6043.00    0.71243   0.72968   19.594
 6044.00    0.72515   0.72968   19.120
 6045.00    0.74335   0.72944   18.906
 6046.00    0.76023   0.72893   19.025
 6047.00    0.76697   0.72820   19.217
 6048.00    0.75986   0.72739   19.249
 6049.00    0.74076   0.72634   19.080
 6050.00    0.71630   0.72539   18.984
 6051.00    0.69605   0.72433   19.210
 6052.00    0.68987   0.72350   19.588
 6053.00    0.70219   0.72265   19.819
 6054.00    0.72598   0.72187   19.957
 6055.00    0.74934   0.72123   20.186
 6056.00    0.76408   0.72046   20.460
 6057.00    0.76687   0.71992   20.592
 6058.00    0.75928   0.71916   20.442
 6059.00    0.74518   0.71882   20.099
 6060.00    0.72818   0.71884   19.946
 6061.00    0.71232   0.71895   20.199
 6062.00    0.70262   0.71960   20.564
 6063.00    0.70172   0.72032   20.693
 6064.00    0.70733   0.72162   20.644
 6065.00    0.71626   0.72316   20.542
 6066.00    0.72746   0.72457   20.279
 6067.00    0.73834   0.72585   19.874
 6068.00    0.74287   0.72662   19.644
 6069.00    0.73847   0.72688   19.709
 6070.00    0.73021   0.72660   19.760
 6071.00    0.72463   0.72576   19.562
 6072.00    0.72515   0.72453   19.273
 6073.00    0.73040   0.72304   19.135
 6074.00    0.73460   0.72120   19.271
 6075.00    0.73484   0.71931   19.581
 6076.00    0.73426   0.71746   19.728
 6077.00    0.73610   0.71592   19.572
 6078.00    0.74066   0.71463   19.359
 6079.00    0.74694   0.71364   19.273
 6080.00    0.75349   0.71291   19.287
 6081.00    0.75832   0.71249   19.430
 6082.00    0.75906   0.71224   19.831
 6083.00    0.75393   0.71200   20.401
 6084.00    0.74268   0.71208   20.752
 6085.00    0.72879   0.71227   20.793
 6086.00    0.71861   0.71253   20.858
 6087.00    0.71471   0.71282   21.003
 6088.00    0.71486   0.71309   20.925
 6089.00    0.71701   0.71334   20.662
 6090.00    0.72035   0.71353   20.596
 6091.00    0.72275   0.71350   20.721
 6092.00    0.72105   0.71331   20.670
 6093.00    0.71450   0.71264   20.488
 6094.00    0.70508   0.71150   20.571
 6095.00    0.69537   0.70997   20.847
 6096.00    0.68808   0.70833   20.850
 6097.00    0.68636   0.70710   20.614
 6098.00    0.69238   0.70596   20.551
 6099.00    0.70366   0.70521   20.586
 6100.00    0.71443   0.70472   20.324
 6101.00    0.72046   0.70482   19.899
 6102.00    0.72144   0.70590   19.747
 6103.00    0.72293   0.70727   19.882
 6104.00    0.73046   0.70886   20.022
 6105.00    0.73721   0.71041   20.051
 6106.00    0.73164   0.71169   19.997
 6107.00    0.71575   0.71279   19.784
 6108.00    0.70108   0.71344   19.405
 6109.00    0.69580   0.71364   19.226
 6110.00    0.70110   0.71333   19.589
 6111.00    0.70969   0.71254   20.200
 6112.00    0.71331   0.71113   20.485
 6113.00    0.71397   0.70916   20.520
 6114.00    0.71861   0.70702   20.713
 6115.00    0.72906   0.70461   21.033
 6116.00    0.74229   0.70260   21.213
 6117.00    0.75258   0.70082   21.194
 6118.00    0.75500   0.69939   21.082
 6119.00    0.74907   0.69859   20.989
 6120.00    0.73763   0.69813   20.986
 6121.00    0.72489   0.69866   21.067
 6122.00    0.71492   0.69966   21.147
 6123.00    0.71025   0.70074   21.063
 6124.00    0.71252   0.70180   20.755
 6125.00    0.72294   0.70235   20.399
 6126.00    0.73798   0.70241   20.148
 6127.00    0.74669   0.70173   19.943
 6128.00    0.74172   0.70037   19.775
 6129.00    0.72846   0.69864   19.854
 6130.00    0.71737   0.69639   20.186
 6131.00    0.71637   0.69434   20.276
 6132.00    0.72481   0.69234   19.915
 6133.00    0.73109   0.69075   19.688
 6134.00    0.72618   0.68983   19.980
 6135.00    0.71261   0.68959   20.430
 6136.00    0.69922   0.69074   20.463
 6137.00    0.69561   0.69255   19.830
 6138.00    0.70295   0.69475   18.853
 6139.00    0.71077   0.69681   18.174
 6140.00    0.71141   0.69874   18.000
 6141.00    0.70710   0.70053   18.022
 6142.00    0.70143   0.70195   18.090
 6143.00    0.69524   0.70296   18.437
 6144.00    0.69018   0.70351   19.074
 6145.00    0.68954   0.70348   19.551
 6146.00    0.69339   0.70294   19.705
 6147.00    0.69758   0.70213   19.967
 6148.00    0.69994   0.70088   20.462
 6149.00    0.70174   0.69943   20.751
 6150.00    0.70243   0.69740   20.723
 6151.00    0.69929   0.69489   20.803
 6152.00    0.69416   0.69143   20.993
 6153.00    0.69314   0.68741   20.791
 6154.00    0.69656   0.68307   20.277
 6155.00    0.69835   0.67857   20.095
 6156.00    0.69546   0.67424   20.367
 6157.00    0.68952   0.67027   20.644
 6158.00    0.68212   0.66691   20.649
 6159.00    0.67402   0.66408   20.411
 6160.00    0.66739   0.66210   19.873
 6161.00    0.66551   0.66137   18.987
 6162.00    0.67054   0.66173   18.137
 6163.00    0.68187   0.66290   17.808
 6164.00    0.69390   0.66449   18.047
 6165.00    0.69984   0.66647   18.596
 6166.00    0.70147   0.66863   19.245
 6167.00    0.70479   0.67069   19.853
 6168.00    0.70628   0.67310   20.234
 6169.00    0.69808   0.67586   20.277
 6170.00    0.68396   0.67859   20.215
 6171.00    0.67471   0.68101   20.395
 6172.00    0.67346   0.68344   20.787
 6173.00    0.67699   0.68548   21.128
 6174.00    0.68254   0.68728   21.378
 6175.00    0.68812   0.68867   21.643
 6176.00    0.69094   0.68984   21.863
 6177.00    0.68808   0.69042   21.886
 6178.00    0.67785   0.69040   21.678
 6179.00    0.66198   0.69000   21.367
 6180.00    0.64785   0.68902   21.198
 6181.00    0.64313   0.68762   21.284
 6182.00    0.64836   0.68559   21.343
 6183.00    0.65892   0.68364   21.110
 6184.00    0.66897   0.68163   20.878
 6185.00    0.67475   0.67983   20.950
 6186.00    0.67745   0.67850   21.045
 6187.00    0.67848   0.67761   20.767
 6188.00    0.67461   0.67741   20.184
 6189.00    0.66373   0.67744   19.578
 6190.00    0.65067   0.67803   19.121
 6191.00    0.64178   0.67924   18.855
 6192.00    0.63943   0.68048   18.714
 6193.00    0.64144   0.68188   18.715
 6194.00    0.64205   0.68315   19.079
 6195.00    0.63959   0.68427   19.879
 6196.00    0.64115   0.68530   20.711
 6197.00    0.64951   0.68615   21.261
 6198.00    0.65477   0.68698   21.860
 6199.00    0.64904   0.68785   -2.000
 6200.00    0.63655   0.68853   -2.000
 6201.00    0.62724   0.68893   -2.000
 6202.00    0.63041   0.68882   -2.000
 6203.00    0.64518   0.68833   -2.000
 6204.00    0.65765   0.68711   -2.000
 6205.00    0.65793   0.68543   -2.000
 6206.00    0.64926   0.68329   -2.000
 6207.00    0.64161   0.68077   -2.000
 6208.00    0.64548   0.67818   -2.000
 6209.00    0.65928   0.67537   -2.000
 6210.00    0.66763   0.67283   -2.000
 6211.00    0.66260   0.67035   18.597
 6212.00    0.65108   0.66852   18.595
 6213.00    0.64199   0.66723   18.744
 6214.00    0.64047   0.66643   19.370
 6215.00    0.64825   0.66611   20.352
 6216.00    0.66350   0.66613   20.995
 6217.00    0.67947   0.66619   21.109
 6218.00    0.68710   0.66634   21.311
 6219.00    0.68561   0.66650   21.706
 6220.00    0.68275   0.66646   21.717
 6221.00    0.68302   0.66611   21.398
 6222.00    0.68480   0.66543   21.419
 6223.00    0.68414   0.66480   21.687
 6224.00    0.67779   0.66394   21.465
 6225.00    0.66828   0.66326   20.943
 6226.00    0.66265   0.66269   20.998
 6227.00    0.66513   0.66233   21.643
 6228.00    0.67487   0.66207   22.064
 6229.00    0.68551   0.66213   21.761
 6230.00    0.68865   0.66264   20.942
 6231.00    0.68201   0.66294   20.160
 6232.00    0.66921   0.66345   19.837
 6233.00    0.65524   0.66354   19.821
 6234.00    0.64356   0.66309   19.723
 6235.00    0.63271   0.66245   19.635
 6236.00    0.62024   0.66148   19.911
 6237.00    0.61104   0.66049   20.531
 6238.00    0.61301   0.65951   21.148
 6239.00    0.62669   0.65891   21.427
 6240.00    0.64563   0.65849   21.288
 6241.00    0.66023   0.65799   21.085
 6242.00    0.66375   0.65790   21.183
 6243.00    0.66006   0.65768   21.392
 6244.00    0.65644   0.65743   21.352
 6245.00    0.65206   0.65709   21.226
 6246.00    0.64377   0.65660   21.332
 6247.00    0.63555   0.65574   21.576
 6248.00    0.63363   0.65458   21.678
 6249.00    0.63911   0.65334   21.585
 6250.00    0.64800   0.65191   21.425
 6251.00    0.65297   0.65109   21.372
 6252.00    0.64942   0.65054   21.505
 6253.00    0.64130   0.65072   21.700
 6254.00    0.63527   0.65135   21.775
 6255.00    0.63415   0.65251   21.669
 6256.00    0.63870   0.65409   21.440
 6257.00    0.64960   0.65608   21.213
 6258.00    0.66559   0.65851   20.990
 6259.00    0.68195   0.66071   20.570
 6260.00    0.69363   0.66288   20.053
 6261.00    0.69789   0.66489   20.025
 6262.00    0.69461   0.66651   20.479
 6263.00    0.68594   0.66777   20.179
 6264.00    0.67300   0.66895   18.725
 6265.00    0.65454   0.66996   17.474
 6266.00    0.63366   0.67073   17.019
 6267.00    0.62052   0.67136   16.780
 6268.00    0.62039   0.67180   16.566
 6269.00    0.62747   0.67213   17.111
 6270.00    0.63440   0.67227   18.801
 6271.00    0.63806   0.67224   20.761
 6272.00    0.63987   0.67202   21.788
 6273.00    0.64458   0.67174   21.996
 6274.00    0.65448   0.67146   22.012
 6275.00    0.66697   0.67127   22.062
 6276.00    0.67668   0.67115   22.171
 6277.00    0.67801   0.67135   22.301
 6278.00    0.67107   0.67167   22.411
 6279.00    0.66218   0.67234   22.473
 6280.00    0.65514   0.67328    0.000
 6281.00    0.64879   0.67421    0.000
 6282.00    0.64195   0.67524    0.000
 6283.00    0.63563   0.67596    0.000
 6284.00    0.63385   0.67652    0.000
 6285.00    0.64142   0.67676    0.000
 6286.00    0.65576   0.67658    0.000
 6287.00    0.66745   0.67603    0.000
 6288.00    0.67033   0.67507    0.000
 6289.00    0.66542   0.67383    0.000
 6290.00    0.66274   0.67245    0.000
 6291.00    0.67572   0.67097    0.000
 6292.00    0.70531   0.66954    0.000
 6293.00    0.74044   0.66828    0.000
 6294.00    0.77014   0.66708    0.000
 6295.00    0.78741   0.66624    0.000
 6296.00    0.79078   0.66586    0.000
 6297.00    0.78256   0.66593    0.000
 6298.00    0.76425   0.66640    0.000
 6299.00    0.73774   0.66706    0.000
 6300.00    0.70970   0.66812    0.000
 6301.00    0.68907   0.66931    0.000
 6302.00    0.68074   0.67067    0.000
 6303.00    0.68421   0.67165    0.000
 6304.00    0.69372   0.67240    0.000
 6305.00    0.70177   0.67284    0.000
 6306.00    0.70493   0.67279    0.000
 6307.00    0.70408   0.67224    0.000
 6308.00    0.70295   0.67133    0.000
 6309.00    0.70361   0.67022    0.000
 6310.00    0.70088   0.66904    0.000
 6311.00    0.68949   0.66807    0.000
 6312.00    0.67431   0.66721    0.000
 6313.00    0.66407   0.66665    0.000
 6314.00    0.66200   0.66664    0.000
 6315.00    0.66709   0.66714    0.000
 6316.00    0.67693   0.66775    0.000
 6317.00    0.68836   0.66901    0.000
 6318.00    0.69780   0.67054    0.000
 6319.00    0.70263   0.67205    0.000
 6320.00    0.70239   0.67358    0.000
 6321.00    0.69873   0.67484   20.810
 6322.00    0.69496   0.67609   21.120
 6323.00    0.69355   0.67677   21.868
 6324.00    0.69409   0.67717   22.130
 6325.00    0.69419   0.67709   21.510
 6326.00    0.69065   0.67667   21.213
 6327.00    0.68212   0.67615   21.954
 6328.00    0.67057   0.67503   22.813
 6329.00    0.65870   0.67407   22.865
 6330.00    0.64812   0.67291   22.753
 6331.00    0.64120   0.67188   23.073
 6332.00    0.64158   0.67087   23.324
 6333.00    0.64897   0.66983   23.125
 6334.00    0.65718   0.66926   22.940
 6335.00    0.66150   0.66889   23.089
 6336.00    0.66255   0.66891   23.297
 6337.00    0.66197   0.66882   23.289
 6338.00    0.66030   0.66905   23.116
 6339.00    0.65850   0.66925   22.895
 6340.00    0.65848   0.66945   22.673
 6341.00    0.66122   0.66978   22.478
 6342.00    0.66605   0.67000   22.327
 6343.00    0.67140   0.67055   22.146
 6344.00    0.67521   0.67097   21.813
 6345.00    0.67497   0.67130   21.451
 6346.00    0.66882   0.67149   21.378
 6347.00    0.65936   0.67132   21.621
 6348.00    0.65291   0.67074   21.877
 6349.00    0.65176   0.66967   22.017
 6350.00    0.65302   0.66830   22.193
 6351.00    0.65419   0.66643   22.445
 6352.00    0.65476   0.66445   22.623
 6353.00    0.65489   0.66234   22.617
 6354.00    0.65463   0.66053   22.460
 6355.00    0.65271   0.65894   22.344
 6356.00    0.64798   0.65763   22.487
 6357.00    0.64372   0.65687   22.783
 6358.00    0.64610   0.65674   22.911
 6359.00    0.65735   0.65716   22.903
 6360.00    0.67413   0.65800   23.031
 6361.00    0.68796   0.65941   23.164
 6362.00    0.69045   0.66118   22.900
 6363.00    0.68408   0.66312   22.228
 6364.00    0.67836   0.66511   21.436
 6365.00    0.67732   0.66703   20.666
 6366.00    0.67878   0.66885   19.995
 6367.00    0.67801   0.67033   19.661
 6368.00    0.67136   0.67152   19.838
 6369.00    0.66114   0.67244   20.225
 6370.00    0.65282   0.67312   20.337
 6371.00    0.64909   0.67353   20.231
 6372.00    0.65041   0.67352   20.287
 6373.00    0.65727   0.67328   20.615
 6374.00    0.66902   0.67287   21.110
 6375.00    0.68200   0.67238   21.618
 6376.00    0.69270   0.67185   22.019
 6377.00    0.70193   0.67130   22.343
 6378.00    0.71035   0.67099   22.629
 6379.00    0.71259   0.67067   22.723
 6380.00    0.70281   0.67053   22.583
 6381.00    0.68207   0.67034   22.634
 6382.00    0.65836   0.67001   23.187
 6383.00    0.64486   0.66968   23.812
 6384.00    0.65021   0.66925   23.938
 6385.00    0.66939   0.66872   23.716
 6386.00    0.68990   0.66797   23.503
 6387.00    0.69918   0.66717   23.268
 6388.00    0.69126   0.66640   22.924
 6389.00    0.67142   0.66561   22.613
 6390.00    0.65011   0.66504   22.515
 6391.00    0.63702   0.66442   22.684
 6392.00    0.63698   0.66424   22.925
 6393.00    0.64742   0.66443   22.767
 6394.00    0.66180   0.66468   22.182
 6395.00    0.67293   0.66509   21.859
 6396.00    0.67815   0.66553   21.948
 6397.00    0.68164   0.66602   21.573
 6398.00    0.68735   0.66642   20.456
 6399.00    0.69467   0.66723   19.515
 6400.00    0.70031   0.66796   19.308
 6401.00    0.70026   0.66834   19.701
 6402.00    0.69372   0.66854   20.430
 6403.00    0.68446   0.66850   21.286
 6404.00    0.67687   0.66824   22.076
 6405.00    0.67359   0.66792   22.633
 6406.00    0.67443   0.66749   22.889
 6407.00    0.67631   0.66727   22.939
 6408.00    0.67520   0.66710   23.048
 6409.00    0.66806   0.66668   23.507
 6410.00    0.65736   0.66654   23.994
 6411.00    0.65019   0.66651   23.650
 6412.00    0.64841   0.66653   22.836
 6413.00    0.64716   0.66651   22.862
 6414.00    0.64371   0.66675   23.576
 6415.00    0.63995   0.66699   23.381
 6416.00    0.63960   0.66748   22.417
 6417.00    0.64590   0.66804   22.379
 6418.00    0.65763   0.66866   23.216
 6419.00    0.66959   0.66943   23.233
 6420.00    0.67762   0.67028   22.325
 6421.00    0.68000   0.67114   21.916
 6422.00    0.67711   0.67150   22.082
 6423.00    0.67043   0.67159   21.899
 6424.00    0.66046   0.67140   21.522
 6425.00    0.64810   0.67099   21.870
 6426.00    0.63906   0.67036   22.899
 6427.00    0.64057   0.66964   23.662
 6428.00    0.65225   0.66886   23.678
 6429.00    0.66729   0.66818   23.309
 6430.00    0.67908   0.66786   23.144
 6431.00    0.68378   0.66768   23.154
 6432.00    0.68240   0.66765   21.663
 6433.00    0.67847   0.66778   18.208
 6434.00    0.67333   0.66808   15.478
 6435.00    0.66815   0.66853   14.727
 6436.00    0.66832   0.66899   15.287
 6437.00    0.67855   0.66947   16.061
 6438.00    0.69448   0.67027   16.602
 6439.00    0.70706   0.67088   17.143
 6440.00    0.71069   0.67101   18.047
 6441.00    0.70490   0.67070   19.474
 6442.00    0.69456   0.66994   20.822
 6443.00    0.68545   0.66885   21.198
 6444.00    0.67867   0.66752   20.954
 6445.00    0.67324   0.66621   20.975
 6446.00    0.66971   0.66483   21.436
 6447.00    0.66772   0.66373   22.109
 6448.00    0.66334   0.66283   22.762
 6449.00    0.65323   0.66275   23.119
 6450.00    0.63896   0.66281   22.858
 6451.00    0.62404   0.66302   22.022
 6452.00    0.61093   0.66320   21.189
 6453.00    0.60272   0.66332   20.761
 6454.00    0.60419   0.66331   20.638
 6455.00    0.61718   0.66349   20.739
 6456.00    0.63693   0.66353   21.332
 6457.00    0.65648   0.66357   22.481
 6458.00    0.67030   0.66350   23.504
 6459.00    0.67454   0.66359   23.786
 6460.00    0.66742   0.66371   23.731
 6461.00    0.65159   0.66410   23.828
 6462.00    0.63482   0.66498   23.951
 6463.00    0.62463   0.66567   23.838
 6464.00    0.62445   0.66639   23.457
 6465.00    0.63211   0.66684   23.007
 6466.00    0.64012   0.66724   22.798
 6467.00    0.64192   0.66731   22.846
 6468.00    0.63552   0.66731   22.789
 6469.00    0.62442   0.66716   22.476
 6470.00    0.61628   0.66687   22.186
 6471.00    0.61517   0.66666   22.215
 6472.00    0.61874   0.66617   22.660
 6473.00    0.62278   0.66558   23.169
 6474.00    0.62414   0.66489   22.995
 6475.00    0.62377   0.66424   22.165
 6476.00    0.62601   0.66341   21.535
 6477.00    0.63082   0.66255   21.460
 6478.00    0.63364   0.66165   21.696
 6479.00    0.63560   0.66068   22.049
 6480.00    0.64352   0.65957   22.500
 6481.00    0.65728   0.65839   22.930
 6482.00    0.66874   0.65694   23.107
 6483.00    0.67194   0.65499   23.057
 6484.00    0.66653   0.65242   23.060
 6485.00    0.65785   0.64931   23.269
 6486.00    0.65335   0.64561   23.591
 6487.00    0.65330   0.64164   23.652
 6488.00    0.65150   0.63748   23.122
 6489.00    0.64361   0.63367   22.477
 6490.00    0.62996   0.63039   22.464
 6491.00    0.61693   0.62807   22.947
 6492.00    0.61293   0.62682   23.170
 6493.00    0.61923   0.62690   22.960
 6494.00    0.63036   0.62852   22.745
 6495.00    0.63939   0.63096   22.829
 6496.00    0.64189   0.63452   23.234
 6497.00    0.64135   0.63825   23.621
 6498.00    0.64479   0.64234   23.566
 6499.00    0.65355   0.64625   23.204
 6500.00    0.66362   0.64978   22.935
 6501.00    0.66936   0.65281   22.776
 6502.00    0.66759   0.65521   22.601
 6503.00    0.66266   0.65700   22.583
 6504.00    0.66079   0.65818   22.878
 6505.00    0.66096   0.65880   23.104
 6506.00    0.65843   0.65895   22.932
 6507.00    0.65121   0.65869   22.995
 6508.00    0.64197   0.65823   23.890
 6509.00    0.63869   0.65751   24.799
 6510.00    0.64601   0.65673   24.521
 6511.00    0.65586   0.65593   23.577
 6512.00    0.65880   0.65526   22.975
 6513.00    0.65715   0.65476   22.791
 6514.00    0.65843   0.65446   22.759
 6515.00    0.66700   0.65444   22.794
 6516.00    0.68089   0.65462   22.907
 6517.00    0.69070   0.65488   23.093
 6518.00    0.69002   0.65525   23.280
 6519.00    0.68395   0.65554   23.321
 6520.00    0.67922   0.65568   23.228
 6521.00    0.67586   0.65569   23.316
 6522.00    0.67078   0.65551   23.719
 6523.00    0.66149   0.65526   24.068
 6524.00    0.64868   0.65485   24.103
 6525.00    0.63730   0.65441   24.121
 6526.00    0.63214   0.65399   24.280
 6527.00    0.63488   0.65358   24.189
 6528.00    0.64514   0.65317    0.000
 6529.00    0.66096   0.65275    0.000
 6530.00    0.67791   0.65234    0.000
 6531.00    0.68939   0.65187    0.000
 6532.00    0.69174   0.65135    0.000
 6533.00    0.68647   0.65062    0.000
 6534.00    0.67738   0.64966    0.000
 6535.00    0.66863   0.64830    0.000
 6536.00    0.66322   0.64667    0.000
 6537.00    0.66293   0.64464    0.000
 6538.00    0.67113   0.64231    0.000
 6539.00    0.69316   0.63963    0.000
 6540.00    0.73221   0.63674    0.000
 6541.00    0.78661   0.63366    0.000
 6542.00    0.84617   0.63043    0.000
 6543.00    0.89350   0.62711    0.000
 6544.00    0.91372   0.62353    0.000
 6545.00    0.89932   0.61979    0.000
 6546.00    0.85423   0.61563    0.000
 6547.00    0.79301   0.61092    0.000
 6548.00    0.73419   0.60548    0.000
 6549.00    0.69378   0.59927    0.000
 6550.00    0.67334   0.59217    0.000
 6551.00    0.66850   0.58431    0.000
 6552.00    0.70095   0.57567    0.000
 6553.00    0.82052   0.56667    0.000
 6554.00    1.08694   0.55757    0.000
 6555.00    1.53350   0.54901    0.000
 6556.00    2.09529   0.54145    0.000
 6557.00    2.62569   0.53548    0.000
 6558.00    2.97141   0.53157    0.000
 6559.00    3.02029   0.53017    0.000
 6560.00    2.76221   0.53155    0.000
 6561.00    2.28314   0.53545    0.000
 6562.00    1.72759   0.54190    0.000
 6563.00    1.24638   0.54973    0.000
 6564.00    0.91801   0.55811    0.000
 6565.00    0.74722   0.56665    0.000
 6566.00    0.68793   0.57493    0.000
 6567.00    0.67607   0.58262    0.000
 6568.00    0.67399   0.58962    0.000
 6569.00    0.66881   0.59591    0.000
 6570.00    0.65979   0.60150    0.000
 6571.00    0.65193   0.60647    0.000
 6572.00    0.65035   0.61104    0.000
 6573.00    0.66541   0.61508    0.000
 6574.00    0.71905   0.61888    0.000
 6575.00    0.82857   0.62208    0.000
 6576.00    0.98685   0.62503    0.000
 6577.00    1.16496   0.62740    0.000
 6578.00    1.31892   0.62953    0.000
 6579.00    1.40611   0.63120    0.000
 6580.00    1.40220   0.63256    0.000
 6581.00    1.30774   0.63359    0.000
 6582.00    1.15171   0.63418    0.000
 6583.00    0.97764   0.63451    0.000
 6584.00    0.82888   0.63450    0.000
 6585.00    0.73091   0.63426    0.000
 6586.00    0.67942   0.63393    0.000
 6587.00    0.65717   0.63344    0.000
 6588.00    0.64868   0.63309    0.000
 6589.00    0.64439   0.63278    0.000
 6590.00    0.64228   0.63290    0.000
 6591.00    0.64201   0.63328    0.000
 6592.00    0.64145   0.63408    0.000
 6593.00    0.64044   0.63514    0.000
 6594.00    0.64255   0.63627    0.000
 6595.00    0.65000   0.63742    0.000
 6596.00    0.66086   0.63849    0.000
 6597.00    0.67000   0.63939    0.000
 6598.00    0.67109   0.64005    0.000
 6599.00    0.66283   0.64044    0.000
 6600.00    0.65128   0.64057    0.000
 6601.00    0.64532   0.64053    0.000
 6602.00    0.65239   0.64044    0.000
 6603.00    0.67021   0.64035    0.000
 6604.00    0.68603   0.64040    0.000
 6605.00    0.68933   0.64060    0.000
 6606.00    0.67739   0.64103    0.000
 6607.00    0.65565   0.64172    0.000
 6608.00    0.63472   0.64247    0.000
 6609.00    0.62009   0.64344   23.350
 6610.00    0.61104   0.64420   23.793
 6611.00    0.60988   0.64510   24.176
 6612.00    0.62140   0.64565   24.225
 6613.00    0.64104   0.64620   24.170
 6614.00    0.65621   0.64634   24.581
 6615.00    0.66111   0.64636   25.319
 6616.00    0.65890   0.64603   25.550
 6617.00    0.65524   0.64554   25.056
 6618.00    0.65477   0.64483   24.386
 6619.00    0.65733   0.64395   23.945
 6620.00    0.65924   0.64299   23.805
 6621.00    0.65883   0.64193   23.760
 6622.00    0.65685   0.64097   23.541
 6623.00    0.65429   0.63995   23.270
 6624.00    0.65142   0.63908   23.236
 6625.00    0.64681   0.63820   23.296
 6626.00    0.63885   0.63747   23.165
 6627.00    0.62897   0.63681   23.141
 6628.00    0.62016   0.63633   23.626
 6629.00    0.61328   0.63600   24.043
 6630.00    0.60837   0.63582   23.597
 6631.00    0.60772   0.63590   23.109
 6632.00    0.61453   0.63602   23.678
 6633.00    0.62988   0.63629   24.651
 6634.00    0.65044   0.63652   24.630
 6635.00    0.66635   0.63671   24.080
 6636.00    0.66818   0.63685   24.183
 6637.00    0.65666   0.63690   24.834
 6638.00    0.63904   0.63699   25.235
 6639.00    0.62269   0.63690   24.991
 6640.00    0.61291   0.63698   24.334
 6641.00    0.61132   0.63701   23.910
 6642.00    0.61675   0.63717   24.005
 6643.00    0.62651   0.63728   23.980
 6644.00    0.63625   0.63745   23.382
 6645.00    0.64000   0.63754   23.010
 6646.00    0.63515   0.63760   23.453
 6647.00    0.62667   0.63755   23.957
 6648.00    0.62215   0.63737   23.707
 6649.00    0.62664   0.63711   23.245
 6650.00    0.64020   0.63666   23.195
 6651.00    0.65680   0.63616   23.311
 6652.00    0.66906   0.63545   23.319
 6653.00    0.67248   0.63469   23.530
 6654.00    0.66748   0.63383   24.134
 6655.00    0.65975   0.63291   24.673
 6656.00    0.65363   0.63204   24.605
 6657.00    0.64811   0.63119   23.965
 6658.00    0.64110   0.63055   23.654
 6659.00    0.63234   0.62999   25.060
 6660.00    0.62358   0.62980   26.833
 6661.00    0.61807   0.62981   24.032
 6662.00    0.61781   0.63006   18.393
 6663.00    0.62207   0.63045   15.634
 6664.00    0.62821   0.63089   15.472
 6665.00    0.63271   0.63130   15.952
 6666.00    0.63400   0.63158   15.892
 6667.00    0.63358   0.63161   15.765
 6668.00    0.63448   0.63136   15.816
 6669.00    0.63991   0.63081   15.524
 6670.00    0.65026   0.63008   15.099
 6671.00    0.66212   0.62914   15.577
 6672.00    0.66932   0.62825   17.470
 6673.00    0.66586   0.62732   20.350
 6674.00    0.65432   0.62669   23.038
 6675.00    0.64524   0.62639   24.225
 6676.00    0.64441   0.62652   24.048
 6677.00    0.64973   0.62684   23.959
 6678.00    0.65590   0.62747   24.380
 6679.00    0.65775   0.62818   24.639
 6680.00    0.65557   0.62900   24.668
 6681.00    0.65388   0.62974   25.052
 6682.00    0.65413   0.63038   25.522
 6683.00    0.65468   0.63088   25.157
 6684.00    0.65611   0.63114   24.326
 6685.00    0.66036   0.63128   24.129
 6686.00    0.66556   0.63116   24.425
 6687.00    0.66757   0.63094   24.287
 6688.00    0.66618   0.63050   23.791
 6689.00    0.66424   0.63007   23.695
 6690.00    0.66300   0.62950   24.040
 6691.00    0.66226   0.62903   24.313
 6692.00    0.66255   0.62849   24.198
 6693.00    0.66429   0.62819   23.785
 6694.00    0.66554   0.62788   23.522
 6695.00    0.66336   0.62778   23.752
 6696.00    0.65657   0.62766    0.000
 6697.00    0.64602   0.62767    0.000
 6698.00    0.63409   0.62755    0.000
 6699.00    0.62377   0.62753    0.000
 6700.00    0.61729   0.62729    0.000
 6701.00    0.61531   0.62716    0.000
 6702.00    0.61621   0.62677    0.000
 6703.00    0.61869   0.62639    0.000
 6704.00    0.62518   0.62568    0.000
 6705.00    0.64078   0.62493    0.000
 6706.00    0.67145   0.62386    0.000
 6707.00    0.72460   0.62272    0.000
 6708.00    0.80898   0.62144    0.000
 6709.00    0.92373   0.62006    0.000
 6710.00    1.04791   0.61876    0.000
 6711.00    1.15092   0.61754    0.000
 6712.00    1.20440   0.61656    0.000
 6713.00    1.18986   0.61580    0.000
 6714.00    1.10528   0.61543    0.000
 6715.00    0.97006   0.61551    0.000
 6716.00    0.82572   0.61581    0.000
 6717.00    0.71010   0.61637    0.000
 6718.00    0.63773   0.61704    0.000
 6719.00    0.60771   0.61792    0.000
 6720.00    0.61200   0.61873    0.000
 6721.00    0.64490   0.61956    0.000
 6722.00    0.70764   0.62024    0.000
 6723.00    0.79742   0.62087    0.000
 6724.00    0.90042   0.62142    0.000
 6725.00    0.99454   0.62174    0.000
 6726.00    1.05350   0.62204    0.000
 6727.00    1.05944   0.62205    0.000
 6728.00    1.01018   0.62207    0.000
 6729.00    0.91979   0.62178    0.000
 6730.00    0.81526   0.62154    0.000
 6731.00    0.72014   0.62103    0.000
 6732.00    0.64750   0.62056    0.000
 6733.00    0.60539   0.61988    0.000
 6734.00    0.59717   0.61922    0.000
 6735.00    0.61188   0.61846    0.000
 6736.00    0.62633   0.61777    0.000
 6737.00    0.62913   0.61703    0.000
 6738.00    0.62624   0.61635    0.000
 6739.00    0.62560   0.61564    0.000
 6740.00    0.63034   0.61505    0.000
 6741.00    0.63599   0.61451    0.000
 6742.00    0.63350   0.61401    0.000
 6743.00    0.62150   0.61365    0.000
 6744.00    0.60729   0.61335    0.000
 6745.00    0.59790   0.61329    0.000
 6746.00    0.59694   0.61333    0.000
 6747.00    0.60374   0.61365    0.000
 6748.00    0.61433   0.61416    0.000
 6749.00    0.62457   0.61482    0.000
 6750.00    0.63134   0.61569    0.000
 6751.00    0.63333   0.61663    0.000
 6752.00    0.63065   0.61757    0.000
 6753.00    0.62375   0.61851   24.423
 6754.00    0.61519   0.61925   24.087
 6755.00    0.61362   0.61991   23.092
 6756.00    0.62580   0.62018   20.603
 6757.00    0.64034   0.62038   18.111
 6758.00    0.63920   0.62014   16.820
 6759.00    0.62363   0.61987   16.318
 6760.00    0.60588   0.61930   15.960
 6761.00    0.58769   0.61874   16.007
 6762.00    0.56816   0.61814   16.971
 6763.00    0.56085   0.61763   18.399
 6764.00    0.57882   0.61732   19.063
 6765.00    0.60969   0.61715   18.790
 6766.00    0.63219   0.61733   18.400
 6767.00    0.64345   0.61756   18.392
 6768.00    0.65162   0.61813   18.851
 6769.00    0.66192   0.61865   19.490
 6770.00    0.67623   0.61930   19.903
 6771.00    0.69468   0.61975   20.024
 6772.00    0.71289   0.62008   20.010
 6773.00    0.71960   0.62014   19.958
 6774.00    0.70816   0.61991   19.893
 6775.00    0.68766   0.61943   19.817
 6776.00    0.67098   0.61863   19.899
 6777.00    0.66207   0.61774   20.583
 6778.00    0.65723   0.61664   21.556
 6779.00    0.64853   0.61570   20.696
 6780.00    0.63432   0.61470   17.860
 6781.00    0.62591   0.61402   15.828
 6782.00    0.62929   0.61338   15.456
 6783.00    0.63256   0.61306   15.872
 6784.00    0.62508   0.61279   16.181
 6785.00    0.61129   0.61274   16.319
 6786.00    0.60168   0.61272   16.481
 6787.00    0.60466   0.61279   16.595
 6788.00    0.61862   0.61289   16.403
 6789.00    0.62997   0.61301   15.737
 6790.00    0.63084   0.61315   15.277
 6791.00    0.62811   0.61334   16.444
 6792.00    0.63284   0.61352   19.771
 6793.00    0.65202   0.61374   22.050
 6794.00    0.67860   0.61395   20.383
 6795.00    0.69183   0.61417   18.759
 6796.00    0.68372   0.61433   18.989
 6797.00    0.66709   0.61446   19.825
 6798.00    0.65179   0.61447   20.256
 6799.00    0.63702   0.61445   20.749
 6800.00    0.62666   0.61431   21.555
 6801.00    0.63043   0.61412   22.008
 6802.00    0.64220   0.61388   21.879
 6803.00    0.64039   0.61361   21.763
 6804.00    0.62165   0.61329   21.725
 6805.00    0.60452   0.61304   21.215
 6806.00    0.59865   0.61278   20.417
 6807.00    0.59856   0.61259   20.117
 6808.00    0.59922   0.61242   20.505
 6809.00    0.59990   0.61232   21.218
 6810.00    0.60055   0.61231   22.095
 6811.00    0.60182   0.61233   23.224
 6812.00    0.60864   0.61246   24.091
 6813.00    0.62667   0.61254   23.702
 6814.00    0.65120   0.61274   22.243
 6815.00    0.67034   0.61289   20.703
 6816.00    0.67975   0.61315   19.339
 6817.00    0.68072   0.61328   18.083
 6818.00    0.66815   0.61346   17.297
 6819.00    0.63590   0.61351   17.459
 6820.00    0.59325   0.61356   18.708
 6821.00    0.55986   0.61351   20.839
 6822.00    0.54904   0.61340   22.891
 6823.00    0.56383   0.61329   23.424
 6824.00    0.59630   0.61312   22.927
 6825.00    0.63190   0.61296   22.979
 6826.00    0.65741   0.61270   23.767
 6827.00    0.66529   0.61241   24.561
 6828.00    0.65807   0.61203   24.942
 6829.00    0.64512   0.61151   24.839
 6830.00    0.63629   0.61090   24.124
 6831.00    0.63713   0.61008   22.915
 6832.00    0.64396   0.60924   21.835
 6833.00    0.65017   0.60821   21.299
 6834.00    0.65491   0.60731   21.035
 6835.00    0.65727   0.60636   20.742
 6836.00    0.64905   0.60568   20.722
 6837.00    0.62705   0.60514   21.297
 6838.00    0.60647   0.60491   22.117
 6839.00    0.60371   0.60487   22.295
 6840.00    0.61724   0.60506   21.053
 6841.00    0.63324   0.60536   18.926
 6842.00    0.63458   0.60575   17.422
 6843.00    0.61609   0.60611   17.137
 6844.00    0.59518   0.60637   17.615
 6845.00    0.58569   0.60647   18.364
 6846.00    0.57832   0.60638   19.534
 6847.00    0.57156   0.60609   21.347
 6848.00    0.59113   0.60564   23.279
 6849.00    0.63833   0.60506   24.436
 6850.00    0.66109   0.60442   24.612
 6851.00    0.63277   0.60381   24.300
 6852.00    0.59732   0.60322   24.142
 6853.00    0.58976   0.60277   24.324
 6854.00    0.59089   0.60241   24.416
 6855.00    0.58267   0.60227   24.150
 6856.00    0.57816   0.60220   23.824
 6857.00    0.58811   0.60233   23.598
 6858.00    0.60390   0.60241   23.240
 6859.00    0.61362   0.60264   22.735
 6860.00    0.61178   0.60274   22.402
 6861.00    0.60232   0.60296   22.187
 6862.00    0.59642   0.60300   21.621
 6863.00    0.59712   0.60314   20.906
 6864.00    0.59600   0.60312   20.882
 6865.00    0.58991   0.60324   21.724
 6866.00    0.58610   0.60329   22.698
 6867.00    0.59324   0.60346   23.238
 6868.00    0.61525   0.60364   23.462
 6869.00    0.64274   0.60390   23.230
 6870.00    0.65642   0.60420   22.135
 6871.00    0.64912   0.60447   20.709
 6872.00    0.62924   0.60475   19.951
 6873.00    0.60672   0.60493   20.180
 6874.00    0.58811   0.60511   21.192
 6875.00    0.57607   0.60519   22.495
 6876.00    0.57000   0.60530   23.352
 6877.00    0.56783   0.60537   23.539
 6878.00    0.56716   0.60551   23.509
 6879.00    0.56662   0.60573   23.547
 6880.00    0.56728   0.60605   23.601
 6881.00    0.57502   0.60650   23.507
 6882.00    0.59522   0.60702   23.196
 6883.00    0.62021   0.60763   22.973
 6884.00    0.63499   0.60824   23.214
 6885.00    0.63530   0.60883   23.699
 6886.00    0.62596   0.60935   23.873
 6887.00    0.61031   0.60976   23.801
 6888.00    0.59104   0.61008   23.956
 6889.00    0.57525   0.61025   24.434
 6890.00    0.56964   0.61035   24.963
 6891.00    0.57102   0.61034   25.189
 6892.00    0.57228   0.61032   24.921
 6893.00    0.57417   0.61028   24.407
 6894.00    0.58125   0.61026   23.980
 6895.00    0.59317   0.61028   23.591
 6896.00    0.60488   0.61033   23.111
 6897.00    0.60920   0.61048   22.736
 6898.00    0.60269   0.61059   22.713
 6899.00    0.59233   0.61079   23.008
 6900.00    0.58918   0.61088   23.299
 6901.00    0.59941   0.61101   23.033
 6902.00    0.62070   0.61095   22.099
 6903.00    0.64027   0.61089   21.301
 6904.00    0.64683   0.61058   21.216
 6905.00    0.64235   0.61027   21.494
 6906.00    0.63156   0.60974   21.709
 6907.00    0.61142   0.60926   22.176
 6908.00    0.58244   0.60865   23.272
 6909.00    0.55839   0.60816   24.644
 6910.00    0.55093   0.60767   25.564
 6911.00    0.55663   0.60734   25.689
 6912.00    0.56539   0.60707   25.323
 6913.00    0.56875   0.60698   25.198
 6914.00    0.56530   0.60693   25.579
 6915.00    0.56265   0.60703   25.811
 6916.00    0.56620   0.60710   25.414
 6917.00    0.57247   0.60728   24.861
 6918.00    0.57930   0.60737   24.663
 6919.00    0.59103   0.60758   24.856
 6920.00    0.60761   0.60769   25.047
 6921.00    0.61974   0.60791   24.582
 6922.00    0.62068   0.60808   23.589
 6923.00    0.61242   0.60834   23.058
 6924.00    0.60075   0.60857   23.321
 6925.00    0.59159   0.60884   23.761
 6926.00    0.58667   0.60912   23.943
 6927.00    0.58301   0.60937   24.125
 6928.00    0.57965   0.60962   24.522
 6929.00    0.57967   0.60981   24.966
 6930.00    0.58490   0.61001   25.143
 6931.00    0.59389   0.61012   24.831
 6932.00    0.60299   0.61022   24.241
 6933.00    0.60821   0.61022   23.862
 6934.00    0.61014   0.61021   23.762
 6935.00    0.61345   0.61007   23.572
 6936.00    0.61922   0.60994   23.087
 6937.00    0.62429   0.60968   22.421
 6938.00    0.62802   0.60949   21.815
 6939.00    0.63253   0.60919   21.453
 6940.00    0.63699   0.60903   21.216
 6941.00    0.63764   0.60878   20.865
 6942.00    0.63298   0.60871   20.635
 6943.00    0.62450   0.60857   21.007
 6944.00    0.61471   0.60859   21.832
 6945.00    0.60629   0.60855   22.409
 6946.00    0.60131   0.60864   22.615
 6947.00    0.60013   0.60869   22.947
 6948.00    0.59954   0.60884   23.528
 6949.00    0.59589   0.60899   24.065
 6950.00    0.59234   0.60921   24.373
 6951.00    0.59547   0.60947   24.462
 6952.00    0.60586   0.60977   24.386
 6953.00    0.61898   0.61012   24.219
 6954.00    0.63044   0.61047   24.060
 6955.00    0.63848   0.61085   23.952
 6956.00    0.64628   0.61118   23.749
 6957.00    0.65496   0.61152   23.303
 6958.00    0.65262   0.61179   22.757
 6959.00    0.62799   0.61202   22.417
 6960.00    0.59258   0.61218   22.549
 6961.00    0.56857   0.61222   23.112
 6962.00    0.56745   0.61218   23.337
 6963.00    0.58646   0.61195   22.640
 6964.00    0.60903   0.61159   21.939
 6965.00    0.62018   0.61099   22.168
 6966.00    0.62406   0.61022   22.965
 6967.00    0.63089   0.60921   23.474
 6968.00    0.64005   0.60806   23.531
 6969.00    0.64468   0.60679   23.460
 6970.00    0.63893   0.60549   23.504
 6971.00    0.62276   0.60428   23.733
 6972.00    0.60510   0.60325   24.031
 6973.00    0.59433   0.60251   24.162
 6974.00    0.58989   0.60214   23.892
 6975.00    0.58757   0.60215   23.372
 6976.00    0.58490   0.60256   23.251
 6977.00    0.58197   0.60325   23.706
 6978.00    0.58115   0.60423   23.846
 6979.00    0.58348   0.60528   23.128
 6980.00    0.58638   0.60639   22.371
 6981.00    0.58678   0.60739   22.183
 6982.00    0.58380   0.60829   22.274
 6983.00    0.58056   0.60898   22.350
 6984.00    0.58388   0.60948   22.574
 6985.00    0.59552   0.60982   22.988
 6986.00    0.60834   0.60995   23.205
 6987.00    0.61470   0.61000   23.131
 6988.00    0.61168   0.60984   23.271
 6989.00    0.60108   0.60967   23.830
 6990.00    0.58842   0.60927   24.358
 6991.00    0.57816   0.60893   24.594
 6992.00    0.57207   0.60836   24.828
 6993.00    0.57247   0.60790   25.012
 6994.00    0.58205   0.60723   24.578
 6995.00    0.59590   0.60674   23.720
 6996.00    0.60175   0.60610   23.376
 6997.00    0.59460   0.60569   23.727
 6998.00    0.58020   0.60519   24.062
 6999.00    0.56541   0.60494   23.897
 7000.00    0.55475   0.60462   23.417
 7001.00    0.55118   0.60452   -2.000
 7002.00    0.55608   0.60435   -2.000
 7003.00    0.56803   0.60430   -2.000
 7004.00    0.58291   0.60415   -2.000
 7005.00    0.59543   0.60405   -2.000
 7006.00    0.60102   0.60383   -2.000
 7007.00    0.59971   0.60361   -2.000
 7008.00    0.59561   0.60332   -2.000
 7009.00    0.59269   0.60304   -2.000
 7010.00    0.59235   0.60279   -2.000
 7011.00    0.59060   0.60258   -2.000
 7012.00    0.58201   0.60251   -2.000
 7013.00    0.57009   0.60249   -2.000
 7014.00    0.56448   0.60265   -2.000
 7015.00    0.57002   0.60281   -2.000
 7016.00    0.58502   0.60315   -2.000
 7017.00    0.60274   0.60343   -2.000
 7018.00    0.61436   0.60387   -2.000
 7019.00    0.61413   0.60424   -2.000
 7020.00    0.60164   0.60473   -2.000
 7021.00    0.58372   0.60518   -2.000
 7022.00    0.56982   0.60572   -2.000
 7023.00    0.56399   0.60625   -2.000
 7024.00    0.56623   0.60680   -2.000
 7025.00    0.57608   0.60736   -2.000
 7026.00    0.58865   0.60789   -2.000
 7027.00    0.58938   0.60842   -2.000
 7028.00    0.57136   0.60891   -2.000
 7029.00    0.55667   0.60945   -2.000
 7030.00    0.56730   0.60998   -2.000
 7031.00    0.58825   0.61063   -2.000
 7032.00    0.59394   0.61136   -2.000
 7033.00    0.58253   0.61223   -2.000
 7034.00    0.56788   0.61323   -2.000
 7035.00    0.56585   0.61434   -2.000
 7036.00    0.58113   0.61553   -2.000
 7037.00    0.59771   0.61669   -2.000
 7038.00    0.60091   0.61780   -2.000
 7039.00    0.59714   0.61871   -2.000
 7040.00    0.59771   0.61939   -2.000
 7041.00    0.60356   0.61973   -2.000
 7042.00    0.60902   0.61971   -2.000
 7043.00    0.60712   0.61928   -2.000
 7044.00    0.60107   0.61846   -2.000
 7045.00    0.60833   0.61725   -2.000
 7046.00    0.62831   0.61573   -2.000
 7047.00    0.62774   0.61395   -2.000
 7048.00    0.59779   0.61203   -2.000
 7049.00    0.58010   0.61000   -2.000
 7050.00    0.58670   0.60803   -2.000
 7051.00    0.56695   0.60611   -2.000
 7052.00    0.51047   0.60437   -2.000
 7053.00    0.48610   0.60278   -2.000
 7054.00    0.52262   0.60143   -2.000
 7055.00    0.56362   0.60026   -2.000
 7056.00    0.57225   0.59932   -2.000
 7057.00    0.57190   0.59854   -2.000
 7058.00    0.58228   0.59796   -2.000
 7059.00    0.59464   0.59754   -2.000
 7060.00    0.60001   0.59727   -2.000
 7061.00    0.60011   0.59718   -2.000
 7062.00    0.59896   0.59724   -2.000
 7063.00    0.59893   0.59747   -2.000
 7064.00    0.59955   0.59783   -2.000
 7065.00    0.59909   0.59834   -2.000
 7066.00    0.60135   0.59893   -2.000
 7067.00    0.61312   0.59957   -2.000
 7068.00    0.62861   0.60018   -2.000
 7069.00    0.63167   0.60070   -2.000
 7070.00    0.61786   0.60104   -2.000
 7071.00    0.59767   0.60115   -2.000
 7072.00    0.58566   0.60095   -2.000
 7073.00    0.59254   0.60042   -2.000
 7074.00    0.61318   0.59950   -2.000
 7075.00    0.63128   0.59822   -2.000
 7076.00    0.63840   0.59657   -2.000
 7077.00    0.63508   0.59462   -2.000
 7078.00    0.62241   0.59242   -2.000
 7079.00    0.60169   0.59006   -2.000
 7080.00    0.57820   0.58766   -2.000
 7081.00    0.56032   0.58525   -2.000
 7082.00    0.55629   0.58303   -2.000
 7083.00    0.56924   0.58094   -2.000
 7084.00    0.58977   0.57923   -2.000
 7085.00    0.60346   0.57772   -2.000
 7086.00    0.60608   0.57671   -2.000
 7087.00    0.60189   0.57590   -2.000
 7088.00    0.59653   0.57560   -2.000
 7089.00    0.59394   0.57550   -2.000
 7090.00    0.59365   0.57578   -2.000
 7091.00    0.59313   0.57628   -2.000
 7092.00    0.59172   0.57695   -2.000
 7093.00    0.58982   0.57784   -2.000
 7094.00    0.58739   0.57866   -2.000
 7095.00    0.58520   0.57970   -2.000
 7096.00    0.58627   0.58046   -2.000
 7097.00    0.59070   0.58140   -2.000
 7098.00    0.59044   0.58195   -2.000
 7099.00    0.58065   0.58260   -2.000
 7100.00    0.57132   0.58288   -2.000
 7101.00    0.57387   0.58320   -2.000
 7102.00    0.58683   0.58324   -2.000
 7103.00    0.59886   0.58330   -2.000
 7104.00    0.59450   0.58322   -2.000
 7105.00    0.57065   0.58318   -2.000
 7106.00    0.54749   0.58311   -2.000
 7107.00    0.54126   0.58312   -2.000
 7108.00    0.54401   0.58314   -2.000
 7109.00    0.54674   0.58324   -2.000
 7110.00    0.55537   0.58334   -2.000
 7111.00    0.56989   0.58347   -2.000
 7112.00    0.57351   0.58352   -2.000
 7113.00    0.56559   0.58352   -2.000
 7114.00    0.57513   0.58336   -2.000
 7115.00    0.60378   0.58311   -2.000
 7116.00    0.60426   0.58263   -2.000
 7117.00    0.56473   0.58204   -2.000
 7118.00    0.54117   0.58124   -2.000
 7119.00    0.56106   0.58036   -2.000
 7120.00    0.58447   0.57936   -2.000
 7121.00    0.57795   0.57834   -2.000
 7122.00    0.54789   0.57736   -2.000
 7123.00    0.51487   0.57642   -2.000
 7124.00    0.49787   0.57570   -2.000
 7125.00    0.50269   0.57511   -2.000
 7126.00    0.52058   0.57483   -2.000
 7127.00    0.54288   0.57471   -2.000
 7128.00    0.56593   0.57490   -2.000
 7129.00    0.58669   0.57522   -2.000
 7130.00    0.60118   0.57573   -2.000
 7131.00    0.60533   0.57629   -2.000
 7132.00    0.59809   0.57687   -2.000
 7133.00    0.59011   0.57743   -2.000
 7134.00    0.59872   0.57783   -2.000
 7135.00    0.62434   0.57819   -2.000
 7136.00    0.64739   0.57830   -2.000
 7137.00    0.64114   0.57838   -2.000
 7138.00    0.59045   0.57823   -2.000
 7139.00    0.52948   0.57811   -2.000
 7140.00    0.51769   0.57785   -2.000
 7141.00    0.55749   0.57774   -2.000
 7142.00    0.60271   0.57763   -2.000
 7143.00    0.62525   0.57777   -2.000
 7144.00    0.62403   0.57803   -2.000
 7145.00    0.60994   0.57855   -2.000
 7146.00    0.59661   0.57923   -2.000
 7147.00    0.58890   0.58009   -2.000
 7148.00    0.58359   0.58100   -2.000
 7149.00    0.57507   0.58194   -2.000
 7150.00    0.56054   0.58277   -2.000
 7151.00    0.54658   0.58346   -2.000
 7152.00    0.54153   0.58392   -2.000
 7153.00    0.54182   0.58414   -2.000
 7154.00    0.54042   0.58409   -2.000
 7155.00    0.54234   0.58384   -2.000
 7156.00    0.55566   0.58342   -2.000
 7157.00    0.57580   0.58294   -2.000
 7158.00    0.58934   0.58246   -2.000
 7159.00    0.58245   0.58207   -2.000
 7160.00    0.55037   0.58185   -2.000
 7161.00    0.50726   0.58182   -2.000
 7162.00    0.48149   0.58202   -2.000
 7163.00    0.50588   0.58240   -2.000
 7164.00    0.58026   0.58294   -2.000
 7165.00    0.63944   0.58354   -2.000
 7166.00    0.62990   0.58415   -2.000
 7167.00    0.58368   0.58467   -2.000
 7168.00    0.54946   0.58505   -2.000
 7169.00    0.52611   0.58525   -2.000
 7170.00    0.50849   0.58523   -2.000
 7171.00    0.52652   0.58503   -2.000
 7172.00    0.59096   0.58462   -2.000
 7173.00    0.65407   0.58409   -2.000
 7174.00    0.67210   0.58343   -2.000
 7175.00    0.65135   0.58273   -2.000
 7176.00    0.61545   0.58198   -2.000
 7177.00    0.57998   0.58124   -2.000
 7178.00    0.55566   0.58053   -2.000
 7179.00    0.54917   0.57984   -2.000
 7180.00    0.54892   0.57924   -2.000
 7181.00    0.52641   0.57869   -2.000
 7182.00    0.49574   0.57827   -2.000
 7183.00    0.52578   0.57795   -2.000
 7184.00    0.61682   0.57777   -2.000
 7185.00    0.66453   0.57775   -2.000
 7186.00    0.62131   0.57783   -2.000
 7187.00    0.55367   0.57808   -2.000
 7188.00    0.51802   0.57836   -2.000
 7189.00    0.51077   0.57875   -2.000
 7190.00    0.51734   0.57908   -2.000
 7191.00    0.53246   0.57941   -2.000
 7192.00    0.55007   0.57963   -2.000
 7193.00    0.56031   0.57975   -2.000
 7194.00    0.55543   0.57976   -2.000
 7195.00    0.53478   0.57960   -2.000
 7196.00    0.51371   0.57939   -2.000
 7197.00    0.51620   0.57901   -2.000
 7198.00    0.54114   0.57864   -2.000
 7199.00    0.56051   0.57818   -2.000
 7200.00    0.54845   0.57782   -2.000
 7201.00    0.50079   0.57745   -2.000
 7202.00    0.46216   0.57730   -2.000
 7203.00    0.49653   0.57721   -2.000
 7204.00    0.59089   0.57739   -2.000
 7205.00    0.66971   0.57769   -2.000
 7206.00    0.69440   0.57821   -2.000
 7207.00    0.67222   0.57888   -2.000
 7208.00    0.61828   0.57964   -2.000
 7209.00    0.55073   0.58051   -2.000
 7210.00    0.49945   0.58138   -2.000
 7211.00    0.48795   0.58228   -2.000
 7212.00    0.49519   0.58313   -2.000
 7213.00    0.48364   0.58395   -2.000
 7214.00    0.46455   0.58473   -2.000
 7215.00    0.47198   0.58546   -2.000
 7216.00    0.49757   0.58619   -2.000
 7217.00    0.51352   0.58689   -2.000
 7218.00    0.52673   0.58760   -2.000
