###################################################################
## OUTPUT of StarlightChains_v04.for    [Cid@UFSC - 01/Apr/2007] ##
###################################################################

## Some input info
2001ch.txt                               [arq_obs]
Base.CB07.vall.4m                        [arq_base]
Masks.EmLines.NEW.gm                     [arq_masks]
StCv04.C11.config                        [arq_config]
   66                                    [N_base]
    0                                    [N_YAV_components = # of components with extra extinction!]
    0                                    [i_FitPowerLaw (1/0 = Yes/No)]
-9.99                                    [alpha_PowerLaw]
CCM                                      [red_law_option]
 1.458241                                [q_norm = A(l_norm)/A(V)]

## (Re)Sampling Parameters
 3741.00                                 [l_ini (A)]
 7218.00                                 [l_fin (A)]
    1.00                                 [dl    (A)]     (OBS: dl_cushion =    50.00 A)

## Normalization info
 4020.00                                 [l_norm (A) - for base]
 4010.00                                 [llow_norm (A) - window for f_obs]
 4060.00                                 [lupp_norm (A) - window for f_obs]
1.430557E-16                             [fobs_norm (in input units)]

## S/N
 3691.00                                 [llow_SN (A) - window for S/N]
 7268.00                                 [lupp_SN (A) - window for S/N]
   3.481                                 [S/N in S/N window]
   5.137                                 [S/N in norm. window]
   7.494                                 [S/N_err in S/N window]
  11.058                                 [S/N_err in norm. window]
  1.0000                                 [fscale_chi2]

## etc...
    -2007253                             [idum_orig]
  2385                                   [NOl_eff]
  2382                                   [Nl_eff]
     3    NSIGMA                         [Ntot_cliped & clip_method]
   992460                                [Nglobal_steps]
   7                                     [N_chains]
  15                                     [NEX0s_base = N_base in EX0s-fits]
 0   0   1       30   2.0   1.885E+01    [Clip-Bug, RC-Crash & Burn-In warning-flags, n_censored_weights, wei_nsig_threshold & wei_limit]
    15     14.317     13.817      0.500  [idt_all, wdt_TotTime, wdt_UsrTime & wdt_SysTime (sec)]

## Synthesis Results - Best model ##

 2.61440E-01                             [chi2/Nl_eff]
     5.25328                             [adev (%)]

   101.21119                             [sum-of-x (%)]
 3.79477E-16                             [Flux_tot (units of input spectrum!)]
 3.02072E-12                             [Mini_tot (???)]
 1.52649E-12                             [Mcor_tot (???)]

-499.45                                  [v0_min  (km/s)]
 150.00                                  [vd_min  (km/s)]
 0.7174                                  [AV_min  (mag)]
 0.0000                                  [YAV_min (mag)]

# j     x_j(%)      Mini_j(%)     Mcor_j(%)     age_j(yr)     Z_j      (L/M)_j    YAV?  Mstars   component_j        a/Fe...       SSP_chi2r SSP_adev(%)   SSP_AV   SSP_x(%)
  1     10.2417     1.1620E-01    2.2994E-01    1.000000E+06  0.00400  1.094E-02    0   1.0000   age020_m42            0.0000     4.3233E-01     6.8798   1.8206    93.0632
  2      0.0000     0.0000E+00    0.0000E+00    3.160000E+06  0.00400  4.007E-02    0   0.9999   age045_m42            0.0000     4.3437E-01     6.9076   1.1447    97.2292
  3      0.0000     0.0000E+00    0.0000E+00    5.010000E+06  0.00400  2.539E-02    0   0.9488   age055_m42            0.0000     4.2164E-01     6.8164   1.4420    95.8663
  4      0.0000     0.0000E+00    0.0000E+00    6.610000E+06  0.00400  2.620E-02    0   0.9220   age061_m42            0.0000     4.2472E-01     6.7823   1.0730    97.4291
  5      0.0000     0.0000E+00    0.0000E+00    1.000000E+07  0.00400  1.322E-02    0   0.8862   age070_m42            0.0000     3.3979E-01     5.9898   0.7805   100.2527
  6      0.0000     0.0000E+00    0.0000E+00    1.445000E+07  0.00400  7.883E-03    0   0.8571   age078_m42            0.0000     3.3933E-01     6.0182   1.0967    98.1944
  7      0.0000     0.0000E+00    0.0000E+00    2.512000E+07  0.00400  5.251E-03    0   0.8174   age090_m42            0.0000     3.3693E-01     5.9420   0.6526   100.7604
  8      0.0000     0.0000E+00    0.0000E+00    4.000000E+07  0.00400  3.649E-03    0   0.7851   age104_m42            0.0000     3.5224E-01     6.0543   0.4328   101.1872
  9      0.0000     0.0000E+00    0.0000E+00    5.500000E+07  0.00400  3.098E-03    0   0.7629   age110_m42            0.0000     3.9705E-01     6.3955   0.6005   100.4524
 10      0.0000     0.0000E+00    0.0000E+00    1.015200E+08  0.00400  2.228E-03    0   0.7207   age116_m42            0.0000     4.3304E-01     6.6641   0.6310   100.1176
 11      0.0000     0.0000E+00    0.0000E+00    2.861200E+08  0.00400  1.093E-03    0   0.6648   age125_m42            0.0000     4.2492E-01     6.4663   0.0692   102.8107
 12      0.0000     0.0000E+00    0.0000E+00    5.088000E+08  0.00400  6.597E-04    0   0.6365   age130_m42            0.0000     4.8448E-01     6.9023   0.0721   102.9347
 13      0.0000     0.0000E+00    0.0000E+00    1.434000E+09  0.00400  2.132E-04    0   0.5798   age139_m42            0.0000     5.5455E-01     7.5324  -0.8890   104.2394
 14      0.0000     0.0000E+00    0.0000E+00    4.250000E+09  0.00400  5.895E-05    0   0.5377   age158_m42            0.0000     9.0627E-01     9.5616  -1.0000    88.5357
 15      4.0434     1.4298E+01    1.4747E+01    7.500000E+09  0.00400  3.510E-05    0   0.5212   age171_m42            0.0000     1.3071E+00    11.4513  -1.0000    81.5178
 16      0.0000     0.0000E+00    0.0000E+00    1.300000E+10  0.00400  2.005E-05    0   0.5034   age193_m42            0.0000     1.7562E+00    13.3286  -1.0000    75.6571
 17      1.6133     1.3131E+01    1.2906E+01    1.800000E+10  0.00400  1.525E-05    0   0.4967   age213_m42            0.0000     1.8121E+00    13.6015  -1.0000    74.5870
 18     15.4314     1.5471E-01    3.0616E-01    1.000000E+06  0.00800  1.238E-02    0   1.0000   age020_m52            0.0000     4.3382E-01     6.8913   1.8166    93.2541
 19      0.0000     0.0000E+00    0.0000E+00    3.160000E+06  0.00800  3.074E-02    0   0.9966   age045_m52            0.0000     4.3712E-01     6.9285   1.7435    93.9225
 20      0.0000     0.0000E+00    0.0000E+00    5.010000E+06  0.00800  2.668E-02    0   0.9443   age055_m52            0.0000     4.1860E-01     6.7760   1.5174    95.3291
 21      0.0000     0.0000E+00    0.0000E+00    6.610000E+06  0.00800  2.136E-02    0   0.9177   age061_m52            0.0000     3.4294E-01     6.0874   0.2707   101.6980
 22      0.0000     0.0000E+00    0.0000E+00    1.000000E+07  0.00800  1.215E-02    0   0.8827   age070_m52            0.0000     3.1867E-01     5.8018   0.9496   100.5884
 23      0.0000     0.0000E+00    0.0000E+00    1.445000E+07  0.00800  8.717E-03    0   0.8552   age078_m52            0.0000     3.3919E-01     6.0200   1.0648    99.4359
 24      0.0000     0.0000E+00    0.0000E+00    2.512000E+07  0.00800  5.592E-03    0   0.8162   age090_m52            0.0000     3.4079E-01     5.9532   0.7184   101.8767
 25      0.0000     0.0000E+00    0.0000E+00    4.000000E+07  0.00800  3.896E-03    0   0.7841   age104_m52            0.0000     3.6393E-01     6.1110   0.6431   102.0459
 26      0.0000     0.0000E+00    0.0000E+00    1.015200E+08  0.00800  2.148E-03    0   0.7226   age116_m52            0.0000     4.0546E-01     6.4563   0.5928   101.2299
 27      0.0000     0.0000E+00    0.0000E+00    2.861200E+08  0.00800  9.925E-04    0   0.6683   age125_m52            0.0000     4.9310E-01     6.9560   0.1377   103.8676
 28      0.0000     0.0000E+00    0.0000E+00    9.047900E+08  0.00800  3.141E-04    0   0.6138   age135_m52            0.0000     6.4745E-01     8.0149  -0.6316   106.4615
 29      0.0000     0.0000E+00    0.0000E+00    1.434000E+09  0.00800  1.719E-04    0   0.5853   age139_m52            0.0000     7.6723E-01     8.8010  -1.0000    96.5228
 30      0.0000     0.0000E+00    0.0000E+00    2.500000E+09  0.00800  7.872E-05    0   0.5600   age150_m52            0.0000     1.2893E+00    11.4000  -1.0000    84.4094
 31      0.0000     0.0000E+00    0.0000E+00    4.250000E+09  0.00800  4.336E-05    0   0.5426   age158_m52            0.0000     1.3391E+00    11.5515  -1.0000    83.0997
 32      0.0000     0.0000E+00    0.0000E+00    6.250000E+09  0.00800  3.159E-05    0   0.5319   age166_m52            0.0000     1.8985E+00    13.8287  -1.0000    76.3126
 33      0.0000     0.0000E+00    0.0000E+00    1.300000E+10  0.00800  1.361E-05    0   0.5073   age193_m52            0.0000     3.5102E+00    19.4099  -1.0000    61.5551
 34      4.0950     5.1414E+01    5.0769E+01    1.800000E+10  0.00800  9.886E-06    0   0.4990   age213_m52            0.0000     3.9605E+00    20.5452  -1.0000    58.2654
 35      8.2919     6.6658E-02    1.3191E-01    1.000000E+06  0.02000  1.544E-02    0   1.0000   age020_m62            0.0000     4.3412E-01     6.8909   1.8115    93.5151
 36     11.6377     3.8397E-02    7.4903E-02    3.160000E+06  0.02000  3.762E-02    0   0.9858   age045_m62            0.0000     4.3970E-01     6.9394   1.7522    94.2681
 37      0.0000     0.0000E+00    0.0000E+00    5.010000E+06  0.02000  3.296E-02    0   0.9342   age055_m62            0.0000     4.4012E-01     6.9517   1.4109    96.6374
 38      2.6493     2.8495E-02    4.9966E-02    8.710000E+06  0.02000  1.154E-02    0   0.8861   age067_m62            0.0000     3.2979E-01     5.9806   0.3647   105.6163
 39      0.0023     3.7669E-05    6.3151E-05    1.445000E+07  0.02000  7.663E-03    0   0.8472   age078_m62            0.0000     3.0509E-01     5.6797   0.5891   103.3094
 40      0.0000     0.0000E+00    0.0000E+00    2.512000E+07  0.02000  4.532E-03    0   0.8099   age090_m62            0.0000     3.1688E-01     5.7773   0.5843   102.9393
 41      0.0000     0.0000E+00    0.0000E+00    5.500000E+07  0.02000  2.733E-03    0   0.7595   age110_m62            0.0000     3.5669E-01     6.0747   0.6190   101.6054
 42      0.0000     0.0000E+00    0.0000E+00    1.609000E+08  0.02000  1.369E-03    0   0.6985   age120_m62            0.0000     4.4481E-01     6.6612   0.4876   102.8686
 43      0.0000     0.0000E+00    0.0000E+00    2.861200E+08  0.02000  9.013E-04    0   0.6714   age125_m62            0.0000     5.2302E-01     7.1623   0.2567   104.7750
 44      0.0000     0.0000E+00    0.0000E+00    5.088000E+08  0.02000  5.028E-04    0   0.6449   age130_m62            0.0000     6.4125E-01     8.0123  -0.0956   106.0970
 45      0.0000     0.0000E+00    0.0000E+00    9.047900E+08  0.02000  2.428E-04    0   0.6179   age135_m62            0.0000     6.9985E-01     8.4480  -0.6869   105.5188
 46      0.0000     0.0000E+00    0.0000E+00    1.434000E+09  0.02000  1.263E-04    0   0.5908   age139_m62            0.0000     8.0853E-01     9.0138  -1.0000    99.1100
 47      0.0000     0.0000E+00    0.0000E+00    2.500000E+09  0.02000  5.985E-05    0   0.5673   age150_m62            0.0000     1.4270E+00    11.8668  -1.0000    84.6784
 48      0.0000     0.0000E+00    0.0000E+00    4.250000E+09  0.02000  3.271E-05    0   0.5468   age158_m62            0.0000     2.3046E+00    15.1817  -1.0000    73.7839
 49      0.0000     0.0000E+00    0.0000E+00    1.000000E+10  0.02000  1.360E-05    0   0.5167   age181_m62            0.0000     3.5562E+00    19.1100  -1.0000    62.8958
 50      1.1796     2.0552E+01    2.0387E+01    1.800000E+10  0.02000  7.124E-06    0   0.5013   age213_m62            0.0000     4.4049E+00    21.3462  -1.0000    56.6263
 51     42.0257     2.0125E-01    3.9816E-01    1.000000E+06  0.05000  2.592E-02    0   0.9998   age020_m72            0.0000     4.3173E-01     6.8520   1.7983    93.7428
 52      0.0000     0.0000E+00    0.0000E+00    3.160000E+06  0.05000  4.845E-02    0   0.9577   age045_m72            0.0000     4.5113E-01     7.0473   1.6498    94.8833
 53      0.0000     0.0000E+00    0.0000E+00    5.010000E+06  0.05000  3.072E-02    0   0.9147   age055_m72            0.0000     3.2649E-01     5.8824   1.1698    99.5065
 54      0.0000     0.0000E+00    0.0000E+00    6.610000E+06  0.05000  1.455E-02    0   0.8877   age061_m72            0.0000     5.0099E-01     7.5455   0.4009   107.3679
 55      0.0000     0.0000E+00    0.0000E+00    1.000000E+07  0.05000  9.074E-03    0   0.8524   age070_m72            0.0000     3.7944E-01     6.3859   1.3561    99.1364
 56      0.0000     0.0000E+00    0.0000E+00    2.512000E+07  0.05000  4.250E-03    0   0.7902   age090_m72            0.0000     3.6133E-01     6.1538   1.0738   100.1737
 57      0.0000     0.0000E+00    0.0000E+00    4.000000E+07  0.05000  3.087E-03    0   0.7618   age104_m72            0.0000     3.7237E-01     6.2315   0.8519   101.5739
 58      0.0000     0.0000E+00    0.0000E+00    1.015200E+08  0.05000  1.700E-03    0   0.7096   age116_m72            0.0000     4.1860E-01     6.4369   0.6225   102.8768
 59      0.0000     0.0000E+00    0.0000E+00    2.861200E+08  0.05000  7.384E-04    0   0.6633   age125_m72            0.0000     5.8760E-01     7.6259   0.1378   105.4663
 60      0.0000     0.0000E+00    0.0000E+00    5.088000E+08  0.05000  3.819E-04    0   0.6372   age130_m72            0.0000     6.8598E-01     8.4179  -0.3462   106.5215
 61      0.0000     0.0000E+00    0.0000E+00    9.047900E+08  0.05000  1.676E-04    0   0.6110   age135_m72            0.0000     8.9130E-01     9.6142  -1.0000   102.8034
 62      0.0000     0.0000E+00    0.0000E+00    1.434000E+09  0.05000  8.837E-05    0   0.5874   age139_m72            0.0000     1.4763E+00    12.0770  -1.0000    85.8422
 63      0.0000     0.0000E+00    0.0000E+00    2.500000E+09  0.05000  4.233E-05    0   0.5598   age150_m72            0.0000     2.3583E+00    15.2955  -1.0000    74.3578
 64      0.0000     0.0000E+00    0.0000E+00    6.250000E+09  0.05000  1.435E-05    0   0.5249   age166_m72            0.0000     3.9440E+00    20.2280  -1.0000    59.8934
 65      0.0000     0.0000E+00    0.0000E+00    1.300000E+10  0.05000  6.513E-06    0   0.5036   age193_m72            0.0000     5.1149E+00    23.1297  -1.0000    53.0075
 66      0.0000     0.0000E+00    0.0000E+00    1.800000E+10  0.05000  4.527E-06    0   0.4945   age213_m72            0.0000     5.8194E+00    24.7315  -1.0000    48.9692


## Synthesis Results - Average & Chains ##

# j      x_j: min, <> & last-chain-values for 1 ...  7 chains
  1     10.2417      4.6436      4.2672      4.8010      0.0000      8.6636      4.9935     14.8163      0.0000
  2      0.0000      0.8099      1.8927      0.4499      0.0000      0.0000      0.0000      0.0000      0.0000
  3      0.0000      0.7703      0.0000      1.1238      1.4056      0.0000      0.0000      0.2998      0.0000
  4      0.0000      0.8580      0.0000      0.0000      0.0000      0.0000      0.0000      0.0000      0.0000
  5      0.0000      1.3321      0.0000      0.0000      0.0000      0.0000      0.0000      0.0000      0.7001
  6      0.0000      0.9486      0.0000      3.2162      0.3522      0.0000      0.0000      0.0000      2.2501
  7      0.0000      1.2051      0.0095      0.0000      0.0000      0.0000      0.0000      0.0000      0.0000
  8      0.0000      0.7389      0.0000      0.0000      0.2238      0.0000      0.0000      0.0000      0.0000
  9      0.0000      0.5388      0.0000      0.0000      0.0000      0.0000      0.0000      0.0000      0.0000
 10      0.0000      0.3501      0.0000      0.0000      0.0000      0.0000      0.0000      0.0000      0.0000
 11      0.0000      0.3544      0.0000      0.0000      0.2909      0.0137      1.4343      0.0000      0.0000
 12      0.0000      0.4096      0.0000      0.5157      0.0000      0.0000      0.0000      0.0000      0.0000
 13      0.0000      0.3230      0.0000      1.9622      0.0000      0.8597      0.0000      0.0000      0.0000
 14      0.0000      0.0706      0.7238      0.0000      0.0000      0.0000      0.0431      0.0000      0.7238
 15      4.0434      0.6097      0.6610      0.9540      0.0000      2.5121      1.6208      0.0000      0.0000
 16      0.0000      0.0285      0.0000      0.0000      0.0000      0.0000      0.0282      0.8643      0.0000
 17      1.6133      0.0759      0.3677      0.3611      0.0000      0.0000      1.0674      0.0000      0.0000
 18     15.4314      8.2843      8.4677     16.4416     13.6807      9.0677      8.9920      6.1007      6.3880
 19      0.0000      2.4932      3.5317      6.2765      5.6271      3.4277      4.0439      5.1927      1.2155
 20      0.0000      0.8269      0.0000      0.5268      0.0000      0.0000      0.0000      2.1638      0.0000
 21      0.0000      6.6890     12.8368      8.2217      7.3701      8.4796      0.0000     18.3011     12.7739
 22      0.0000      1.2448      0.0000      0.0000      0.0000      0.0000      0.0000      0.0000      0.0000
 23      0.0000      1.0335      0.0000      0.0000      0.0000      0.0000      0.0000      0.0000      0.0000
 24      0.0000      0.7746      0.0000      0.0000      0.0000      0.8961      0.0000      0.0000      0.0000
 25      0.0000      0.4847      0.0000      0.0000      0.0968      0.0000      0.0000      0.0000      0.0000
 26      0.0000      0.5618      0.0000      0.0000      0.0000      0.0000      0.0000      0.0000      0.0000
 27      0.0000      0.3637      0.0000      0.0000      0.0000      0.0000      0.0000      0.0000      1.1303
 28      0.0000      0.0987      0.0000      0.0000      0.0000      0.0864      0.1909      0.0000      0.1657
 29      0.0000      0.1650      0.0000      1.2089      1.5270      0.0000      0.0000      0.0000      0.0000
 30      0.0000      0.0778      0.0000      0.4277      0.0000      0.0000      0.0000      0.0000      0.0000
 31      0.0000      0.0653      0.0000      0.0000      0.0000      0.0000      0.0000      0.0000      0.0000
 32      0.0000      0.2754      0.0000      0.8867      0.8753      0.0000      0.0000      0.0000      1.8142
 33      0.0000      0.0334      0.0000      0.0000      0.0000      0.0000      0.0000      0.0000      0.6167
 34      4.0950      0.2701      0.6557      0.0000      0.0000      0.0000      2.0436      0.0000      0.0000
 35      8.2919      4.8845      6.8748      8.8645      7.1240      8.4671      6.4040      1.7867      8.1531
 36     11.6377      4.8577      5.3320      0.0000      9.7736      5.7416     15.6822      5.4966     13.0211
 37      0.0000      0.5860      0.5820      0.0000      0.0000      0.5440      0.6620      0.0000      0.0000
 38      2.6493     30.8903     35.5091     32.5755     35.9516     36.7588     29.2385     33.0633     28.9736
 39      0.0023      1.7841      3.5127      0.0000      0.0000      0.0000      0.9051      0.0000      0.7599
 40      0.0000      1.2281      0.7774      0.4767      1.2861      0.0000      0.3390      0.0000      0.0000
 41      0.0000      0.7094      0.0000      0.0000      0.0000      0.0000      0.6764      0.0000      0.0000
 42      0.0000      0.2974      0.0000      0.2875      0.0000      0.0000      0.0000      0.0000      0.0721
 43      0.0000      0.2250      0.0000      0.0000      0.5586      0.0000      0.0000      0.0000      0.0000
 44      0.0000      0.3775      0.0000      0.0000      0.0000      0.0000      0.0000      0.0000      0.0000
 45      0.0000      0.1889      0.0000      0.0000      0.0000      1.2594      0.0000      0.0000      0.0000
 46      0.0000      0.0552      0.0650      0.0000      0.0000      0.0000      0.0000      0.0000      0.0171
 47      0.0000      0.0882      0.0000      0.0000      0.0000      0.3137      0.0336      0.0000      0.4922
 48      0.0000      0.0706      0.0000      0.0000      0.7511      0.0000      0.0000      1.2243      0.0000
 49      0.0000      0.0687      0.0000      0.0000      0.5361      0.0000      0.2315      0.3951      0.0000
 50      1.1796      0.1148      0.0000      0.0000      0.0000      0.0000      0.9961      0.0000      0.0000
 51     42.0257     10.6270     13.1482     11.6645     13.8384     14.1380     13.6912     11.5041     20.7422
 52      0.0000      1.3561      0.0000      0.0000      0.0000      0.0000      9.4413      0.8945      0.0000
 53      0.0000      1.2554      0.0000      0.0000      0.0000      0.0000      0.0000      0.0000      0.0000
 54      0.0000      2.1836      2.1083      0.0000      0.0000      0.0000      0.0000      0.2665      2.1629
 55      0.0000      0.6771      0.0000      0.0000      0.0000      0.0000      0.0000      0.0000      0.0000
 56      0.0000      0.4834      0.3427      0.0000      0.0000      0.3372      0.0000      0.0000      0.0000
 57      0.0000      0.4047      0.0000      0.0000      0.0000      0.0000      0.0000      0.0000      0.0000
 58      0.0000      0.3680      0.0000      0.0000      0.0000      0.0000      0.0000      0.0000      0.0000
 59      0.0000      0.1593      0.0000      0.0000      0.0000      0.0000      0.0000      0.0000      0.0000
 60      0.0000      0.1334      0.0000      0.0000      0.6060      0.0000      0.0000      0.0000      0.0000
 61      0.0000      0.0750      0.3886      0.0000      0.0000      0.7860      0.0000      0.0000      0.0000
 62      0.0000      0.0744      0.0000      0.0000      0.0000      0.0000      0.0620      0.0000      0.0000
 63      0.0000      0.0252      0.0000      0.0000      0.0000      0.0000      0.0000      0.0000      0.0000
 64      0.0000      0.0394      0.0000      0.1809      0.0000      0.0000      0.0000      0.0000      0.0000
 65      0.0000      0.0081      0.0000      0.0000      0.4044      0.0000      0.0000      0.0000      0.0000
 66      0.0000      0.0045      0.0000      0.0000      0.0000      0.0000      0.0000      0.0000      0.0000

# j      m_j: min, <> & last-chain-values for 1 ...  7 chains
  1  2.2994E-01  6.8523E-01  5.6081E-01  6.5529E-01  0.0000E+00  1.4363E+00  1.8300E-01  2.1380E+00  0.0000E+00
  2  0.0000E+00  3.2626E-02  6.7906E-02  1.6763E-02  0.0000E+00  0.0000E+00  0.0000E+00  0.0000E+00  0.0000E+00
  3  0.0000E+00  4.6471E-02  0.0000E+00  6.2707E-02  5.7258E-02  0.0000E+00  0.0000E+00  1.7684E-02  0.0000E+00
  4  0.0000E+00  4.8746E-02  0.0000E+00  0.0000E+00  0.0000E+00  0.0000E+00  0.0000E+00  0.0000E+00  0.0000E+00
  5  0.0000E+00  1.4416E-01  0.0000E+00  0.0000E+00  0.0000E+00  0.0000E+00  0.0000E+00  0.0000E+00  6.5628E-02
  6  0.0000E+00  1.6651E-01  0.0000E+00  5.2217E-01  4.1745E-02  0.0000E+00  0.0000E+00  0.0000E+00  3.4212E-01
  7  0.0000E+00  3.0285E-01  2.1340E-03  0.0000E+00  0.0000E+00  0.0000E+00  0.0000E+00  0.0000E+00  0.0000E+00
  8  0.0000E+00  2.5665E-01  0.0000E+00  0.0000E+00  5.2482E-02  0.0000E+00  0.0000E+00  0.0000E+00  0.0000E+00
  9  0.0000E+00  2.1421E-01  0.0000E+00  0.0000E+00  0.0000E+00  0.0000E+00  0.0000E+00  0.0000E+00  0.0000E+00
 10  0.0000E+00  1.8282E-01  0.0000E+00  0.0000E+00  0.0000E+00  0.0000E+00  0.0000E+00  0.0000E+00  0.0000E+00
 11  0.0000E+00  3.4800E-01  0.0000E+00  0.0000E+00  1.9285E-01  1.5147E-02  3.4976E-01  0.0000E+00  0.0000E+00
 12  0.0000E+00  6.3806E-01  0.0000E+00  7.4300E-01  0.0000E+00  0.0000E+00  0.0000E+00  0.0000E+00  0.0000E+00
 13  0.0000E+00  1.4182E+00  0.0000E+00  7.9682E+00  0.0000E+00  4.2403E+00  0.0000E+00  0.0000E+00  0.0000E+00
 14  0.0000E+00  1.0396E+00  9.4922E+00  0.0000E+00  0.0000E+00  0.0000E+00  1.5749E-01  0.0000E+00  9.2330E+00
 15  1.4747E+01  1.4617E+01  1.4111E+01  2.1152E+01  0.0000E+00  6.7654E+01  9.6495E+00  0.0000E+00  0.0000E+00
 16  0.0000E+00  1.1541E+00  0.0000E+00  0.0000E+00  0.0000E+00  0.0000E+00  2.8399E-01  3.4260E+01  0.0000E+00
 17  1.2906E+01  3.9905E+00  1.7218E+01  1.7560E+01  0.0000E+00  0.0000E+00  1.3938E+01  0.0000E+00  0.0000E+00
 18  3.0616E-01  1.0803E+00  9.8341E-01  1.9831E+00  1.2046E+00  1.3284E+00  2.9121E-01  7.7796E-01  7.2159E-01
 19  0.0000E+00  1.3049E-01  1.6462E-01  3.0385E-01  1.9887E-01  2.0155E-01  5.2563E-02  2.6577E-01  5.5106E-02
 20  0.0000E+00  4.7247E-02  0.0000E+00  2.7844E-02  0.0000E+00  0.0000E+00  0.0000E+00  1.2090E-01  0.0000E+00
 21  0.0000E+00  4.6394E-01  7.9295E-01  5.2745E-01  3.4517E-01  6.6075E-01  0.0000E+00  1.2413E+00  7.6748E-01
 22  0.0000E+00  1.4600E-01  0.0000E+00  0.0000E+00  0.0000E+00  0.0000E+00  0.0000E+00  0.0000E+00  0.0000E+00
 23  0.0000E+00  1.6368E-01  0.0000E+00  0.0000E+00  0.0000E+00  0.0000E+00  0.0000E+00  0.0000E+00  0.0000E+00
 24  0.0000E+00  1.8251E-01  0.0000E+00  0.0000E+00  0.0000E+00  2.3723E-01  0.0000E+00  0.0000E+00  0.0000E+00
 25  0.0000E+00  1.5747E-01  0.0000E+00  0.0000E+00  2.1243E-02  0.0000E+00  0.0000E+00  0.0000E+00  0.0000E+00
 26  0.0000E+00  3.0511E-01  0.0000E+00  0.0000E+00  0.0000E+00  0.0000E+00  0.0000E+00  0.0000E+00  0.0000E+00
 27  0.0000E+00  3.9533E-01  0.0000E+00  0.0000E+00  0.0000E+00  0.0000E+00  0.0000E+00  0.0000E+00  1.0644E+00
 28  0.0000E+00  3.1134E-01  0.0000E+00  0.0000E+00  0.0000E+00  3.0633E-01  1.4956E-01  0.0000E+00  4.5287E-01
 29  0.0000E+00  9.0719E-01  0.0000E+00  6.1462E+00  5.6676E+00  0.0000E+00  0.0000E+00  0.0000E+00  0.0000E+00
 30  0.0000E+00  8.9395E-01  0.0000E+00  4.5437E+00  0.0000E+00  0.0000E+00  0.0000E+00  0.0000E+00  0.0000E+00
 31  0.0000E+00  1.3198E+00  0.0000E+00  0.0000E+00  0.0000E+00  0.0000E+00  0.0000E+00  0.0000E+00  0.0000E+00
 32  0.0000E+00  7.4846E+00  0.0000E+00  2.2294E+01  1.6065E+01  0.0000E+00  0.0000E+00  0.0000E+00  4.2717E+01
 33  0.0000E+00  2.0095E+00  0.0000E+00  0.0000E+00  0.0000E+00  0.0000E+00  0.0000E+00  0.0000E+00  3.2145E+01
 34  5.0769E+01  2.2008E+01  4.7584E+01  0.0000E+00  0.0000E+00  0.0000E+00  4.1357E+01  0.0000E+00  0.0000E+00
 35  1.3191E-01  5.1071E-01  6.4018E-01  8.5730E-01  5.0297E-01  9.9460E-01  1.6629E-01  1.8269E-01  7.3844E-01
 36  7.4903E-02  2.0550E-01  2.0089E-01  0.0000E+00  2.7918E-01  2.7288E-01  1.6476E-01  2.2739E-01  4.7715E-01
 37  0.0000E+00  2.6812E-02  2.3719E-02  0.0000E+00  0.0000E+00  2.7965E-02  7.5226E-03  0.0000E+00  0.0000E+00
 38  4.9966E-02  3.8291E+00  3.9202E+00  3.7350E+00  3.0093E+00  5.1192E+00  9.0011E-01  4.0079E+00  3.1112E+00
 39  6.3151E-05  3.1842E-01  5.5836E-01  0.0000E+00  0.0000E+00  0.0000E+00  4.0121E-02  0.0000E+00  1.1749E-01
 40  0.0000E+00  3.5432E-01  1.9975E-01  1.2720E-01  2.5055E-01  0.0000E+00  2.4291E-02  0.0000E+00  0.0000E+00
 41  0.0000E+00  3.1824E-01  0.0000E+00  0.0000E+00  0.0000E+00  0.0000E+00  7.5362E-02  0.0000E+00  0.0000E+00
 42  0.0000E+00  2.4495E-01  0.0000E+00  2.1906E-01  0.0000E+00  0.0000E+00  0.0000E+00  0.0000E+00  5.1432E-02
 43  0.0000E+00  2.7059E-01  0.0000E+00  0.0000E+00  4.5364E-01  0.0000E+00  0.0000E+00  0.0000E+00  0.0000E+00
 44  0.0000E+00  7.8156E-01  0.0000E+00  0.0000E+00  0.0000E+00  0.0000E+00  0.0000E+00  0.0000E+00  0.0000E+00
 45  0.0000E+00  7.7628E-01  0.0000E+00  0.0000E+00  0.0000E+00  5.8127E+00  0.0000E+00  0.0000E+00  0.0000E+00
 46  0.0000E+00  4.1659E-01  4.3746E-01  0.0000E+00  0.0000E+00  0.0000E+00  0.0000E+00  0.0000E+00  1.1197E-01
 47  0.0000E+00  1.3496E+00  0.0000E+00  0.0000E+00  0.0000E+00  5.3931E+00  1.2764E-01  0.0000E+00  6.5245E+00
 48  0.0000E+00  1.9043E+00  0.0000E+00  0.0000E+00  1.3686E+01  0.0000E+00  0.0000E+00  3.2310E+01  0.0000E+00
 49  0.0000E+00  4.2141E+00  0.0000E+00  0.0000E+00  2.2204E+01  0.0000E+00  3.5266E+00  2.3696E+01  0.0000E+00
 50  2.0387E+01  1.3046E+01  0.0000E+00  0.0000E+00  0.0000E+00  0.0000E+00  2.8103E+01  0.0000E+00  0.0000E+00
 51  3.9816E-01  6.6175E-01  7.2918E-01  6.7185E-01  5.8187E-01  9.8907E-01  2.1173E-01  7.0053E-01  1.1189E+00
 52  0.0000E+00  4.3274E-02  0.0000E+00  0.0000E+00  0.0000E+00  0.0000E+00  7.4822E-02  2.7914E-02  0.0000E+00
 53  0.0000E+00  6.0347E-02  0.0000E+00  0.0000E+00  0.0000E+00  0.0000E+00  0.0000E+00  0.0000E+00  0.0000E+00
 54  0.0000E+00  2.1507E-01  1.8494E-01  0.0000E+00  0.0000E+00  0.0000E+00  0.0000E+00  2.5664E-02  1.8453E-01
 55  0.0000E+00  1.0269E-01  0.0000E+00  0.0000E+00  0.0000E+00  0.0000E+00  0.0000E+00  0.0000E+00  0.0000E+00
 56  0.0000E+00  1.4511E-01  9.1609E-02  0.0000E+00  0.0000E+00  1.1372E-01  0.0000E+00  0.0000E+00  0.0000E+00
 57  0.0000E+00  1.6124E-01  0.0000E+00  0.0000E+00  0.0000E+00  0.0000E+00  0.0000E+00  0.0000E+00  0.0000E+00
 58  0.0000E+00  2.4795E-01  0.0000E+00  0.0000E+00  0.0000E+00  0.0000E+00  0.0000E+00  0.0000E+00  0.0000E+00
 59  0.0000E+00  2.3102E-01  0.0000E+00  0.0000E+00  0.0000E+00  0.0000E+00  0.0000E+00  0.0000E+00  0.0000E+00
 60  0.0000E+00  3.5929E-01  0.0000E+00  0.0000E+00  1.1023E+00  0.0000E+00  0.0000E+00  0.0000E+00  0.0000E+00
 61  0.0000E+00  4.4146E-01  2.0366E+00  0.0000E+00  0.0000E+00  5.1968E+00  0.0000E+00  0.0000E+00  0.0000E+00
 62  0.0000E+00  7.9800E-01  0.0000E+00  0.0000E+00  0.0000E+00  0.0000E+00  1.6517E-01  0.0000E+00  0.0000E+00
 63  0.0000E+00  5.3862E-01  0.0000E+00  0.0000E+00  0.0000E+00  0.0000E+00  0.0000E+00  0.0000E+00  0.0000E+00
 64  0.0000E+00  2.3263E+00  0.0000E+00  9.8830E+00  0.0000E+00  0.0000E+00  0.0000E+00  0.0000E+00  0.0000E+00
 65  0.0000E+00  1.0136E+00  0.0000E+00  0.0000E+00  3.4083E+01  0.0000E+00  0.0000E+00  0.0000E+00  0.0000E+00
 66  0.0000E+00  7.9570E-01  0.0000E+00  0.0000E+00  0.0000E+00  0.0000E+00  0.0000E+00  0.0000E+00  0.0000E+00

# AV, chi2 & Mass for <> & i_chain = 1 ...  7 solutions
AV       0.7174      0.7309      0.7100      0.7319      0.7206      0.7273      0.6772      0.7267      0.7306
chi2 2.6144E-01  2.8012E-01  2.7425E-01  2.7331E-01  2.7350E-01  2.7288E-01  2.7202E-01  2.7418E-01  2.7270E-01
Mass 1.5265E-12  2.3650E-13  2.5819E-13  2.5604E-13  3.4542E-13  2.0949E-13  8.8602E-13  2.4049E-13  2.7289E-13
-499.45                                  [v0_min (km/s) before EX0s...]
 150.00                                  [vd_min (km/s) before EX0s...]


## Synthetic spectrum (Best Model) ##l_obs f_obs f_syn wei
 3478    [Nl_obs]
 3741.00    0.88473   0.97660    0.000
 3742.00    0.93066   0.95023    0.000
 3743.00    0.96876   0.93257    0.000
 3744.00    1.01302   0.92943    0.000
 3745.00    1.06059   0.94088    2.934
 3746.00    1.09817   0.96165    2.996
 3747.00    1.10961   0.98461    3.029
 3748.00    1.08978   1.00505    2.993
 3749.00    1.04517   1.02003    2.953
 3750.00    0.98699   1.02829    2.986
 3751.00    0.92756   1.03259    3.128
 3752.00    0.87599   1.03469    3.278
 3753.00    0.83913   1.03711    3.254
 3754.00    0.82550   1.04302    3.146
 3755.00    0.84350   1.04997    3.168
 3756.00    0.89584   1.05519    3.293
 3757.00    0.97662   1.05657    3.328
 3758.00    1.06815   1.05069    3.258
 3759.00    1.14829   1.03612    3.220
 3760.00    1.20515   1.01349    3.277
 3761.00    1.23637   0.98444    3.409
 3762.00    1.24260   0.95250    3.510
 3763.00    1.22652   0.92451    3.471
 3764.00    1.19315   0.90932    3.382
 3765.00    1.15226   0.91180    3.390
 3766.00    1.12151   0.92995    3.485
 3767.00    1.11547   0.95876    3.565
 3768.00    1.12802   0.99177    3.588
 3769.00    1.14162   1.02235    3.579
 3770.00    1.14519   1.04755    3.579
 3771.00    1.13503   1.06737    3.610
 3772.00    1.11227   1.08241    3.636
 3773.00    1.08519   1.09358    3.623
 3774.00    1.07189   1.10164    3.622
 3775.00    1.08541   1.10694    3.683
 3776.00    1.11455   1.10967    3.722
 3777.00    1.13947   1.10976    3.657
 3778.00    1.15404   1.10723    3.592
 3779.00    1.16183   1.10250    3.644
 3780.00    1.16762   1.09603    3.759
 3781.00    1.17330   1.08792    3.821
 3782.00    1.17460   1.07801    3.842
 3783.00    1.16452   1.06593    3.884
 3784.00    1.13821   1.05170    3.944
 3785.00    1.10080   1.03536    3.998
 3786.00    1.07320   1.01525    4.062
 3787.00    1.06934   0.98915    4.128
 3788.00    1.07458   0.95644    4.092
 3789.00    1.06898   0.91914    3.929
 3790.00    1.05115   0.88428    3.807
 3791.00    1.03007   0.86279    3.833
 3792.00    1.01524   0.86271    3.908
 3793.00    1.01370   0.88406    3.918
 3794.00    1.02781   0.92022    3.926
 3795.00    1.05215   0.96142    3.992
 3796.00    1.07205   0.99863    4.022
 3797.00    1.07186   1.02707    3.965
 3798.00    1.04259   1.04640    3.966
 3799.00    0.98738   1.05898    4.126
 3800.00    0.92386   1.06799    4.338
 3801.00    0.87291   1.07561    4.437
 3802.00    0.84948   1.08232    4.406
 3803.00    0.85922   1.08756    4.339
 3804.00    0.89650   1.09029    4.342
 3805.00    0.94496   1.08992    4.418
 3806.00    0.98093   1.08697    4.428
 3807.00    0.99309   1.08237    4.325
 3808.00    0.99189   1.07642    4.283
 3809.00    0.98736   1.06878    4.394
 3810.00    0.97982   1.05846    4.543
 3811.00    0.99072   1.04484    4.568
 3812.00    1.06811   1.03094    4.425
 3813.00    1.20885   1.02263    4.236
 3814.00    1.33165   1.02287    4.192
 3815.00    1.38052   1.03015    4.302
 3816.00    1.37138   1.04030    4.344
 3817.00    1.32919   1.04796    4.254
 3818.00    1.25970   1.04996    4.273
 3819.00    1.18246   1.04670    4.520
 3820.00    1.13800   1.03965    4.827
 3821.00    1.13870   1.02948    4.972
 3822.00    1.15560   1.01548    4.922
 3823.00    1.16885   0.99582    4.807
 3824.00    1.18255   0.96855    4.787
 3825.00    1.18529   0.93322    4.847
 3826.00    1.14511   0.89189    4.804
 3827.00    1.06243   0.85082    4.669
 3828.00    0.97953   0.82033    4.675
 3829.00    0.92772   0.80942    4.876
 3830.00    0.91145   0.82052    5.076
 3831.00    0.93137   0.84992    5.123
 3832.00    0.98923   0.88951    5.076
 3833.00    1.07219   0.93018    5.040
 3834.00    1.15156   0.96625    5.073
 3835.00    1.19922   0.99572    5.140
 3836.00    1.19833   1.01847    5.143
 3837.00    1.15858   1.03529    5.091
 3838.00    1.11027   1.04725    5.096
 3839.00    1.07026   1.05545    5.184
 3840.00    1.03716   1.06078    5.279
 3841.00    1.01066   1.06384    5.343
 3842.00    0.99484   1.06527    5.402
 3843.00    0.98968   1.06602    5.458
 3844.00    0.99386   1.06669    5.486
 3845.00    1.01873   1.06719    5.490
 3846.00    1.07918   1.06707    5.500
 3847.00    1.15995   1.06568    0.000
 3848.00    1.22383   1.06265    0.000
 3849.00    1.25508   1.05868    0.000
 3850.00    1.26139   1.05472    0.000
 3851.00    1.25118   1.05145    0.000
 3852.00    1.22883   1.04964    0.000
 3853.00    1.19704   1.04979    0.000
 3854.00    1.15882   1.05163    0.000
 3855.00    1.12023   1.05429    0.000
 3856.00    1.08692   1.05663    0.000
 3857.00    1.05566   1.05774    0.000
 3858.00    1.02117   1.05716    0.000
 3859.00    0.99309   1.05510    0.000
 3860.00    0.99023   1.05279    0.000
 3861.00    1.02293   1.05097    0.000
 3862.00    1.09651   1.04886    0.000
 3863.00    1.22372   1.04581    0.000
 3864.00    1.41788   1.04211    0.000
 3865.00    1.67609   1.03878    0.000
 3866.00    1.96101   1.03664    0.000
 3867.00    2.17810   1.03568    0.000
 3868.00    2.22694   1.03529    0.000
 3869.00    2.08925   1.03430    0.000
 3870.00    1.81813   1.03169    0.000
 3871.00    1.49777   1.02770    0.000
 3872.00    1.21300   1.02272    0.000
 3873.00    1.01341   1.01603    0.000
 3874.00    0.90907   1.00672    0.000
 3875.00    0.87317   0.99410    0.000
 3876.00    0.86564   0.97684    0.000
 3877.00    0.86403   0.95305    0.000
 3878.00    0.85869   0.92157    0.000
 3879.00    0.84154   0.88281    0.000
 3880.00    0.81315   0.84005    0.000
 3881.00    0.79235   0.80240    6.032
 3882.00    0.80333   0.78156    6.205
 3883.00    0.85915   0.78387    6.205
 3884.00    0.96508   0.80849    6.130
 3885.00    1.12309   0.84854    6.060
 3886.00    1.31506   0.89292    5.999
 3887.00    1.48626   0.93221   -1.000
 3888.00    1.57433   0.96290   -1.000
 3889.00    1.54324   0.98530   -1.000
 3890.00    1.40345   1.00087    6.095
 3891.00    1.22354   1.01166    6.578
 3892.00    1.07512   1.01954    6.724
 3893.00    0.98032   1.02553    6.587
 3894.00    0.92803   1.03020    6.470
 3895.00    0.89519   1.03396    6.495
 3896.00    0.86542   1.03673    6.660
 3897.00    0.84253   1.03827    6.873
 3898.00    0.83636   1.03926    6.961
 3899.00    0.85025   1.04080    6.743
 3900.00    0.88317   1.04314    6.311
 3901.00    0.93178   1.04605    6.025
 3902.00    0.98720   1.04897    6.045
 3903.00    1.03383   1.05110    6.210
 3904.00    1.06080   1.05207    6.283
 3905.00    1.06962   1.05214    6.156
 3906.00    1.06813   1.05170    5.920
 3907.00    1.06486   1.05087    5.790
 3908.00    1.06305   1.04928    5.864
 3909.00    1.05833   1.04619    6.046
 3910.00    1.04942   1.04092    6.194
 3911.00    1.04316   1.03341    6.247
 3912.00    1.04201   1.02456    6.265
 3913.00    1.03836   1.01566    6.404
 3914.00    1.02852   1.00779    6.651
 3915.00    1.01941   1.00176    6.696
 3916.00    1.01770   0.99778    6.460
 3917.00    1.02331   0.99522    6.308
 3918.00    1.02903   0.99334    6.425
 3919.00    1.02407   0.99217    6.649
 3920.00    1.01234   0.99143    6.756
 3921.00    1.01514   0.99050    6.664
 3922.00    1.03756   0.98901    6.521
 3923.00    1.05831   0.98640    6.594
 3924.00    1.06174   0.98214    6.924
 3925.00    1.04990   0.97663    7.209
 3926.00    1.02629   0.97135    7.228
 3927.00    0.98998   0.96845    7.127
 3928.00    0.94407   0.96934    7.110
 3929.00    0.89740   0.97429    7.267
 3930.00    0.85637   0.98240    7.514
 3931.00    0.82316   0.99164    7.603
 3932.00    0.80233   0.99987    7.451
 3933.00    0.80165   1.00593    7.238
 3934.00    0.82503   1.00962    7.118
 3935.00    0.86872   1.01111    7.113
 3936.00    0.91790   1.01117    7.096
 3937.00    0.95189   1.01112    6.883
 3938.00    0.96575   1.01168    6.586
 3939.00    0.97052   1.01290    6.502
 3940.00    0.96974   1.01495    6.683
 3941.00    0.95839   1.01745    6.935
 3942.00    0.94427   1.01946    7.039
 3943.00    0.94494   1.02066    6.910
 3944.00    0.95859   1.02112    6.724
 3945.00    0.96804   1.02048    6.745
 3946.00    0.97690   1.01856    6.971
 3947.00    1.00434   1.01575    7.141
 3948.00    1.04231   1.01273    7.079
 3949.00    1.06122   1.00964    6.852
 3950.00    1.05502   1.00585    6.698
 3951.00    1.04062   1.00009    6.827
 3952.00    1.02628   0.99107    7.131
 3953.00    1.00942   0.97847    7.236
 3954.00    0.99090   0.96270    7.069
 3955.00    0.97513   0.94405    6.899
 3956.00    0.96244   0.92312    6.924
 3957.00    0.94979   0.90016    7.178
 3958.00    0.93623   0.87299    7.423
 3959.00    0.92309   0.83897    7.306
 3960.00    0.91194   0.79880    0.000
 3961.00    0.90780   0.75748    0.000
 3962.00    0.92599   0.72369    0.000
 3963.00    0.98591   0.70673    0.000
 3964.00    1.09662   0.71234    0.000
 3965.00    1.25067   0.74042    0.000
 3966.00    1.41866   0.78385    0.000
 3967.00    1.55781   0.83134    0.000
 3968.00    1.62903   0.87427    0.000
 3969.00    1.60972   0.90943    0.000
 3970.00    1.50938   0.93661    0.000
 3971.00    1.36259   0.95688    0.000
 3972.00    1.21283   0.97167    0.000
 3973.00    1.09502   0.98203    0.000
 3974.00    1.01384   0.98892    0.000
 3975.00    0.95824   0.99353    0.000
 3976.00    0.92676   0.99701    0.000
 3977.00    0.91851   1.00038    0.000
 3978.00    0.91657   1.00425    0.000
 3979.00    0.90497   1.00841    0.000
 3980.00    0.89313   1.01205    0.000
 3981.00    0.89668   1.01479    7.310
 3982.00    0.90967   1.01679    7.156
 3983.00    0.91774   1.01818    7.009
 3984.00    0.91825   1.01885    7.008
 3985.00    0.91655   1.01878    7.174
 3986.00    0.91876   1.01793    7.381
 3987.00    0.92902   1.01627    7.443
 3988.00    0.94728   1.01393    7.297
 3989.00    0.96958   1.01166    7.057
 3990.00    0.98901   1.01053    6.954
 3991.00    1.00084   1.01086    7.109
 3992.00    1.00711   1.01219    7.357
 3993.00    1.01020   1.01393    7.460
 3994.00    1.00681   1.01514    7.421
 3995.00    0.99665   1.01456    7.350
 3996.00    0.98998   1.01187    7.282
 3997.00    0.99585   1.00791    7.231
 3998.00    1.01187   1.00369    7.243
 3999.00    1.03330   1.00002    7.279
 4000.00    1.06079   0.99763    7.152
 4001.00    1.09187   0.99688    6.849
 4002.00    1.11507   0.99752    6.682
 4003.00    1.12377   0.99931    6.802
 4004.00    1.12580   1.00236    6.945
 4005.00    1.12853   1.00627    6.534
 4006.00    1.12874   1.00994    5.352
 4007.00    1.12640   1.01253    4.308
 4008.00    1.13254   1.01386    4.164
 4009.00    1.14944   1.01416    5.134
 4010.00    1.15975   1.01363    6.739
 4011.00    1.14995   1.01217    7.151
 4012.00    1.12521   1.00953    6.814
 4013.00    1.10094   1.00492    6.938
 4014.00    1.09405   0.99673    7.188
 4015.00    1.10664   0.98338    7.145
 4016.00    1.12048   0.96502    7.187
 4017.00    1.12223   0.94463    7.518
 4018.00    1.11586   0.92735    7.647
 4019.00    1.10739   0.91837    7.295
 4020.00    1.09729   0.92093    6.938
 4021.00    1.08790   0.93409    6.973
 4022.00    1.08626   0.95180    7.536
 4023.00    1.09685   0.96696    8.498
 4024.00    1.11756   0.97660    9.115
 4025.00    1.13894   0.98196    8.936
 4026.00    1.14667   0.98561    8.667
 4027.00    1.13439   0.98940    8.762
 4028.00    1.10697   0.99412    9.056
 4029.00    1.06793   0.99950    9.387
 4030.00    1.01730   1.00451    9.818
 4031.00    0.96644   1.00787   10.333
 4032.00    0.93761   1.00885   10.676
 4033.00    0.93593   1.00757   10.703
 4034.00    0.94430   1.00447   10.569
 4035.00    0.94841   1.00012   10.502
 4036.00    0.94526   0.99516   10.636
 4037.00    0.93693   0.99023   10.789
 4038.00    0.92675   0.98635   10.625
 4039.00    0.91450   0.98495   10.619
 4040.00    0.89721   0.98690   11.694
 4041.00    0.87726   0.99138   12.490
 4042.00    0.86283   0.99619    9.938
 4043.00    0.86017   0.99947    7.668
 4044.00    0.86960   1.00056    8.044
 4045.00    0.88139   0.99946   10.691
 4046.00    0.88183   0.99669   10.516
 4047.00    0.87425   0.99321    8.034
 4048.00    0.87541   0.98999    8.073
 4049.00    0.88817   0.98768   10.488
 4050.00    0.90183   0.98653   10.639
 4051.00    0.91441   0.98616    8.132
 4052.00    0.93284   0.98577    7.267
 4053.00    0.95764   0.98469    7.709
 4054.00    0.98209   0.98265    7.938
 4055.00    1.00000   0.97984    7.694
 4056.00    1.00842   0.97649    8.076
 4057.00    1.00899   0.97278    9.386
 4058.00    1.00606   0.96865   10.675
 4059.00    1.00180   0.96330   10.442
 4060.00    0.99680   0.95582    8.873
 4061.00    0.99364   0.94703    7.523
 4062.00    0.99682   0.93972    7.039
 4063.00    1.01083   0.93661    7.121
 4064.00    1.03789   0.93830    7.243
 4065.00    1.07436   0.94324    7.242
 4066.00    1.11062   0.94890    7.255
 4067.00    1.13267   0.95311    7.269
 4068.00    1.13044   0.95472    7.206
 4069.00    1.11161   0.95439    7.211
 4070.00    1.09308   0.95459    7.478
 4071.00    1.08215   0.95701    7.855
 4072.00    1.07737   0.96124    7.967
 4073.00    1.07534   0.96582    7.788
 4074.00    1.07269   0.96924    7.581
 4075.00    1.06739   0.97047    7.507
 4076.00    1.05788   0.96939    7.611
 4077.00    1.04158   0.96651    7.851
 4078.00    1.01691   0.96246    8.100
 4079.00    0.98631   0.95796    8.154
 4080.00    0.95368   0.95339    7.936
 4081.00    0.92057   0.94895    7.706
 4082.00    0.88956   0.94510    7.717
 4083.00    0.86886   0.94306    7.897
 4084.00    0.86457   0.94256    8.019
 4085.00    0.87074   0.94015    7.986
 4086.00    0.87719   0.93282    7.851
 4087.00    0.88005   0.91965    7.758
 4088.00    0.87824   0.90013    7.817
 4089.00    0.86846   0.87393    8.005
 4090.00    0.85162   0.84165    8.221
 4091.00    0.83950   0.80501    8.365
 4092.00    0.84131   0.76724    0.000
 4093.00    0.85012   0.73257    0.000
 4094.00    0.85920   0.70746    0.000
 4095.00    0.87967   0.70013    0.000
 4096.00    0.93691   0.71537    0.000
 4097.00    1.06234   0.74954    0.000
 4098.00    1.26262   0.79218    0.000
 4099.00    1.49390   0.83322    0.000
 4100.00    1.68498   0.86681    0.000
 4101.00    1.76433   0.89129    0.000
 4102.00    1.69844   0.90791    0.000
 4103.00    1.51961   0.91902    0.000
 4104.00    1.29630   0.92664    0.000
 4105.00    1.10247   0.93197    0.000
 4106.00    0.98092   0.93537    0.000
 4107.00    0.92091   0.93679    0.000
 4108.00    0.89626   0.93622    0.000
 4109.00    0.89429   0.93434    0.000
 4110.00    0.90825   0.93248    0.000
 4111.00    0.93068   0.93127    0.000
 4112.00    0.95398   0.93016    0.000
 4113.00    0.97143   0.92971    8.384
 4114.00    0.97934   0.93147    8.230
 4115.00    0.97817   0.93609    8.178
 4116.00    0.97107   0.94265    8.221
 4117.00    0.96249   0.94899    8.389
 4118.00    0.95558   0.95326    8.587
 4119.00    0.95098   0.95473    8.534
 4120.00    0.94848   0.95363    8.217
 4121.00    0.94823   0.95094    8.015
 4122.00    0.95147   0.94778    8.084
 4123.00    0.95959   0.94483    8.220
 4124.00    0.96689   0.94241    8.246
 4125.00    0.96072   0.94108    8.201
 4126.00    0.94101   0.94154    8.134
 4127.00    0.92502   0.94401    8.017
 4128.00    0.92249   0.94780    7.911
 4129.00    0.92689   0.95169    7.979
 4130.00    0.93178   0.95436    8.230
 4131.00    0.93742   0.95487    8.440
 4132.00    0.94545   0.95264    8.467
 4133.00    0.95652   0.94729    8.411
 4134.00    0.97118   0.93915    8.393
 4135.00    0.98985   0.92973    8.453
 4136.00    1.01115   0.92176    8.552
 4137.00    1.03146   0.91844    8.595
 4138.00    1.04550   0.92114    8.550
 4139.00    1.04667   0.92772    8.482
 4140.00    1.02745   0.93449    8.484
 4141.00    0.98445   0.93908    8.619
 4142.00    0.93488   0.94090    8.772
 4143.00    0.90880   0.94054    8.704
 4144.00    0.90492   0.93911    8.507
 4145.00    0.89382   0.93737    8.525
 4146.00    0.87479   0.93582    8.759
 4147.00    0.87643   0.93505    8.868
 4148.00    0.90249   0.93538    8.781
 4149.00    0.92863   0.93668    8.762
 4150.00    0.94216   0.93882    8.888
 4151.00    0.94799   0.94155    9.010
 4152.00    0.95206   0.94408    9.030
 4153.00    0.95693   0.94562    8.965
 4154.00    0.96309   0.94596    8.854
 4155.00    0.96979   0.94539    8.749
 4156.00    0.97623   0.94430    8.772
 4157.00    0.98143   0.94293    9.040
 4158.00    0.98322   0.94136    9.404
 4159.00    0.97994   0.93954    9.497
 4160.00    0.97484   0.93742    9.255
 4161.00    0.97261   0.93520    8.949
 4162.00    0.96990   0.93311    8.822
 4163.00    0.95935   0.93098    8.972
 4164.00    0.94257   0.92850    9.235
 4165.00    0.92734   0.92587    9.290
 4166.00    0.91642   0.92404    9.087
 4167.00    0.90868   0.92361    8.841
 4168.00    0.90567   0.92430    8.747
 4169.00    0.91078   0.92549    8.882
 4170.00    0.92505   0.92674    9.104
 4171.00    0.94508   0.92796    9.183
 4172.00    0.96101   0.92911    9.161
 4173.00    0.96350   0.92991    9.214
 4174.00    0.95578   0.92994    9.269
 4175.00    0.94971   0.92913    9.172
 4176.00    0.95582   0.92767    9.048
 4177.00    0.97758   0.92551    9.090
 4178.00    1.00549   0.92267    9.175
 4179.00    1.02523   0.91957    9.113
 4180.00    1.03106   0.91723    9.073
 4181.00    1.02555   0.91678    9.268
 4182.00    1.01627   0.91801    9.447
 4183.00    1.01053   0.92004    9.293
 4184.00    1.00911   0.92215    9.143
 4185.00    1.00798   0.92341    9.398
 4186.00    1.00219   0.92266    9.784
 4187.00    0.99124   0.91863    9.781
 4188.00    0.98440   0.91090    9.524
 4189.00    0.98870   0.90030    9.376
 4190.00    0.99482   0.88831    9.296
 4191.00    0.98972   0.87681    9.160
 4192.00    0.97228   0.86852    9.107
 4193.00    0.94761   0.86624    9.286
 4194.00    0.91914   0.87059    9.576
 4195.00    0.89220   0.87964    9.740
 4196.00    0.87764   0.89066    9.692
 4197.00    0.88199   0.90125    9.515
 4198.00    0.89820   0.91001    9.378
 4199.00    0.91644   0.91659    9.374
 4200.00    0.93453   0.92091    9.414
 4201.00    0.95129   0.92307    9.404
 4202.00    0.96016   0.92328    9.401
 4203.00    0.95501   0.92203    9.416
 4204.00    0.93572   0.92002    9.275
 4205.00    0.90831   0.91782    8.985
 4206.00    0.88385   0.91599    8.911
 4207.00    0.87195   0.91477    9.239
 4208.00    0.87540   0.91439    9.630
 4209.00    0.88862   0.91555    9.687
 4210.00    0.89860   0.91829    9.515
 4211.00    0.89907   0.92144    9.367
 4212.00    0.89834   0.92371    9.305
 4213.00    0.90085   0.92410    9.294
 4214.00    0.89644   0.92185    9.277
 4215.00    0.88015   0.91678    9.282
 4216.00    0.86353   0.90957    9.447
 4217.00    0.85750   0.90144    9.788
 4218.00    0.86174   0.89407   10.034
 4219.00    0.87106   0.88952    9.950
 4220.00    0.87981   0.88953    9.634
 4221.00    0.88234   0.89393    9.342
 4222.00    0.87399   0.90043    9.298
 4223.00    0.85578   0.90635    9.504
 4224.00    0.83574   0.91005    9.677
 4225.00    0.82178   0.91096    9.648
 4226.00    0.81801   0.90978    9.575
 4227.00    0.82609   0.90762    9.579
 4228.00    0.84581   0.90526    9.596
 4229.00    0.87344   0.90346    9.603
 4230.00    0.90190   0.90285    9.693
 4231.00    0.92471   0.90341    9.865
 4232.00    0.93795   0.90476    9.962
 4233.00    0.94008   0.90659    9.890
 4234.00    0.93227   0.90859    9.721
 4235.00    0.92049   0.91048    9.545
 4236.00    0.91428   0.91205    9.419
 4237.00    0.91840   0.91272    9.413
 4238.00    0.93064   0.91176    9.593
 4239.00    0.94717   0.90911    9.837
 4240.00    0.96440   0.90552    9.836
 4241.00    0.97762   0.90195    9.619
 4242.00    0.98152   0.89906    9.547
 4243.00    0.97391   0.89723    9.682
 4244.00    0.95754   0.89646    9.750
 4245.00    0.94193   0.89612    9.704
 4246.00    0.93881   0.89581    9.787
 4247.00    0.94616   0.89586   10.015
 4248.00    0.95028   0.89655   10.105
 4249.00    0.94870   0.89740    9.861
 4250.00    0.95029   0.89744    9.384
 4251.00    0.95384   0.89628    9.037
 4252.00    0.94796   0.89461    9.167
 4253.00    0.92955   0.89375    9.689
 4254.00    0.90662   0.89469   10.100
 4255.00    0.89094   0.89709   10.163
 4256.00    0.89170   0.89952   10.125
 4257.00    0.90496   0.90050   10.161
 4258.00    0.91744   0.89916   10.258
 4259.00    0.92297   0.89568   10.338
 4260.00    0.92299   0.89148   10.325
 4261.00    0.91795   0.88752   10.236
 4262.00    0.90725   0.88360   10.159
 4263.00    0.89405   0.87962   10.154
 4264.00    0.88354   0.87616   10.229
 4265.00    0.87702   0.87391   10.327
 4266.00    0.87297   0.87302   10.356
 4267.00    0.87172   0.87364   10.278
 4268.00    0.87399   0.87602   10.118
 4269.00    0.87596   0.87976    9.953
 4270.00    0.87182   0.88377    9.860
 4271.00    0.86063   0.88674    9.859
 4272.00    0.84748   0.88789    9.901
 4273.00    0.84289   0.88753    9.874
 4274.00    0.85528   0.88628    9.699
 4275.00    0.87855   0.88463    9.495
 4276.00    0.90021   0.88288    9.434
 4277.00    0.91816   0.88099    9.538
 4278.00    0.93542   0.87905    9.715
 4279.00    0.94772   0.87705    9.858
 4280.00    0.94939   0.87458    9.890
 4281.00    0.94516   0.87175    9.839
 4282.00    0.94288   0.86957    9.785
 4283.00    0.94081   0.86908    9.773
 4284.00    0.93323   0.87034    9.815
 4285.00    0.92065   0.87234    9.896
 4286.00    0.90721   0.87368    9.998
 4287.00    0.89539   0.87376   10.110
 4288.00    0.88774   0.87234   10.222
 4289.00    0.88940   0.86924   10.297
 4290.00    0.90095   0.86468   10.298
 4291.00    0.91009   0.85927   10.212
 4292.00    0.90375   0.85413   10.076
 4293.00    0.88291   0.85014    9.990
 4294.00    0.85600   0.84737   10.042
 4295.00    0.82943   0.84565   10.232
 4296.00    0.80597   0.84478   10.475
 4297.00    0.78461   0.84418   10.601
 4298.00    0.76619   0.84322   10.526
 4299.00    0.75842   0.84169   10.423
 4300.00    0.76532   0.84009   10.433
 4301.00    0.77746   0.83941   10.418
 4302.00    0.78371   0.84033   10.224
 4303.00    0.78277   0.84292    9.939
 4304.00    0.77862   0.84689    9.707
 4305.00    0.77542   0.85191    9.585
 4306.00    0.77717   0.85793    9.616
 4307.00    0.78754   0.86489    9.881
 4308.00    0.80858   0.87214   -2.000
 4309.00    0.83919   0.87849   -2.000
 4310.00    0.87117   0.88289   -2.000
 4311.00    0.88850   0.88480   -2.000
 4312.00    0.88479   0.88416   -2.000
 4313.00    0.87378   0.88116   -2.000
 4314.00    0.86718   0.87590   -2.000
 4315.00    0.86019   0.86860   -2.000
 4316.00    0.84873   0.86029   -2.000
 4317.00    0.83953   0.85287   -2.000
 4318.00    0.83247   0.84842   -2.000
 4319.00    0.81302   0.84784   -2.000
 4320.00    0.78234   0.85019   -2.000
 4321.00    0.76982   0.85342   -2.000
 4322.00    0.78915   0.85542   -2.000
 4323.00    0.81714   0.85488   -2.000
 4324.00    0.83136   0.85123    9.548
 4325.00    0.83128   0.84414    9.685
 4326.00    0.82779   0.83280    9.812
 4327.00    0.83381   0.81555    9.910
 4328.00    0.84938   0.79052    9.935
 4329.00    0.85847   0.75744    9.899
 4330.00    0.85241   0.71892    0.000
 4331.00    0.83988   0.68099    0.000
 4332.00    0.83527   0.65268    0.000
 4333.00    0.85545   0.64192    0.000
 4334.00    0.93200   0.65088    0.000
 4335.00    1.10911   0.67568    0.000
 4336.00    1.40900   0.70925    0.000
 4337.00    1.80987   0.74400    0.000
 4338.00    2.22095   0.77448    0.000
 4339.00    2.49653   0.79837    0.000
 4340.00    2.53295   0.81552    0.000
 4341.00    2.31315   0.82653    0.000
 4342.00    1.91972   0.83253    0.000
 4343.00    1.50674   0.83550    0.000
 4344.00    1.18121   0.83773    0.000
 4345.00    0.96884   0.84080    0.000
 4346.00    0.85353   0.84524    0.000
 4347.00    0.80007   0.85076    0.000
 4348.00    0.77988   0.85637    0.000
 4349.00    0.77803   0.86094    0.000
 4350.00    0.78699   0.86403    0.000
 4351.00    0.80289   0.86614   10.796
 4352.00    0.82057   0.86794   11.085
 4353.00    0.83370   0.86987   10.988
 4354.00    0.83952   0.87197   10.569
 4355.00    0.84031   0.87398   10.355
 4356.00    0.84343   0.87528   10.425
 4357.00    0.85802   0.87516   10.488
 4358.00    0.88660   0.87352   10.454
 4359.00    0.92533   0.87100   10.459
 4360.00    0.97068   0.86839   10.470
 4361.00    1.01779   0.86624   10.321
 4362.00    1.05262   0.86465   10.064
 4363.00    1.05834   0.86328    9.893
 4364.00    1.03479   0.86157    9.854
 4365.00    0.99514   0.85933    9.878
 4366.00    0.94825   0.85707    9.934
 4367.00    0.89801   0.85573   10.037
 4368.00    0.85075   0.85586   10.211
 4369.00    0.81357   0.85716   10.451
 4370.00    0.78769   0.85871   10.652
 4371.00    0.77013   0.85935   10.670
 4372.00    0.75940   0.85792   10.505
 4373.00    0.75464   0.85361   10.305
 4374.00    0.75196   0.84673   10.259
 4375.00    0.74864   0.83883   10.473
 4376.00    0.75154   0.83174   10.750
 4377.00    0.76874   0.82659   10.772
 4378.00    0.79333   0.82363   10.622
 4379.00    0.81050   0.82289   10.581
 4380.00    0.81395   0.82430   10.655
 4381.00    0.80622   0.82776   10.680
 4382.00    0.79471   0.83304   10.573
 4383.00    0.78697   0.83940   10.392
 4384.00    0.78468   0.84551   10.322
 4385.00    0.78492   0.85027   10.489
 4386.00    0.78350   0.85348   10.728
 4387.00    0.77856   0.85570   10.797
 4388.00    0.77435   0.85750   10.793
 4389.00    0.77572   0.85901   10.918
 4390.00    0.78036   0.85989   11.070
 4391.00    0.78332   0.85979   11.051
 4392.00    0.78370   0.85874   10.911
 4393.00    0.78262   0.85682   10.780
 4394.00    0.77977   0.85401   10.634
 4395.00    0.77440   0.85063   10.473
 4396.00    0.76711   0.84731   10.522
 4397.00    0.76029   0.84468   10.904
 4398.00    0.75822   0.84341   11.270
 4399.00    0.76254   0.84401   11.202
 4400.00    0.76805   0.84646   10.903
 4401.00    0.76993   0.85009   10.718
 4402.00    0.77088   0.85407   10.648
 4403.00    0.77417   0.85729   10.612
 4404.00    0.77696   0.85842   10.678
 4405.00    0.77665   0.85687   10.897
 4406.00    0.77695   0.85326   11.137
 4407.00    0.78243   0.84903   11.254
 4408.00    0.79350   0.84605   11.294
 4409.00    0.80873   0.84570   11.316
 4410.00    0.82681   0.84796   11.238
 4411.00    0.84375   0.85162   11.045
 4412.00    0.85143   0.85505   10.927
 4413.00    0.84570   0.85718   11.038
 4414.00    0.83216   0.85775   11.343
 4415.00    0.81992   0.85720   11.671
 4416.00    0.81594   0.85620   11.760
 4417.00    0.81977   0.85528   11.539
 4418.00    0.82155   0.85466   11.274
 4419.00    0.81314   0.85420   11.164
 4420.00    0.79546   0.85369   11.151
 4421.00    0.77532   0.85306   11.118
 4422.00    0.76182   0.85218   11.010
 4423.00    0.75867   0.85086   10.907
 4424.00    0.76078   0.84900   11.000
 4425.00    0.76219   0.84669   11.299
 4426.00    0.76083   0.84436   11.493
 4427.00    0.75734   0.84274   11.440
 4428.00    0.75406   0.84255   11.423
 4429.00    0.75438   0.84391   11.554
 4430.00    0.76146   0.84602   11.544
 4431.00    0.77382   0.84762   11.260
 4432.00    0.78454   0.84776   10.944
 4433.00    0.78921   0.84642   10.796
 4434.00    0.78912   0.84460   10.837
 4435.00    0.78655   0.84361   11.055
 4436.00    0.78290   0.84418   11.439
 4437.00    0.78054   0.84616   11.835
 4438.00    0.78265   0.84875   11.922
 4439.00    0.78812   0.85096   11.606
 4440.00    0.79124   0.85223   11.154
 4441.00    0.78963   0.85248   10.833
 4442.00    0.78600   0.85182   10.773
 4443.00    0.78137   0.85030   10.925
 4444.00    0.77432   0.84793   11.095
 4445.00    0.76821   0.84490   11.192
 4446.00    0.77111   0.84159   11.285
 4447.00    0.78501   0.83851   11.364
 4448.00    0.80391   0.83614   11.313
 4449.00    0.82120   0.83464   11.172
 4450.00    0.83298   0.83375   11.113
 4451.00    0.83999   0.83315   11.116
 4452.00    0.84627   0.83278   10.992
 4453.00    0.85313   0.83281   10.771
 4454.00    0.85819   0.83344   10.681
 4455.00    0.85876   0.83461   10.793
 4456.00    0.85321   0.83582   10.997
 4457.00    0.84215   0.83613   11.153
 4458.00    0.82816   0.83446   11.159
 4459.00    0.81432   0.82992   11.005
 4460.00    0.80336   0.82224   10.786
 4461.00    0.79662   0.81244    0.000
 4462.00    0.79409   0.80290    0.000
 4463.00    0.79552   0.79667    0.000
 4464.00    0.80085   0.79637    0.000
 4465.00    0.81072   0.80275    0.000
 4466.00    0.82590   0.81400    0.000
 4467.00    0.84591   0.82662    0.000
 4468.00    0.86907   0.83715    0.000
 4469.00    0.89327   0.84341    0.000
 4470.00    0.91451   0.84485    0.000
 4471.00    0.92360   0.84241    0.000
 4472.00    0.91176   0.83814    0.000
 4473.00    0.88310   0.83451    0.000
 4474.00    0.84941   0.83344    0.000
 4475.00    0.81550   0.83554    0.000
 4476.00    0.78202   0.83989    0.000
 4477.00    0.75572   0.84459    0.000
 4478.00    0.74439   0.84787    0.000
 4479.00    0.74478   0.84880    0.000
 4480.00    0.74782   0.84766    0.000
 4481.00    0.75091   0.84548    0.000
 4482.00    0.75538   0.84344   10.221
 4483.00    0.75922   0.84217   10.222
 4484.00    0.76043   0.84154   10.378
 4485.00    0.76362   0.84103   10.526
 4486.00    0.77415   0.84035   10.488
 4487.00    0.78832   0.83972   10.402
 4488.00    0.79848   0.83962   10.458
 4489.00    0.80236   0.84039   10.500
 4490.00    0.80217   0.84191   10.318
 4491.00    0.80160   0.84375   10.106
 4492.00    0.80392   0.84554   10.100
 4493.00    0.81023   0.84728   10.158
 4494.00    0.81962   0.84920   10.088
 4495.00    0.82962   0.85138   10.088
 4496.00    0.83628   0.85348   10.377
 4497.00    0.83438   0.85490   10.708
 4498.00    0.82110   0.85520   10.720
 4499.00    0.79982   0.85434   10.554
 4500.00    0.77791   0.85258   10.476
 4501.00    0.76343   0.85023   10.421
 4502.00    0.76119   0.84747   10.288
 4503.00    0.76932   0.84437   10.255
 4504.00    0.78367   0.84104   10.453
 4505.00    0.80244   0.83775   10.677
 4506.00    0.82396   0.83492   10.696
 4507.00    0.84460   0.83302   10.640
 4508.00    0.86189   0.83237   10.672
 4509.00    0.87702   0.83295   10.676
 4510.00    0.88825   0.83441   10.538
 4511.00    0.88662   0.83620   10.396
 4512.00    0.86934   0.83762   10.362
 4513.00    0.84959   0.83801   10.343
 4514.00    0.83951   0.83698   10.249
 4515.00    0.83719   0.83457   10.155
 4516.00    0.83721   0.83115   10.193
 4517.00    0.83901   0.82713   10.453
 4518.00    0.84362   0.82289   10.861
 4519.00    0.85062   0.81883   11.063
 4520.00    0.85718   0.81545   10.895
 4521.00    0.85813   0.81322   10.707
 4522.00    0.85031   0.81229   10.712
 4523.00    0.83547   0.81236   10.679
 4524.00    0.81983   0.81278   10.447
 4525.00    0.81227   0.81301   10.203
 4526.00    0.81524   0.81296   10.115
 4527.00    0.82088   0.81285   10.163
 4528.00    0.82147   0.81259   10.294
 4529.00    0.81564   0.81146   10.483
 4530.00    0.80724   0.80834   10.680
 4531.00    0.80308   0.80274   10.792
 4532.00    0.80495   0.79564   10.755
 4533.00    0.80732   0.78936   10.592
 4534.00    0.80771   0.78636   10.372
 4535.00    0.81043   0.78784   10.175
 4536.00    0.81790   0.79316   10.033
 4537.00    0.82664   0.80034    9.936
 4538.00    0.82983   0.80723    9.934
 4539.00    0.82093   0.81238   10.137
 4540.00    0.80407   0.81533   10.519
 4541.00    0.79430   0.81642   10.829
 4542.00    0.79843   0.81633   10.865
 4543.00    0.80997   0.81565   10.667
 4544.00    0.82330   0.81488   10.429
 4545.00    0.83773   0.81450   10.339
 4546.00    0.84986   0.81504   10.295
 4547.00    0.85270   0.81687    9.999
 4548.00    0.84416   0.81996    9.607
 4549.00    0.82873   0.82381    9.590
 4550.00    0.81159   0.82764    0.000
 4551.00    0.79732   0.83064    0.000
 4552.00    0.79322   0.83227    0.000
 4553.00    0.80372   0.83233    0.000
 4554.00    0.80934   0.83102    0.000
 4555.00    0.77966   0.82882    0.000
 4556.00    0.73431   0.82642    0.000
 4557.00    0.73188   0.82450    0.000
 4558.00    0.78034   0.82338    0.000
 4559.00    0.83489   0.82298    0.000
 4560.00    0.86998   0.82293    0.000
 4561.00    0.88799   0.82289    0.000
 4562.00    0.88496   0.82276    0.000
 4563.00    0.85269   0.82276    0.000
 4564.00    0.80854   0.82314    0.000
 4565.00    0.78472   0.82398    0.000
 4566.00    0.78257   0.82503    0.000
 4567.00    0.78004   0.82583    0.000
 4568.00    0.77660   0.82594    0.000
 4569.00    0.78828   0.82508    0.000
 4570.00    0.81182   0.82325    0.000
 4571.00    0.82778   0.82081    0.000
 4572.00    0.82537   0.81833    0.000
 4573.00    0.80786   0.81634    0.000
 4574.00    0.79184   0.81514    0.000
 4575.00    0.79501   0.81469    0.000
 4576.00    0.81309   0.81483    0.000
 4577.00    0.82751   0.81538    0.000
 4578.00    0.82871   0.81620    0.000
 4579.00    0.81850   0.81712    0.000
 4580.00    0.80569   0.81780    0.000
 4581.00    0.79986   0.81785    0.000
 4582.00    0.80211   0.81704    0.000
 4583.00    0.80534   0.81553    0.000
 4584.00    0.79824   0.81377    0.000
 4585.00    0.77773   0.81222    0.000
 4586.00    0.76631   0.81116    0.000
 4587.00    0.78531   0.81067    0.000
 4588.00    0.81181   0.81070    0.000
 4589.00    0.81012   0.81106    0.000
 4590.00    0.78549   0.81148    0.000
 4591.00    0.76423   0.81169    0.000
 4592.00    0.75538   0.81158    0.000
 4593.00    0.75461   0.81128    0.000
 4594.00    0.75662   0.81106    0.000
 4595.00    0.75772   0.81120    0.000
 4596.00    0.75716   0.81182    0.000
 4597.00    0.76084   0.81291    0.000
 4598.00    0.78376   0.81433    0.000
 4599.00    0.82636   0.81585    0.000
 4600.00    0.84972   0.81715    0.000
 4601.00    0.81939   0.81796    0.000
 4602.00    0.75502   0.81818    0.000
 4603.00    0.69871   0.81797    0.000
 4604.00    0.67482   0.81766    0.000
 4605.00    0.68571   0.81752    0.000
 4606.00    0.71318   0.81762    0.000
 4607.00    0.73793   0.81778    0.000
 4608.00    0.75764   0.81771    0.000
 4609.00    0.77668   0.81725    0.000
 4610.00    0.79507   0.81656    0.000
 4611.00    0.81208   0.81602    0.000
 4612.00    0.82969   0.81594    0.000
 4613.00    0.84664   0.81644    0.000
 4614.00    0.85420   0.81725    0.000
 4615.00    0.84688   0.81797    0.000
 4616.00    0.83105   0.81824    0.000
 4617.00    0.81953   0.81787    0.000
 4618.00    0.82523   0.81682    0.000
 4619.00    0.84819   0.81518    0.000
 4620.00    0.86882   0.81305    0.000
 4621.00    0.86955   0.81064    0.000
 4622.00    0.85011   0.80832    0.000
 4623.00    0.82122   0.80647    0.000
 4624.00    0.79799   0.80532    0.000
 4625.00    0.78948   0.80481    0.000
 4626.00    0.79323   0.80461    0.000
 4627.00    0.80342   0.80428    0.000
 4628.00    0.81614   0.80341    0.000
 4629.00    0.82839   0.80193    0.000
 4630.00    0.83735   0.80012    0.000
 4631.00    0.84023   0.79848    0.000
 4632.00    0.83543   0.79742    0.000
 4633.00    0.82890   0.79693    0.000
 4634.00    0.83308   0.79646    0.000
 4635.00    0.84297   0.79503    0.000
 4636.00    0.83171   0.79175    0.000
 4637.00    0.79409   0.78636    0.000
 4638.00    0.76060   0.77962    0.000
 4639.00    0.75588   0.77304    0.000
 4640.00    0.77896   0.76824    0.000
 4641.00    0.80933   0.76621    0.000
 4642.00    0.81788   0.76707    0.000
 4643.00    0.79940   0.77016    0.000
 4644.00    0.77878   0.77441    0.000
 4645.00    0.77517   0.77884    0.000
 4646.00    0.78866   0.78308    0.000
 4647.00    0.81020   0.78726    0.000
 4648.00    0.82835   0.79161    0.000
 4649.00    0.83834   0.79612    0.000
 4650.00    0.84261   0.80035    0.000
 4651.00    0.83997   0.80347    0.000
 4652.00    0.82616   0.80462    0.000
 4653.00    0.80955   0.80347    0.000
 4654.00    0.80880   0.80029    0.000
 4655.00    0.82609   0.79573    0.000
 4656.00    0.84434   0.79058    0.000
 4657.00    0.84814   0.78563    0.000
 4658.00    0.83171   0.78167    0.000
 4659.00    0.80129   0.77945    0.000
 4660.00    0.77145   0.77945    0.000
 4661.00    0.75268   0.78155    0.000
 4662.00    0.74825   0.78492    0.000
 4663.00    0.75608   0.78835    0.000
 4664.00    0.76943   0.79085    0.000
 4665.00    0.77713   0.79212    0.000
 4666.00    0.77043   0.79251    0.000
 4667.00    0.75967   0.79250    0.000
 4668.00    0.76463   0.79233    0.000
 4669.00    0.78066   0.79179    0.000
 4670.00    0.78618   0.79040    0.000
 4671.00    0.77938   0.78777    0.000
 4672.00    0.77443   0.78362    0.000
 4673.00    0.77363   0.77770    0.000
 4674.00    0.76844   0.76994    0.000
 4675.00    0.75542   0.76073    0.000
 4676.00    0.73815   0.75150    0.000
 4677.00    0.72380   0.74460    0.000
 4678.00    0.72019   0.74231    0.000
 4679.00    0.73157   0.74558    0.000
 4680.00    0.75505   0.75338    0.000
 4681.00    0.77621   0.76340    0.000
 4682.00    0.78056   0.77304    0.000
 4683.00    0.77476   0.78062    0.000
 4684.00    0.77684   0.78592    0.000
 4685.00    0.79287   0.78947    0.000
 4686.00    0.81616   0.79164    0.000
 4687.00    0.83294   0.79247    0.000
 4688.00    0.83416   0.79182    0.000
 4689.00    0.83136   0.78976    0.000
 4690.00    0.83916   0.78681    0.000
 4691.00    0.84640   0.78365    0.000
 4692.00    0.83454   0.78092    0.000
 4693.00    0.80937   0.77896    0.000
 4694.00    0.78842   0.77779    0.000
 4695.00    0.77777   0.77726    0.000
 4696.00    0.77438   0.77710    0.000
 4697.00    0.77345   0.77712    0.000
 4698.00    0.77283   0.77716    0.000
 4699.00    0.77682   0.77707    0.000
 4700.00    0.78945   0.77670    0.000
 4701.00    0.80607   0.77600    0.000
 4702.00    0.81657   0.77490    0.000
 4703.00    0.81087   0.77345    0.000
 4704.00    0.78756   0.77200    0.000
 4705.00    0.76148   0.77131    0.000
 4706.00    0.74999   0.77213    0.000
 4707.00    0.75756   0.77485    0.000
 4708.00    0.77733   0.77920    0.000
 4709.00    0.79527   0.78421    0.000
 4710.00    0.80078   0.78870    0.000
 4711.00    0.79586   0.79198    0.000
 4712.00    0.78685   0.79391    0.000
 4713.00    0.77632   0.79469    0.000
 4714.00    0.76617   0.79466    0.000
 4715.00    0.76064   0.79400    0.000
 4716.00    0.76300   0.79269    0.000
 4717.00    0.77261   0.79057    0.000
 4718.00    0.78486   0.78760    0.000
 4719.00    0.79236   0.78410    0.000
 4720.00    0.79294   0.78072    0.000
 4721.00    0.79393   0.77824    0.000
 4722.00    0.79844   0.77714    0.000
 4723.00    0.79712   0.77737    0.000
 4724.00    0.78669   0.77844    0.000
 4725.00    0.78030   0.77973    0.000
 4726.00    0.78336   0.78082    0.000
 4727.00    0.78033   0.78152    0.000
 4728.00    0.76030   0.78189    0.000
 4729.00    0.73232   0.78212    0.000
 4730.00    0.71127   0.78232    0.000
 4731.00    0.70733   0.78258    0.000
 4732.00    0.72033   0.78289    0.000
 4733.00    0.73839   0.78320    0.000
 4734.00    0.74825   0.78357    0.000
 4735.00    0.74224   0.78413    0.000
 4736.00    0.72357   0.78487    0.000
 4737.00    0.70628   0.78564    0.000
 4738.00    0.70057   0.78628    0.000
 4739.00    0.70614   0.78669    0.000
 4740.00    0.71775   0.78679    0.000
 4741.00    0.72934   0.78642    0.000
 4742.00    0.73906   0.78553    0.000
 4743.00    0.75015   0.78420    0.000
 4744.00    0.76380   0.78257    0.000
 4745.00    0.77617   0.78086    0.000
 4746.00    0.78009   0.77931    0.000
 4747.00    0.76916   0.77817    0.000
 4748.00    0.75125   0.77747    0.000
 4749.00    0.74641   0.77711    0.000
 4750.00    0.75679   0.77680    0.000
 4751.00    0.76339   0.77616    0.000
 4752.00    0.76023   0.77488    0.000
 4753.00    0.75905   0.77285    0.000
 4754.00    0.75808   0.77030    0.000
 4755.00    0.74113   0.76773    0.000
 4756.00    0.71448   0.76577    0.000
 4757.00    0.70619   0.76487    0.000
 4758.00    0.72035   0.76512    0.000
 4759.00    0.73367   0.76637    0.000
 4760.00    0.73375   0.76819    0.000
 4761.00    0.72660   0.77005   10.770
 4762.00    0.72090   0.77153   10.915
 4763.00    0.72341   0.77254   10.979
 4764.00    0.74002   0.77330   10.860
 4765.00    0.77283   0.77411   10.632
 4766.00    0.81133   0.77509   10.440
 4767.00    0.83745   0.77602   10.394
 4768.00    0.84489   0.77651   10.423
 4769.00    0.83836   0.77635   10.362
 4770.00    0.81831   0.77557   10.249
 4771.00    0.78281   0.77426   10.251
 4772.00    0.74110   0.77257   10.355
 4773.00    0.70955   0.77072   10.400
 4774.00    0.69482   0.76885   10.363
 4775.00    0.69361   0.76702   10.345
 4776.00    0.70122   0.76538   10.392
 4777.00    0.71379   0.76404   10.476
 4778.00    0.72885   0.76307   10.533
 4779.00    0.74388   0.76258   10.517
 4780.00    0.75339   0.76274   10.479
 4781.00    0.75330   0.76357   10.502
 4782.00    0.75026   0.76505   10.556
 4783.00    0.75526   0.76711   10.557
 4784.00    0.76871   0.76951   10.529
 4785.00    0.78076   0.77186   10.548
 4786.00    0.77723   0.77365   10.588
 4787.00    0.75170   0.77438   10.565
 4788.00    0.72292   0.77386   10.469
 4789.00    0.71642   0.77236   10.353
 4790.00    0.73092   0.77048   10.285
 4791.00    0.74914   0.76894   10.309
 4792.00    0.76281   0.76817   10.398
 4793.00    0.77209   0.76812   10.490
 4794.00    0.77893   0.76830   10.549
 4795.00    0.78391   0.76816   10.581
 4796.00    0.78338   0.76742   10.632
 4797.00    0.77358   0.76621   10.726
 4798.00    0.75647   0.76491   10.782
 4799.00    0.73795   0.76385   10.734
 4800.00    0.72430   0.76323   10.699
 4801.00    0.71835   0.76307   10.800
 4802.00    0.71602   0.76323   10.952
 4803.00    0.71495   0.76355   10.991
 4804.00    0.72387   0.76395   10.896
 4805.00    0.74498   0.76449   10.785
 4806.00    0.75523   0.76524   10.850
 4807.00    0.73990   0.76616   11.129
 4808.00    0.72780   0.76709   11.265
 4809.00    0.74866   0.76775   11.043
 4810.00    0.78749   0.76787   10.970
 4811.00    0.81349   0.76730   11.490
 4812.00    0.81343   0.76601   12.309
 4813.00    0.79164   0.76413   12.837
 4814.00    0.76554   0.76196   13.053
 4815.00    0.75055   0.76003   13.233
 4816.00    0.74723   0.75876   13.390
 4817.00    0.74746   0.75811   13.448
 4818.00    0.74192   0.75775   13.467
 4819.00    0.72972   0.75731   13.575
 4820.00    0.72378   0.75665   13.851
 4821.00    0.73165   0.75586   14.023
 4822.00    0.74172   0.75511   13.357
 4823.00    0.73956   0.75467   12.011
 4824.00    0.72142   0.75467   11.108
 4825.00    0.69477   0.75500   11.038
 4826.00    0.67592   0.75540   11.348
 4827.00    0.67462   0.75551   11.486
 4828.00    0.68484   0.75505   11.303
 4829.00    0.69607   0.75391   10.990
 4830.00    0.70199   0.75224   10.858
 4831.00    0.70485   0.75042   10.954
 4832.00    0.71474   0.74877   10.958
 4833.00    0.73048   0.74755   10.738
 4834.00    0.73255   0.74685   10.608
 4835.00    0.71291   0.74654   10.718
 4836.00    0.68838   0.74629   10.821
 4837.00    0.67372   0.74568   10.792
 4838.00    0.66841   0.74440   10.856
 4839.00    0.67067   0.74237   11.067
 4840.00    0.68379   0.73970   11.110
 4841.00    0.70699   0.73647   10.889
 4842.00    0.73228   0.73256   10.737
 4843.00    0.75268   0.72749   10.782
 4844.00    0.76517   0.72058   10.793
 4845.00    0.76430   0.71114   10.681
 4846.00    0.74232   0.69858   10.649
 4847.00    0.70346   0.68226   10.798
 4848.00    0.66621   0.66171    0.000
 4849.00    0.64488   0.63711    0.000
 4850.00    0.64096   0.61015    0.000
 4851.00    0.64195   0.58455    0.000
 4852.00    0.63394   0.56541    0.000
 4853.00    0.65089   0.55736    0.000
 4854.00    0.78414   0.56254    0.000
 4855.00    1.14318   0.57942    0.000
 4856.00    1.80913   0.60356    0.000
 4857.00    2.72751   0.62960    0.000
 4858.00    3.69959   0.65324    0.000
 4859.00    4.48670   0.67216    0.000
 4860.00    4.87069   0.68593    0.000
 4861.00    4.72661   0.69529    0.000
 4862.00    4.06503   0.70155    0.000
 4863.00    3.08414   0.70616    0.000
 4864.00    2.10849   0.71032    0.000
 4865.00    1.36273   0.71467    0.000
 4866.00    0.91503   0.71930    0.000
 4867.00    0.71800   0.72395    0.000
 4868.00    0.65689   0.72828    0.000
 4869.00    0.64438   0.73199    0.000
 4870.00    0.64083   0.73485    0.000
 4871.00    0.63668   0.73672    0.000
 4872.00    0.63860   0.73751    0.000
 4873.00    0.64788   0.73734    0.000
 4874.00    0.65884   0.73644    0.000
 4875.00    0.66840   0.73511   11.102
 4876.00    0.67797   0.73361   11.248
 4877.00    0.69218   0.73212   11.482
 4878.00    0.71485   0.73071   11.420
 4879.00    0.74118   0.72941   11.162
 4880.00    0.76133   0.72833   11.086
 4881.00    0.77137   0.72779   11.160
 4882.00    0.77163   0.72838   11.126
 4883.00    0.75908   0.73064   11.062
 4884.00    0.73263   0.73467   11.214
 4885.00    0.70566   0.73989   11.498
 4886.00    0.69564   0.74520   11.613
 4887.00    0.70163   0.74945   11.516
 4888.00    0.70928   0.75188   11.383
 4889.00    0.70691   0.75234   11.298
 4890.00    0.69079   0.75123   11.267
 4891.00    0.66872   0.74923   11.320
 4892.00    0.65483   0.74709   11.470
 4893.00    0.65999   0.74533   11.630
 4894.00    0.68634   0.74426   11.667
 4895.00    0.72170   0.74388   11.553
 4896.00    0.74780   0.74396   11.377
 4897.00    0.75371   0.74406   11.300
 4898.00    0.74088   0.74371   11.421
 4899.00    0.72646   0.74263   11.611
 4900.00    0.72824   0.74096   11.656
 4901.00    0.74449   0.73922   11.522
 4902.00    0.76197   0.73804   11.333
 4903.00    0.76964   0.73783   11.263
 4904.00    0.76290   0.73847   11.399
 4905.00    0.74630   0.73934   11.604
 4906.00    0.72973   0.73944   11.696
 4907.00    0.72329   0.73777   11.698
 4908.00    0.73264   0.73367   11.700
 4909.00    0.75454   0.72723   11.656
 4910.00    0.77878   0.71935   11.529
 4911.00    0.79168   0.71162   11.441
 4912.00    0.78609   0.70575   11.486
 4913.00    0.77044   0.70303   11.543
 4914.00    0.75706   0.70388   11.482
 4915.00    0.75011   0.70789   11.386
 4916.00    0.74753   0.71408   11.351
 4917.00    0.74462   0.72129   11.321
 4918.00    0.73933   0.72845   11.254
 4919.00    0.73610   0.73466   11.259
 4920.00    0.73886   0.73927   11.375
 4921.00    0.74491   0.74187   11.403
 4922.00    0.74840   0.74239   11.217
 4923.00    0.74411   0.74111   11.011
 4924.00    0.73257   0.73862   10.945
 4925.00    0.72271   0.73564   10.937
 4926.00    0.72208   0.73273   10.871
 4927.00    0.72988   0.73017   10.754
 4928.00    0.74182   0.72806   10.629
 4929.00    0.75400   0.72654   10.514
 4930.00    0.76252   0.72594   10.410
 4931.00    0.76366   0.72657   10.315
 4932.00    0.75825   0.72844   10.242
 4933.00    0.75296   0.73117   10.226
 4934.00    0.75036   0.73411   10.263
 4935.00    0.74431   0.73671   10.291
 4936.00    0.73202   0.73869   10.293
 4937.00    0.71990   0.74011   10.336
 4938.00    0.71329   0.74119   10.431
 4939.00    0.71110   0.74210   10.476
 4940.00    0.71021   0.74285    0.000
 4941.00    0.70885   0.74325    0.000
 4942.00    0.71017   0.74302    0.000
 4943.00    0.72133   0.74187    0.000
 4944.00    0.73934   0.73957    0.000
 4945.00    0.74833   0.73605    0.000
 4946.00    0.74129   0.73153    0.000
 4947.00    0.72731   0.72667    0.000
 4948.00    0.71455   0.72247    0.000
 4949.00    0.70643   0.72000    0.000
 4950.00    0.72065   0.71980    0.000
 4951.00    0.80383   0.72161    0.000
 4952.00    1.05487   0.72440    0.000
 4953.00    1.60400   0.72694    0.000
 4954.00    2.49089   0.72831    0.000
 4955.00    3.61390   0.72824    0.000
 4956.00    4.73219   0.72704    0.000
 4957.00    5.51653   0.72533    0.000
 4958.00    5.72603   0.72378    0.000
 4959.00    5.28907   0.72287    0.000
 4960.00    4.34679   0.72281    0.000
 4961.00    3.21106   0.72359    0.000
 4962.00    2.17632   0.72499    0.000
 4963.00    1.43469   0.72669    0.000
 4964.00    1.01896   0.72828    0.000
 4965.00    0.82680   0.72935    0.000
 4966.00    0.74912   0.72957    0.000
 4967.00    0.71325   0.72874    0.000
 4968.00    0.68753   0.72681    0.000
 4969.00    0.67125   0.72389    0.000
 4970.00    0.66395   0.72017    0.000
 4971.00    0.65951   0.71591    0.000
 4972.00    0.65447   0.71153    0.000
 4973.00    0.64901   0.70763    0.000
 4974.00    0.64361   0.70490    0.000
 4975.00    0.63993   0.70390    0.000
 4976.00    0.64517   0.70480    0.000
 4977.00    0.66618   0.70717    0.000
 4978.00    0.69358   0.71020    0.000
 4979.00    0.70972   0.71300    0.000
 4980.00    0.71422   0.71496    0.000
 4981.00    0.71983   0.71597    0.000
 4982.00    0.73108   0.71629    0.000
 4983.00    0.74343   0.71632    0.000
 4984.00    0.75114   0.71640    0.000
 4985.00    0.75092   0.71660    0.000
 4986.00    0.74549   0.71675    0.000
 4987.00    0.74047   0.71652    0.000
 4988.00    0.73741   0.71557    0.000
 4989.00    0.73551   0.71371    0.000
 4990.00    0.73682   0.71106    0.000
 4991.00    0.74345   0.70800    0.000
 4992.00    0.75118   0.70505    0.000
 4993.00    0.75307   0.70256    0.000
 4994.00    0.74701   0.70068    0.000
 4995.00    0.73612   0.69934    0.000
 4996.00    0.72760   0.69851    0.000
 4997.00    0.73826   0.69827    0.000
 4998.00    0.80679   0.69868    0.000
 4999.00    1.06356   0.69953    0.000
 5000.00    1.81924   0.70025    0.000
 5001.00    3.42389   0.70004    0.000
 5002.00    6.04311   0.69831    0.000
 5003.00    9.43490   0.69496    0.000
 5004.00   12.72675   0.69053    0.000
 5005.00   14.86438   0.68605    0.000
 5006.00   15.22007   0.68263    0.000
 5007.00   13.71465   0.68113    0.000
 5008.00   10.85661   0.68183    0.000
 5009.00    7.49704   0.68435    0.000
 5010.00    4.51566   0.68789    0.000
 5011.00    2.49562   0.69159    0.000
 5012.00    1.42515   0.69481    0.000
 5013.00    0.97691   0.69729    0.000
 5014.00    0.84386   0.69906    0.000
 5015.00    0.81165   0.70029    0.000
 5016.00    0.79344   0.70115    0.000
 5017.00    0.77440   0.70181    0.000
 5018.00    0.75348   0.70249    0.000
 5019.00    0.73507   0.70344    0.000
 5020.00    0.72523   0.70481    0.000
 5021.00    0.72491   0.70653    0.000
 5022.00    0.72553   0.70826    0.000
 5023.00    0.72116   0.70949    0.000
 5024.00    0.71801   0.70970    0.000
 5025.00    0.72298   0.70858    0.000
 5026.00    0.73407   0.70613    0.000
 5027.00    0.74371   0.70260    0.000
 5028.00    0.74291   0.69839    0.000
 5029.00    0.72935   0.69396   12.608
 5030.00    0.71185   0.68982   12.556
 5031.00    0.70040   0.68668   12.207
 5032.00    0.69868   0.68530   11.840
 5033.00    0.70476   0.68619   11.667
 5034.00    0.71277   0.68919   11.589
 5035.00    0.71927   0.69338   11.499
 5036.00    0.72588   0.69742   11.439
 5037.00    0.73011   0.70010   11.521
 5038.00    0.72185   0.70091   11.860
 5039.00    0.69899   0.70013   12.394
 5040.00    0.67430   0.69862   12.759
 5041.00    0.66031   0.69738   12.774
 5042.00    0.66082   0.69712   12.751
 5043.00    0.67382   0.69801   12.863
 5044.00    0.69365   0.69978   12.888
 5045.00    0.71256   0.70194   12.742
 5046.00    0.72255   0.70404   12.678
 5047.00    0.72030   0.70583   12.815
 5048.00    0.70908   0.70725   12.980
 5049.00    0.69570   0.70837   13.011
 5050.00    0.68804   0.70914   12.922
 5051.00    0.69035   0.70939   12.807
 5052.00    0.70118   0.70886   12.767
 5053.00    0.71310   0.70736   12.825
 5054.00    0.71600   0.70492   12.912
 5055.00    0.71026   0.70190   12.959
 5056.00    0.70791   0.69890   12.943
 5057.00    0.71554   0.69652   12.893
 5058.00    0.72917   0.69508   12.873
 5059.00    0.74217   0.69452   12.912
 5060.00    0.74912   0.69455   12.980
 5061.00    0.74813   0.69478   12.996
 5062.00    0.74141   0.69491   12.880
 5063.00    0.73434   0.69486   12.703
 5064.00    0.73287   0.69461   12.645
 5065.00    0.73624   0.69418   12.712
 5066.00    0.73695   0.69346   12.740
 5067.00    0.72838   0.69225   12.700
 5068.00    0.70915   0.69036   12.707
 5069.00    0.68808   0.68786   12.756
 5070.00    0.67924   0.68512   12.730
 5071.00    0.68326   0.68278   12.670
 5072.00    0.68948   0.68143   12.726
 5073.00    0.69670   0.68141   12.844
 5074.00    0.71135   0.68264   12.821
 5075.00    0.72751   0.68473   12.718
 5076.00    0.72994   0.68719   12.776
 5077.00    0.71496   0.68957   12.941
 5078.00    0.69162   0.69163   12.941
 5079.00    0.67106   0.69330   12.802
 5080.00    0.66131   0.69465   12.754
 5081.00    0.66160   0.69577   12.721
 5082.00    0.66491   0.69669   12.481
 5083.00    0.66623   0.69728   12.208
 5084.00    0.66421   0.69729   12.233
 5085.00    0.66050   0.69644   12.465
 5086.00    0.65825   0.69460   12.570
 5087.00    0.65939   0.69190   12.597
 5088.00    0.66503   0.68883   12.805
 5089.00    0.67712   0.68606   13.002
 5090.00    0.69513   0.68418   12.807
 5091.00    0.70975   0.68350   12.462
 5092.00    0.71167   0.68383   12.417
 5093.00    0.70838   0.68463   12.560
 5094.00    0.71214   0.68525   12.508
 5095.00    0.71564   0.68524   12.307
 5096.00    0.70430   0.68446   12.231
 5097.00    0.68241   0.68314   12.286
 5098.00    0.66620   0.68168   12.317
 5099.00    0.66648   0.68053   12.261
 5100.00    0.68434   0.68002   12.155
 5101.00    0.70923   0.68031   12.077
 5102.00    0.72768   0.68139   12.066
 5103.00    0.73567   0.68306   12.036
 5104.00    0.73552   0.68508   11.927
 5105.00    0.72938   0.68718   11.905
 5106.00    0.71997   0.68913   12.125
 5107.00    0.71241   0.69070   12.428
 5108.00    0.70988   0.69161   12.567
 5109.00    0.70846   0.69159   12.627
 5110.00    0.70378   0.69045   12.776
 5111.00    0.69913   0.68814   12.894
 5112.00    0.69906   0.68489   12.836
 5113.00    0.70139   0.68112   12.785
 5114.00    0.70276   0.67740   12.950
 5115.00    0.70510   0.67422   13.219
 5116.00    0.70938   0.67188   13.402
 5117.00    0.70923   0.67048   13.535
 5118.00    0.69953   0.66994   13.676
 5119.00    0.68485   0.67012   13.659
 5120.00    0.67301   0.67090   13.431
 5121.00    0.66797   0.67216   13.327
 5122.00    0.66978   0.67377   13.554
 5123.00    0.67529   0.67553   13.799
 5124.00    0.68099   0.67713   13.743
 5125.00    0.68530   0.67825   13.586
 5126.00    0.68758   0.67861   13.565
 5127.00    0.68713   0.67807   13.563
 5128.00    0.68281   0.67673   13.479
 5129.00    0.67321   0.67490   13.483
 5130.00    0.66017   0.67298   13.691
 5131.00    0.65054   0.67127   13.932
 5132.00    0.64816   0.66995   13.999
 5133.00    0.64911   0.66900   13.889
 5134.00    0.64981   0.66836   13.704
 5135.00    0.65201   0.66797   13.544
 5136.00    0.65575   0.66776   13.452
 5137.00    0.65564   0.66766   13.409
 5138.00    0.64899   0.66759   13.391
 5139.00    0.64017   0.66746   13.405
 5140.00    0.63307   0.66716   13.442
 5141.00    0.62708   0.66669   13.463
 5142.00    0.62128   0.66618   13.477
 5143.00    0.61740   0.66591   13.557
 5144.00    0.62105   0.66625   13.621
 5145.00    0.63995   0.66747   13.392
 5146.00    0.67096   0.66961   12.893
 5147.00    0.69644   0.67239   12.510
 5148.00    0.70184   0.67533   12.414
 5149.00    0.68498   0.67780   12.459
 5150.00    0.65500   0.67928   12.579
 5151.00    0.62859   0.67936   12.897
 5152.00    0.61600   0.67777   13.325
 5153.00    0.61625   0.67433   13.435
 5154.00    0.62600   0.66900   13.187
 5155.00    0.64310   0.66194   13.081
 5156.00    0.66364   0.65369   13.254
 5157.00    0.68145   0.64520   13.323
 5158.00    0.69131   0.63758   13.159
 5159.00    0.69059   0.63168   13.061
 5160.00    0.67996   0.62781   13.048
 5161.00    0.66342   0.62581   12.838
 5162.00    0.64716   0.62543   12.711
 5163.00    0.63727   0.62669   13.423
 5164.00    0.63337   0.62981   15.037
 5165.00    0.62949   0.63480   16.264
 5166.00    0.62453   0.64110   16.243
 5167.00    0.62256   0.64756   15.922
 5168.00    0.62162   0.65277   15.993
 5169.00    0.61484   0.65553   16.346
 5170.00    0.60519   0.65521   16.605
 5171.00    0.60451   0.65195   16.429
 5172.00    0.61677   0.64667   16.069
 5173.00    0.63544   0.64095   15.999
 5174.00    0.65107   0.63666   15.723
 5175.00    0.65606   0.63527   14.398
 5176.00    0.65117   0.63727   12.839
 5177.00    0.64378   0.64197   12.174
 5178.00    0.63860   0.64780   12.403
 5179.00    0.63638   0.65307   12.961
 5180.00    0.63688   0.65655   13.306
 5181.00    0.63848   0.65792   13.207
 5182.00    0.63549   0.65761   13.020
 5183.00    0.62324   0.65655   13.254
 5184.00    0.61046   0.65570   13.691
 5185.00    0.61157   0.65573   13.628
 5186.00    0.62451   0.65683   13.155
 5187.00    0.63586   0.65880   12.900
 5188.00    0.64170   0.66115   12.976
 5189.00    0.64705   0.66331   13.137
 5190.00    0.65594   0.66474    0.000
 5191.00    0.66855   0.66502    0.000
 5192.00    0.67987   0.66387    0.000
 5193.00    0.68422   0.66127    0.000
 5194.00    0.68354   0.65747    0.000
 5195.00    0.68380   0.65300    0.000
 5196.00    0.68620   0.64861    0.000
 5197.00    0.68789   0.64508    0.000
 5198.00    0.68580   0.64305    0.000
 5199.00    0.67913   0.64293    0.000
 5200.00    0.67189   0.64474    0.000
 5201.00    0.66779   0.64816    0.000
 5202.00    0.66226   0.65250    0.000
 5203.00    0.64854   0.65691    0.000
 5204.00    0.62815   0.66061    0.000
 5205.00    0.60953   0.66320    0.000
 5206.00    0.60367   0.66477    0.000
 5207.00    0.61755   0.66579    0.000
 5208.00    0.64665   0.66680    0.000
 5209.00    0.67960   0.66804    0.000
 5210.00    0.70555   0.66934    0.000
 5211.00    0.71568   0.67014   14.006
 5212.00    0.70439   0.66977   14.094
 5213.00    0.67475   0.66778   14.366
 5214.00    0.64362   0.66417   14.601
 5215.00    0.62882   0.65956   14.530
 5216.00    0.63441   0.65501   14.328
 5217.00    0.65487   0.65171   14.216
 5218.00    0.68144   0.65050   14.047
 5219.00    0.70357   0.65147   13.727
 5220.00    0.71058   0.65397   13.574
 5221.00    0.69971   0.65693   13.785
 5222.00    0.68264   0.65941   13.993
 5223.00    0.67252   0.66103   13.825
 5224.00    0.67155   0.66204   13.529
 5225.00    0.67516   0.66299   13.443
 5226.00    0.67719   0.66436   13.559
 5227.00    0.67293   0.66627   13.729
 5228.00    0.66139   0.66846   13.840
 5229.00    0.64473   0.67052   13.859
 5230.00    0.62750   0.67210   13.854
 5231.00    0.61574   0.67309   13.898
 5232.00    0.61578   0.67347   13.985
 5233.00    0.63033   0.67330   14.025
 5234.00    0.65550   0.67256   13.864
 5235.00    0.68047   0.67115   13.538
 5236.00    0.68974   0.66901   13.349
 5237.00    0.67896   0.66626   13.454
 5238.00    0.66326   0.66323   13.684
 5239.00    0.65797   0.66038   13.792
 5240.00    0.66573   0.65812   13.661
 5241.00    0.67939   0.65669   13.392
 5242.00    0.68656   0.65618   13.249
 5243.00    0.68327   0.65650   13.334
 5244.00    0.67946   0.65755   13.475
 5245.00    0.68262   0.65922   13.546
 5246.00    0.68931   0.66136   13.623
 5247.00    0.69313   0.66365   13.719
 5248.00    0.68984   0.66551   13.682
 5249.00    0.67969   0.66622   13.493
 5250.00    0.66751   0.66512   13.363
 5251.00    0.65748   0.66193   13.412
 5252.00    0.65084   0.65685   13.559
 5253.00    0.64781   0.65061   13.644
 5254.00    0.64826   0.64420   13.544
 5255.00    0.64977   0.63849   13.356
 5256.00    0.64823   0.63393   13.352
 5257.00    0.64371   0.63066   13.521
 5258.00    0.64120   0.62860   13.520
 5259.00    0.64204   0.62760   13.364
 5260.00    0.64222   0.62773   13.496
 5261.00    0.64038   0.62915   13.911
 5262.00    0.63941   0.63190   13.994
 5263.00    0.64009   0.63574   13.611
 5264.00    0.64001   0.64025   13.325
 5265.00    0.63904   0.64501   13.381
 5266.00    0.63977   0.64965   13.575
 5267.00    0.64175   0.65391   13.720
 5268.00    0.64175   0.65745   13.769
 5269.00    0.64149   0.65989   13.698
 5270.00    0.64723   0.66094   13.498
 5271.00    0.66024   0.66067   13.295
 5272.00    0.67534   0.65960   13.286
 5273.00    0.68655   0.65861   13.481
 5274.00    0.69052   0.65850   13.708
 5275.00    0.69107   0.65965   13.821
 5276.00    0.69628   0.66197   13.787
 5277.00    0.70704   0.66493   13.659
 5278.00    0.71701   0.66788   13.533
 5279.00    0.72160   0.67024   13.456
 5280.00    0.71988   0.67168   13.425
 5281.00    0.71337   0.67214   13.407
 5282.00    0.70472   0.67164   13.370
 5283.00    0.69545   0.67020   13.352
 5284.00    0.68587   0.66777   13.411
 5285.00    0.67609   0.66436   13.474
 5286.00    0.66662   0.66032   13.413
 5287.00    0.65894   0.65625   13.280
 5288.00    0.65622   0.65286   13.217
 5289.00    0.66409   0.65072   13.160
 5290.00    0.68568   0.65015   12.942
 5291.00    0.71132   0.65114   12.608
 5292.00    0.72610   0.65339   12.305
 5293.00    0.72834   0.65641   12.029
 5294.00    0.72614   0.65961   11.707
 5295.00    0.72401   0.66251   11.385
 5296.00    0.72113   0.66482   11.146
 5297.00    0.71306   0.66647   10.969
 5298.00    0.69660   0.66756   10.808
 5299.00    0.67738   0.66821   10.722
 5300.00    0.66436   0.66852   10.765
 5301.00    0.65900   0.66850   10.780
 5302.00    0.65754   0.66810   10.599
 5303.00    0.65732   0.66728   10.403
 5304.00    0.65770   0.66605   10.437
 5305.00    0.65984   0.66451   10.621
 5306.00    0.66522   0.66291   10.737
 5307.00    0.67361   0.66147   10.807
 5308.00    0.68283   0.66025   10.983
 5309.00    0.68909   0.65917   11.311
 5310.00    0.69058   0.65810   11.678
 5311.00    0.69182   0.65682   11.794
 5312.00    0.69620   0.65505   11.528
 5313.00    0.69691   0.65264   11.295
 5314.00    0.68774   0.64963   11.467
 5315.00    0.67657   0.64601   11.832
 5316.00    0.67249   0.64177   11.990
 5317.00    0.67000   0.63734   11.983
 5318.00    0.66107   0.63382   12.028
 5319.00    0.64982   0.63222   12.094
 5320.00    0.64537   0.63293   12.057
 5321.00    0.65235   0.63567   11.922
 5322.00    0.66632   0.63973   11.786
 5323.00    0.67168   0.64425   11.757
 5324.00    0.65833   0.64837   11.867
 5325.00    0.63667   0.65144   12.000
 5326.00    0.62238   0.65315   12.029
 5327.00    0.62105   0.65351   11.964
 5328.00    0.62852   0.65267   11.913
 5329.00    0.63381   0.65094   12.019
 5330.00    0.63216   0.64892   12.298
 5331.00    0.63397   0.64735   12.530
 5332.00    0.64802   0.64666   12.530
 5333.00    0.66815   0.64678   12.422
 5334.00    0.68278   0.64734   12.380
 5335.00    0.68363   0.64792   12.424
 5336.00    0.66985   0.64828   12.536
 5337.00    0.64976   0.64841   12.732
 5338.00    0.63460   0.64842   12.970
 5339.00    0.63300   0.64865   13.081
 5340.00    0.64413   0.64955   13.011
 5341.00    0.65574   0.65123   12.952
 5342.00    0.66052   0.65351   13.028
 5343.00    0.66464   0.65611   13.129
 5344.00    0.67204   0.65881   13.154
 5345.00    0.67635   0.66133   13.161
 5346.00    0.67326   0.66335   13.212
 5347.00    0.66746   0.66468   13.287
 5348.00    0.66708   0.66521   13.364
 5349.00    0.67864   0.66486   13.454
 5350.00    0.69874   0.66359   13.548
 5351.00    0.71248   0.66152   13.600
 5352.00    0.70908   0.65891   13.595
 5353.00    0.68928   0.65613   13.591
 5354.00    0.66065   0.65341   13.659
 5355.00    0.63328   0.65086   13.842
 5356.00    0.61222   0.64849   14.043
 5357.00    0.59549   0.64619   14.027
 5358.00    0.58161   0.64377   13.778
 5359.00    0.57287   0.64120   13.564
 5360.00    0.57396   0.63876   13.537
 5361.00    0.58967   0.63716   13.623
 5362.00    0.61857   0.63717   13.625
 5363.00    0.65149   0.63907   13.358
 5364.00    0.67663   0.64236   12.978
 5365.00    0.68393   0.64613   12.877
 5366.00    0.67388   0.64952   13.129
 5367.00    0.65769   0.65197   13.432
 5368.00    0.64604   0.65333   13.539
 5369.00    0.64445   0.65367   13.444
 5370.00    0.65244   0.65319   13.278
 5371.00    0.66503   0.65222   13.194
 5372.00    0.67865   0.65112   13.232
 5373.00    0.69145   0.65018   13.320
 5374.00    0.69837   0.64956   13.358
 5375.00    0.69242   0.64930   13.300
 5376.00    0.67348   0.64915   13.297
 5377.00    0.64894   0.64876   13.570
 5378.00    0.62752   0.64790   13.936
 5379.00    0.61660   0.64649   13.898
 5380.00    0.62010   0.64460   13.567
 5381.00    0.63713   0.64246   13.495
 5382.00    0.66012   0.64026   13.656
 5383.00    0.67810   0.63810   13.579
 5384.00    0.68577   0.63603   13.290
 5385.00    0.68405   0.63409   13.201
 5386.00    0.67561   0.63240   13.360
 5387.00    0.66334   0.63111   13.502
 5388.00    0.64947   0.63057   13.493
 5389.00    0.63590   0.63099   13.410
 5390.00    0.62541   0.63183   13.393
 5391.00    0.62041   0.63225   13.537
 5392.00    0.61987   0.63174   13.725
 5393.00    0.61998   0.63002   13.768
 5394.00    0.61711   0.62696   13.773
 5395.00    0.60977   0.62288   13.964
 5396.00    0.60136   0.61843   14.163
 5397.00    0.59804   0.61417   14.023
 5398.00    0.60369   0.61025   13.723
 5399.00    0.61665   0.60651   13.658
 5400.00    0.62605   0.60313   13.780
 5401.00    0.61916   0.60094   -2.000
 5402.00    0.59502   0.60113   -2.000
 5403.00    0.56813   0.60431   -2.000
 5404.00    0.56934   0.60999   -2.000
 5405.00    0.62458   0.61695   -2.000
 5406.00    0.72243   0.62395   -2.000
 5407.00    0.82371   0.63012   -2.000
 5408.00    0.88416   0.63486   -2.000
 5409.00    0.87898   0.63791   -2.000
 5410.00    0.83068   0.63945   -2.000
 5411.00    0.78049   0.63991   -2.000
 5412.00    0.74478   0.63979   -2.000
 5413.00    0.71977   0.63943   -2.000
 5414.00    0.69579   0.63892   -2.000
 5415.00    0.66614   0.63832   -2.000
 5416.00    0.63540   0.63772   12.685
 5417.00    0.61198   0.63698   12.975
 5418.00    0.59819   0.63572   13.137
 5419.00    0.59245   0.63371   13.217
 5420.00    0.59306   0.63114   13.286
 5421.00    0.59852   0.62874   13.371
 5422.00    0.60735   0.62705   13.405
 5423.00    0.61706   0.62609   13.342
 5424.00    0.62342   0.62573   13.276
 5425.00    0.62371   0.62618   13.298
 5426.00    0.61977   0.62774   13.356
 5427.00    0.61391   0.63044   13.361
 5428.00    0.60547   0.63395   13.307
 5429.00    0.59628   0.63769   13.232
 5430.00    0.59494   0.64094   13.180
 5431.00    0.60554   0.64307   13.189
 5432.00    0.61892   0.64367   13.284
 5433.00    0.62584   0.64265   13.441
 5434.00    0.62768   0.64021   13.558
 5435.00    0.62782   0.63679   13.569
 5436.00    0.62463   0.63308   13.527
 5437.00    0.61644   0.62992   13.521
 5438.00    0.60553   0.62804   13.594
 5439.00    0.59732   0.62773   13.755
 5440.00    0.59862   0.62851   13.983
 5441.00    0.61056   0.62930   14.157
 5442.00    0.62487   0.62933   14.062
 5443.00    0.63228   0.62844   13.762
 5444.00    0.62882   0.62692   13.688
 5445.00    0.61940   0.62535   13.949
 5446.00    0.61715   0.62434   14.046
 5447.00    0.62691   0.62433   13.770
 5448.00    0.63819   0.62544   13.661
 5449.00    0.64463   0.62708   14.000
 5450.00    0.65310   0.62834   14.396
 5451.00    0.66775   0.62874   14.466
 5452.00    0.68244   0.62840   14.311
 5453.00    0.69039   0.62777   14.121
 5454.00    0.68964   0.62727   13.949
 5455.00    0.68259   0.62722   13.856
 5456.00    0.67436   0.62771   13.950
 5457.00    0.66605   0.62840   14.172
 5458.00    0.65342   0.62885   14.261
 5459.00    0.63640   0.62890   14.169
 5460.00    0.62173   0.62844   14.174
 5461.00    0.61434   0.62732   14.358
 5462.00    0.61393   0.62562   14.466
 5463.00    0.61764   0.62356   14.348
 5464.00    0.62182   0.62132   14.132
 5465.00    0.62415   0.61911   13.994
 5466.00    0.62404   0.61729   14.033
 5467.00    0.62093   0.61614   14.173
 5468.00    0.61445   0.61569   14.207
 5469.00    0.60753   0.61611   14.123
 5470.00    0.60582   0.61731   14.122
 5471.00    0.61157   0.61877   14.212
 5472.00    0.62216   0.62009   14.192
 5473.00    0.63275   0.62130   14.079
 5474.00    0.63825   0.62261   14.108
 5475.00    0.63606   0.62392   14.227
 5476.00    0.62644   0.62494   14.135
 5477.00    0.61046   0.62547   13.929
 5478.00    0.59093   0.62551   14.014
 5479.00    0.57689   0.62532   14.349
 5480.00    0.57954   0.62521   14.455
 5481.00    0.59748   0.62533   14.190
 5482.00    0.61802   0.62549   13.869
 5483.00    0.63269   0.62555   13.760
 5484.00    0.64023   0.62545   13.934
 5485.00    0.64294   0.62515   14.129
 5486.00    0.64398   0.62472   13.944
 5487.00    0.64310   0.62429   13.528
 5488.00    0.63800   0.62383   13.351
 5489.00    0.62979   0.62329   13.466
 5490.00    0.62229   0.62273   13.614
 5491.00    0.61740   0.62214   13.680
 5492.00    0.61526   0.62131   13.724
 5493.00    0.61683   0.62020   13.765
 5494.00    0.62287   0.61909   13.788
 5495.00    0.63068   0.61817   13.855
 5496.00    0.63594   0.61743   14.044
 5497.00    0.63757   0.61679   14.252
 5498.00    0.63605   0.61623   14.302
 5499.00    0.62865   0.61579   14.245
 5500.00    0.61355   0.61545   14.264
 5501.00    0.59840   0.61503   14.398
 5502.00    0.59278   0.61446   14.559
 5503.00    0.59295   0.61402   14.664
 5504.00    0.58962   0.61405   14.668
 5505.00    0.58501   0.61485   14.577
 5506.00    0.58650   0.61649   14.431
 5507.00    0.59267   0.61872   14.273
 5508.00    0.60167   0.62111   14.086
 5509.00    0.62584   0.62324   13.744
 5510.00    0.66157   0.62481   13.374
 5511.00    0.64830   0.62563   13.721
 5512.00    0.56664   0.62559   -2.000
 5513.00    0.56686   0.62472   -2.000
 5514.00    0.71413   0.62320   -2.000
 5515.00    0.66135   0.62122   -2.000
 5516.00    0.18224   0.61904   -2.000
 5517.00   -0.14222   0.61699   -2.000
 5518.00    0.40750   0.61543   -2.000
 5519.00    1.78243   0.61465   -2.000
 5520.00    3.33771   0.61472   -2.000
 5521.00    4.21105   0.61545   -2.000
 5522.00    3.98461   0.61652   -2.000
 5523.00    3.30241   0.61746   -2.000
 5524.00    2.93232   0.61796   -2.000
 5525.00    2.74343   0.61818   -2.000
 5526.00    2.34253   0.61844   -2.000
 5527.00    1.80834   0.61891   -2.000
 5528.00    1.40009   0.61963   -2.000
 5529.00    1.20173   0.62054   -2.000
 5530.00    1.12941   0.62135   -2.000
 5531.00    0.99204   0.62184   -2.000
 5532.00    0.71662   0.62200   -2.000
 5533.00    0.51213   0.62184   -2.000
 5534.00    0.53917   0.62148   -2.000
 5535.00    0.64478   0.62116   15.509
 5536.00    0.65528   0.62114   15.261
 5537.00    0.61574   0.62155   16.241
 5538.00    0.61310   0.62225   16.311
 5539.00    0.63151   0.62295   15.835
 5540.00    0.63259   0.62344   15.808
 5541.00    0.62042   0.62351   16.118
 5542.00    0.61217   0.62306   16.335
 5543.00    0.61381   0.62217   16.292
 5544.00    0.62351   0.62109   16.038
 5545.00    0.63540   0.62003   15.738
 5546.00    0.64326   0.61915   15.546
 5547.00    0.64290   0.61851   15.554
 5548.00    0.63341   0.61808   15.787
 5549.00    0.61777   0.61766   16.187
 5550.00    0.60283   0.61705   16.588
 5551.00    0.59798   0.61622   16.723
 5552.00    0.60777   0.61519   16.454
 5553.00    0.62830   0.61398   15.916
 5554.00    0.65163   0.61272   15.346
 5555.00    0.66906   0.61154   14.946
 5556.00    0.67496   0.61056   14.815
 5557.00    0.66868   0.60983   14.955
 5558.00    0.65372   0.60933   15.298
 5559.00    0.63677   0.60901   15.704
 5560.00    0.62548   0.60888   15.985
 5561.00    0.62593   0.60890   15.978
 5562.00    0.63644   0.60906   15.719
 5563.00    0.64665   0.60940   15.458
 5564.00    0.64656   0.60995   15.450
 5565.00    0.63226   0.61060   15.836
 5566.00    0.61227   0.61133   16.383
 5567.00    0.60385   0.61213   16.498
 5568.00    0.60797   0.61277   16.310
 5569.00    0.60678   0.61307   16.664
 5570.00    0.59381   0.61302   17.273
 5571.00    0.58046   0.61252   16.522
 5572.00    0.57593   0.61146   14.678
 5573.00    0.58058   0.60976   13.449
 5574.00    0.58998   0.60740   13.380
 5575.00    0.59830   0.60443   14.373
 5576.00    0.60412   0.60109   15.910
 5577.00    0.60982   0.59765   16.714
 5578.00    0.61329   0.59442   16.465
 5579.00    0.60912   0.59176   16.329
 5580.00    0.60033   0.59000   16.631
 5581.00    0.59687   0.58933   16.732
 5582.00    0.60074   0.58975   16.574
 5583.00    0.60566   0.59106   16.680
 5584.00    0.60856   0.59295   16.688
 5585.00    0.61126   0.59510   15.729
 5586.00    0.61578   0.59718   14.421
 5587.00    0.62204   0.59875   13.872
 5588.00    0.62573   0.59947   14.041
 5589.00    0.62095   0.59935   14.239
 5590.00    0.60803   0.59874   14.228
 5591.00    0.59350   0.59821   14.267
 5592.00    0.58528   0.59836   14.425
 5593.00    0.58880   0.59950   14.551
 5594.00    0.60094   0.60154   14.590
 5595.00    0.61365   0.60419   14.601
 5596.00    0.62425   0.60712   14.621
 5597.00    0.63456   0.60989   14.618
 5598.00    0.64457   0.61207   14.483
 5599.00    0.65151   0.61329   14.198
 5600.00    0.65085   0.61343   14.086
 5601.00    0.63975   0.61256   14.362
 5602.00    0.62301   0.61081   14.260
 5603.00    0.60982   0.60836   12.982
 5604.00    0.60612   0.60555   11.491
 5605.00    0.61272   0.60283   10.732
 5606.00    0.62488   0.60065   10.562
 5607.00    0.63652   0.59932   10.508
 5608.00    0.64693   0.59893   10.298
 5609.00    0.65794   0.59934   10.005
 5610.00    0.66764   0.60019   10.120
 5611.00    0.67040   0.60087   11.108
 5612.00    0.65863   0.60100   12.641
 5613.00    0.62920   0.60068   13.466
 5614.00    0.59170   0.60024   13.260
 5615.00    0.55918   0.59999   12.863
 5616.00    0.53436   0.60013   12.734
 5617.00    0.51673   0.60081   12.884
 5618.00    0.51360   0.60201   13.065
 5619.00    0.53127   0.60357   13.010
 5620.00    0.56242   0.60506   12.793
 5621.00    0.59208   0.60603   12.625
 5622.00    0.60719   0.60633   12.570
 5623.00    0.60394   0.60598   12.565
 5624.00    0.59390   0.60505   12.464
 5625.00    0.58992   0.60371   12.172
 5626.00    0.59069   0.60215   11.765
 5627.00    0.58944   0.60060   11.357
 5628.00    0.58482   0.59924   10.979
 5629.00    0.57838   0.59818   10.669
 5630.00    0.57114   0.59749   10.523
 5631.00    0.56528   0.59719   10.545
 5632.00    0.56573   0.59727   10.532
 5633.00    0.57588   0.59764   10.346
 5634.00    0.59346   0.59819   10.161
 5635.00    0.61100   0.59885   10.185
 5636.00    0.61752   0.59957   10.460
 5637.00    0.60773   0.60025   10.928
 5638.00    0.58897   0.60083   11.445
 5639.00    0.57339   0.60131   11.846
 5640.00    0.57048   0.60165   12.069
 5641.00    0.58149   0.60178   12.199
 5642.00    0.59698   0.60159   12.442
 5643.00    0.60790   0.60090   12.842
 5644.00    0.61340   0.59959   13.076
 5645.00    0.61532   0.59773   12.990
 5646.00    0.61408   0.59550   12.978
 5647.00    0.61018   0.59315   13.272
 5648.00    0.60518   0.59098   13.538
 5649.00    0.59956   0.58940   13.514
 5650.00    0.59180   0.58861   13.448
 5651.00    0.58087   0.58855   13.542
 5652.00    0.56787   0.58912   13.640
 5653.00    0.55508   0.59017   13.633
 5654.00    0.54525   0.59136   13.664
 5655.00    0.54029   0.59234   13.791
 5656.00    0.54077   0.59308   13.838
 5657.00    0.54743   0.59374   13.713
 5658.00    0.56137   0.59443   13.558
 5659.00    0.58098   0.59516   13.486
 5660.00    0.60096   0.59602   13.474
 5661.00    0.61577   0.59708   13.493
 5662.00    0.62174   0.59830   13.551
 5663.00    0.61884   0.59954   13.641
 5664.00    0.61124   0.60053   13.721
 5665.00    0.60586   0.60113   13.748
 5666.00    0.60984   0.60131   13.706
 5667.00    0.62275   0.60104   13.615
 5668.00    0.63539   0.60030   13.531
 5669.00    0.63924   0.59920   13.546
 5670.00    0.63133   0.59792   13.757
 5671.00    0.61705   0.59657   14.096
 5672.00    0.60811   0.59520   14.319
 5673.00    0.61082   0.59391   14.321
 5674.00    0.62260   0.59282   14.243
 5675.00    0.63572   0.59201   14.192
 5676.00    0.64045   0.59152   14.166
 5677.00    0.63078   0.59146   14.169
 5678.00    0.60712   0.59189   14.236
 5679.00    0.57843   0.59274   14.370
 5680.00    0.55868   0.59387   14.521
 5681.00    0.55382   0.59515   14.572
 5682.00    0.55987   0.59639   14.418
 5683.00    0.56987   0.59734   14.204
 5684.00    0.57744   0.59776   14.204
 5685.00    0.58048   0.59753   14.398
 5686.00    0.58122   0.59671   14.499
 5687.00    0.58342   0.59541   14.378
 5688.00    0.58980   0.59378   14.153
 5689.00    0.59760   0.59207   14.000
 5690.00    0.60060   0.59051   14.039
 5691.00    0.59682   0.58919   14.204
 5692.00    0.58928   0.58805   14.297
 5693.00    0.58270   0.58705   14.226
 5694.00    0.58031   0.58602   14.044
 5695.00    0.57867   0.58476   13.838
 5696.00    0.57163   0.58327   13.692
 5697.00    0.56140   0.58167   13.670
 5698.00    0.55601   0.58012   13.774
 5699.00    0.55865   0.57896   13.860
 5700.00    0.56775   0.57858   13.743
 5701.00    0.58154   0.57919   13.475
 5702.00    0.59708   0.58072   13.257
 5703.00    0.60682   0.58295   13.199
 5704.00    0.60325   0.58556   13.287
 5705.00    0.58849   0.58818   13.377
 5706.00    0.57266   0.59057   13.297
 5707.00    0.56769   0.59261   13.062
 5708.00    0.58118   0.59423   12.753
 5709.00    0.60847   0.59547   12.277
 5710.00    0.63826   0.59643   11.572
 5711.00    0.66377   0.59713   10.854
 5712.00    0.68083   0.59754   10.377
 5713.00    0.68241   0.59753   10.234
 5714.00    0.66431   0.59708   10.424
 5715.00    0.63444   0.59633   10.863
 5716.00    0.60571   0.59546   11.426
 5717.00    0.58440   0.59455   12.048
 5718.00    0.57231   0.59368   12.691
 5719.00    0.57178   0.59304   13.242
 5720.00    0.58397   0.59275   13.560
 5721.00    0.60583   0.59280   13.608
 5722.00    0.63025   0.59312   13.503
 5723.00    0.64703   0.59356   13.474
 5724.00    0.64935   0.59394   13.633
 5725.00    0.64076   0.59417   13.747
 5726.00    0.63045   0.59423   13.566
 5727.00    0.62651   0.59410   13.251
 5728.00    0.63221   0.59379   12.984
 5729.00    0.64313   0.59337   12.602
 5730.00    0.65306   0.59293   11.979
 5731.00    0.66038   0.59265   11.316
 5732.00    0.66707   0.59261   10.817
 5733.00    0.67659   0.59273   10.498
 5734.00    0.68926   0.59281   10.333
 5735.00    0.69849   0.59274   10.343
 5736.00    0.69699   0.59255   10.559
 5737.00    0.68281   0.59228   10.975
 5738.00    0.65952   0.59187   11.533
 5739.00    0.63534   0.59121   12.091
 5740.00    0.61772   0.59026    0.000
 5741.00    0.60885   0.58914    0.000
 5742.00    0.60675   0.58815    0.000
 5743.00    0.60686   0.58758    0.000
 5744.00    0.60551   0.58747    0.000
 5745.00    0.60258   0.58772    0.000
 5746.00    0.60039   0.58818    0.000
 5747.00    0.60226   0.58862    0.000
 5748.00    0.60806   0.58881    0.000
 5749.00    0.61209   0.58857    0.000
 5750.00    0.60976   0.58793    0.000
 5751.00    0.60206   0.58719    0.000
 5752.00    0.59421   0.58670    0.000
 5753.00    0.59318   0.58667    0.000
 5754.00    0.59847   0.58715    0.000
 5755.00    0.59929   0.58804    0.000
 5756.00    0.59141   0.58912    0.000
 5757.00    0.58438   0.59011    0.000
 5758.00    0.58464   0.59080    0.000
 5759.00    0.58759   0.59103    0.000
 5760.00    0.58845   0.59078    0.000
 5761.00    0.58788   0.59022    0.000
 5762.00    0.58905   0.58950    0.000
 5763.00    0.59515   0.58876    0.000
 5764.00    0.60521   0.58805    0.000
 5765.00    0.61365   0.58732    0.000
 5766.00    0.61726   0.58639    0.000
 5767.00    0.61772   0.58506    0.000
 5768.00    0.61752   0.58318    0.000
 5769.00    0.61763   0.58085    0.000
 5770.00    0.61594   0.57841    0.000
 5771.00    0.60862   0.57615    0.000
 5772.00    0.59797   0.57423    0.000
 5773.00    0.59307   0.57291    0.000
 5774.00    0.59947   0.57249    0.000
 5775.00    0.61534   0.57300    0.000
 5776.00    0.63263   0.57419    0.000
 5777.00    0.64075   0.57579    0.000
 5778.00    0.63729   0.57738    0.000
 5779.00    0.62841   0.57878    0.000
 5780.00    0.61682   0.58010    0.000
 5781.00    0.60058   0.58133    0.000
 5782.00    0.58289   0.58239    0.000
 5783.00    0.57268   0.58320    0.000
 5784.00    0.57611   0.58367    0.000
 5785.00    0.59356   0.58369    0.000
 5786.00    0.61876   0.58342    0.000
 5787.00    0.64121   0.58305    0.000
 5788.00    0.65361   0.58239    0.000
 5789.00    0.65427   0.58162    0.000
 5790.00    0.64774   0.58109    0.000
 5791.00    0.64064   0.58097    0.000
 5792.00    0.63065   0.58103    0.000
 5793.00    0.61075   0.58126    0.000
 5794.00    0.58656   0.58167    0.000
 5795.00    0.57282   0.58208    0.000
 5796.00    0.57501   0.58242    0.000
 5797.00    0.58735   0.58261    0.000
 5798.00    0.59902   0.58251    0.000
 5799.00    0.60061   0.58196    0.000
 5800.00    0.59452   0.58123    0.000
 5801.00    0.59099   0.58059    0.000
 5802.00    0.59509   0.58018    0.000
 5803.00    0.60524   0.57984    0.000
 5804.00    0.61598   0.57971    0.000
 5805.00    0.62116   0.58000    0.000
 5806.00    0.61886   0.58075    0.000
 5807.00    0.61138   0.58185    0.000
 5808.00    0.60341   0.58306    0.000
 5809.00    0.59850   0.58425    0.000
 5810.00    0.59385   0.58525    0.000
 5811.00    0.58370   0.58607    0.000
 5812.00    0.56649   0.58676    0.000
 5813.00    0.54652   0.58736    0.000
 5814.00    0.53437   0.58785    0.000
 5815.00    0.54002   0.58818    0.000
 5816.00    0.56239   0.58834    0.000
 5817.00    0.59063   0.58834    0.000
 5818.00    0.60869   0.58821    0.000
 5819.00    0.60576   0.58792    0.000
 5820.00    0.58909   0.58747    0.000
 5821.00    0.57493   0.58690    0.000
 5822.00    0.57390   0.58622    0.000
 5823.00    0.58707   0.58554    0.000
 5824.00    0.60415   0.58498    0.000
 5825.00    0.61262   0.58457    0.000
 5826.00    0.60905   0.58423    0.000
 5827.00    0.59840   0.58401   -2.000
 5828.00    0.59111   0.58403   -2.000
 5829.00    0.59670   0.58424   -2.000
 5830.00    0.61682   0.58451   -2.000
 5831.00    0.64319   0.58469   -2.000
 5832.00    0.65778   0.58464   -2.000
 5833.00    0.64964   0.58428   -2.000
 5834.00    0.63083   0.58357   -2.000
 5835.00    0.62030   0.58252   -2.000
 5836.00    0.62646   0.58124   -2.000
 5837.00    0.64616   0.57989   -2.000
 5838.00    0.66623   0.57853   -2.000
 5839.00    0.67280   0.57711   -2.000
 5840.00    0.66000   0.57556   -2.000
 5841.00    0.63250   0.57383   -2.000
 5842.00    0.60543   0.57209   -2.000
 5843.00    0.58936   0.57056   -2.000
 5844.00    0.57973   0.56919   -2.000
 5845.00    0.57201   0.56782   -2.000
 5846.00    0.57264   0.56659    0.000
 5847.00    0.58491   0.56591    0.000
 5848.00    0.59890   0.56592    0.000
 5849.00    0.60224   0.56643    0.000
 5850.00    0.58903   0.56716    0.000
 5851.00    0.56357   0.56791    0.000
 5852.00    0.54063   0.56871    0.000
 5853.00    0.53177   0.56954    0.000
 5854.00    0.53701   0.57015    0.000
 5855.00    0.55078   0.57046    0.000
 5856.00    0.56671   0.57067    0.000
 5857.00    0.58142   0.57091    0.000
 5858.00    0.59558   0.57099    0.000
 5859.00    0.60681   0.57057    0.000
 5860.00    0.60749   0.56931    0.000
 5861.00    0.59597   0.56701    0.000
 5862.00    0.58100   0.56361    0.000
 5863.00    0.57127   0.55894    0.000
 5864.00    0.56953   0.55390    0.000
 5865.00    0.57218   0.55016    0.000
 5866.00    0.57142   0.54871    0.000
 5867.00    0.56632   0.54939    0.000
 5868.00    0.56700   0.55103    0.000
 5869.00    0.58914   0.55343    0.000
 5870.00    0.64820   0.55619    0.000
 5871.00    0.74647   0.55871    0.000
 5872.00    0.86790   0.56016    0.000
 5873.00    0.98127   0.56012    0.000
 5874.00    1.04766   0.55849    0.000
 5875.00    1.04385   0.55531    0.000
 5876.00    0.97172   0.55055    0.000
 5877.00    0.85641   0.54413    0.000
 5878.00    0.73853   0.53647    0.000
 5879.00    0.64947   0.52932    0.000
 5880.00    0.60204   0.52460    0.000
 5881.00    0.59133   0.52226    0.000
 5882.00    0.59923   0.52136    0.000
 5883.00    0.60825   0.52130    0.000
 5884.00    0.60789   0.52150    0.000
 5885.00    0.59926   0.52256    0.000
 5886.00    0.59132   0.52555    0.000
 5887.00    0.58541   0.52988    0.000
 5888.00    0.57542   0.53457    0.000
 5889.00    0.56263   0.53954    0.000
 5890.00    0.55605   0.54463    0.000
 5891.00    0.56078   0.54940    0.000
 5892.00    0.57465   0.55350    0.000
 5893.00    0.58850   0.55664    0.000
 5894.00    0.59138   0.55872    0.000
 5895.00    0.58322   0.56003    0.000
 5896.00    0.57350   0.56094    0.000
 5897.00    0.56989   0.56157    0.000
 5898.00    0.57425   0.56188    0.000
 5899.00    0.58044   0.56190    0.000
 5900.00    0.57874   0.56172    0.000
 5901.00    0.56680   0.56127   12.700
 5902.00    0.54969   0.56042   12.813
 5903.00    0.53450   0.55933   12.932
 5904.00    0.52671   0.55842   12.886
 5905.00    0.52537   0.55789   12.787
 5906.00    0.52645   0.55783   12.872
 5907.00    0.53096   0.55813   13.064
 5908.00    0.54226   0.55866   13.109
 5909.00    0.55819   0.55933   13.011
 5910.00    0.57292   0.56000   12.921
 5911.00    0.58308   0.56051   12.779
 5912.00    0.58778   0.56090   12.503
 5913.00    0.58698   0.56119   12.362
 5914.00    0.58238   0.56131   12.587
 5915.00    0.57936   0.56126   12.746
 5916.00    0.58157   0.56098   12.328
 5917.00    0.58274   0.56047   11.911
 5918.00    0.57503   0.55982   12.127
 5919.00    0.56297   0.55921   12.421
 5920.00    0.55629   0.55885   12.087
 5921.00    0.55678   0.55881   12.176
 5922.00    0.55987   0.55884   14.100
 5923.00    0.55971   0.55881   17.536
 5924.00    0.55374   0.55882   18.854
 5925.00    0.54735   0.55906   18.360
 5926.00    0.54709   0.55941   17.931
 5927.00    0.55168   0.55966   18.104
 5928.00    0.55671   0.55970   18.054
 5929.00    0.56161   0.55951   17.807
 5930.00    0.56860   0.55914   17.641
 5931.00    0.58033   0.55881   17.239
 5932.00    0.59508   0.55869   16.573
 5933.00    0.60252   0.55872   16.587
 5934.00    0.59413   0.55878   17.573
 5935.00    0.57408   0.55879   17.413
 5936.00    0.55267   0.55855   14.998
 5937.00    0.53835   0.55798   13.018
 5938.00    0.53426   0.55722   12.597
 5939.00    0.53629   0.55655   12.974
 5940.00    0.53904   0.55604   13.211
 5941.00    0.54132   0.55549   13.160
 5942.00    0.54317   0.55490   13.055
 5943.00    0.54307   0.55454   12.951
 5944.00    0.53967   0.55452   12.845
 5945.00    0.53372   0.55460   12.802
 5946.00    0.52879   0.55470   12.850
 5947.00    0.53118   0.55504   12.903
 5948.00    0.54448   0.55577   12.915
 5949.00    0.56555   0.55676   12.987
 5950.00    0.58551   0.55778   13.163
 5951.00    0.59225   0.55864   13.294
 5952.00    0.58091   0.55925   13.286
 5953.00    0.55993   0.55962   13.274
 5954.00    0.54090   0.55977   13.367
 5955.00    0.53095   0.55976   13.487
 5956.00    0.53115   0.55979   13.524
 5957.00    0.53685   0.56000   13.454
 5958.00    0.54478   0.56026   13.348
 5959.00    0.55625   0.56046   13.339
 5960.00    0.56909   0.56051   13.497
 5961.00    0.57501   0.56028   13.766
 5962.00    0.57343   0.55970   14.001
 5963.00    0.57629   0.55878   14.022
 5964.00    0.58984   0.55756   13.835
 5965.00    0.60664   0.55615   13.667
 5966.00    0.61715   0.55483   13.611
 5967.00    0.61627   0.55380   13.537
 5968.00    0.60422   0.55311   13.429
 5969.00    0.58594   0.55276   13.466
 5970.00    0.56672   0.55259   13.653
 5971.00    0.55000   0.55236   13.725
 5972.00    0.53721   0.55192   13.592
 5973.00    0.52830   0.55131   13.475
 5974.00    0.52439   0.55083   13.484
 5975.00    0.52791   0.55082   13.507
 5976.00    0.53815   0.55120   13.451
 5977.00    0.55041   0.55172   13.339
 5978.00    0.55980   0.55237   13.268
 5979.00    0.56314   0.55316   13.341
 5980.00    0.56021   0.55394   13.491
 5981.00    0.55336   0.55454   13.513
 5982.00    0.54481   0.55506   13.443
 5983.00    0.53602   0.55553   13.554
 5984.00    0.52907   0.55572   13.849
 5985.00    0.52613   0.55553   14.008
 5986.00    0.52608   0.55497   13.913
 5987.00    0.52520   0.55421   13.774
 5988.00    0.52283   0.55349   13.752
 5989.00    0.52188   0.55290   13.869
 5990.00    0.52503   0.55234   14.049
 5991.00    0.53287   0.55169   14.168
 5992.00    0.54219   0.55083   14.184
 5993.00    0.54759   0.54999   14.157
 5994.00    0.54709   0.54942   14.157
 5995.00    0.54277   0.54891   14.194
 5996.00    0.53814   0.54828   14.097
 5997.00    0.53667   0.54764   13.772
 5998.00    0.53989   0.54725   13.806
 5999.00    0.54692   0.54745   15.052
 6000.00    0.55444   0.54798   17.300
 6001.00    0.55887   0.54828   18.532
 6002.00    0.56112   0.54821   18.037
 6003.00    0.56427   0.54800   17.497
 6004.00    0.56636   0.54788   17.571
 6005.00    0.56239   0.54770   17.913
 6006.00    0.55198   0.54725   18.191
 6007.00    0.54077   0.54673   18.296
 6008.00    0.53955   0.54636   18.389
 6009.00    0.55571   0.54603   18.477
 6010.00    0.57798   0.54574   17.652
 6011.00    0.58598   0.54572   15.565
 6012.00    0.57314   0.54609   13.870
 6013.00    0.54712   0.54673   13.589
 6014.00    0.52239   0.54756   14.019
 6015.00    0.51195   0.54859   14.000
 6016.00    0.51591   0.54968   14.109
 6017.00    0.52649   0.55067   15.650
 6018.00    0.53919   0.55168   18.127
 6019.00    0.55227   0.55263   18.854
 6020.00    0.56331   0.55336   17.863
 6021.00    0.56882   0.55388   17.330
 6022.00    0.56480   0.55430   17.666
 6023.00    0.54967   0.55461   18.329
 6024.00    0.52837   0.55471   18.854
 6025.00    0.51031   0.55462   18.854
 6026.00    0.50557   0.55439   18.854
 6027.00    0.51986   0.55410   18.854
 6028.00    0.54883   0.55382   18.310
 6029.00    0.58078   0.55354   15.996
 6030.00    0.60155   0.55336   14.377
 6031.00    0.60384   0.55339   14.097
 6032.00    0.59650   0.55360   14.416
 6033.00    0.59072   0.55399   14.402
 6034.00    0.58389   0.55447   14.166
 6035.00    0.57004   0.55490   14.155
 6036.00    0.55256   0.55523   14.240
 6037.00    0.53928   0.55539   14.148
 6038.00    0.53566   0.55535   13.974
 6039.00    0.54245   0.55509   13.886
 6040.00    0.55427   0.55467   13.821
 6041.00    0.56349   0.55408   13.716
 6042.00    0.56435   0.55329   13.718
 6043.00    0.55674   0.55241   13.903
 6044.00    0.54842   0.55159   14.048
 6045.00    0.54728   0.55092   13.965
 6046.00    0.55460   0.55042   13.818
 6047.00    0.56705   0.55012   13.787
 6048.00    0.57924   0.54998   13.794
 6049.00    0.58648   0.54983   13.708
 6050.00    0.58684   0.54947   13.509
 6051.00    0.58111   0.54887   13.288
 6052.00    0.57238   0.54815   13.192
 6053.00    0.56400   0.54744   13.265
 6054.00    0.55793   0.54688   13.363
 6055.00    0.55343   0.54667   13.401
 6056.00    0.54681   0.54713   13.494
 6057.00    0.53521   0.54836   13.725
 6058.00    0.51937   0.54988   13.990
 6059.00    0.50423   0.55123   14.171
 6060.00    0.49802   0.55227   14.265
 6061.00    0.50467   0.55297   14.320
 6062.00    0.51978   0.55326   14.382
 6063.00    0.53491   0.55305   14.472
 6064.00    0.54125   0.55237   14.567
 6065.00    0.53475   0.55138   14.522
 6066.00    0.51856   0.55012   14.166
 6067.00    0.50053   0.54864   13.986
 6068.00    0.49039   0.54710   15.119
 6069.00    0.49258   0.54571   18.042
 6070.00    0.50394   0.54466   18.854
 6071.00    0.52004   0.54386   18.854
 6072.00    0.53792   0.54323   18.382
 6073.00    0.55349   0.54289   17.844
 6074.00    0.56156   0.54285   17.921
 6075.00    0.56162   0.54284   17.992
 6076.00    0.55834   0.54279   17.749
 6077.00    0.55249   0.54278   17.737
 6078.00    0.53903   0.54279   18.854
 6079.00    0.51597   0.54270   18.854
 6080.00    0.48736   0.54255   18.739
 6081.00    0.46029   0.54257   15.100
 6082.00    0.44164   0.54290   13.372
 6083.00    0.43060   0.54342   13.475
 6084.00    0.41997   0.54401   14.108
 6085.00    0.41040   0.54460   14.396
 6086.00    0.41168   0.54487   14.395
 6087.00    0.42945   0.54445   14.338
 6088.00    0.46070   0.54342   14.287
 6089.00    0.49462   0.54216   14.237
 6090.00    0.51710   0.54086   14.157
 6091.00    0.52342   0.53946   14.019
 6092.00    0.51942   0.53798   13.810
 6093.00    0.51311   0.53688   13.564
 6094.00    0.51153   0.53695   13.342
 6095.00    0.51928   0.53811   13.187
 6096.00    0.53680   0.53940   13.104
 6097.00    0.55702   0.54034   13.050
 6098.00    0.56849   0.54111   12.953
 6099.00    0.56601   0.54192   12.811
 6100.00    0.55247   0.54272   12.679
 6101.00    0.53627   0.54313   12.624
 6102.00    0.52741   0.54312   12.695
 6103.00    0.52991   0.54306   12.915
 6104.00    0.54135   0.54294   13.263
 6105.00    0.55613   0.54241   13.647
 6106.00    0.56671   0.54128   13.923
 6107.00    0.56488   0.53966   14.008
 6108.00    0.54643   0.53796   13.945
 6109.00    0.51969   0.53640   13.916
 6110.00    0.50030   0.53490   14.082
 6111.00    0.49723   0.53358   14.288
 6112.00    0.51061   0.53272   14.245
 6113.00    0.53308   0.53258   14.051
 6114.00    0.55406   0.53341   14.024
 6115.00    0.56681   0.53466   14.241
 6116.00    0.56963   0.53569   14.578
 6117.00    0.56554   0.53654   14.848
 6118.00    0.55956   0.53728   14.926
 6119.00    0.55438   0.53782   14.914
 6120.00    0.55043   0.53796   14.966
 6121.00    0.54709   0.53742   14.968
 6122.00    0.54291   0.53591   14.728
 6123.00    0.53567   0.53363   14.342
 6124.00    0.52508   0.53123   14.099
 6125.00    0.51632   0.52901   14.301
 6126.00    0.51467   0.52697   14.801
 6127.00    0.51764   0.52535   14.278
 6128.00    0.52029   0.52490   12.334
 6129.00    0.52351   0.52628   10.886
 6130.00    0.53012   0.52865   10.759
 6131.00    0.53858   0.53070   11.074
 6132.00    0.54399   0.53221   10.796
 6133.00    0.54065   0.53373   10.601
 6134.00    0.52661   0.53532   11.443
 6135.00    0.50824   0.53634   13.035
 6136.00    0.49422   0.53650   14.119
 6137.00    0.48823   0.53615   14.317
 6138.00    0.49083   0.53563   14.260
 6139.00    0.50196   0.53502   14.188
 6140.00    0.51885   0.53434   14.060
 6141.00    0.53398   0.53376   13.919
 6142.00    0.54024   0.53337   13.848
 6143.00    0.53602   0.53299   13.904
 6144.00    0.52512   0.53227   14.097
 6145.00    0.51544   0.53096   14.370
 6146.00    0.51270   0.52903   14.650
 6147.00    0.51532   0.52643   14.899
 6148.00    0.51833   0.52317   15.092
 6149.00    0.51747   0.51969   15.192
 6150.00    0.51239   0.51641   15.170
 6151.00    0.50813   0.51341   15.027
 6152.00    0.50810   0.51087   14.850
 6153.00    0.50917   0.50948   14.808
 6154.00    0.50775   0.50945   14.955
 6155.00    0.50453   0.51006   15.107
 6156.00    0.50286   0.51078   15.073
 6157.00    0.50666   0.51162   14.846
 6158.00    0.51465   0.51258   14.505
 6159.00    0.51830   0.51333   14.134
 6160.00    0.51402   0.51388   13.845
 6161.00    0.50955   0.51490   13.773
 6162.00    0.51126   0.51657   13.934
 6163.00    0.51672   0.51826   14.171
 6164.00    0.52059   0.51965   14.395
 6165.00    0.51894   0.52091   14.720
 6166.00    0.51269   0.52209   15.145
 6167.00    0.50815   0.52314   15.391
 6168.00    0.51034   0.52409   15.344
 6169.00    0.51911   0.52495   15.262
 6170.00    0.52917   0.52556   15.154
 6171.00    0.53206   0.52580   14.614
 6172.00    0.52508   0.52571   13.625
 6173.00    0.51434   0.52524   12.663
 6174.00    0.50677   0.52430   12.069
 6175.00    0.50623   0.52296   11.958
 6176.00    0.51426   0.52123   12.247
 6177.00    0.53012   0.51909   12.666
 6178.00    0.54952   0.51705   13.012
 6179.00    0.56491   0.51568   13.294
 6180.00    0.56920   0.51500   13.583
 6181.00    0.55856   0.51475   13.901
 6182.00    0.53702   0.51493   14.157
 6183.00    0.51549   0.51593   14.195
 6184.00    0.50091   0.51754   14.135
 6185.00    0.49354   0.51887   14.323
 6186.00    0.49256   0.51957   14.721
 6187.00    0.49757   0.51999   14.847
 6188.00    0.50621   0.52036   14.626
 6189.00    0.51428   0.52057   14.525
 6190.00    0.51897   0.52062   14.760
 6191.00    0.51985   0.52086   15.145
 6192.00    0.51851   0.52158   15.249
 6193.00    0.51833   0.52253   14.668
 6194.00    0.52397   0.52331   13.643
 6195.00    0.53846   0.52376   12.750
 6196.00    0.55491   0.52387   12.211
 6197.00    0.56014   0.52363   12.009
 6198.00    0.55111   0.52290   12.153
 6199.00    0.53546   0.52157   12.678
 6200.00    0.52016   0.51968   13.453
 6201.00    0.50872   0.51748   14.137
 6202.00    0.50210   0.51525   14.485
 6203.00    0.49996   0.51324   14.525
 6204.00    0.50282   0.51152   14.433
 6205.00    0.51150   0.51012   14.396
 6206.00    0.52453   0.50922   14.478
 6207.00    0.53730   0.50891   14.641
 6208.00    0.54159   0.50911   14.848
 6209.00    0.53028   0.50948   15.074
 6210.00    0.50709   0.50972   15.272
 6211.00    0.48328   0.50996   15.387
 6212.00    0.46655   0.51038   15.403
 6213.00    0.45868   0.51078   15.308
 6214.00    0.45586   0.51084   15.018
 6215.00    0.45213   0.51040   14.577
 6216.00    0.44586   0.50943   14.457
 6217.00    0.43930   0.50812   14.985
 6218.00    0.43552   0.50678   15.277
 6219.00    0.43682   0.50567   14.246
 6220.00    0.44283   0.50491   13.034
 6221.00    0.45183   0.50465   12.770
 6222.00    0.46334   0.50506   12.701
 6223.00    0.47737   0.50608   11.821
 6224.00    0.49257   0.50727   11.043
 6225.00    0.50623   0.50817   11.378
 6226.00    0.51478   0.50857   12.471
 6227.00    0.51534   0.50837   13.196
 6228.00    0.50793   0.50767   13.534
 6229.00    0.49506   0.50657   14.315
 6230.00    0.48091   0.50528   15.442
 6231.00    0.46883   0.50422   16.129
 6232.00    0.45891   0.50356   16.282
 6233.00    0.45431   0.50326   16.028
 6234.00    0.46846   0.50330   -2.000
 6235.00    0.50893   0.50380   -2.000
 6236.00    0.55823   0.50463   -2.000
 6237.00    0.59155   0.50535   -2.000
 6238.00    0.59927   0.50569   -2.000
 6239.00    0.58284   0.50557   -2.000
 6240.00    0.54767   0.50499   -2.000
 6241.00    0.50676   0.50394   -2.000
 6242.00    0.48337   0.50251   -2.000
 6243.00    0.49070   0.50079   -2.000
 6244.00    0.51297   0.49916   -2.000
 6245.00    0.52639   0.49808   11.815
 6246.00    0.52098   0.49776   11.574
 6247.00    0.49867   0.49805   11.830
 6248.00    0.46920   0.49873   12.700
 6249.00    0.44511   0.49997   14.003
 6250.00    0.43701   0.50178   15.287
 6251.00    0.44801   0.50373   15.981
 6252.00    0.46994   0.50539   15.974
 6253.00    0.48956   0.50678   15.702
 6254.00    0.49499   0.50803   15.769
 6255.00    0.48543   0.50882   16.236
 6256.00    0.47585   0.50906   16.197
 6257.00    0.47781   0.50918   15.116
 6258.00    0.48631   0.50954   13.781
 6259.00    0.49126   0.50997   12.875
 6260.00    0.48707   0.51025   12.530
 6261.00    0.47757   0.51043   12.705
 6262.00    0.47638   0.51066   13.301
 6263.00    0.48934   0.51088   14.069
 6264.00    0.50561   0.51091   14.509
 6265.00    0.51478   0.51062   14.311
 6266.00    0.51702   0.51000   13.746
 6267.00    0.51617   0.50919   13.173
 6268.00    0.51471   0.50845   12.750
 6269.00    0.51075   0.50793   12.601
 6270.00    0.49837   0.50767   12.882
 6271.00    0.47845   0.50768   13.631
 6272.00    0.46225   0.50798   14.620
 6273.00    0.45936   0.50879   15.425
 6274.00    0.47104   0.50997   15.632
 6275.00    0.49014   0.51118   15.330
 6276.00    0.50383   0.51217   15.112
 6277.00    0.50607   0.51279   15.269
 6278.00    0.50175   0.51312   15.617
 6279.00    0.49851   0.51316   15.881
 6280.00    0.50180   0.51283    0.000
 6281.00    0.51057   0.51222    0.000
 6282.00    0.51749   0.51128    0.000
 6283.00    0.51701   0.51004    0.000
 6284.00    0.50846   0.50874    0.000
 6285.00    0.49422   0.50765    0.000
 6286.00    0.47882   0.50678    0.000
 6287.00    0.46856   0.50583    0.000
 6288.00    0.46974   0.50476    0.000
 6289.00    0.48326   0.50408    0.000
 6290.00    0.50390   0.50411    0.000
 6291.00    0.52473   0.50455    0.000
 6292.00    0.54079   0.50501    0.000
 6293.00    0.55534   0.50560    0.000
 6294.00    0.57874   0.50665    0.000
 6295.00    0.61848   0.50793    0.000
 6296.00    0.67476   0.50886    0.000
 6297.00    0.73749   0.50923    0.000
 6298.00    0.78812   0.50924    0.000
 6299.00    0.80747   0.50906    0.000
 6300.00    0.78303   0.50856    0.000
 6301.00    0.72205   0.50757    0.000
 6302.00    0.64830   0.50629    0.000
 6303.00    0.58411   0.50523    0.000
 6304.00    0.54343   0.50444    0.000
 6305.00    0.52741   0.50365    0.000
 6306.00    0.52772   0.50301    0.000
 6307.00    0.53719   0.50300    0.000
 6308.00    0.55139   0.50362    0.000
 6309.00    0.56586   0.50438    0.000
 6310.00    0.57586   0.50523    0.000
 6311.00    0.57730   0.50660    0.000
 6312.00    0.56802   0.50818    0.000
 6313.00    0.55000   0.50943    0.000
 6314.00    0.52919   0.51032    0.000
 6315.00    0.51405   0.51116    0.000
 6316.00    0.51192   0.51192    0.000
 6317.00    0.52281   0.51223    0.000
 6318.00    0.53991   0.51220    0.000
 6319.00    0.55299   0.51205    0.000
 6320.00    0.55304   0.51185    0.000
 6321.00    0.53928   0.51129   14.907
 6322.00    0.51811   0.51011   14.776
 6323.00    0.49928   0.50882   14.708
 6324.00    0.49114   0.50790   14.432
 6325.00    0.49439   0.50728   14.128
 6326.00    0.50406   0.50670   14.141
 6327.00    0.51420   0.50630   14.519
 6328.00    0.52013   0.50649   15.073
 6329.00    0.52059   0.50704   15.468
 6330.00    0.51723   0.50733   15.474
 6331.00    0.51341   0.50723   15.355
 6332.00    0.51108   0.50712   15.490
 6333.00    0.50716   0.50708   15.836
 6334.00    0.49763   0.50697   16.162
 6335.00    0.48336   0.50696   16.442
 6336.00    0.46898   0.50728   16.749
 6337.00    0.46050   0.50792   17.010
 6338.00    0.46157   0.50850   17.122
 6339.00    0.46992   0.50889   17.147
 6340.00    0.48114   0.50901   17.179
 6341.00    0.49351   0.50864   17.162
 6342.00    0.50593   0.50770   17.034
 6343.00    0.51548   0.50651   16.878
 6344.00    0.51990   0.50522   16.792
 6345.00    0.52028   0.50359   16.734
 6346.00    0.51883   0.50172   16.584
 6347.00    0.51643   0.50017   16.219
 6348.00    0.51168   0.49911   15.705
 6349.00    0.50087   0.49817   15.364
 6350.00    0.48378   0.49737   15.351
 6351.00    0.46827   0.49723   15.410
 6352.00    0.46336   0.49781   15.320
 6353.00    0.47284   0.49871   15.261
 6354.00    0.49478   0.49982   15.363
 6355.00    0.52211   0.50128   15.372
 6356.00    0.54654   0.50293   15.122
 6357.00    0.56219   0.50439   14.892
 6358.00    0.56857   0.50560   14.931
 6359.00    0.57193   0.50678   15.183
 6360.00    0.57879   0.50792   15.505
 6361.00    0.59098   0.50876   15.829
 6362.00    0.60444   0.50921   16.138
 6363.00    0.61000   0.50948   16.444
 6364.00    0.60247   0.50962   16.759
 6365.00    0.58596   0.50942   17.066
 6366.00    0.56810   0.50880   17.289
 6367.00    0.55571   0.50800   17.296
 6368.00    0.55223   0.50730   17.066
 6369.00    0.55641   0.50674   16.761
 6370.00    0.56287   0.50636   16.554
 6371.00    0.56347   0.50615   16.523
 6372.00    0.55283   0.50608   16.575
 6373.00    0.53126   0.50621   16.462
 6374.00    0.50339   0.50651   16.155
 6375.00    0.47673   0.50667   15.934
 6376.00    0.45846   0.50648   15.905
 6377.00    0.45320   0.50607   15.881
 6378.00    0.46032   0.50560   15.792
 6379.00    0.47402   0.50491   15.800
 6380.00    0.48963   0.50384   15.880
 6381.00    0.50540   0.50268   15.753
 6382.00    0.51665   0.50197   15.500
 6383.00    0.51573   0.50173   15.603
 6384.00    0.50296   0.50155   16.083
 6385.00    0.48819   0.50140   16.334
 6386.00    0.47786   0.50138   16.170
 6387.00    0.47152   0.50120   16.119
 6388.00    0.47013   0.50095   16.372
 6389.00    0.47698   0.50122   16.563
 6390.00    0.48872   0.50179   16.500
 6391.00    0.49497   0.50210   16.381
 6392.00    0.48916   0.50240   16.362
 6393.00    0.47183   0.50302   16.440
 6394.00    0.44858   0.50348   16.558
 6395.00    0.42758   0.50328   16.635
 6396.00    0.41451   0.50281   16.558
 6397.00    0.41147   0.50256   16.222
 6398.00    0.41889   0.50224   15.628
 6399.00    0.43544   0.50158   14.892
 6400.00    0.45578   0.50122   14.179
 6401.00    0.47201   0.50149   13.637
 6402.00    0.47944   0.50180   13.348
 6403.00    0.47806   0.50185   13.315
 6404.00    0.47202   0.50188   13.400
 6405.00    0.46718   0.50198   13.396
 6406.00    0.46570   0.50195   13.308
 6407.00    0.46629   0.50165   13.311
 6408.00    0.46831   0.50115   13.470
 6409.00    0.47206   0.50089   13.753
 6410.00    0.47681   0.50128   14.211
 6411.00    0.48123   0.50215   14.928
 6412.00    0.48536   0.50293   15.704
 6413.00    0.48926   0.50364   16.106
 6414.00    0.48940   0.50446   16.092
 6415.00    0.48180   0.50512   16.031
 6416.00    0.46978   0.50521   16.185
 6417.00    0.46076   0.50462   16.600
 6418.00    0.45681   0.50355   17.064
 6419.00    0.45562   0.50256   17.270
 6420.00    0.45602   0.50211   17.275
 6421.00    0.45795   0.50190   17.334
 6422.00    0.46050   0.50166   17.356
 6423.00    0.46232   0.50161   17.113
 6424.00    0.46290   0.50196   16.763
 6425.00    0.46250   0.50230   16.582
 6426.00    0.46165   0.50213   16.480
 6427.00    0.46012   0.50193   16.262
 6428.00    0.45570   0.50245   16.083
 6429.00    0.44652   0.50343   16.128
 6430.00    0.43478   0.50426   16.088
 6431.00    0.42596   0.50506   15.493
 6432.00    0.42643   0.50591   14.360
 6433.00    0.43913   0.50637   13.122
 6434.00    0.45832   0.50609   12.265
 6435.00    0.47535   0.50516   12.007
 6436.00    0.48701   0.50362   12.211
 6437.00    0.49344   0.50143   12.660
 6438.00    0.49421   0.49928   13.323
 6439.00    0.49050   0.49804   14.200
 6440.00    0.48787   0.49757   14.988
 6441.00    0.49079   0.49746   15.325
 6442.00    0.49618   0.49773   15.377
 6443.00    0.49871   0.49841   15.542
 6444.00    0.49736   0.49939   15.940
 6445.00    0.49350   0.50042   16.434
 6446.00    0.48800   0.50110   16.699
 6447.00    0.47925   0.50132   16.567
 6448.00    0.46231   0.50128   16.371
 6449.00    0.43817   0.50088   16.405
 6450.00    0.42145   0.49992   16.474
 6451.00    0.42499   0.49903   16.344
 6452.00    0.44539   0.49890   16.169
 6453.00    0.47138   0.49912   16.091
 6454.00    0.49288   0.49934   15.915
 6455.00    0.50459   0.49978   15.522
 6456.00    0.50783   0.50056   15.150
 6457.00    0.50511   0.50124   14.994
 6458.00    0.49614   0.50141   14.969
 6459.00    0.48322   0.50112   14.980
 6460.00    0.47448   0.50074   15.098
 6461.00    0.47429   0.50049   15.387
 6462.00    0.47726   0.50014   15.765
 6463.00    0.47914   0.49963   16.065
 6464.00    0.48352   0.49930   16.113
 6465.00    0.49022   0.49919   15.834
 6466.00    0.48907   0.49888   15.308
 6467.00    0.47440   0.49829   14.687
 6468.00    0.45348   0.49763   14.125
 6469.00    0.43660   0.49683   13.758
 6470.00    0.43031   0.49583   13.703
 6471.00    0.43726   0.49506   14.019
 6472.00    0.45610   0.49480   14.671
 6473.00    0.48076   0.49480   15.454
 6474.00    0.50139   0.49475   15.937
 6475.00    0.51197   0.49471   15.882
 6476.00    0.51386   0.49460   15.537
 6477.00    0.51158   0.49390   15.121
 6478.00    0.50935   0.49218   14.623
 6479.00    0.50543   0.48966   14.167
 6480.00    0.49204   0.48666   14.046
 6481.00    0.46829   0.48320   14.307
 6482.00    0.44421   0.47936   14.669
 6483.00    0.42946   0.47588   14.994
 6484.00    0.42746   0.47359   15.437
 6485.00    0.43367   0.47264   15.832
 6486.00    0.43821   0.47283   15.542
 6487.00    0.43963   0.47410   14.585
 6488.00    0.44682   0.47643   13.688
 6489.00    0.46267   0.47956   13.172
 6490.00    0.47968   0.48287   12.976
 6491.00    0.48929   0.48588   13.188
 6492.00    0.48645   0.48843   14.082
 6493.00    0.47288   0.49057   15.439
 6494.00    0.45661   0.49223   16.099
 6495.00    0.44691   0.49332   15.557
 6496.00    0.44993   0.49388   14.712
 6497.00    0.46114   0.49414   14.083
 6498.00    0.46868   0.49430   13.612
 6499.00    0.47202   0.49428   13.312
 6500.00    0.48158   0.49396   13.320
 6501.00    0.49891   0.49344   13.654
 6502.00    0.51445   0.49279   14.176
 6503.00    0.51904   0.49198   14.652
 6504.00    0.50954   0.49108   14.849
 6505.00    0.49421   0.49033   14.812
 6506.00    0.48724   0.48980   14.828
 6507.00    0.49055   0.48947   15.039
 6508.00    0.49440   0.48953   15.359
 6509.00    0.49169   0.48994   15.492
 6510.00    0.48143   0.49033   15.124
 6511.00    0.46777   0.49050   14.421
 6512.00    0.45756   0.49061   13.822
 6513.00    0.45527   0.49070   13.553
 6514.00    0.46162   0.49051   13.665
 6515.00    0.47335   0.49004   14.131
 6516.00    0.48511   0.48967   14.851
 6517.00    0.49359   0.48959   15.613
 6518.00    0.49765   0.48962   16.122
 6519.00    0.49694   0.48964   16.252
 6520.00    0.49210   0.48974   16.137
 6521.00    0.48583   0.48998   16.065
 6522.00    0.48218   0.49034   16.241
 6523.00    0.48482   0.49080   16.468
 6524.00    0.49480   0.49128   16.389
 6525.00    0.50734   0.49163   16.109
 6526.00    0.51575   0.49181   15.952
 6527.00    0.51881   0.49188   15.907
 6528.00    0.51822   0.49176    0.000
 6529.00    0.51257   0.49118    0.000
 6530.00    0.50009   0.49004    0.000
 6531.00    0.48438   0.48856    0.000
 6532.00    0.47219   0.48702    0.000
 6533.00    0.46860   0.48539    0.000
 6534.00    0.47534   0.48354    0.000
 6535.00    0.48943   0.48175    0.000
 6536.00    0.50498   0.48042    0.000
 6537.00    0.51584   0.47928    0.000
 6538.00    0.51760   0.47781    0.000
 6539.00    0.50976   0.47588    0.000
 6540.00    0.49780   0.47364    0.000
 6541.00    0.49484   0.47085    0.000
 6542.00    0.51219   0.46708    0.000
 6543.00    0.54812   0.46202    0.000
 6544.00    0.59204   0.45578    0.000
 6545.00    0.63101   0.44841    0.000
 6546.00    0.65479   0.43943    0.000
 6547.00    0.66027   0.42867    0.000
 6548.00    0.64880   0.41757    0.000
 6549.00    0.62292   0.40778    0.000
 6550.00    0.58699   0.39935    0.000
 6551.00    0.54842   0.39291    0.000
 6552.00    0.52064   0.39140    0.000
 6553.00    0.53043   0.39605    0.000
 6554.00    0.66263   0.40407    0.000
 6555.00    1.09770   0.41339    0.000
 6556.00    2.07676   0.42412    0.000
 6557.00    3.83982   0.43531    0.000
 6558.00    6.37493   0.44481    0.000
 6559.00    9.23020   0.45214    0.000
 6560.00   11.70676   0.45778    0.000
 6561.00   13.06930   0.46191    0.000
 6562.00   12.87559   0.46492    0.000
 6563.00   11.21037   0.46745    0.000
 6564.00    8.57891   0.46980    0.000
 6565.00    5.76155   0.47194    0.000
 6566.00    3.42426   0.47380    0.000
 6567.00    1.85295   0.47545    0.000
 6568.00    1.01879   0.47693    0.000
 6569.00    0.66734   0.47813    0.000
 6570.00    0.53573   0.47901    0.000
 6571.00    0.48654   0.47978    0.000
 6572.00    0.46238   0.48061    0.000
 6573.00    0.44840   0.48129    0.000
 6574.00    0.44657   0.48178    0.000
 6575.00    0.46142   0.48212    0.000
 6576.00    0.50121   0.48237    0.000
 6577.00    0.57682   0.48216    0.000
 6578.00    0.68978   0.48139    0.000
 6579.00    0.82611   0.48047    0.000
 6580.00    0.95908   0.47954    0.000
 6581.00    1.05410   0.47832    0.000
 6582.00    1.08465   0.47719    0.000
 6583.00    1.04151   0.47696    0.000
 6584.00    0.93797   0.47750    0.000
 6585.00    0.80741   0.47818    0.000
 6586.00    0.68200   0.47894    0.000
 6587.00    0.58184   0.47996    0.000
 6588.00    0.51153   0.48109    0.000
 6589.00    0.46257   0.48201    0.000
 6590.00    0.42879   0.48250    0.000
 6591.00    0.41075   0.48258    0.000
 6592.00    0.40708   0.48233    0.000
 6593.00    0.41203   0.48175    0.000
 6594.00    0.41972   0.48095    0.000
 6595.00    0.42621   0.48030    0.000
 6596.00    0.43063   0.47989    0.000
 6597.00    0.43512   0.47951    0.000
 6598.00    0.44286   0.47931    0.000
 6599.00    0.45629   0.47975    0.000
 6600.00    0.47350   0.48071    0.000
 6601.00    0.48848   0.48152    0.000
 6602.00    0.49551   0.48208    0.000
 6603.00    0.49189   0.48281    0.000
 6604.00    0.48137   0.48373    0.000
 6605.00    0.47274   0.48435    0.000
 6606.00    0.47289   0.48459    0.000
 6607.00    0.48366   0.48469    0.000
 6608.00    0.49903   0.48470    0.000
 6609.00    0.50908   0.48437   16.430
 6610.00    0.51188   0.48377   16.477
 6611.00    0.51253   0.48308   16.525
 6612.00    0.51290   0.48230   16.440
 6613.00    0.51042   0.48139   16.317
 6614.00    0.50199   0.48060   16.198
 6615.00    0.48643   0.48008   16.087
 6616.00    0.46783   0.47963   16.109
 6617.00    0.45429   0.47909   16.364
 6618.00    0.45353   0.47851   16.499
 6619.00    0.46843   0.47795   16.056
 6620.00    0.49044   0.47749   15.458
 6621.00    0.50563   0.47708   15.410
 6622.00    0.50954   0.47671   15.855
 6623.00    0.50662   0.47657   16.246
 6624.00    0.50320   0.47680   16.355
 6625.00    0.50382   0.47721   16.328
 6626.00    0.50727   0.47764   16.265
 6627.00    0.50856   0.47796   16.213
 6628.00    0.50366   0.47798   16.307
 6629.00    0.49193   0.47783   16.635
 6630.00    0.47841   0.47778   16.940
 6631.00    0.46984   0.47762   16.868
 6632.00    0.46783   0.47709   16.553
 6633.00    0.47035   0.47673   16.330
 6634.00    0.47570   0.47694   16.200
 6635.00    0.48263   0.47721   16.003
 6636.00    0.48951   0.47720   15.721
 6637.00    0.49457   0.47726   15.445
 6638.00    0.49634   0.47752   15.265
 6639.00    0.49446   0.47763   15.179
 6640.00    0.49070   0.47748   15.023
 6641.00    0.48859   0.47729   14.701
 6642.00    0.49245   0.47715   14.444
 6643.00    0.50363   0.47698   14.481
 6644.00    0.51625   0.47672   14.703
 6645.00    0.52076   0.47635   14.910
 6646.00    0.50938   0.47590   15.155
 6647.00    0.48288   0.47535   15.554
 6648.00    0.45640   0.47456   15.993
 6649.00    0.44523   0.47363   16.275
 6650.00    0.44917   0.47284   16.380
 6651.00    0.45853   0.47214   16.404
 6652.00    0.46264   0.47141   16.435
 6653.00    0.45648   0.47108   16.509
 6654.00    0.44561   0.47134   16.581
 6655.00    0.43858   0.47181   16.614
 6656.00    0.43922   0.47230   16.645
 6657.00    0.44753   0.47297   16.657
 6658.00    0.46116   0.47371   16.495
 6659.00    0.47533   0.47415   16.148
 6660.00    0.48341   0.47415   15.918
 6661.00    0.48221   0.47371   15.948
 6662.00    0.47590   0.47264   15.944
 6663.00    0.47061   0.47093   15.684
 6664.00    0.46973   0.46905   15.392
 6665.00    0.47252   0.46732   15.296
 6666.00    0.47425   0.46549   15.349
 6667.00    0.47298   0.46389   15.464
 6668.00    0.47341   0.46333   15.655
 6669.00    0.47804   0.46375   15.923
 6670.00    0.48233   0.46441   16.165
 6671.00    0.48557   0.46524   16.317
 6672.00    0.49652   0.46649   16.447
 6673.00    0.52006   0.46787   16.548
 6674.00    0.54977   0.46898   16.454
 6675.00    0.57644   0.46987   16.185
 6676.00    0.59389   0.47061   16.046
 6677.00    0.60080   0.47114   16.130
 6678.00    0.60028   0.47149   16.139
 6679.00    0.59297   0.47168   15.939
 6680.00    0.57486   0.47166   15.796
 6681.00    0.54725   0.47138   15.867
 6682.00    0.52016   0.47101   16.010
 6683.00    0.50202   0.47065   16.061
 6684.00    0.49440   0.47026   15.983
 6685.00    0.49348   0.46987   15.830
 6686.00    0.49258   0.46970   15.701
 6687.00    0.48964   0.46974   15.635
 6688.00    0.48910   0.46981   15.601
 6689.00    0.49423   0.46987   15.584
 6690.00    0.50407   0.46997   15.608
 6691.00    0.51573   0.47005   15.648
 6692.00    0.52601   0.47003   15.637
 6693.00    0.53369   0.46995   15.664
 6694.00    0.53954   0.46990   15.948
 6695.00    0.54304   0.46986   16.402
 6696.00    0.54219   0.46972    0.000
 6697.00    0.53771   0.46948    0.000
 6698.00    0.53332   0.46910    0.000
 6699.00    0.53111   0.46841    0.000
 6700.00    0.52972   0.46750    0.000
 6701.00    0.52418   0.46649    0.000
 6702.00    0.50862   0.46524    0.000
 6703.00    0.48494   0.46381    0.000
 6704.00    0.46341   0.46265    0.000
 6705.00    0.45561   0.46192    0.000
 6706.00    0.46945   0.46136    0.000
 6707.00    0.50187   0.46108    0.000
 6708.00    0.54594   0.46142    0.000
 6709.00    0.61641   0.46219    0.000
 6710.00    0.74713   0.46287    0.000
 6711.00    0.96348   0.46341    0.000
 6712.00    1.26147   0.46402    0.000
 6713.00    1.57559   0.46462    0.000
 6714.00    1.80107   0.46498    0.000
 6715.00    1.86914   0.46512    0.000
 6716.00    1.76564   0.46530    0.000
 6717.00    1.52844   0.46554    0.000
 6718.00    1.23062   0.46570    0.000
 6719.00    0.94444   0.46577    0.000
 6720.00    0.72378   0.46584    0.000
 6721.00    0.58538   0.46586    0.000
 6722.00    0.51966   0.46579    0.000
 6723.00    0.52107   0.46561    0.000
 6724.00    0.59071   0.46529    0.000
 6725.00    0.72821   0.46484    0.000
 6726.00    0.92172   0.46440    0.000
 6727.00    1.13275   0.46389    0.000
 6728.00    1.30799   0.46320    0.000
 6729.00    1.40583   0.46251    0.000
 6730.00    1.40247   0.46210    0.000
 6731.00    1.29425   0.46174    0.000
 6732.00    1.10273   0.46125    0.000
 6733.00    0.88142   0.46090    0.000
 6734.00    0.69174   0.46077    0.000
 6735.00    0.56366   0.46055    0.000
 6736.00    0.49774   0.46025    0.000
 6737.00    0.47810   0.46016    0.000
 6738.00    0.48186   0.46011    0.000
 6739.00    0.49007   0.46002    0.000
 6740.00    0.49104   0.46026    0.000
 6741.00    0.48274   0.46080    0.000
 6742.00    0.47162   0.46138    0.000
 6743.00    0.46981   0.46208    0.000
 6744.00    0.48362   0.46303    0.000
 6745.00    0.50059   0.46394    0.000
 6746.00    0.50537   0.46470    0.000
 6747.00    0.50031   0.46533    0.000
 6748.00    0.49548   0.46573    0.000
 6749.00    0.49413   0.46588    0.000
 6750.00    0.49338   0.46581    0.000
 6751.00    0.48734   0.46550    0.000
 6752.00    0.47448   0.46491    0.000
 6753.00    0.46413   0.46415   16.150
 6754.00    0.46422   0.46345   16.232
 6755.00    0.46897   0.46286   16.011
 6756.00    0.46869   0.46224   15.623
 6757.00    0.46085   0.46172   15.260
 6758.00    0.45335   0.46168   14.800
 6759.00    0.46425   0.46203   13.728
 6760.00    0.50001   0.46246   12.212
 6761.00    0.53866   0.46304   11.152
 6762.00    0.55650   0.46387   10.858
 6763.00    0.55159   0.46469   10.943
 6764.00    0.53635   0.46531   10.993
 6765.00    0.52757   0.46572   10.951
 6766.00    0.52729   0.46582   10.946
 6767.00    0.51262   0.46552   11.106
 6768.00    0.47131   0.46486   11.518
 6769.00    0.42540   0.46389   12.200
 6770.00    0.40185   0.46274   13.046
 6771.00    0.40982   0.46161   13.734
 6772.00    0.43991   0.46055   14.024
 6773.00    0.46834   0.45969   14.094
 6774.00    0.48124   0.45924   14.142
 6775.00    0.48725   0.45907   14.115
 6776.00    0.49418   0.45905   14.050
 6777.00    0.49628   0.45926   14.238
 6778.00    0.49063   0.45956   14.789
 6779.00    0.48537   0.45968   15.392
 6780.00    0.48683   0.45970   15.716
 6781.00    0.49252   0.45983   15.773
 6782.00    0.49608   0.45990   15.708
 6783.00    0.49134   0.45991   15.620
 6784.00    0.47813   0.46003   15.632
 6785.00    0.46375   0.46029   15.888
 6786.00    0.45518   0.46057   16.339
 6787.00    0.45497   0.46090   16.647
 6788.00    0.46148   0.46122   16.591
 6789.00    0.47000   0.46143   16.302
 6790.00    0.47745   0.46154   16.089
 6791.00    0.48407   0.46161   16.134
 6792.00    0.49139   0.46156   15.749
 6793.00    0.50029   0.46132   13.888
 6794.00    0.50716   0.46112   11.541
 6795.00    0.50454   0.46100   10.054
 6796.00    0.49017   0.46074    9.369
 6797.00    0.46941   0.46048    8.984
 6798.00    0.45023   0.46043    8.811
 6799.00    0.44029   0.46036    9.108
 6800.00    0.44377   0.46014    9.866
 6801.00    0.45981   0.46001   10.560
 6802.00    0.48123   0.46001   10.757
 6803.00    0.49745   0.46006   10.628
 6804.00    0.50553   0.46004   10.484
 6805.00    0.51012   0.46003   10.519
 6806.00    0.51160   0.46017   10.809
 6807.00    0.50570   0.46045   11.343
 6808.00    0.49410   0.46069   11.993
 6809.00    0.48418   0.46087   12.517
 6810.00    0.47840   0.46101   12.774
 6811.00    0.47336   0.46120   12.834
 6812.00    0.46603   0.46136   12.826
 6813.00    0.45646   0.46130   12.854
 6814.00    0.45000   0.46103   12.964
 6815.00    0.45297   0.46077   13.165
 6816.00    0.46072   0.46061   13.488
 6817.00    0.46313   0.46040   13.884
 6818.00    0.46505   0.46016   13.878
 6819.00    0.47885   0.46010   13.025
 6820.00    0.49596   0.46023   11.973
 6821.00    0.49604   0.46032   11.534
 6822.00    0.48219   0.46016   11.670
 6823.00    0.47459   0.45982   11.942
 6824.00    0.48030   0.45939   12.185
 6825.00    0.49332   0.45869   12.521
 6826.00    0.50816   0.45774   12.976
 6827.00    0.52146   0.45673   13.428
 6828.00    0.52965   0.45580   13.719
 6829.00    0.53071   0.45507   13.707
 6830.00    0.52802   0.45471   13.308
 6831.00    0.52566   0.45470   12.631
 6832.00    0.51908   0.45499   12.039
 6833.00    0.50360   0.45554   11.830
 6834.00    0.49086   0.45627   11.957
 6835.00    0.49453   0.45695   12.233
 6836.00    0.50343   0.45739   12.624
 6837.00    0.49807   0.45757   13.184
 6838.00    0.48236   0.45758   13.829
 6839.00    0.47052   0.45738   14.307
 6840.00    0.46048   0.45687   14.314
 6841.00    0.44237   0.45612   13.780
 6842.00    0.41598   0.45541   13.076
 6843.00    0.39115   0.45482   12.551
 6844.00    0.38397   0.45411   12.184
 6845.00    0.40420   0.45348   11.891
 6846.00    0.44028   0.45328   11.808
 6847.00    0.47186   0.45323   12.135
 6848.00    0.48791   0.45314   12.958
 6849.00    0.48847   0.45335   14.135
 6850.00    0.48338   0.45378   14.963
 6851.00    0.48339   0.45403   14.605
 6852.00    0.49033   0.45424   13.314
 6853.00    0.49977   0.45457   11.924
 6854.00    0.50529   0.45469   10.946
 6855.00    0.50114   0.45450   10.514
 6856.00    0.48488   0.45434   10.552
 6857.00    0.46167   0.45421   10.954
 6858.00    0.44682   0.45391   11.636
 6859.00    0.44929   0.45378   12.495
 6860.00    0.45745   0.45399   13.384
 6861.00    0.45924   0.45419   14.126
 6862.00    0.46023   0.45434   14.578
 6863.00    0.46576   0.45478   14.753
 6864.00    0.46556   0.45531   14.863
 6865.00    0.45070   0.45558   15.113
 6866.00    0.42785   0.45572   15.515
 6867.00    0.40966   0.45581   15.775
 6868.00    0.40518   0.45563   15.313
 6869.00    0.41425   0.45518   14.158
 6870.00    0.42572   0.45477   13.134
 6871.00    0.43338   0.45445   12.638
 6872.00    0.44573   0.45405   12.469
 6873.00    0.46829   0.45376   12.470
 6874.00    0.49217   0.45385   12.791
 6875.00    0.50627   0.45403   13.434
 6876.00    0.50595   0.45408   13.875
 6877.00    0.49225   0.45431   13.527
 6878.00    0.47035   0.45470   12.433
 6879.00    0.44568   0.45492   11.204
 6880.00    0.42212   0.45508   10.427
 6881.00    0.40574   0.45539   10.206
 6882.00    0.40516   0.45564   10.310
 6883.00    0.42047   0.45576   10.668
 6884.00    0.43954   0.45598   11.548
 6885.00    0.45310   0.45628   13.019
 6886.00    0.46171   0.45646   14.281
 6887.00    0.46779   0.45662   14.494
 6888.00    0.47137   0.45694   14.140
 6889.00    0.47118   0.45734   13.943
 6890.00    0.46590   0.45764   14.126
 6891.00    0.45723   0.45796   14.545
 6892.00    0.45009   0.45839   14.775
 6893.00    0.44715   0.45882   14.640
 6894.00    0.44743   0.45908   14.431
 6895.00    0.45092   0.45921   14.390
 6896.00    0.45942   0.45926   14.501
 6897.00    0.47120   0.45908   14.504
 6898.00    0.48046   0.45868   14.058
 6899.00    0.48416   0.45815   13.363
 6900.00    0.48428   0.45745   12.965
 6901.00    0.48572   0.45668   12.911
 6902.00    0.49318   0.45614   12.819
 6903.00    0.50354   0.45574   12.683
 6904.00    0.50685   0.45538   12.898
 6905.00    0.49933   0.45537   13.470
 6906.00    0.48551   0.45556   13.836
 6907.00    0.46995   0.45569   13.532
 6908.00    0.45504   0.45582   12.686
 6909.00    0.44323   0.45594   11.863
 6910.00    0.43729   0.45588   11.558
 6911.00    0.43883   0.45563   11.780
 6912.00    0.44707   0.45540   12.222
 6913.00    0.45660   0.45524   12.730
 6914.00    0.45995   0.45516   13.373
 6915.00    0.45637   0.45516   14.098
 6916.00    0.45070   0.45525   14.649
 6917.00    0.44431   0.45544   14.856
 6918.00    0.43481   0.45563   14.786
 6919.00    0.42167   0.45571   14.631
 6920.00    0.40817   0.45567   14.571
 6921.00    0.40259   0.45577   14.611
 6922.00    0.41363   0.45592   14.611
 6923.00    0.43956   0.45594   14.460
 6924.00    0.46880   0.45602   14.161
 6925.00    0.48699   0.45623   13.913
 6926.00    0.48478   0.45638   13.935
 6927.00    0.47030   0.45637   14.176
 6928.00    0.46093   0.45626   14.415
 6929.00    0.46179   0.45607   14.571
 6930.00    0.46651   0.45577   14.694
 6931.00    0.46736   0.45531   14.752
 6932.00    0.46042   0.45482   14.666
 6933.00    0.45108   0.45463   14.479
 6934.00    0.44947   0.45455   14.308
 6935.00    0.46058   0.45441   14.226
 6936.00    0.48210   0.45448   14.246
 6937.00    0.50416   0.45464   14.315
 6938.00    0.51502   0.45458   14.329
 6939.00    0.51028   0.45454   14.179
 6940.00    0.49252   0.45462   13.839
 6941.00    0.46823   0.45458   13.447
 6942.00    0.44618   0.45465   13.153
 6943.00    0.43519   0.45498   12.953
 6944.00    0.43676   0.45534   12.854
 6945.00    0.43626   0.45571   13.084
 6946.00    0.42067   0.45623   13.842
 6947.00    0.40298   0.45676   14.807
 6948.00    0.40421   0.45718   15.321
 6949.00    0.42644   0.45751   15.227
 6950.00    0.45825   0.45781   14.890
 6951.00    0.48599   0.45806   14.680
 6952.00    0.50052   0.45816   14.753
 6953.00    0.50315   0.45819   14.960
 6954.00    0.50056   0.45826   15.049
 6955.00    0.49801   0.45832   14.949
 6956.00    0.49599   0.45822   14.770
 6957.00    0.48821   0.45801   14.718
 6958.00    0.47067   0.45765   14.870
 6959.00    0.45059   0.45715   14.979
 6960.00    0.43901   0.45650   14.817
 6961.00    0.44212   0.45547   14.550
 6962.00    0.45807   0.45413   14.417
 6963.00    0.47560   0.45284   14.444
 6964.00    0.48492   0.45162   14.552
 6965.00    0.48674   0.45028   14.663
 6966.00    0.48320   0.44941   14.734
 6967.00    0.47018   0.44948   14.779
 6968.00    0.44613   0.44995   14.767
 6969.00    0.41898   0.45066   14.574
 6970.00    0.39791   0.45191   14.229
 6971.00    0.38651   0.45335   14.019
 6972.00    0.38509   0.45446   14.030
 6973.00    0.39251   0.45532   13.935
 6974.00    0.40404   0.45598   13.648
 6975.00    0.41124   0.45624   13.621
 6976.00    0.41198   0.45619   13.768
 6977.00    0.41545   0.45611   13.071
 6978.00    0.42661   0.45601   12.026
 6979.00    0.43768   0.45588   12.789
 6980.00    0.44233   0.45576   17.156
 6981.00    0.44417   0.45564   18.854
 6982.00    0.44989   0.45548   18.854
 6983.00    0.46282   0.45524   18.854
 6984.00    0.47209   0.45488   18.854
 6985.00    0.45402   0.45444   18.854
 6986.00    0.41510   0.45391   18.854
 6987.00    0.40283   0.45333   18.854
 6988.00    0.43264   0.45286   18.854
 6989.00    0.46183   0.45254   18.854
 6990.00    0.46228   0.45221   18.854
 6991.00    0.45049   0.45192   18.854
 6992.00    0.44430   0.45188   18.854
 6993.00    0.44378   0.45198   18.854
 6994.00    0.44602   0.45208   18.854
 6995.00    0.45142   0.45219   18.854
 6996.00    0.45846   0.45243   18.854
 6997.00    0.46272   0.45261   18.854
 6998.00    0.46360   0.45256   18.854
 6999.00    0.46537   0.45231   18.854
 7000.00    0.46950   0.45190   18.854
 7001.00    0.47318   0.45144   -2.000
 7002.00    0.47602   0.45086   -2.000
 7003.00    0.48059   0.45017   -2.000
 7004.00    0.48419   0.44985   -2.000
 7005.00    0.47935   0.45004   -2.000
 7006.00    0.46633   0.45024   -2.000
 7007.00    0.45438   0.45042   -2.000
 7008.00    0.45049   0.45092   -2.000
 7009.00    0.45506   0.45146   -2.000
 7010.00    0.46107   0.45161   -2.000
 7011.00    0.45873   0.45161   -2.000
 7012.00    0.45014   0.45177   -2.000
 7013.00    0.44667   0.45197   -2.000
 7014.00    0.44801   0.45211   -2.000
 7015.00    0.44397   0.45238   -2.000
 7016.00    0.43747   0.45285   -2.000
 7017.00    0.44193   0.45334   -2.000
 7018.00    0.45633   0.45369   -2.000
 7019.00    0.46610   0.45394   -2.000
 7020.00    0.46328   0.45417   -2.000
 7021.00    0.45119   0.45419   -2.000
 7022.00    0.44227   0.45401   -2.000
 7023.00    0.45025   0.45398   -2.000
 7024.00    0.47368   0.45413   -2.000
 7025.00    0.49884   0.45419   -2.000
 7026.00    0.51514   0.45454   -2.000
 7027.00    0.51803   0.45547   -2.000
 7028.00    0.50734   0.45645   -2.000
 7029.00    0.48698   0.45734   -2.000
 7030.00    0.46487   0.45851   -2.000
 7031.00    0.45022   0.45966   -2.000
 7032.00    0.44802   0.46035   -2.000
 7033.00    0.45761   0.46079   -2.000
 7034.00    0.47211   0.46106   -2.000
 7035.00    0.48215   0.46088   -2.000
 7036.00    0.48269   0.46020   -2.000
 7037.00    0.47468   0.45918   -2.000
 7038.00    0.46537   0.45783   -2.000
 7039.00    0.46329   0.45606   -2.000
 7040.00    0.46984   0.45406   -2.000
 7041.00    0.48037   0.45209   -2.000
 7042.00    0.48814   0.45023   -2.000
 7043.00    0.48798   0.44848   -2.000
 7044.00    0.48070   0.44704   -2.000
 7045.00    0.47033   0.44600   -2.000
 7046.00    0.45925   0.44512   -2.000
 7047.00    0.44848   0.44435   -2.000
 7048.00    0.43914   0.44384   -2.000
 7049.00    0.43349   0.44343   -2.000
 7050.00    0.43567   0.44291   -2.000
 7051.00    0.44649   0.44252   -2.000
 7052.00    0.45737   0.44224   -2.000
 7053.00    0.45991   0.44194   -2.000
 7054.00    0.45785   0.44179   -2.000
 7055.00    0.45846   0.44186   -2.000
 7056.00    0.46128   0.44203   -2.000
 7057.00    0.46270   0.44249   -2.000
 7058.00    0.46261   0.44328   -2.000
 7059.00    0.46442   0.44406   -2.000
 7060.00    0.47379   0.44492   -2.000
 7061.00    0.49215   0.44590   -2.000
 7062.00    0.51089   0.44665   -2.000
 7063.00    0.51986   0.44710   -2.000
 7064.00    0.51609   0.44742   -2.000
 7065.00    0.50249   0.44749   -2.000
 7066.00    0.48559   0.44721   -2.000
 7067.00    0.47376   0.44661   -2.000
 7068.00    0.47488   0.44565   -2.000
 7069.00    0.48886   0.44436   -2.000
 7070.00    0.50277   0.44281   -2.000
 7071.00    0.50405   0.44093   -2.000
 7072.00    0.49144   0.43885   -2.000
 7073.00    0.47269   0.43694   -2.000
 7074.00    0.46048   0.43513   -2.000
 7075.00    0.45906   0.43333   -2.000
 7076.00    0.45691   0.43195   -2.000
 7077.00    0.44600   0.43099   -2.000
 7078.00    0.43398   0.43016   -2.000
 7079.00    0.42797   0.42964   -2.000
 7080.00    0.42433   0.42947   -2.000
 7081.00    0.41931   0.42944   -2.000
 7082.00    0.41589   0.42965   -2.000
 7083.00    0.41876   0.43014   -2.000
 7084.00    0.43033   0.43066   -2.000
 7085.00    0.44777   0.43130   -2.000
 7086.00    0.46258   0.43206   -2.000
 7087.00    0.46824   0.43282   -2.000
 7088.00    0.46457   0.43347   -2.000
 7089.00    0.45706   0.43407   -2.000
 7090.00    0.45433   0.43463   -2.000
 7091.00    0.45794   0.43494   -2.000
 7092.00    0.46013   0.43521   -2.000
 7093.00    0.45922   0.43541   -2.000
 7094.00    0.46417   0.43539   -2.000
 7095.00    0.47755   0.43528   -2.000
 7096.00    0.49007   0.43522   -2.000
 7097.00    0.49483   0.43511   -2.000
 7098.00    0.49263   0.43489   -2.000
 7099.00    0.48537   0.43481   -2.000
 7100.00    0.47373   0.43499   -2.000
 7101.00    0.46064   0.43527   -2.000
 7102.00    0.45136   0.43552   -2.000
 7103.00    0.44798   0.43588   -2.000
 7104.00    0.44880   0.43636   -2.000
 7105.00    0.45500   0.43666   -2.000
 7106.00    0.47014   0.43664   -2.000
 7107.00    0.48883   0.43654   -2.000
 7108.00    0.49803   0.43632   -2.000
 7109.00    0.49593   0.43578   -2.000
 7110.00    0.49240   0.43494   -2.000
 7111.00    0.48774   0.43415   -2.000
 7112.00    0.47289   0.43326   -2.000
 7113.00    0.45325   0.43202   -2.000
 7114.00    0.44692   0.43085   -2.000
 7115.00    0.45575   0.42986   -2.000
 7116.00    0.46385   0.42890   -2.000
 7117.00    0.45947   0.42807   -2.000
 7118.00    0.44114   0.42757   -2.000
 7119.00    0.41567   0.42748   -2.000
 7120.00    0.39434   0.42772   -2.000
 7121.00    0.38471   0.42813   -2.000
 7122.00    0.38913   0.42876   -2.000
 7123.00    0.40698   0.42949   -2.000
 7124.00    0.43327   0.43016   -2.000
 7125.00    0.45424   0.43083   -2.000
 7126.00    0.45458   0.43128   -2.000
 7127.00    0.43622   0.43152   -2.000
 7128.00    0.41823   0.43181   -2.000
 7129.00    0.42616   0.43190   -2.000
 7130.00    0.48024   0.43174   -2.000
 7131.00    0.57604   0.43160   -2.000
 7132.00    0.68625   0.43129   -2.000
 7133.00    0.77339   0.43080   -2.000
 7134.00    0.80495   0.43054   -2.000
 7135.00    0.77695   0.43027   -2.000
 7136.00    0.70841   0.43000   -2.000
 7137.00    0.62226   0.43040   -2.000
 7138.00    0.53938   0.43108   -2.000
 7139.00    0.47466   0.43163   -2.000
 7140.00    0.43650   0.43257   -2.000
 7141.00    0.42703   0.43375   -2.000
 7142.00    0.44077   0.43456   -2.000
 7143.00    0.46262   0.43510   -2.000
 7144.00    0.47469   0.43560   -2.000
 7145.00    0.46762   0.43580   -2.000
 7146.00    0.44371   0.43552   -2.000
 7147.00    0.41834   0.43504   -2.000
 7148.00    0.40805   0.43439   -2.000
 7149.00    0.41371   0.43354   -2.000
 7150.00    0.42690   0.43271   -2.000
 7151.00    0.44166   0.43197   -2.000
 7152.00    0.45330   0.43135   -2.000
 7153.00    0.45527   0.43109   -2.000
 7154.00    0.44645   0.43131   -2.000
 7155.00    0.43991   0.43176   -2.000
 7156.00    0.44772   0.43237   -2.000
 7157.00    0.46253   0.43319   -2.000
 7158.00    0.47063   0.43400   -2.000
 7159.00    0.46890   0.43465   -2.000
 7160.00    0.46023   0.43506   -2.000
 7161.00    0.44685   0.43521   -2.000
 7162.00    0.43611   0.43516   -2.000
 7163.00    0.44565   0.43488   -2.000
 7164.00    0.48494   0.43433   -2.000
 7165.00    0.53802   0.43376   -2.000
 7166.00    0.58382   0.43322   -2.000
 7167.00    0.61618   0.43266   -2.000
 7168.00    0.63179   0.43215   -2.000
 7169.00    0.61970   0.43172   -2.000
 7170.00    0.58371   0.43146   -2.000
 7171.00    0.55779   0.43127   -2.000
 7172.00    0.55850   0.43086   -2.000
 7173.00    0.54987   0.43045   -2.000
 7174.00    0.49871   0.43010   -2.000
 7175.00    0.41877   0.42957   -2.000
 7176.00    0.34346   0.42926   -2.000
 7177.00    0.30039   0.42919   -2.000
 7178.00    0.29911   0.42921   -2.000
 7179.00    0.32559   0.42958   -2.000
 7180.00    0.36037   0.43006   -2.000
 7181.00    0.39173   0.43041   -2.000
 7182.00    0.41440   0.43085   -2.000
 7183.00    0.42808   0.43134   -2.000
 7184.00    0.43686   0.43156   -2.000
 7185.00    0.44705   0.43157   -2.000
 7186.00    0.45560   0.43166   -2.000
 7187.00    0.44721   0.43168   -2.000
 7188.00    0.42056   0.43157   -2.000
 7189.00    0.39844   0.43136   -2.000
 7190.00    0.39446   0.43102   -2.000
 7191.00    0.39831   0.43069   -2.000
 7192.00    0.40239   0.43026   -2.000
 7193.00    0.41384   0.42981   -2.000
 7194.00    0.43858   0.42938   -2.000
 7195.00    0.47278   0.42892   -2.000
 7196.00    0.50504   0.42897   -2.000
 7197.00    0.52134   0.42924   -2.000
 7198.00    0.52239   0.42951   -2.000
 7199.00    0.52743   0.43020   -2.000
 7200.00    0.55362   0.43091   -2.000
 7201.00    0.60407   0.43142   -2.000
 7202.00    0.65809   0.43205   -2.000
 7203.00    0.67737   0.43268   -2.000
 7204.00    0.64715   0.43308   -2.000
 7205.00    0.58668   0.43348   -2.000
 7206.00    0.52108   0.43395   -2.000
 7207.00    0.46689   0.43427   -2.000
 7208.00    0.42280   0.43447   -2.000
 7209.00    0.37646   0.43480   -2.000
 7210.00    0.34063   0.43520   -2.000
 7211.00    0.34922   0.43550   -2.000
 7212.00    0.39854   0.43597   -2.000
 7213.00    0.44353   0.43661   -2.000
 7214.00    0.45383   0.43716   -2.000
 7215.00    0.43028   0.43782   -2.000
 7216.00    0.39557   0.43849   -2.000
 7217.00    0.38025   0.43900   -2.000
 7218.00    0.39128   0.43955   -2.000
