###################################################################
## OUTPUT of StarlightChains_v04.for    [Cid@UFSC - 01/Apr/2007] ##
###################################################################

## Some input info
2001en.txt                               [arq_obs]
Base.CB07.vall.4m                        [arq_base]
Masks.EmLines.NEW.gm                     [arq_masks]
StCv04.C11.config                        [arq_config]
   66                                    [N_base]
    0                                    [N_YAV_components = # of components with extra extinction!]
    0                                    [i_FitPowerLaw (1/0 = Yes/No)]
-9.99                                    [alpha_PowerLaw]
CCM                                      [red_law_option]
 1.458241                                [q_norm = A(l_norm)/A(V)]

## (Re)Sampling Parameters
 3741.00                                 [l_ini (A)]
 7218.00                                 [l_fin (A)]
    1.00                                 [dl    (A)]     (OBS: dl_cushion =    50.00 A)

## Normalization info
 4020.00                                 [l_norm (A) - for base]
 4010.00                                 [llow_norm (A) - window for f_obs]
 4060.00                                 [lupp_norm (A) - window for f_obs]
6.019943E-17                             [fobs_norm (in input units)]

## S/N
 3691.00                                 [llow_SN (A) - window for S/N]
 7268.00                                 [lupp_SN (A) - window for S/N]
   7.166                                 [S/N in S/N window]
   6.449                                 [S/N in norm. window]
  12.176                                 [S/N_err in S/N window]
  10.958                                 [S/N_err in norm. window]
  1.0000                                 [fscale_chi2]

## etc...
    -2007257                             [idum_orig]
  2385                                   [NOl_eff]
  2385                                   [Nl_eff]
     0    NSIGMA                         [Ntot_cliped & clip_method]
  1811180                                [Nglobal_steps]
   7                                     [N_chains]
  32                                     [NEX0s_base = N_base in EX0s-fits]
 0   0   1        1   2.0   1.879E+01    [Clip-Bug, RC-Crash & Burn-In warning-flags, n_censored_weights, wei_nsig_threshold & wei_limit]
    17     16.563     16.062      0.501  [idt_all, wdt_TotTime, wdt_UsrTime & wdt_SysTime (sec)]

## Synthesis Results - Best model ##

 5.06589E-01                             [chi2/Nl_eff]
     5.43520                             [adev (%)]

   106.63257                             [sum-of-x (%)]
 1.39307E-16                             [Flux_tot (units of input spectrum!)]
 2.33068E-12                             [Mini_tot (???)]
 1.21397E-12                             [Mcor_tot (???)]

 -14.85                                  [v0_min  (km/s)]
 186.08                                  [vd_min  (km/s)]
 0.5769                                  [AV_min  (mag)]
 0.0000                                  [YAV_min (mag)]

# j     x_j(%)      Mini_j(%)     Mcor_j(%)     age_j(yr)     Z_j      (L/M)_j    YAV?  Mstars   component_j        a/Fe...       SSP_chi2r SSP_adev(%)   SSP_AV   SSP_x(%)
  1      0.0000     0.0000E+00    0.0000E+00    1.000000E+06  0.00400  1.094E-02    0   1.0000   age020_m42            0.0000     1.1087E+00     7.7806   3.4752    87.7318
  2      0.0000     0.0000E+00    0.0000E+00    3.160000E+06  0.00400  4.007E-02    0   0.9999   age045_m42            0.0000     9.3725E-01     7.0268   2.7494    93.7688
  3      0.0000     0.0000E+00    0.0000E+00    5.010000E+06  0.00400  2.539E-02    0   0.9488   age055_m42            0.0000     9.8695E-01     7.2658   3.0652    91.6382
  4      0.0000     0.0000E+00    0.0000E+00    6.610000E+06  0.00400  2.620E-02    0   0.9220   age061_m42            0.0000     8.8833E-01     6.9295   2.6644    94.4657
  5      0.0000     0.0000E+00    0.0000E+00    1.000000E+07  0.00400  1.322E-02    0   0.8862   age070_m42            0.0000     7.4154E-01     6.6663   2.3053    99.9073
  6      0.0007     4.9637E-06    8.1680E-06    1.445000E+07  0.00400  7.883E-03    0   0.8571   age078_m42            0.0000     7.9251E-01     6.8747   2.6401    97.0269
  7      0.0000     0.0000E+00    0.0000E+00    2.512000E+07  0.00400  5.251E-03    0   0.8174   age090_m42            0.0000     7.2983E-01     6.6702   2.1619   101.0848
  8      0.0000     0.0000E+00    0.0000E+00    4.000000E+07  0.00400  3.649E-03    0   0.7851   age104_m42            0.0000     7.0550E-01     6.5273   1.9417   101.6006
  9      0.0000     0.0000E+00    0.0000E+00    5.500000E+07  0.00400  3.098E-03    0   0.7629   age110_m42            0.0000     7.3174E-01     6.5445   2.1286   100.0842
 10      0.0000     0.0000E+00    0.0000E+00    1.015200E+08  0.00400  2.228E-03    0   0.7207   age116_m42            0.0000     7.5283E-01     6.6108   2.1701    99.3217
 11      0.0000     0.0000E+00    0.0000E+00    2.861200E+08  0.00400  1.093E-03    0   0.6648   age125_m42            0.0000     6.6199E-01     6.3596   1.5653   103.9732
 12      0.0000     0.0000E+00    0.0000E+00    5.088000E+08  0.00400  6.597E-04    0   0.6365   age130_m42            0.0000     6.6176E-01     6.3460   1.5927   103.1031
 13      1.9455     5.1149E-01    5.6937E-01    1.434000E+09  0.00400  2.132E-04    0   0.5798   age139_m42            0.0000     5.5974E-01     5.7141   0.6450   104.0924
 14      0.0000     0.0000E+00    0.0000E+00    4.250000E+09  0.00400  5.895E-05    0   0.5377   age158_m42            0.0000     6.4142E-01     5.8856   0.2604    97.6449
 15      2.5723     4.1078E+00    4.1104E+00    7.500000E+09  0.00400  3.510E-05    0   0.5212   age171_m42            0.0000     6.7805E-01     6.0716   0.0933    96.1186
 16      0.4087     1.1425E+00    1.1042E+00    1.300000E+10  0.00400  2.005E-05    0   0.5034   age193_m42            0.0000     7.2507E-01     6.2940  -0.0534    94.8391
 17      6.2211     2.2866E+01    2.1805E+01    1.800000E+10  0.00400  1.525E-05    0   0.4967   age213_m42            0.0000     7.1148E-01     6.2386  -0.0809    94.6071
 18      0.0000     0.0000E+00    0.0000E+00    1.000000E+06  0.00800  1.238E-02    0   1.0000   age020_m52            0.0000     1.1091E+00     7.7790   3.4715    87.9033
 19      0.0000     0.0000E+00    0.0000E+00    3.160000E+06  0.00800  3.074E-02    0   0.9966   age045_m52            0.0000     1.1054E+00     7.7420   3.3998    88.4865
 20      0.0205     4.3101E-05    7.8140E-05    5.010000E+06  0.00800  2.668E-02    0   0.9443   age055_m52            0.0000     9.9549E-01     7.3483   3.1438    90.9764
 21      0.0000     0.0000E+00    0.0000E+00    6.610000E+06  0.00800  2.136E-02    0   0.9177   age061_m52            0.0000     6.8584E-01     6.3460   1.8161   100.5762
 22      0.0000     0.0000E+00    0.0000E+00    1.000000E+07  0.00800  1.215E-02    0   0.8827   age070_m52            0.0000     7.2729E-01     6.7634   2.4611   100.7466
 23      0.0000     0.0000E+00    0.0000E+00    1.445000E+07  0.00800  8.717E-03    0   0.8552   age078_m52            0.0000     7.5632E-01     6.7495   2.6031    98.4835
 24      0.0000     0.0000E+00    0.0000E+00    2.512000E+07  0.00800  5.592E-03    0   0.8162   age090_m52            0.0000     6.9146E-01     6.5737   2.2195   102.5761
 25      0.0000     0.0000E+00    0.0000E+00    4.000000E+07  0.00800  3.896E-03    0   0.7841   age104_m52            0.0000     6.7806E-01     6.4565   2.1450   102.7611
 26      0.0000     0.0000E+00    0.0000E+00    1.015200E+08  0.00800  2.148E-03    0   0.7226   age116_m52            0.0000     7.0278E-01     6.4440   2.1190   100.9605
 27      0.0000     0.0000E+00    0.0000E+00    2.861200E+08  0.00800  9.925E-04    0   0.6683   age125_m52            0.0000     6.5527E-01     6.3553   1.6540   104.2102
 28     19.1999     3.4263E+00    4.0377E+00    9.047900E+08  0.00800  3.141E-04    0   0.6138   age135_m52            0.0000     5.8771E-01     5.8858   0.9042   106.2489
 29     14.8890     4.8550E+00    5.4556E+00    1.434000E+09  0.00800  1.719E-04    0   0.5853   age139_m52            0.0000     5.5897E-01     5.6434   0.3308   103.8239
 30      0.0000     0.0000E+00    0.0000E+00    2.500000E+09  0.00800  7.872E-05    0   0.5600   age150_m52            0.0000     6.8254E-01     6.1516   0.1233    98.3657
 31      0.0000     0.0000E+00    0.0000E+00    4.250000E+09  0.00800  4.336E-05    0   0.5426   age158_m52            0.0000     6.9511E-01     6.2019   0.1121    97.2720
 32      4.9886     8.8517E+00    9.0393E+00    6.250000E+09  0.00800  3.159E-05    0   0.5319   age166_m52            0.0000     7.8188E-01     6.6254  -0.0599    96.0002
 33      0.0000     0.0000E+00    0.0000E+00    1.300000E+10  0.00800  1.361E-05    0   0.5073   age193_m52            0.0000     9.4139E-01     7.4303  -0.4872    93.6790
 34      4.9756     2.8211E+01    2.7027E+01    1.800000E+10  0.00800  9.886E-06    0   0.4990   age213_m52            0.0000     1.0753E+00     8.1188  -0.5608    91.8342
 35      2.1303     7.7337E-03    1.4848E-02    1.000000E+06  0.02000  1.544E-02    0   1.0000   age020_m62            0.0000     1.1149E+00     7.7996   3.4678    88.0947
 36      0.0000     0.0000E+00    0.0000E+00    3.160000E+06  0.02000  3.762E-02    0   0.9858   age045_m62            0.0000     1.1170E+00     7.7984   3.4103    88.7297
 37      0.0000     0.0000E+00    0.0000E+00    5.010000E+06  0.02000  3.296E-02    0   0.9342   age055_m62            0.0000     9.7251E-01     7.1928   3.0327    92.4597
 38      0.0000     0.0000E+00    0.0000E+00    8.710000E+06  0.02000  1.154E-02    0   0.8861   age067_m62            0.0000     9.6647E-01     8.5502   1.7723   110.4145
 39      1.1149     8.1553E-03    1.3265E-02    1.445000E+07  0.02000  7.663E-03    0   0.8472   age078_m62            0.0000     7.0876E-01     6.9207   2.0605   105.2840
 40      0.0000     0.0000E+00    0.0000E+00    2.512000E+07  0.02000  4.532E-03    0   0.8099   age090_m62            0.0000     7.3822E-01     7.0341   2.0436   105.4387
 41      0.0000     0.0000E+00    0.0000E+00    5.500000E+07  0.02000  2.733E-03    0   0.7595   age110_m62            0.0000     6.6990E-01     6.4388   2.1286   101.9823
 42      0.0000     0.0000E+00    0.0000E+00    1.609000E+08  0.02000  1.369E-03    0   0.6985   age120_m62            0.0000     6.8571E-01     6.4547   2.0052   103.0138
 43      0.0020     1.2182E-04    1.5702E-04    2.861200E+08  0.02000  9.013E-04    0   0.6714   age125_m62            0.0000     6.8259E-01     6.4989   1.7745   105.0327
 44      0.0000     0.0000E+00    0.0000E+00    5.088000E+08  0.02000  5.028E-04    0   0.6449   age130_m62            0.0000     6.9805E-01     6.4285   1.4485   105.3861
 45      1.9928     4.6006E-01    5.4576E-01    9.047900E+08  0.02000  2.428E-04    0   0.6179   age135_m62            0.0000     6.4189E-01     6.0335   0.8901   103.5298
 46      0.6841     3.0359E-01    3.4435E-01    1.434000E+09  0.02000  1.263E-04    0   0.5908   age139_m62            0.0000     6.6639E-01     6.0979   0.4632   101.2589
 47      0.0000     0.0000E+00    0.0000E+00    2.500000E+09  0.02000  5.985E-05    0   0.5673   age150_m62            0.0000     8.0218E-01     6.7001   0.1441    97.8420
 48      0.0000     0.0000E+00    0.0000E+00    4.250000E+09  0.02000  3.271E-05    0   0.5468   age158_m62            0.0000     9.9061E-01     7.6386  -0.1108    94.9050
 49      1.7610     7.2581E+00    7.2001E+00    1.000000E+10  0.02000  1.360E-05    0   0.5167   age181_m62            0.0000     1.2254E+00     8.8291  -0.4071    92.4002
 50      0.0000     0.0000E+00    0.0000E+00    1.800000E+10  0.02000  7.124E-06    0   0.5013   age213_m62            0.0000     1.4370E+00     9.7866  -0.5731    89.9319
 51      0.0000     0.0000E+00    0.0000E+00    1.000000E+06  0.05000  2.592E-02    0   0.9998   age020_m72            0.0000     1.1293E+00     7.8664   3.4582    88.1604
 52      0.0000     0.0000E+00    0.0000E+00    3.160000E+06  0.05000  4.845E-02    0   0.9577   age045_m72            0.0000     1.0855E+00     7.6153   3.3016    89.5820
 53      3.4273     6.2537E-03    1.0982E-02    5.010000E+06  0.05000  3.072E-02    0   0.9147   age055_m72            0.0000     7.9322E-01     7.0206   2.6977    98.9882
 54     21.7043     8.3615E-02    1.4250E-01    6.610000E+06  0.05000  1.455E-02    0   0.8877   age061_m72            0.0000     1.8938E+00    11.0823   1.7503   115.0515
 55      0.0000     0.0000E+00    0.0000E+00    1.000000E+07  0.05000  9.074E-03    0   0.8524   age070_m72            0.0000     1.0950E+00     7.6679   2.8713    99.1883
 56      0.0000     0.0000E+00    0.0000E+00    2.512000E+07  0.05000  4.250E-03    0   0.7902   age090_m72            0.0000     8.4780E-01     7.0240   2.5698   101.0695
 57      0.0000     0.0000E+00    0.0000E+00    4.000000E+07  0.05000  3.087E-03    0   0.7618   age104_m72            0.0000     8.2965E-01     6.9790   2.3282   103.3989
 58      0.0000     0.0000E+00    0.0000E+00    1.015200E+08  0.05000  1.700E-03    0   0.7096   age116_m72            0.0000     6.8501E-01     6.4780   2.1226   103.7438
 59      1.4783     1.1222E-01    1.4291E-01    2.861200E+08  0.05000  7.384E-04    0   0.6633   age125_m72            0.0000     6.6276E-01     6.4017   1.6676   105.2930
 60     11.3024     1.6589E+00    2.0294E+00    5.088000E+08  0.05000  3.819E-04    0   0.6372   age130_m72            0.0000     6.7977E-01     6.2762   1.2260   104.6362
 61      0.0000     0.0000E+00    0.0000E+00    9.047900E+08  0.05000  1.676E-04    0   0.6110   age135_m72            0.0000     8.3250E-01     6.7889   0.6001    99.7138
 62      2.0108     1.2754E+00    1.4383E+00    1.434000E+09  0.05000  8.837E-05    0   0.5874   age139_m72            0.0000     8.2930E-01     6.8386   0.1480    99.0752
 63      0.0000     0.0000E+00    0.0000E+00    2.500000E+09  0.05000  4.233E-05    0   0.5598   age150_m72            0.0000     1.0606E+00     8.0064  -0.0966    95.0958
 64      3.8026     1.4853E+01    1.4968E+01    6.250000E+09  0.05000  1.435E-05    0   0.5249   age166_m72            0.0000     1.3186E+00     9.2043  -0.4877    91.3673
 65      0.0000     0.0000E+00    0.0000E+00    1.300000E+10  0.05000  6.513E-06    0   0.5036   age193_m72            0.0000     1.6093E+00    10.4030  -0.7113    89.9816
 66      0.0000     0.0000E+00    0.0000E+00    1.800000E+10  0.05000  4.527E-06    0   0.4945   age213_m72            0.0000     1.8120E+00    11.1338  -0.8374    88.4312


## Synthesis Results - Average & Chains ##

# j      x_j: min, <> & last-chain-values for 1 ...  7 chains
  1      0.0000      0.1833      0.2614      0.7113      0.0000      0.5510      0.0000      0.1026      0.2969
  2      0.0000      0.8519      1.4487      0.0000      1.0291      0.0000      0.4898      0.8657      0.6994
  3      0.0000      0.4969      0.0000      0.4924      0.0000      0.6464      0.0000      0.9174      1.7104
  4      0.0000      0.4794      0.0000      0.1395      0.0000      1.0123      0.7039      0.0000      0.0000
  5      0.0000      0.3180      0.0614      0.8777      0.0000      0.4987      0.0000      0.0000      0.0000
  6      0.0007      0.5091      0.0000      0.0000      0.0000      0.6934      0.8060      0.0000      0.0000
  7      0.0000      0.2709      0.1299      0.0000      0.0000      1.1352      0.3147      0.4556      0.0000
  8      0.0000      0.3769      0.0000      0.0000      0.0000      0.0000      0.0000      0.0000      0.2227
  9      0.0000      0.2511      0.7807      0.0000      0.0000      0.0000      0.5655      0.0000      0.0000
 10      0.0000      0.4449      0.0000      1.4597      0.0000      0.0000      0.0000      1.7093      0.0000
 11      0.0000      1.4500      1.2795      1.0849      3.4805      0.0000      0.0000      1.5884      0.9408
 12      0.0000      0.8280      1.1904      0.0000      0.2259      0.0000      0.0000      0.7659      0.8522
 13      1.9455      5.7160      3.7522      5.4209      3.7859      3.9546      7.5101      7.4109      0.5370
 14      0.0000      1.0995      0.9355      0.9069      0.0000      2.2477      1.4405      1.9041      0.0000
 15      2.5723      2.9111      4.7280      3.1789      6.2107      2.6507      4.1013      3.3960      1.5579
 16      0.4087      0.4113      0.0000      0.5250      0.0000      0.8027      0.5111      0.0226      0.6979
 17      6.2211      2.7842      2.8631      3.6873      3.2072      2.5777      3.0477      4.5153      2.8076
 18      0.0000      0.2510      0.0000      0.0000      0.0000      0.9272      0.3257      0.0000      0.0000
 19      0.0000      0.3542      0.0000      0.0000      0.0000      0.0000      0.2730      0.3076      0.7149
 20      0.0205      0.2070      0.0000      0.2209      0.0000      0.8033      1.6123      0.0000      0.0000
 21      0.0000      0.8582      0.7920      0.3284      0.0000      0.0000      0.0000      2.4223      0.2329
 22      0.0000      0.2963      2.2542      0.0000      0.3124      0.5317      0.0000      0.0000      0.0000
 23      0.0000      0.4056      0.2525      0.0778      0.0000      0.0000      0.0000      0.0000      0.3806
 24      0.0000      0.5093      1.2336      0.0000      0.1824      0.0000      0.2124      0.0000      0.0000
 25      0.0000      1.1830      0.9106      1.2066      1.8897      1.4936      1.1201      1.8256      0.6033
 26      0.0000      0.4655      0.2679      0.0000      0.0000      0.5600      0.0000      0.0000      0.0000
 27      0.0000      0.7333      0.6329      1.6009      0.0528      0.6398      0.1216      0.0000      2.8103
 28     19.1999      9.2022      9.3065     12.9984     10.1158     11.5839     14.3875     16.3346     10.4309
 29     14.8890     15.8908     16.4168     13.2831     18.9274     15.9651     19.6113     16.1325     17.9331
 30      0.0000      5.7629      4.5371      5.5420      0.0000      6.4209      5.8014      4.5898      3.4701
 31      0.0000      3.5616      2.9813      3.0132      4.5158      3.1261      0.0000      4.0937      3.4360
 32      4.9886      3.9142      4.4845      3.6841      4.2346      4.2943      2.9314      3.2343      3.8981
 33      0.0000      0.6668      0.7524      0.5714      0.0000      1.7447      0.0000      0.0000      0.8529
 34      4.9756      1.7578      1.1981      2.1230      1.7792      1.8605      2.3805      2.0494      1.6321
 35      2.1303      0.5379      0.0000      0.3306      0.1154      0.9682      1.1687      0.0000      0.0000
 36      0.0000      0.1739      0.0359      0.1572      0.9640      0.0000      0.0000      0.2588      0.3691
 37      0.0000      0.6788      0.0000      0.7652      1.0829      0.0000      0.0900      0.9668      0.0000
 38      0.0000      0.6880      1.6103      0.1531      1.7450      0.0636      0.0000      4.0420      0.0000
 39      1.1149      0.7227      0.0000      0.0000      0.0000      0.0000      0.7341      0.0000      1.4666
 40      0.0000      0.6217      0.8198      0.0000      0.1924      0.0000      0.0000      1.9142      0.0000
 41      0.0000      1.4745      2.4886      0.0000      1.5323      0.0000      3.9535      0.0000      1.5875
 42      0.0000      0.4108      0.2656      0.0000      0.0183      0.0000      0.0000      0.1545      0.1652
 43      0.0020      0.7244      0.0000      1.7499      0.0000      0.0000      0.6204      0.0000      0.3250
 44      0.0000      0.4689      0.9837      1.0427      1.9740      0.0000      0.0000      0.0000      0.4362
 45      1.9928      2.2162      1.6772      2.3641      1.7881      1.9454      0.9925      3.1029      0.0000
 46      0.6841      2.1145      1.5944      2.3943      0.9465      1.0399      3.8796      0.0000      4.5926
 47      0.0000      1.2486      0.1633      0.0000      0.0000      0.0000      0.9660      0.3300      1.4599
 48      0.0000      1.2352      0.8101      1.0257      1.4509      1.4497      0.1088      0.0000      1.5582
 49      1.7610      0.2384      1.4658      0.0000      0.1784      0.0000      0.8215      1.3138      0.0000
 50      0.0000      0.1298      0.0000      0.6697      0.0000      0.0000      0.0000      0.3870      1.0760
 51      0.0000      0.5630      0.7115      0.4936      1.5389      0.7529      0.0361      0.0000      1.9864
 52      0.0000      0.4025      0.0000      0.0000      1.3504      0.1295      0.0000      0.0000      1.4293
 53      3.4273      2.4084      4.1633      2.4779      4.8385      4.0748      3.3738      1.7600      2.2692
 54     21.7043     11.5814     12.7527     15.6896     12.6019     12.1309     13.2409     11.5486     14.3474
 55      0.0000      1.0554      0.7968      1.5162      0.0000      1.3489      0.0000      0.9168      0.7763
 56      0.0000      0.6479      0.0000      0.2303      0.0000      0.5244      0.7685      0.0000      0.4861
 57      0.0000      0.5812      0.0959      1.8323      0.7122      1.2977      0.0000      0.0000      0.0000
 58      0.0000      0.2984      0.7762      0.0000      0.0000      0.0000      0.7380      0.0000      0.1637
 59      1.4783      0.9674      1.9208      2.4434      2.3021      1.5438      0.7908      1.4949      1.9992
 60     11.3024      1.6917      0.8140      0.0000      0.0000      5.2781      1.2479      0.7965      4.5349
 61      0.0000      2.6314      4.7311      3.9868      4.1459      3.5061      0.0000      0.2464      2.4489
 62      2.0108      1.6109      1.5312      1.6559      3.4199      1.5953      1.0643      0.2965      3.7718
 63      0.0000      0.3665      0.0000      0.0000      1.1216      0.3782      0.0000      0.0000      0.0000
 64      3.8026      1.5143      1.8875      1.4849      1.5998      0.8258      2.6496      1.7077      1.6251
 65      0.0000      0.0574      0.0000      0.0000      0.0000      0.0000      0.2906      0.0000      0.0331
 66      0.0000      0.0410      0.0000      0.0000      0.0000      0.0000      0.0000      0.0000      0.0000

# j      m_j: min, <> & last-chain-values for 1 ...  7 chains
  1  0.0000E+00  2.4903E-03  3.5194E-03  9.1281E-03  0.0000E+00  7.4770E-03  0.0000E+00  1.2939E-03  3.8153E-03
  2  0.0000E+00  3.1590E-03  5.3244E-03  0.0000E+00  3.8371E-03  0.0000E+00  1.7258E-03  2.9800E-03  2.4534E-03
  3  0.0000E+00  2.7594E-03  0.0000E+00  2.5834E-03  0.0000E+00  3.5863E-03  0.0000E+00  4.7296E-03  8.9853E-03
  4  0.0000E+00  2.5070E-03  0.0000E+00  6.8937E-04  0.0000E+00  5.2890E-03  3.4981E-03  0.0000E+00  0.0000E+00
  5  0.0000E+00  3.1678E-03  6.0606E-04  8.2603E-03  0.0000E+00  4.9633E-03  0.0000E+00  0.0000E+00  0.0000E+00
  6  8.1680E-06  8.2260E-03  0.0000E+00  0.0000E+00  0.0000E+00  1.1193E-02  1.2375E-02  0.0000E+00  0.0000E+00
  7  0.0000E+00  6.2664E-03  2.9773E-03  0.0000E+00  0.0000E+00  2.6236E-02  6.9176E-03  9.7844E-03  0.0000E+00
  8  0.0000E+00  1.2050E-02  0.0000E+00  0.0000E+00  0.0000E+00  0.0000E+00  0.0000E+00  0.0000E+00  6.7368E-03
  9  0.0000E+00  9.1904E-03  2.8314E-02  0.0000E+00  0.0000E+00  0.0000E+00  1.9666E-02  0.0000E+00  0.0000E+00
 10  0.0000E+00  2.1387E-02  0.0000E+00  6.6287E-02  0.0000E+00  0.0000E+00  0.0000E+00  7.6276E-02  0.0000E+00
 11  0.0000E+00  1.3106E-01  1.1462E-01  9.2640E-02  3.1631E-01  0.0000E+00  0.0000E+00  1.3328E-01  8.0441E-02
 12  0.0000E+00  1.1872E-01  1.6915E-01  0.0000E+00  3.2563E-02  0.0000E+00  0.0000E+00  1.0194E-01  1.1559E-01
 13  5.6937E-01  2.3100E+00  1.5029E+00  2.0697E+00  1.5384E+00  1.5967E+00  2.8840E+00  2.7804E+00  2.0528E-01
 14  0.0000E+00  1.4903E+00  1.2568E+00  1.1613E+00  0.0000E+00  3.0438E+00  1.8554E+00  2.3959E+00  0.0000E+00
 15  4.1104E+00  6.4238E+00  1.0340E+01  6.6268E+00  1.3779E+01  5.8436E+00  8.5996E+00  6.9567E+00  3.2520E+00
 16  1.1042E+00  1.5345E+00  0.0000E+00  1.8504E+00  0.0000E+00  2.9921E+00  1.8121E+00  7.8110E-02  2.4632E+00
 17  2.1805E+01  1.3476E+01  1.3735E+01  1.6860E+01  1.5608E+01  1.2465E+01  1.4017E+01  2.0289E+01  1.2855E+01
 18  0.0000E+00  3.0125E-03  0.0000E+00  0.0000E+00  0.0000E+00  1.1120E-02  3.7151E-03  0.0000E+00  0.0000E+00
 19  0.0000E+00  1.7065E-03  0.0000E+00  0.0000E+00  0.0000E+00  0.0000E+00  1.2497E-03  1.3760E-03  3.2582E-03
 20  7.8140E-05  1.0887E-03  0.0000E+00  1.0975E-03  0.0000E+00  4.2210E-03  8.0582E-03  0.0000E+00  0.0000E+00
 21  0.0000E+00  5.4793E-03  5.0117E-03  1.9809E-03  0.0000E+00  0.0000E+00  0.0000E+00  1.4357E-02  1.4066E-03
 22  0.0000E+00  3.1990E-03  2.4120E-02  0.0000E+00  3.3907E-03  5.7344E-03  0.0000E+00  0.0000E+00  0.0000E+00
 23  0.0000E+00  5.9131E-03  3.6488E-03  1.0717E-03  0.0000E+00  0.0000E+00  0.0000E+00  0.0000E+00  5.2494E-03
 24  0.0000E+00  1.1046E-02  2.6519E-02  0.0000E+00  3.9773E-03  0.0000E+00  4.3787E-03  0.0000E+00  0.0000E+00
 25  0.0000E+00  3.5381E-02  2.6992E-02  3.4092E-02  5.6823E-02  4.4628E-02  3.1833E-02  5.0688E-02  1.7068E-02
 26  0.0000E+00  2.3272E-02  1.3272E-02  0.0000E+00  0.0000E+00  2.7967E-02  0.0000E+00  0.0000E+00  0.0000E+00
 27  0.0000E+00  7.3377E-02  6.2765E-02  1.5134E-01  5.3081E-03  6.3955E-02  1.1560E-02  0.0000E+00  2.6602E-01
 28  4.0377E+00  2.6723E+00  2.6785E+00  3.5661E+00  2.9536E+00  3.3607E+00  3.9701E+00  4.4036E+00  2.8655E+00
 29  5.4556E+00  8.0406E+00  8.2327E+00  6.3495E+00  9.6291E+00  8.0704E+00  9.4292E+00  7.5778E+00  8.5836E+00
 30  0.0000E+00  6.0923E+00  4.7537E+00  5.5349E+00  0.0000E+00  6.7814E+00  5.8277E+00  4.5044E+00  3.4702E+00
 31  0.0000E+00  6.6233E+00  5.4947E+00  5.2937E+00  8.4433E+00  5.8078E+00  0.0000E+00  7.0672E+00  6.0444E+00
 32  9.0393E+00  9.7940E+00  1.1121E+01  8.7087E+00  1.0653E+01  1.0735E+01  6.9698E+00  7.5127E+00  9.2268E+00
 33  0.0000E+00  3.6937E+00  4.1306E+00  2.9901E+00  0.0000E+00  9.6548E+00  0.0000E+00  0.0000E+00  4.4689E+00
 34  2.7027E+01  1.3185E+01  8.9068E+00  1.5044E+01  1.3419E+01  1.3942E+01  1.6967E+01  1.4271E+01  1.1581E+01
 35  1.4848E-02  5.1772E-03  0.0000E+00  3.0056E-03  1.1164E-03  9.3099E-03  1.0689E-02  0.0000E+00  0.0000E+00
 36  0.0000E+00  6.7713E-04  1.3862E-04  5.7838E-04  3.7745E-03  0.0000E+00  0.0000E+00  9.3570E-04  1.3597E-03
 37  0.0000E+00  2.8589E-03  0.0000E+00  3.0447E-03  4.5858E-03  0.0000E+00  3.6012E-04  3.7805E-03  0.0000E+00
 38  0.0000E+00  7.8508E-03  1.8211E-02  1.6508E-03  2.0020E-02  7.2554E-04  0.0000E+00  4.2817E-02  0.0000E+00
 39  1.3265E-02  1.1874E-02  0.0000E+00  0.0000E+00  0.0000E+00  0.0000E+00  1.1461E-02  0.0000E+00  2.2794E-02
 40  0.0000E+00  1.6510E-02  2.1578E-02  0.0000E+00  5.1369E-03  0.0000E+00  0.0000E+00  4.7191E-02  0.0000E+00
 41  0.0000E+00  6.0894E-02  1.0186E-01  0.0000E+00  6.3624E-02  0.0000E+00  1.5514E-01  0.0000E+00  6.2020E-02
 42  0.0000E+00  3.1145E-02  1.9961E-02  0.0000E+00  1.3985E-03  0.0000E+00  0.0000E+00  1.0877E-02  1.1852E-02
 43  1.5702E-04  8.0189E-02  0.0000E+00  1.8301E-01  0.0000E+00  0.0000E+00  6.5262E-02  0.0000E+00  3.4034E-02
 44  0.0000E+00  8.9367E-02  1.8583E-01  1.8776E-01  3.7830E-01  0.0000E+00  0.0000E+00  0.0000E+00  7.8647E-02
 45  5.4576E-01  8.3814E-01  6.2864E-01  8.4464E-01  6.7991E-01  7.3501E-01  3.5666E-01  1.0894E+00  0.0000E+00
 46  3.4435E-01  1.4699E+00  1.0985E+00  1.5723E+00  6.6155E-01  7.2219E-01  2.5626E+00  0.0000E+00  3.0200E+00
 47  0.0000E+00  1.7588E+00  2.2804E-01  0.0000E+00  0.0000E+00  0.0000E+00  1.2930E+00  4.3155E-01  1.9453E+00
 48  0.0000E+00  3.0684E+00  1.9946E+00  2.4071E+00  3.6238E+00  3.5979E+00  2.5672E-01  0.0000E+00  3.6617E+00
 49  7.2001E+00  1.3460E+00  8.2022E+00  0.0000E+00  1.0125E+00  0.0000E+00  4.4073E+00  6.8861E+00  0.0000E+00
 50  0.0000E+00  1.3572E+00  0.0000E+00  6.6161E+00  0.0000E+00  0.0000E+00  0.0000E+00  3.7565E+00  1.0644E+01
 51  0.0000E+00  3.2270E-03  4.0419E-03  2.6731E-03  8.8693E-03  4.3117E-03  1.9662E-04  0.0000E+00  1.0771E-02
 52  0.0000E+00  1.1823E-03  0.0000E+00  0.0000E+00  3.9884E-03  3.8008E-04  0.0000E+00  0.0000E+00  3.9716E-03
 53  1.0982E-02  1.0657E-02  1.8258E-02  1.0358E-02  2.1526E-02  1.8013E-02  1.4185E-02  7.2296E-03  9.4982E-03
 54  1.4250E-01  1.0500E-01  1.1459E-01  1.3439E-01  1.1488E-01  1.0988E-01  1.1407E-01  9.7201E-02  1.2305E-01
 55  0.0000E+00  1.4734E-02  1.1024E-02  1.9996E-02  0.0000E+00  1.8813E-02  0.0000E+00  1.1881E-02  1.0251E-02
 56  0.0000E+00  1.7903E-02  0.0000E+00  6.0122E-03  0.0000E+00  1.4477E-02  2.0178E-02  0.0000E+00  1.2706E-02
 57  0.0000E+00  2.1313E-02  3.4867E-03  6.3481E-02  2.6261E-02  4.7543E-02  0.0000E+00  0.0000E+00  0.0000E+00
 58  0.0000E+00  1.8510E-02  4.7721E-02  0.0000E+00  0.0000E+00  0.0000E+00  4.3499E-02  0.0000E+00  9.6049E-03
 59  1.4291E-01  1.2915E-01  2.5413E-01  3.0814E-01  3.0898E-01  2.0588E-01  1.0031E-01  1.8525E-01  2.5246E-01
 60  2.0294E+00  4.1945E-01  2.0002E-01  0.0000E+00  0.0000E+00  1.3074E+00  2.9401E-01  1.8334E-01  1.0637E+00
 61  0.0000E+00  1.4256E+00  2.5403E+00  2.0405E+00  2.2583E+00  1.8976E+00  0.0000E+00  1.2392E-01  1.2550E+00
 62  1.4383E+00  1.5912E+00  1.4990E+00  1.5452E+00  3.3966E+00  1.5743E+00  9.9899E-01  2.7191E-01  3.5245E+00
 63  0.0000E+00  7.2036E-01  0.0000E+00  0.0000E+00  2.2162E+00  7.4255E-01  0.0000E+00  0.0000E+00  0.0000E+00
 64  1.4968E+01  8.2313E+00  1.0169E+01  7.6254E+00  8.7435E+00  4.4846E+00  1.3686E+01  8.6173E+00  8.3562E+00
 65  0.0000E+00  6.5936E-01  0.0000E+00  0.0000E+00  0.0000E+00  0.0000E+00  3.1726E+00  0.0000E+00  3.5973E-01
 66  0.0000E+00  6.6573E-01  0.0000E+00  0.0000E+00  0.0000E+00  0.0000E+00  0.0000E+00  0.0000E+00  0.0000E+00

# AV, chi2 & Mass for <> & i_chain = 1 ...  7 solutions
AV       0.5769      0.6537      0.6571      0.6547      0.6565      0.6470      0.6163      0.6321      0.6555
chi2 5.0659E-01  5.1389E-01  5.1304E-01  5.1269E-01  5.1227E-01  5.1271E-01  5.1193E-01  5.1238E-01  5.1242E-01
Mass 1.2140E-12  9.7462E-13  9.8790E-13  1.0330E-12  9.7302E-13  9.6691E-13  9.7543E-13  1.0198E-12  1.0328E-12
 -14.85                                  [v0_min (km/s) before EX0s...]
 186.08                                  [vd_min (km/s) before EX0s...]


## Synthetic spectrum (Best Model) ##l_obs f_obs f_syn wei
 3478    [Nl_obs]
 3741.00    1.00640   0.68327    0.000
 3742.00    1.01356   0.68096    0.000
 3743.00    0.97100   0.66673    0.000
 3744.00    0.89506   0.64371    0.000
 3745.00    0.80442   0.61503    3.737
 3746.00    0.71377   0.58399    3.758
 3747.00    0.62622   0.55529    3.804
 3748.00    0.53663   0.53502    3.912
 3749.00    0.45219   0.52884    4.015
 3750.00    0.39184   0.53980    3.970
 3751.00    0.36178   0.56676    3.827
 3752.00    0.35260   0.60410    3.785
 3753.00    0.35499   0.64327    3.933
 3754.00    0.36497   0.67586    4.235
 3755.00    0.38456   0.69669    4.490
 3756.00    0.42166   0.70545    4.424
 3757.00    0.48906   0.70592    4.198
 3758.00    0.59156   0.70345    4.180
 3759.00    0.69731   0.70232    4.393
 3760.00    0.75298   0.70391    4.599
 3761.00    0.73223   0.70681    4.626
 3762.00    0.64498   0.70824    4.527
 3763.00    0.53291   0.70532    4.520
 3764.00    0.44929   0.69636    4.783
 3765.00    0.42288   0.68132    5.147
 3766.00    0.45631   0.66143    5.185
 3767.00    0.53631   0.63926    4.993
 3768.00    0.64068   0.61910    4.939
 3769.00    0.74701   0.60592    4.969
 3770.00    0.83551   0.60345    4.870
 3771.00    0.89136   0.61297    4.749
 3772.00    0.90926   0.63303    4.812
 3773.00    0.89897   0.65999    5.048
 3774.00    0.87780   0.68969    5.266
 3775.00    0.85920   0.71902    5.225
 3776.00    0.84965   0.74663    4.941
 3777.00    0.84713   0.77223    4.834
 3778.00    0.84790   0.79549    5.167
 3779.00    0.85384   0.81576    5.574
 3780.00    0.86288   0.83202    5.419
 3781.00    0.85943   0.84305    4.915
 3782.00    0.83360   0.84745    4.567
 3783.00    0.80033   0.84434    4.544
 3784.00    0.78368   0.83398    4.774
 3785.00    0.79907   0.81785    4.845
 3786.00    0.84163   0.79851    4.560
 3787.00    0.88075   0.77899    4.428
 3788.00    0.89083   0.76146    4.746
 3789.00    0.87500   0.74605    5.159
 3790.00    0.84829   0.73091    5.129
 3791.00    0.82292   0.71320    4.822
 3792.00    0.80452   0.69047    4.643
 3793.00    0.79094   0.66187    4.780
 3794.00    0.77707   0.62890    5.168
 3795.00    0.75934   0.59574    5.342
 3796.00    0.74250   0.56865    5.136
 3797.00    0.74018   0.55404    5.147
 3798.00    0.75441   0.55637    5.637
 3799.00    0.76752   0.57643    6.048
 3800.00    0.76297   0.61065    5.763
 3801.00    0.73665   0.65207    5.146
 3802.00    0.69499   0.69293    4.746
 3803.00    0.65245   0.72738    4.815
 3804.00    0.62532   0.75321    5.232
 3805.00    0.62517   0.77185    5.350
 3806.00    0.64436   0.78669    5.015
 3807.00    0.65838   0.80076    4.899
 3808.00    0.65957   0.81475    5.246
 3809.00    0.66236   0.82656    5.778
 3810.00    0.67156   0.83282    6.065
 3811.00    0.67530   0.83129    5.912
 3812.00    0.66231   0.82243    5.552
 3813.00    0.62858   0.80929    5.338
 3814.00    0.57847   0.79571    5.351
 3815.00    0.52629   0.78404    5.478
 3816.00    0.49969   0.77436    5.606
 3817.00    0.52893   0.76557    5.675
 3818.00    0.61541   0.75687    5.722
 3819.00    0.73108   0.74868    5.817
 3820.00    0.83979   0.74199    5.857
 3821.00    0.91142   0.73699    5.679
 3822.00    0.94110   0.73230    5.468
 3823.00    0.94090   0.72577    5.524
 3824.00    0.91214   0.71609    5.810
 3825.00    0.85367   0.70361    6.029
 3826.00    0.79104   0.68951    6.058
 3827.00    0.75665   0.67436    6.014
 3828.00    0.74182   0.65729    5.968
 3829.00    0.71865   0.63666    5.900
 3830.00    0.69429   0.61121    5.737
 3831.00    0.68859   0.58143    5.481
 3832.00    0.68257   0.55024    5.331
 3833.00    0.64617   0.52235    5.445
 3834.00    0.59264   0.50269    5.651
 3835.00    0.55563   0.49485    5.653
 3836.00    0.54493   0.50000    5.522
 3837.00    0.55677   0.51706    5.486
 3838.00    0.59547   0.54375    5.552
 3839.00    0.66488   0.57727    5.607
 3840.00    0.75420   0.61485    5.580
 3841.00    0.83930   0.65363    5.500
 3842.00    0.88776   0.69074    5.493
 3843.00    0.88012   0.72367    5.651
 3844.00    0.83054   0.75081    5.900
 3845.00    0.76844   0.77160    6.026
 3846.00    0.71745   0.78656    5.818
 3847.00    0.69388   0.79686    0.000
 3848.00    0.70654   0.80400    0.000
 3849.00    0.75199   0.80958    0.000
 3850.00    0.81249   0.81474    0.000
 3851.00    0.87487   0.81953    0.000
 3852.00    0.94345   0.82299    0.000
 3853.00    1.01723   0.82385    0.000
 3854.00    1.07466   0.82150    0.000
 3855.00    1.09619   0.81651    0.000
 3856.00    1.08008   0.81047    0.000
 3857.00    1.03487   0.80538    0.000
 3858.00    0.97305   0.80314    0.000
 3859.00    0.90747   0.80514    0.000
 3860.00    0.84830   0.81162    0.000
 3861.00    0.79761   0.82130    0.000
 3862.00    0.74933   0.83169    0.000
 3863.00    0.70562   0.84023    0.000
 3864.00    0.68124   0.84548    0.000
 3865.00    0.68169   0.84729    0.000
 3866.00    0.69594   0.84618    0.000
 3867.00    0.71472   0.84242    0.000
 3868.00    0.73549   0.83585    0.000
 3869.00    0.74632   0.82656    0.000
 3870.00    0.72566   0.81567    0.000
 3871.00    0.66951   0.80541    0.000
 3872.00    0.59796   0.79795    0.000
 3873.00    0.53834   0.79386    0.000
 3874.00    0.51476   0.79153    0.000
 3875.00    0.53545   0.78823    0.000
 3876.00    0.59167   0.78197    0.000
 3877.00    0.66829   0.77277    0.000
 3878.00    0.74622   0.76205    0.000
 3879.00    0.79924   0.75109    0.000
 3880.00    0.80249   0.73977    0.000
 3881.00    0.75777   0.72664    6.765
 3882.00    0.69069   0.70970    7.147
 3883.00    0.62515   0.68732    6.861
 3884.00    0.57532   0.65922    6.314
 3885.00    0.54318   0.62726    5.998
 3886.00    0.52415   0.59582    6.118
 3887.00    0.52054   0.57102    6.448
 3888.00    0.53984   0.55878    6.467
 3889.00    0.58478   0.56249    6.172
 3890.00    0.64979   0.58147    5.968
 3891.00    0.71855   0.61124    6.002
 3892.00    0.77326   0.64559    6.215
 3893.00    0.81135   0.67893    6.416
 3894.00    0.83790   0.70808    6.379
 3895.00    0.84847   0.73218    6.120
 3896.00    0.83539   0.75184    5.881
 3897.00    0.80164   0.76820    5.991
 3898.00    0.75931   0.78233    6.655
 3899.00    0.72374   0.79495    7.421
 3900.00    0.70647   0.80616    7.376
 3901.00    0.70720   0.81546    6.982
 3902.00    0.71779   0.82236    7.118
 3903.00    0.72887   0.82721    7.849
 3904.00    0.73358   0.83161    8.793
 3905.00    0.73070   0.83789    9.378
 3906.00    0.72299   0.84790    9.289
 3907.00    0.71465   0.86182    8.961
 3908.00    0.70973   0.87789    8.801
 3909.00    0.71070   0.89325    8.621
 3910.00    0.71854   0.90520    8.147
 3911.00    0.73257   0.91220    7.470
 3912.00    0.74699   0.91405    6.868
 3913.00    0.74886   0.91148    6.590
 3914.00    0.72718   0.90545    6.634
 3915.00    0.68077   0.89670    6.663
 3916.00    0.61990   0.88580    6.446
 3917.00    0.56507   0.87350    6.193
 3918.00    0.53182   0.86109    6.138
 3919.00    0.52077   0.85029    6.341
 3920.00    0.52427   0.84251    6.660
 3921.00    0.53192   0.83792    6.697
 3922.00    0.53499   0.83497    6.353
 3923.00    0.52914   0.83071    6.062
 3924.00    0.51535   0.82193    6.072
 3925.00    0.49977   0.80630    6.290
 3926.00    0.49016   0.78294    6.469
 3927.00    0.49290   0.75233    6.332
 3928.00    0.50798   0.71578    5.970
 3929.00    0.52770   0.67537    5.783
 3930.00    0.54264   0.63406    5.928
 3931.00    0.54759   0.59623    6.282
 3932.00    0.55490   0.56745    6.552
 3933.00    0.58894   0.55321    6.398
 3934.00    0.64300   0.55706    5.923
 3935.00    0.67768   0.57885    5.557
 3936.00    0.67945   0.61458    5.531
 3937.00    0.67298   0.65763    5.898
 3938.00    0.68625   0.70095    6.340
 3939.00    0.73274   0.73893    6.159
 3940.00    0.79555   0.76857    5.695
 3941.00    0.83691   0.78970    5.847
 3942.00    0.84031   0.80440    6.648
 3943.00    0.81543   0.81575    7.075
 3944.00    0.77594   0.82632    6.621
 3945.00    0.73364   0.83715    6.097
 3946.00    0.69995   0.84780    5.912
 3947.00    0.68304   0.85722    6.041
 3948.00    0.68032   0.86471    6.309
 3949.00    0.68217   0.87012    6.431
 3950.00    0.68390   0.87362    6.278
 3951.00    0.68651   0.87531    6.002
 3952.00    0.69239   0.87507    5.917
 3953.00    0.70551   0.87266    6.236
 3954.00    0.73313   0.86788    6.664
 3955.00    0.77814   0.86069    6.564
 3956.00    0.82551   0.85104    6.133
 3957.00    0.85302   0.83846    5.941
 3958.00    0.85269   0.82180    6.038
 3959.00    0.82728   0.79960    6.228
 3960.00    0.77982   0.77094    0.000
 3961.00    0.71778   0.73604    0.000
 3962.00    0.66070   0.69593    0.000
 3963.00    0.62575   0.65173    0.000
 3964.00    0.60786   0.60442    0.000
 3965.00    0.59277   0.55547    0.000
 3966.00    0.57638   0.50795    0.000
 3967.00    0.56204   0.46694    0.000
 3968.00    0.55464   0.43865    0.000
 3969.00    0.55897   0.42837    0.000
 3970.00    0.57881   0.43850    0.000
 3971.00    0.61815   0.46762    0.000
 3972.00    0.68168   0.51111    0.000
 3973.00    0.76666   0.56286    0.000
 3974.00    0.85708   0.61708    0.000
 3975.00    0.94267   0.66947    0.000
 3976.00    1.03262   0.71741    0.000
 3977.00    1.12553   0.75950    0.000
 3978.00    1.18839   0.79494    0.000
 3979.00    1.19492   0.82331    0.000
 3980.00    1.15338   0.84486    0.000
 3981.00    1.08491   0.86080    6.095
 3982.00    1.00680   0.87325    6.036
 3983.00    0.93436   0.88452    5.670
 3984.00    0.88173   0.89623    5.517
 3985.00    0.85502   0.90880    5.785
 3986.00    0.85021   0.92167    6.096
 3987.00    0.86554   0.93388    6.141
 3988.00    0.90477   0.94473    6.204
 3989.00    0.95591   0.95396    6.451
 3990.00    0.98794   0.96150    6.571
 3991.00    0.99235   0.96713    6.425
 3992.00    0.99513   0.97027    6.345
 3993.00    1.01473   0.97049    6.520
 3994.00    1.04495   0.96812    6.815
 3995.00    1.06857   0.96469    6.906
 3996.00    1.06892   0.96258    6.550
 3997.00    1.05045   0.96393    6.139
 3998.00    1.03689   0.96945    6.292
 3999.00    1.03494   0.97781    6.986
 4000.00    1.02807   0.98611    7.311
 4001.00    1.00300   0.99113    6.946
 4002.00    0.96023   0.99084    6.709
 4003.00    0.91655   0.98553    6.730
 4004.00    0.89559   0.97776    6.544
 4005.00    0.89831   0.97128    6.291
 4006.00    0.90583   0.96920    6.506
 4007.00    0.91152   0.97260    7.041
 4008.00    0.92430   0.98042    7.018
 4009.00    0.95342   0.99038    6.467
 4010.00    1.00000   1.00034    6.184
 4011.00    1.04725   1.00907    6.362
 4012.00    1.07003   1.01622    6.810
 4013.00    1.06063   1.02195    7.200
 4014.00    1.02766   1.02658    7.162
 4015.00    0.98173   1.03043    6.679
 4016.00    0.93732   1.03376    6.150
 4017.00    0.92141   1.03664    6.118
 4018.00    0.95418   1.03872    7.092
 4019.00    1.01333   1.03918    9.246
 4020.00    1.05956   1.03708   10.994
 4021.00    1.08834   1.03207    9.627
 4022.00    1.11241   1.02487    7.169
 4023.00    1.12278   1.01730    6.204
 4024.00    1.11029   1.01139    7.096
 4025.00    1.10308   1.00824    8.946
 4026.00    1.13296   1.00705    8.358
 4027.00    1.18515   1.00544    6.626
 4028.00    1.22554   1.00078    5.969
 4029.00    1.24218   0.99208    6.181
 4030.00    1.23207   0.98102    6.965
 4031.00    1.18168   0.97136    8.431
 4032.00    1.08888   0.96728   10.380
 4033.00    0.98651   0.97145   10.113
 4034.00    0.91313   0.98394    7.607
 4035.00    0.88137   1.00223    6.388
 4036.00    0.88309   1.02209    6.885
 4037.00    0.89860   1.03899    8.103
 4038.00    0.91223   1.04948    8.141
 4039.00    0.92366   1.05198    7.271
 4040.00    0.93342   1.04666    6.685
 4041.00    0.93234   1.03478    6.542
 4042.00    0.91947   1.01838    6.697
 4043.00    0.91255   1.00043    6.928
 4044.00    0.92001   0.98498    7.030
 4045.00    0.92536   0.97632    6.961
 4046.00    0.92160   0.97715    6.799
 4047.00    0.92903   0.98694    6.664
 4048.00    0.95771   1.00189    6.644
 4049.00    0.98913   1.01669    6.768
 4050.00    1.01027   1.02684    6.918
 4051.00    1.02947   1.03023    6.827
 4052.00    1.05181   1.02730    6.538
 4053.00    1.06825   1.02020    6.450
 4054.00    1.07036   1.01169    6.698
 4055.00    1.05693   1.00413    7.023
 4056.00    1.02868   0.99894    7.152
 4057.00    0.98695   0.99633    7.078
 4058.00    0.93937   0.99527    6.898
 4059.00    0.89954   0.99390    6.707
 4060.00    0.87639   0.99033    6.628
 4061.00    0.86974   0.98393    6.783
 4062.00    0.87089   0.97603    7.077
 4063.00    0.86694   0.96936    7.173
 4064.00    0.85470   0.96658    6.989
 4065.00    0.84191   0.96858    6.807
 4066.00    0.83605   0.97406    6.832
 4067.00    0.84041   0.98030    7.103
 4068.00    0.85394   0.98455    7.478
 4069.00    0.87277   0.98525    7.629
 4070.00    0.89445   0.98242    7.415
 4071.00    0.91837   0.97714    7.020
 4072.00    0.94372   0.97047    6.721
 4073.00    0.96956   0.96272    6.695
 4074.00    0.99605   0.95380    6.874
 4075.00    1.02316   0.94442    7.040
 4076.00    1.04709   0.93693    7.138
 4077.00    1.06033   0.93443    7.247
 4078.00    1.05370   0.93895    7.282
 4079.00    1.02339   0.94963    7.119
 4080.00    0.98302   0.96292    6.951
 4081.00    0.95514   0.97446    7.040
 4082.00    0.95198   0.98150    7.290
 4083.00    0.97234   0.98410    7.379
 4084.00    1.00265   0.98451    7.213
 4085.00    1.02554   0.98539    6.975
 4086.00    1.03258   0.98798    6.931
 4087.00    1.02685   0.99150    7.223
 4088.00    1.02289   0.99379    7.607
 4089.00    1.03453   0.99253    7.650
 4090.00    1.05925   0.98627    7.375
 4091.00    1.08433   0.97460    7.093
 4092.00    1.09763   0.95768    0.000
 4093.00    1.09372   0.93583    0.000
 4094.00    1.07874   0.90925    0.000
 4095.00    1.06150   0.87822    0.000
 4096.00    1.04353   0.84329    0.000
 4097.00    1.02312   0.80559    0.000
 4098.00    1.00044   0.76710    0.000
 4099.00    0.97786   0.73125    0.000
 4100.00    0.95962   0.70294    0.000
 4101.00    0.95125   0.68749    0.000
 4102.00    0.95825   0.68857    0.000
 4103.00    0.97966   0.70626    0.000
 4104.00    1.00385   0.73665    0.000
 4105.00    1.01682   0.77325    0.000
 4106.00    1.00958   0.80947    0.000
 4107.00    0.98370   0.84083    0.000
 4108.00    0.95277   0.86585    0.000
 4109.00    0.92792   0.88556    0.000
 4110.00    0.90999   0.90224    0.000
 4111.00    0.90151   0.91798    0.000
 4112.00    0.91218   0.93364    0.000
 4113.00    0.94498   0.94865    7.380
 4114.00    0.98933   0.96141    7.391
 4115.00    1.02927   0.97020    7.528
 4116.00    1.05000   0.97413    7.702
 4117.00    1.04781   0.97373    7.725
 4118.00    1.03289   0.97090    7.449
 4119.00    1.01996   0.96817    7.139
 4120.00    1.02151   0.96773    7.293
 4121.00    1.03846   0.97058    7.917
 4122.00    1.06006   0.97621    8.266
 4123.00    1.07950   0.98291    7.954
 4124.00    1.09764   0.98847    7.567
 4125.00    1.11334   0.99100    7.361
 4126.00    1.12121   0.98958    7.168
 4127.00    1.11701   0.98452    7.071
 4128.00    1.09827   0.97706    7.365
 4129.00    1.06067   0.96895    7.913
 4130.00    1.00379   0.96207    8.025
 4131.00    0.95113   0.95831    7.665
 4132.00    0.94124   0.95931    7.503
 4133.00    0.98738   0.96602    7.711
 4134.00    1.07258   0.97803    8.011
 4135.00    1.16681   0.99341    8.149
 4136.00    1.23963   1.00903    8.058
 4137.00    1.27859   1.02144    7.809
 4138.00    1.28615   1.02768    7.536
 4139.00    1.26315   1.02601    7.338
 4140.00    1.21182   1.01658    7.279
 4141.00    1.14923   1.00187    7.387
 4142.00    1.09877   0.98633    7.643
 4143.00    1.06873   0.97497    7.923
 4144.00    1.05577   0.97116    8.002
 4145.00    1.05820   0.97512    7.726
 4146.00    1.07215   0.98397    7.231
 4147.00    1.08173   0.99352    6.970
 4148.00    1.07157   1.00039    7.266
 4149.00    1.04793   1.00320    7.920
 4150.00    1.03023   1.00241    8.316
 4151.00    1.03356   0.99937    8.169
 4152.00    1.05930   0.99557    7.733
 4153.00    1.08725   0.99238    7.353
 4154.00    1.09555   0.99100    7.233
 4155.00    1.08577   0.99242    7.430
 4156.00    1.06885   0.99710    7.888
 4157.00    1.04619   1.00467    8.329
 4158.00    1.02068   1.01407    8.478
 4159.00    1.00905   1.02379    8.525
 4160.00    1.01840   1.03244    8.675
 4161.00    1.02436   1.03904    8.608
 4162.00    1.00444   1.04300    8.147
 4163.00    0.96943   1.04415    7.787
 4164.00    0.94291   1.04257    7.837
 4165.00    0.94020   1.03865    8.040
 4166.00    0.96452   1.03288    8.049
 4167.00    1.00575   1.02561    7.877
 4168.00    1.04566   1.01678    7.731
 4169.00    1.06389   1.00613    7.801
 4170.00    1.05200   0.99379    8.134
 4171.00    1.02106   0.98088    8.530
 4172.00    0.98644   0.96949    8.673
 4173.00    0.95722   0.96173    8.389
 4174.00    0.93636   0.95874    7.903
 4175.00    0.92264   0.96018    7.655
 4176.00    0.91913   0.96473    7.775
 4177.00    0.93581   0.97092    8.010
 4178.00    0.97786   0.97773    8.109
 4179.00    1.03947   0.98453    8.070
 4180.00    1.10616   0.99080    8.002
 4181.00    1.15908   0.99610    8.005
 4182.00    1.18861   1.00009    8.077
 4183.00    1.19744   1.00255    8.110
 4184.00    1.18667   1.00349    8.054
 4185.00    1.15200   1.00321    7.985
 4186.00    1.09336   1.00251    8.038
 4187.00    1.01967   1.00267    8.321
 4188.00    0.95133   1.00491    8.571
 4189.00    0.91382   1.00968    8.250
 4190.00    0.91309   1.01625    7.680
 4191.00    0.93359   1.02275    7.653
 4192.00    0.95946   1.02686    8.274
 4193.00    0.98110   1.02654    8.965
 4194.00    0.99349   1.02079    9.138
 4195.00    0.99526   1.01021    8.776
 4196.00    0.98777   0.99694    8.185
 4197.00    0.97480   0.98390    7.678
 4198.00    0.96270   0.97369    7.487
 4199.00    0.95961   0.96790    7.739
 4200.00    0.97363   0.96693    8.238
 4201.00    1.00785   0.97034    8.511
 4202.00    1.05057   0.97728    8.561
 4203.00    1.08201   0.98684    8.771
 4204.00    1.09215   0.99814    8.953
 4205.00    1.08225   1.01008    8.666
 4206.00    1.06028   1.02140    8.342
 4207.00    1.03559   1.03096    8.587
 4208.00    1.01140   1.03797    9.051
 4209.00    0.98536   1.04201    8.874
 4210.00    0.95324   1.04304    8.329
 4211.00    0.91532   1.04120    8.125
 4212.00    0.88491   1.03679    8.240
 4213.00    0.87923   1.03076    8.338
 4214.00    0.90433   1.02492    8.328
 4215.00    0.95416   1.02156    8.315
 4216.00    1.01280   1.02235    8.399
 4217.00    1.06391   1.02717    8.584
 4218.00    1.10174   1.03368    8.695
 4219.00    1.12657   1.03804    8.591
 4220.00    1.13787   1.03635    8.453
 4221.00    1.13394   1.02606    8.504
 4222.00    1.11299   1.00699    8.745
 4223.00    1.07943   0.98181    9.024
 4224.00    1.04864   0.95569    9.109
 4225.00    1.03100   0.93493    8.893
 4226.00    1.01847   0.92501    8.559
 4227.00    1.00368   0.92849    8.325
 4228.00    0.99575   0.94366    8.293
 4229.00    1.00041   0.96505    8.514
 4230.00    1.00506   0.98580    9.047
 4231.00    0.99854   1.00055    9.806
 4232.00    0.98533   1.00720   10.325
 4233.00    0.97014   1.00686   10.245
 4234.00    0.94781   1.00281    9.908
 4235.00    0.91393   0.99861    9.680
 4236.00    0.87217   0.99672    9.572
 4237.00    0.83269   0.99834    9.538
 4238.00    0.80903   1.00360    9.618
 4239.00    0.80736   1.01177    9.856
 4240.00    0.82255   1.02169   10.229
 4241.00    0.85035   1.03193   10.554
 4242.00    0.89239   1.04064   10.476
 4243.00    0.94804   1.04598    9.915
 4244.00    1.00946   1.04665    9.200
 4245.00    1.05936   1.04217    8.657
 4246.00    1.07623   1.03328    8.455
 4247.00    1.06044   1.02199    8.519
 4248.00    1.03818   1.01077    8.567
 4249.00    1.03177   1.00172    8.425
 4250.00    1.04877   0.99606    8.150
 4251.00    1.08739   0.99403    7.861
 4252.00    1.13728   0.99493    7.676
 4253.00    1.17481   0.99767    7.738
 4254.00    1.17184   1.00124    8.212
 4255.00    1.12775   1.00464    9.068
 4256.00    1.06835   1.00677    9.896
 4257.00    1.01184   1.00693   10.164
 4258.00    0.96369   1.00572    9.713
 4259.00    0.93171   1.00497    8.874
 4260.00    0.92745   1.00702    8.082
 4261.00    0.95870   1.01350    7.548
 4262.00    1.02040   1.02411    7.342
 4263.00    1.07886   1.03627    7.490
 4264.00    1.09269   1.04598    7.962
 4265.00    1.06627   1.04956    8.451
 4266.00    1.03636   1.04501    8.474
 4267.00    1.02012   1.03252    8.220
 4268.00    1.01479   1.01418    8.244
 4269.00    1.01826   0.99312    8.627
 4270.00    1.03029   0.97288    9.130
 4271.00    1.04773   0.95699    9.613
 4272.00    1.06740   0.94825   10.032
 4273.00    1.09197   0.94805   10.164
 4274.00    1.12572   0.95603    9.816
 4275.00    1.16649   0.97019    9.224
 4276.00    1.20727   0.98712    8.724
 4277.00    1.24029   1.00282    8.412
 4278.00    1.25960   1.01428    8.246
 4279.00    1.26371   1.02025    8.137
 4280.00    1.25479   1.02093    8.087
 4281.00    1.23695   1.01771    8.315
 4282.00    1.21183   1.01233    8.929
 4283.00    1.17435   1.00591   -2.000
 4284.00    1.12069   0.99861   -2.000
 4285.00    1.05727   0.98995   -2.000
 4286.00    0.99869   0.97972   -2.000
 4287.00    0.96361   0.96870   -2.000
 4288.00    0.96341   0.95866   -2.000
 4289.00    0.99230   0.95187   -2.000
 4290.00    1.03249   0.94994   -2.000
 4291.00    1.06084   0.95264   -2.000
 4292.00    1.05989   0.95787   -2.000
 4293.00    1.02686   0.96241   -2.000
 4294.00    0.97471   0.96286   -2.000
 4295.00    0.92955   0.95683   -2.000
 4296.00    0.90892   0.94397   -2.000
 4297.00    0.90756   0.92607   -2.000
 4298.00    0.90704   0.90626    8.669
 4299.00    0.88602   0.88768    8.844
 4300.00    0.84062   0.87289    8.926
 4301.00    0.79232   0.86332    8.897
 4302.00    0.76229   0.85877    8.790
 4303.00    0.75704   0.85770    8.690
 4304.00    0.77432   0.85787    8.701
 4305.00    0.80683   0.85739    8.919
 4306.00    0.84346   0.85628    9.256
 4307.00    0.87190   0.85606    9.384
 4308.00    0.88798   0.85875    9.211
 4309.00    0.89726   0.86623    9.033
 4310.00    0.90290   0.87949    8.939
 4311.00    0.90294   0.89821    8.767
 4312.00    0.90053   0.92134    8.686
 4313.00    0.90513   0.94732    9.169
 4314.00    0.92127   0.97448   10.170
 4315.00    0.94514   1.00100   10.666
 4316.00    0.96788   1.02448   10.190
 4317.00    0.97873   1.04202    9.582
 4318.00    0.97109   1.05108    9.269
 4319.00    0.94418   1.05009    9.139
 4320.00    0.90215   1.03899    9.070
 4321.00    0.85366   1.01985    9.020
 4322.00    0.81164   0.99628    9.022
 4323.00    0.78804   0.97249    9.140
 4324.00    0.78110   0.95308    9.384
 4325.00    0.78132   0.94198    9.667
 4326.00    0.79303   0.94090    9.771
 4327.00    0.82724   0.94883    9.506
 4328.00    0.87470   0.96213    9.082
 4329.00    0.91400   0.97581    8.841
 4330.00    0.94041   0.98516    0.000
 4331.00    0.96181   0.98700    0.000
 4332.00    0.97926   0.98020    0.000
 4333.00    0.98604   0.96464    0.000
 4334.00    0.97300   0.94007    0.000
 4335.00    0.93479   0.90642    0.000
 4336.00    0.87828   0.86524    0.000
 4337.00    0.82085   0.82095    0.000
 4338.00    0.78498   0.78009    0.000
 4339.00    0.78715   0.74985    0.000
 4340.00    0.82353   0.73610    0.000
 4341.00    0.87670   0.74133    0.000
 4342.00    0.92801   0.76346    0.000
 4343.00    0.96660   0.79729    0.000
 4344.00    0.99742   0.83639    0.000
 4345.00    1.02497   0.87431    0.000
 4346.00    1.03489   0.90625    0.000
 4347.00    1.01596   0.93015    0.000
 4348.00    0.98453   0.94555    0.000
 4349.00    0.96425   0.95324    0.000
 4350.00    0.96333   0.95583    0.000
 4351.00    0.97904   0.95705    8.739
 4352.00    1.00416   0.96038    9.048
 4353.00    1.02849   0.96814    9.324
 4354.00    1.04063   0.98088    9.420
 4355.00    1.03508   0.99705    9.305
 4356.00    1.01683   1.01346    9.107
 4357.00    0.99079   1.02758    8.929
 4358.00    0.95522   1.03919    8.752
 4359.00    0.91479   1.04943    8.618
 4360.00    0.88777   1.05929    8.703
 4361.00    0.88780   1.06921    9.045
 4362.00    0.91250   1.07873    9.374
 4363.00    0.95046   1.08625    9.505
 4364.00    0.98772   1.08989    9.634
 4365.00    1.01724   1.08889    9.793
 4366.00    1.04278   1.08404    9.601
 4367.00    1.07005   1.07678    9.024
 4368.00    1.10158   1.06851    8.540
 4369.00    1.13555   1.06041    8.420
 4370.00    1.16608   1.05324    8.662
 4371.00    1.18690   1.04691    9.177
 4372.00    1.19384   1.04109    9.772
 4373.00    1.18788   1.03636   10.115
 4374.00    1.17461   1.03414    9.902
 4375.00    1.15686   1.03545    9.354
 4376.00    1.13411   1.03990    8.995
 4377.00    1.11139   1.04538    8.939
 4378.00    1.09823   1.04823    8.966
 4379.00    1.09356   1.04439    8.964
 4380.00    1.08613   1.03177    9.008
 4381.00    1.07260   1.01189    9.163
 4382.00    1.05912   0.98942    9.423
 4383.00    1.04856   0.97019    9.735
 4384.00    1.03635   0.95872    9.990
 4385.00    1.01064   0.95730    9.985
 4386.00    0.96096   0.96566    9.579
 4387.00    0.89989   0.98069    8.988
 4388.00    0.85671   0.99755    8.570
 4389.00    0.84903   1.01244    8.544
 4390.00    0.87477   1.02435    8.983
 4391.00    0.91063   1.03403    9.604
 4392.00    0.92782   1.04218    9.832
 4393.00    0.92443   1.04933    9.724
 4394.00    0.91844   1.05591    9.769
 4395.00    0.92151   1.06171    9.853
 4396.00    0.93629   1.06619    9.592
 4397.00    0.96108   1.06897    9.262
 4398.00    0.99436   1.06945    9.299
 4399.00    1.04048   1.06661    9.513
 4400.00    1.10249   1.06013    9.462
 4401.00    1.17010   1.05127    9.274
 4402.00    1.22666   1.04205    9.307
 4403.00    1.26203   1.03419    9.532
 4404.00    1.27465   1.02888    9.700
 4405.00    1.27153   1.02672    9.670
 4406.00    1.26266   1.02889    9.457
 4407.00    1.25382   1.03675    9.183
 4408.00    1.24358   1.04934    9.009
 4409.00    1.22184   1.06311    9.104
 4410.00    1.18134   1.07473    9.519
 4411.00    1.12952   1.08226    9.996
 4412.00    1.07804   1.08433   10.185
 4413.00    1.03138   1.08085   10.092
 4414.00    0.99219   1.07430    9.904
 4415.00    0.96679   1.06845    9.681
 4416.00    0.95973   1.06636    9.478
 4417.00    0.96888   1.06980    9.425
 4418.00    0.98951   1.07812    9.543
 4419.00    1.01760   1.08786    9.616
 4420.00    1.04839   1.09547    9.522
 4421.00    1.07555   1.09935    9.473
 4422.00    1.09561   1.09952    9.643
 4423.00    1.11030   1.09741    9.945
 4424.00    1.12120   1.09499   10.196
 4425.00    1.12645   1.09359   10.260
 4426.00    1.12338   1.09304   10.098
 4427.00    1.11116   1.09225    9.790
 4428.00    1.09532   1.09066    9.483
 4429.00    1.08792   1.08822    9.323
 4430.00    1.09459   1.08481    9.316
 4431.00    1.10883   1.08032    9.321
 4432.00    1.11957   1.07541    9.279
 4433.00    1.11690   1.07201    9.289
 4434.00    1.10048   1.07154    9.414
 4435.00    1.08076   1.07441    9.592
 4436.00    1.06815   1.08071    9.684
 4437.00    1.06844   1.08943    9.551
 4438.00    1.08380   1.09792    9.271
 4439.00    1.11359   1.10291    9.080
 4440.00    1.15516   1.10268    9.004
 4441.00    1.20292   1.09847    8.891
 4442.00    1.24398   1.09354    8.775
 4443.00    1.26170   1.09134    8.862
 4444.00    1.25131   1.09392    9.161
 4445.00    1.22129   1.10091    9.449
 4446.00    1.18201   1.10996    9.584
 4447.00    1.14227   1.11772    9.607
 4448.00    1.10948   1.12133    9.546
 4449.00    1.08852   1.12005    9.390
 4450.00    1.07872   1.11480    9.196
 4451.00    1.07425   1.10600    9.062
 4452.00    1.06719   1.09413    9.060
 4453.00    1.05264   1.08087    9.215
 4454.00    1.03800   1.06773    9.499
 4455.00    1.03862   1.05582    9.836
 4456.00    1.06456   1.04653   10.141
 4457.00    1.11307   1.04112   10.352
 4458.00    1.16043   1.03979   10.461
 4459.00    1.17826   1.04123   10.463
 4460.00    1.16461   1.04437   10.239
 4461.00    1.13666   1.04934    0.000
 4462.00    1.10914   1.05609    0.000
 4463.00    1.09008   1.06344    0.000
 4464.00    1.08009   1.07026    0.000
 4465.00    1.07447   1.07551    0.000
 4466.00    1.06676   1.07781    0.000
 4467.00    1.05263   1.07773    0.000
 4468.00    1.03446   1.07776    0.000
 4469.00    1.02024   1.08005    0.000
 4470.00    1.02086   1.08588    0.000
 4471.00    1.04249   1.09581    0.000
 4472.00    1.07854   1.10931    0.000
 4473.00    1.11506   1.12417    0.000
 4474.00    1.13816   1.13751    0.000
 4475.00    1.14006   1.14664    0.000
 4476.00    1.12389   1.14943    0.000
 4477.00    1.09840   1.14551    0.000
 4478.00    1.07232   1.13673    0.000
 4479.00    1.05336   1.12574    0.000
 4480.00    1.04753   1.11531    0.000
 4481.00    1.05726   1.10869    0.000
 4482.00    1.08000   1.10857   10.506
 4483.00    1.10910   1.11519   10.147
 4484.00    1.13512   1.12587    9.838
 4485.00    1.15006   1.13604    9.778
 4486.00    1.15078   1.14159    9.758
 4487.00    1.14108   1.14140    9.613
 4488.00    1.13144   1.13707    9.466
 4489.00    1.12862   1.13098    9.455
 4490.00    1.13021   1.12544    9.597
 4491.00    1.13119   1.12218    9.877
 4492.00    1.12765   1.12157   10.268
 4493.00    1.11546   1.12265   10.615
 4494.00    1.09090   1.12436   10.616
 4495.00    1.05785   1.12669   10.290
 4496.00    1.02977   1.13065   10.041
 4497.00    1.02211   1.13735   10.018
 4498.00    1.04648   1.14637   10.020
 4499.00    1.10164   1.15648    9.905
 4500.00    1.17207   1.16674    9.730
 4501.00    1.23740   1.17654    9.632
 4502.00    1.27910   1.18577    9.732
 4503.00    1.29008   1.19447    9.979
 4504.00    1.27630   1.20227   10.159
 4505.00    1.25010   1.20763   10.220
 4506.00    1.22536   1.20907   10.322
 4507.00    1.21029   1.20718   10.501
 4508.00    1.20622   1.20347   10.605
 4509.00    1.21094   1.19894   10.517
 4510.00    1.22058   1.19401   10.260
 4511.00    1.23164   1.18852   10.000
 4512.00    1.24275   1.18215    9.921
 4513.00    1.25748   1.17509   10.027
 4514.00    1.28134   1.16845   10.182
 4515.00    1.31313   1.16354   10.294
 4516.00    1.34532   1.16081   10.362
 4517.00    1.36979   1.15993   10.450
 4518.00    1.38080   1.15985   10.616
 4519.00    1.37818   1.15904   10.775
 4520.00    1.36530   1.15662   10.772
 4521.00    1.34391   1.15195   10.612
 4522.00    1.31441   1.14414   10.400
 4523.00    1.27813   1.13292   10.146
 4524.00    1.23766   1.11917    9.876
 4525.00    1.19650   1.10492    9.810
 4526.00    1.15788   1.09177   10.076
 4527.00    1.12304   1.08035   10.257
 4528.00    1.09403   1.07178    9.874
 4529.00    1.07767   1.06701    9.347
 4530.00    1.07803   1.06610    9.199
 4531.00    1.08633   1.06860    9.305
 4532.00    1.09178   1.07372    9.339
 4533.00    1.09600   1.08079    9.301
 4534.00    1.10412   1.08965    9.319
 4535.00    1.11320   1.10028    9.337
 4536.00    1.12402   1.11293    9.270
 4537.00    1.15294   1.12687    9.192
 4538.00    1.20406   1.13974    9.160
 4539.00    1.24387   1.14873    9.055
 4540.00    1.24366   1.15248    8.867
 4541.00    1.21893   1.15227    8.894
 4542.00    1.19795   1.15016    9.278
 4543.00    1.19106   1.14733    9.612
 4544.00    1.19262   1.14373    9.500
 4545.00    1.18730   1.13858    9.234
 4546.00    1.17154   1.13195    9.147
 4547.00    1.16485   1.12519    9.191
 4548.00    1.17324   1.11914    9.266
 4549.00    1.16992   1.11370    9.420
 4550.00    1.14735   1.10918    0.000
 4551.00    1.14244   1.10675    0.000
 4552.00    1.17022   1.10737    0.000
 4553.00    1.19341   1.11031    0.000
 4554.00    1.19240   1.11502    0.000
 4555.00    1.19546   1.12244    0.000
 4556.00    1.21573   1.13304    0.000
 4557.00    1.22614   1.14572    0.000
 4558.00    1.21035   1.15822    0.000
 4559.00    1.18252   1.16770    0.000
 4560.00    1.15647   1.17250    0.000
 4561.00    1.13484   1.17308    0.000
 4562.00    1.12738   1.17100    0.000
 4563.00    1.15122   1.16792    0.000
 4564.00    1.20009   1.16529    0.000
 4565.00    1.24028   1.16445    0.000
 4566.00    1.24218   1.16634    0.000
 4567.00    1.19837   1.17033    0.000
 4568.00    1.14236   1.17445    0.000
 4569.00    1.13059   1.17693    0.000
 4570.00    1.16589   1.17733    0.000
 4571.00    1.19763   1.17659    0.000
 4572.00    1.19620   1.17587    0.000
 4573.00    1.16871   1.17609    0.000
 4574.00    1.13819   1.17742    0.000
 4575.00    1.12796   1.17782    0.000
 4576.00    1.13808   1.17491    0.000
 4577.00    1.15138   1.16880    0.000
 4578.00    1.16228   1.16072    0.000
 4579.00    1.17643   1.15157    0.000
 4580.00    1.19423   1.14250    0.000
 4581.00    1.20938   1.13522    0.000
 4582.00    1.21387   1.13129    0.000
 4583.00    1.20542   1.13109    0.000
 4584.00    1.19884   1.13372    0.000
 4585.00    1.20944   1.13808    0.000
 4586.00    1.22119   1.14351    0.000
 4587.00    1.21265   1.14907    0.000
 4588.00    1.20736   1.15359    0.000
 4589.00    1.23517   1.15613    0.000
 4590.00    1.26234   1.15605    0.000
 4591.00    1.23891   1.15358    0.000
 4592.00    1.17996   1.14994    0.000
 4593.00    1.12970   1.14677    0.000
 4594.00    1.09845   1.14521    0.000
 4595.00    1.07471   1.14523    0.000
 4596.00    1.05095   1.14607    0.000
 4597.00    1.03064   1.14732    0.000
 4598.00    1.03083   1.14883    0.000
 4599.00    1.06148   1.15023    0.000
 4600.00    1.10456   1.15138    0.000
 4601.00    1.13874   1.15252    0.000
 4602.00    1.16542   1.15452    0.000
 4603.00    1.19593   1.15850    0.000
 4604.00    1.23570   1.16445    0.000
 4605.00    1.27123   1.17165    0.000
 4606.00    1.26604   1.17954    0.000
 4607.00    1.21507   1.18760    0.000
 4608.00    1.17935   1.19519    0.000
 4609.00    1.20018   1.20127    0.000
 4610.00    1.24066   1.20473    0.000
 4611.00    1.25934   1.20523    0.000
 4612.00    1.26134   1.20362    0.000
 4613.00    1.26451   1.20133    0.000
 4614.00    1.27528   1.19933    0.000
 4615.00    1.29304   1.19804    0.000
 4616.00    1.31306   1.19737    0.000
 4617.00    1.32263   1.19690    0.000
 4618.00    1.30368   1.19683    0.000
 4619.00    1.25903   1.19752    0.000
 4620.00    1.21888   1.19880    0.000
 4621.00    1.20268   1.20089    0.000
 4622.00    1.20259   1.20342    0.000
 4623.00    1.19806   1.20478    0.000
 4624.00    1.17020   1.20426    0.000
 4625.00    1.13095   1.20245    0.000
 4626.00    1.11946   1.19974    0.000
 4627.00    1.13814   1.19665    0.000
 4628.00    1.14789   1.19395    0.000
 4629.00    1.14617   1.19153    0.000
 4630.00    1.17235   1.18892    0.000
 4631.00    1.22425   1.18639    0.000
 4632.00    1.25128   1.18387    0.000
 4633.00    1.22716   1.18015    0.000
 4634.00    1.16896   1.17471    0.000
 4635.00    1.12082   1.16900    0.000
 4636.00    1.12730   1.16439    0.000
 4637.00    1.17637   1.16095    0.000
 4638.00    1.21323   1.15848    0.000
 4639.00    1.21582   1.15710    0.000
 4640.00    1.19977   1.15662    0.000
 4641.00    1.18212   1.15618    0.000
 4642.00    1.17096   1.15470    0.000
 4643.00    1.16317   1.15122    0.000
 4644.00    1.15251   1.14540    0.000
 4645.00    1.14676   1.13846    0.000
 4646.00    1.15614   1.13234    0.000
 4647.00    1.16520   1.12865    0.000
 4648.00    1.15048   1.12871    0.000
 4649.00    1.12056   1.13282    0.000
 4650.00    1.10103   1.13951    0.000
 4651.00    1.09801   1.14658    0.000
 4652.00    1.10462   1.15264    0.000
 4653.00    1.12038   1.15760    0.000
 4654.00    1.14737   1.16216    0.000
 4655.00    1.18061   1.16692    0.000
 4656.00    1.21203   1.17281    0.000
 4657.00    1.23749   1.18031    0.000
 4658.00    1.25725   1.18832    0.000
 4659.00    1.27498   1.19469    0.000
 4660.00    1.29366   1.19671    0.000
 4661.00    1.31083   1.19230    0.000
 4662.00    1.31789   1.18156    0.000
 4663.00    1.30088   1.16662    0.000
 4664.00    1.25126   1.15032    0.000
 4665.00    1.17666   1.13533    0.000
 4666.00    1.09872   1.12328    0.000
 4667.00    1.04749   1.11504    0.000
 4668.00    1.03649   1.11202    0.000
 4669.00    1.04471   1.11578    0.000
 4670.00    1.04850   1.12548    0.000
 4671.00    1.04771   1.13779    0.000
 4672.00    1.05288   1.14944    0.000
 4673.00    1.07351   1.15848    0.000
 4674.00    1.11483   1.16441    0.000
 4675.00    1.17539   1.16767    0.000
 4676.00    1.24312   1.16877    0.000
 4677.00    1.29435   1.16792    0.000
 4678.00    1.30382   1.16519    0.000
 4679.00    1.25613   1.16134    0.000
 4680.00    1.17467   1.15813    0.000
 4681.00    1.12507   1.15700    0.000
 4682.00    1.14539   1.15809    0.000
 4683.00    1.21462   1.16093    0.000
 4684.00    1.28720   1.16475    0.000
 4685.00    1.31849   1.16810    0.000
 4686.00    1.29617   1.17001    0.000
 4687.00    1.24674   1.17083    0.000
 4688.00    1.20100   1.17122    0.000
 4689.00    1.17695   1.17180    0.000
 4690.00    1.17375   1.17316    0.000
 4691.00    1.17468   1.17522    0.000
 4692.00    1.16600   1.17750    0.000
 4693.00    1.14404   1.17977    0.000
 4694.00    1.11411   1.18130    0.000
 4695.00    1.08958   1.18089    0.000
 4696.00    1.08994   1.17780    0.000
 4697.00    1.12916   1.17186    0.000
 4698.00    1.18414   1.16348    0.000
 4699.00    1.20801   1.15418    0.000
 4700.00    1.19207   1.14635    0.000
 4701.00    1.16640   1.14129    0.000
 4702.00    1.15603   1.13818    0.000
 4703.00    1.16794   1.13607    0.000
 4704.00    1.18860   1.13532    0.000
 4705.00    1.19816   1.13657    0.000
 4706.00    1.20198   1.13908    0.000
 4707.00    1.21988   1.14134    0.000
 4708.00    1.24964   1.14316    0.000
 4709.00    1.27094   1.14552    0.000
 4710.00    1.26795   1.14914    0.000
 4711.00    1.23912   1.15402    0.000
 4712.00    1.20547   1.15952    0.000
 4713.00    1.18897   1.16460    0.000
 4714.00    1.17586   1.16944    0.000
 4715.00    1.14517   1.17538    0.000
 4716.00    1.12014   1.18341    0.000
 4717.00    1.13383   1.19293    0.000
 4718.00    1.17018   1.20205    0.000
 4719.00    1.19408   1.20938    0.000
 4720.00    1.20240   1.21463    0.000
 4721.00    1.21155   1.21733    0.000
 4722.00    1.23275   1.21668    0.000
 4723.00    1.26223   1.21275    0.000
 4724.00    1.27552   1.20646    0.000
 4725.00    1.25657   1.19838    0.000
 4726.00    1.22737   1.18855    0.000
 4727.00    1.21460   1.17745    0.000
 4728.00    1.21467   1.16679    0.000
 4729.00    1.21472   1.15931    0.000
 4730.00    1.21438   1.15666    0.000
 4731.00    1.21231   1.15779    0.000
 4732.00    1.19509   1.16119    0.000
 4733.00    1.15843   1.16625    0.000
 4734.00    1.12270   1.17180    0.000
 4735.00    1.10982   1.17655    0.000
 4736.00    1.12452   1.18026    0.000
 4737.00    1.15404   1.18291    0.000
 4738.00    1.17333   1.18552    0.000
 4739.00    1.17461   1.18918    0.000
 4740.00    1.18060   1.19279    0.000
 4741.00    1.20339   1.19548    0.000
 4742.00    1.22408   1.19810    0.000
 4743.00    1.22743   1.20147    0.000
 4744.00    1.22012   1.20528    0.000
 4745.00    1.21581   1.20857    0.000
 4746.00    1.22442   1.21097    0.000
 4747.00    1.24205   1.21272    0.000
 4748.00    1.25086   1.21334    0.000
 4749.00    1.24093   1.21202    0.000
 4750.00    1.21867   1.20911    0.000
 4751.00    1.19775   1.20517    0.000
 4752.00    1.19060   1.20029    0.000
 4753.00    1.19207   1.19497    0.000
 4754.00    1.18286   1.19033    0.000
 4755.00    1.16622   1.18694    0.000
 4756.00    1.16682   1.18444    0.000
 4757.00    1.17961   1.18196    0.000
 4758.00    1.17063   1.17892    0.000
 4759.00    1.13673   1.17471    0.000
 4760.00    1.10891   1.16875    0.000
 4761.00    1.10392   1.16107   10.773
 4762.00    1.11763   1.15228   11.160
 4763.00    1.14811   1.14414   11.246
 4764.00    1.19304   1.13912   10.836
 4765.00    1.22685   1.13798   10.358
 4766.00    1.21642   1.13980   10.368
 4767.00    1.17193   1.14419   10.795
 4768.00    1.13910   1.15103   11.089
 4769.00    1.15431   1.15917   10.991
 4770.00    1.22287   1.16713   10.709
 4771.00    1.29759   1.17395   10.521
 4772.00    1.31781   1.17948   10.564
 4773.00    1.29049   1.18465   10.666
 4774.00    1.26208   1.19008   10.586
 4775.00    1.24114   1.19495   10.531
 4776.00    1.21260   1.19774   10.808
 4777.00    1.18418   1.19785   11.118
 4778.00    1.17495   1.19598   10.960
 4779.00    1.18613   1.19256   10.664
 4780.00    1.20895   1.18767   10.736
 4781.00    1.24175   1.18202   10.929
 4782.00    1.27864   1.17660   10.799
 4783.00    1.29264   1.17146   10.662
 4784.00    1.26259   1.16671   10.925
 4785.00    1.20781   1.16370   11.211
 4786.00    1.16557   1.16256   10.998
 4787.00    1.15899   1.16239   10.654
 4788.00    1.18882   1.16450   10.632
 4789.00    1.23022   1.16967   10.713
 4790.00    1.25470   1.17671   10.612
 4791.00    1.25288   1.18509   10.592
 4792.00    1.23509   1.19404   10.854
 4793.00    1.22692   1.20186   10.983
 4794.00    1.23989   1.20756   10.713
 4795.00    1.25095   1.21055   10.604
 4796.00    1.24750   1.21035   10.946
 4797.00    1.25843   1.20754   11.035
 4798.00    1.29291   1.20355   10.463
 4799.00    1.30185   1.19947   10.042
 4800.00    1.25565   1.19615   10.263
 4801.00    1.19307   1.19432   10.764
 4802.00    1.15791   1.19355   11.027
 4803.00    1.15668   1.19236   10.975
 4804.00    1.17460   1.18974   10.782
 4805.00    1.19023   1.18591   10.605
 4806.00    1.19423   1.18216   10.529
 4807.00    1.19633   1.17997   10.560
 4808.00    1.20655   1.17929   10.642
 4809.00    1.22482   1.17990   10.679
 4810.00    1.24205   1.18210   10.638
 4811.00    1.24361   1.18547   10.593
 4812.00    1.22153   1.18934   10.624
 4813.00    1.18100   1.19353   10.757
 4814.00    1.14319   1.19802   10.898
 4815.00    1.13760   1.20245   10.873
 4816.00    1.16809   1.20621   10.741
 4817.00    1.20954   1.20851   10.775
 4818.00    1.24638   1.20829   10.963
 4819.00    1.28020   1.20524   10.981
 4820.00    1.30512   1.20022   10.787
 4821.00    1.30583   1.19403   10.675
 4822.00    1.27954   1.18738   10.725
 4823.00    1.23936   1.18070   10.786
 4824.00    1.20264   1.17467   10.858
 4825.00    1.18247   1.17148   11.069
 4826.00    1.17523   1.17146   11.253
 4827.00    1.16677   1.17178   11.070
 4828.00    1.15685   1.17079   10.721
 4829.00    1.15599   1.16914   10.684
 4830.00    1.16282   1.16797   10.912
 4831.00    1.16703   1.16757   11.015
 4832.00    1.16804   1.16720   11.025
 4833.00    1.17327   1.16679   11.259
 4834.00    1.18572   1.16700   11.574
 4835.00    1.19945   1.16689   11.540
 4836.00    1.19667   1.16514   11.268
 4837.00    1.16589   1.16190   11.157
 4838.00    1.13363   1.15791   11.206
 4839.00    1.13586   1.15334   11.203
 4840.00    1.16248   1.14886   11.175
 4841.00    1.18032   1.14579   11.256
 4842.00    1.18238   1.14433   11.384
 4843.00    1.17712   1.14288   11.437
 4844.00    1.16279   1.14052   11.494
 4845.00    1.13791   1.13825   11.684
 4846.00    1.11892   1.13582   11.917
 4847.00    1.12147   1.13144   12.014
 4848.00    1.13522   1.12448    0.000
 4849.00    1.14276   1.11540    0.000
 4850.00    1.14400   1.10504    0.000
 4851.00    1.14136   1.09329    0.000
 4852.00    1.12267   1.07871    0.000
 4853.00    1.08412   1.06067    0.000
 4854.00    1.05191   1.03894    0.000
 4855.00    1.04535   1.01222    0.000
 4856.00    1.04434   0.98113    0.000
 4857.00    1.03260   0.94974    0.000
 4858.00    1.03377   0.92136    0.000
 4859.00    1.06957   0.89654    0.000
 4860.00    1.12599   0.87711    0.000
 4861.00    1.17921   0.86677    0.000
 4862.00    1.21740   0.86956    0.000
 4863.00    1.23878   0.88752    0.000
 4864.00    1.24780   0.91574    0.000
 4865.00    1.24622   0.94555    0.000
 4866.00    1.22913   0.97249    0.000
 4867.00    1.19707   0.99508    0.000
 4868.00    1.16136   1.01276    0.000
 4869.00    1.13006   1.02614    0.000
 4870.00    1.10181   1.03619    0.000
 4871.00    1.07803   1.04349    0.000
 4872.00    1.06710   1.05035    0.000
 4873.00    1.07132   1.06056    0.000
 4874.00    1.08213   1.07471    0.000
 4875.00    1.08938   1.08958   11.798
 4876.00    1.08779   1.10272   11.653
 4877.00    1.08557   1.11412   11.764
 4878.00    1.10086   1.12392   11.880
 4879.00    1.13404   1.13147   11.882
 4880.00    1.16416   1.13635   11.909
 4881.00    1.17809   1.13716   11.954
 4882.00    1.17843   1.13398   11.835
 4883.00    1.17168   1.12997   11.598
 4884.00    1.16269   1.12643   11.491
 4885.00    1.15057   1.12189   11.533
 4886.00    1.13110   1.11629   11.529
 4887.00    1.10763   1.11210   11.485
 4888.00    1.09002   1.11193   11.587
 4889.00    1.08275   1.11583   11.819
 4890.00    1.08351   1.12287   11.958
 4891.00    1.08828   1.13283   11.918
 4892.00    1.09528   1.14665   11.782
 4893.00    1.11080   1.16540   11.598
 4894.00    1.14315   1.18515   11.363
 4895.00    1.18645   1.20052   11.083
 4896.00    1.22599   1.21035   10.810
 4897.00    1.25649   1.21512   10.671
 4898.00    1.28136   1.21546   10.745
 4899.00    1.30348   1.21228   10.825
 4900.00    1.32092   1.20712   10.649
 4901.00    1.32272   1.20294   10.411
 4902.00    1.29833   1.20163   10.429
 4903.00    1.25389   1.20125   10.584
 4904.00    1.20547   1.20020   10.591
 4905.00    1.16421   1.19934   10.555
 4906.00    1.13673   1.19880   10.703
 4907.00    1.12856   1.19716   10.890
 4908.00    1.13823   1.19358   10.857
 4909.00    1.14940   1.18922   10.728
 4910.00    1.14007   1.18587   10.761
 4911.00    1.09674   1.18471   10.965
 4912.00    1.03199   1.18593   11.172
 4913.00    0.99843   1.18716   11.169
 4914.00    1.03269   1.18485   10.942
 4915.00    1.09754   1.17776   10.845
 4916.00    1.13849   1.16666   11.093
 4917.00    1.14573   1.15243   11.337
 4918.00    1.13464   1.13649   11.218
 4919.00    1.12106   1.12111   11.016
 4920.00    1.11553   1.10993   11.031
 4921.00    1.12026   1.10685   11.106
 4922.00    1.13062   1.11326   11.067
 4923.00    1.13734   1.12690   11.075
 4924.00    1.13187   1.14332   11.241
 4925.00    1.11152   1.16046   11.354
 4926.00    1.08664   1.17846   11.268
 4927.00    1.08106   1.19580   11.179
 4928.00    1.10135   1.20821   11.296
 4929.00    1.12292   1.21388   11.632
 4930.00    1.13323   1.21451   11.974
 4931.00    1.15117   1.21134   11.918
 4932.00    1.17921   1.20483   11.504
 4933.00    1.18459   1.19493   11.316
 4934.00    1.15192   1.18278   11.545
 4935.00    1.10537   1.17326   11.766
 4936.00    1.07317   1.16954   11.729
 4937.00    1.06899   1.16882   11.714
 4938.00    1.09235   1.16894   11.823
 4939.00    1.13169   1.17199   11.790
 4940.00    1.17491   1.18015    0.000
 4941.00    1.21331   1.19248    0.000
 4942.00    1.23857   1.20517    0.000
 4943.00    1.24319   1.21569    0.000
 4944.00    1.22686   1.22478    0.000
 4945.00    1.20009   1.23242    0.000
 4946.00    1.18831   1.23761    0.000
 4947.00    1.21914   1.24119    0.000
 4948.00    1.27886   1.24393    0.000
 4949.00    1.31941   1.24451    0.000
 4950.00    1.32084   1.24181    0.000
 4951.00    1.29841   1.23575    0.000
 4952.00    1.26908   1.22544    0.000
 4953.00    1.24102   1.21012    0.000
 4954.00    1.21215   1.19319    0.000
 4955.00    1.17994   1.17888    0.000
 4956.00    1.16438   1.16778    0.000
 4957.00    1.19020   1.15893    0.000
 4958.00    1.23650   1.15371    0.000
 4959.00    1.25762   1.15682    0.000
 4960.00    1.24893   1.16673    0.000
 4961.00    1.23628   1.17530    0.000
 4962.00    1.22938   1.17933    0.000
 4963.00    1.22320   1.18052    0.000
 4964.00    1.21660   1.18028    0.000
 4965.00    1.21226   1.17825    0.000
 4966.00    1.21068   1.17481    0.000
 4967.00    1.20984   1.17292    0.000
 4968.00    1.20658   1.17421    0.000
 4969.00    1.20258   1.17774    0.000
 4970.00    1.21152   1.18304    0.000
 4971.00    1.23947   1.18913    0.000
 4972.00    1.25942   1.19497    0.000
 4973.00    1.24343   1.19925    0.000
 4974.00    1.20507   1.20021    0.000
 4975.00    1.17318   1.19775    0.000
 4976.00    1.15540   1.19161    0.000
 4977.00    1.14241   1.18126    0.000
 4978.00    1.11868   1.16716    0.000
 4979.00    1.07986   1.15117    0.000
 4980.00    1.04705   1.13663    0.000
 4981.00    1.04144   1.12510    0.000
 4982.00    1.05992   1.11651    0.000
 4983.00    1.08514   1.11227    0.000
 4984.00    1.09843   1.11433    0.000
 4985.00    1.09793   1.12215    0.000
 4986.00    1.10824   1.13246    0.000
 4987.00    1.14396   1.14314    0.000
 4988.00    1.18539   1.15348    0.000
 4989.00    1.21175   1.16105    0.000
 4990.00    1.22393   1.16520    0.000
 4991.00    1.22724   1.16785    0.000
 4992.00    1.21989   1.17010    0.000
 4993.00    1.19961   1.17226    0.000
 4994.00    1.16865   1.17247    0.000
 4995.00    1.13661   1.16995    0.000
 4996.00    1.11822   1.16620    0.000
 4997.00    1.11416   1.16057    0.000
 4998.00    1.10649   1.15270    0.000
 4999.00    1.08796   1.14366    0.000
 5000.00    1.07247   1.13356    0.000
 5001.00    1.07330   1.12346    0.000
 5002.00    1.09292   1.11504    0.000
 5003.00    1.12452   1.10984    0.000
 5004.00    1.15752   1.10822    0.000
 5005.00    1.19573   1.10790    0.000
 5006.00    1.25593   1.10740    0.000
 5007.00    1.33605   1.10776    0.000
 5008.00    1.40908   1.10986    0.000
 5009.00    1.44456   1.11159    0.000
 5010.00    1.42242   1.10959    0.000
 5011.00    1.35176   1.10434    0.000
 5012.00    1.26602   1.09810    0.000
 5013.00    1.19114   1.09131    0.000
 5014.00    1.13855   1.08555    0.000
 5015.00    1.11325   1.08305    0.000
 5016.00    1.11264   1.08487    0.000
 5017.00    1.11792   1.08917    0.000
 5018.00    1.10554   1.09306    0.000
 5019.00    1.07895   1.09792    0.000
 5020.00    1.06271   1.10580    0.000
 5021.00    1.07216   1.11459    0.000
 5022.00    1.10580   1.12136    0.000
 5023.00    1.14461   1.12602    0.000
 5024.00    1.16596   1.13165    0.000
 5025.00    1.16977   1.13891    0.000
 5026.00    1.16790   1.14508    0.000
 5027.00    1.15674   1.14990    0.000
 5028.00    1.12892   1.15467    0.000
 5029.00    1.10038   1.16129   12.491
 5030.00    1.09871   1.16849   12.686
 5031.00    1.13778   1.17167   12.575
 5032.00    1.20933   1.17081   12.415
 5033.00    1.27795   1.16831   12.238
 5034.00    1.30217   1.16300   12.034
 5035.00    1.26423   1.15238   12.040
 5036.00    1.17660   1.13668   12.444
 5037.00    1.08309   1.12091   12.974
 5038.00    1.02846   1.11068   13.161
 5039.00    1.02330   1.10502   12.969
 5040.00    1.04971   1.10196   12.719
 5041.00    1.07466   1.10336   12.774
 5042.00    1.08038   1.11146   13.224
 5043.00    1.09000   1.12609   13.612
 5044.00    1.12482   1.14127   13.519
 5045.00    1.16498   1.15169   13.328
 5046.00    1.18334   1.15804   13.356
 5047.00    1.17723   1.16065   13.194
 5048.00    1.15430   1.15896   12.677
 5049.00    1.12006   1.15511   12.470
 5050.00    1.08846   1.15293   12.921
 5051.00    1.08638   1.15421   13.479
 5052.00    1.12125   1.15804   13.546
 5053.00    1.16335   1.16433   13.366
 5054.00    1.18511   1.17339   13.303
 5055.00    1.18711   1.18303   13.299
 5056.00    1.18886   1.19116   13.198
 5057.00    1.21631   1.19772   12.962
 5058.00    1.26856   1.20294   12.751
 5059.00    1.30789   1.20566   12.834
 5060.00    1.30920   1.20372   13.132
 5061.00    1.28204   1.19832   13.090
 5062.00    1.24384   1.19200   12.655
 5063.00    1.20532   1.18434   12.492
 5064.00    1.16932   1.17442   12.834
 5065.00    1.13357   1.16403   13.249
 5066.00    1.10388   1.15740   13.361
 5067.00    1.09543   1.15529   13.229
 5068.00    1.11450   1.15359   13.032
 5069.00    1.15153   1.15196   12.877
 5070.00    1.18344   1.15260   12.766
 5071.00    1.18456   1.15408   12.639
 5072.00    1.15970   1.15327   12.512
 5073.00    1.13975   1.15087   12.472
 5074.00    1.13097   1.14888   12.534
 5075.00    1.11373   1.14469   12.629
 5076.00    1.08802   1.13696   12.694
 5077.00    1.07360   1.12930   12.714
 5078.00    1.07229   1.12351   12.733
 5079.00    1.07045   1.11737   12.799
 5080.00    1.07268   1.11122   12.816
 5081.00    1.09524   1.11038   12.657
 5082.00    1.12979   1.11613   12.528
 5083.00    1.15241   1.12405   12.742
 5084.00    1.16298   1.13200   13.116
 5085.00    1.17865   1.14160   13.129
 5086.00    1.20213   1.15235   12.769
 5087.00    1.22338   1.16143   12.436
 5088.00    1.23559   1.16843   12.349
 5089.00    1.23823   1.17483   12.517
 5090.00    1.23643   1.18031   12.782
 5091.00    1.23486   1.18293   12.911
 5092.00    1.22827   1.18268   12.795
 5093.00    1.21038   1.18045   12.516
 5094.00    1.18956   1.17549   12.292
 5095.00    1.17789   1.16709   12.278
 5096.00    1.17248   1.15748   12.354
 5097.00    1.16398   1.14945   12.340
 5098.00    1.15134   1.14352   12.305
 5099.00    1.13930   1.13919   12.399
 5100.00    1.13269   1.13737   12.588
 5101.00    1.13625   1.13943   12.738
 5102.00    1.15474   1.14290   12.766
 5103.00    1.18571   1.14411   12.677
 5104.00    1.21285   1.14301   12.559
 5105.00    1.22008   1.14126   12.500
 5106.00    1.20615   1.13927   12.503
 5107.00    1.17993   1.13726   12.537
 5108.00    1.15392   1.13630   12.580
 5109.00    1.13824   1.13808   12.627
 5110.00    1.13628   1.14244   12.687
 5111.00    1.14934   1.14821   12.724
 5112.00    1.17957   1.15618   12.641
 5113.00    1.22014   1.16543   12.444
 5114.00    1.25044   1.17354   12.324
 5115.00    1.25697   1.17976   12.437
 5116.00    1.24696   1.18337   12.764
 5117.00    1.23598   1.18396   13.107
 5118.00    1.23693   1.18140   13.118
 5119.00    1.24762   1.17457   12.774
 5120.00    1.24761   1.16389   12.534
 5121.00    1.22342   1.15175   12.648
 5122.00    1.18167   1.13997   12.953
 5123.00    1.13864   1.12901   13.243
 5124.00    1.11163   1.11919   13.461
 5125.00    1.10584   1.11253   13.588
 5126.00    1.11087   1.11028   13.581
 5127.00    1.11427   1.11124   13.446
 5128.00    1.10922   1.11397   13.270
 5129.00    1.09892   1.11795   13.194
 5130.00    1.09462   1.12321   13.351
 5131.00    1.10087   1.12996   13.680
 5132.00    1.11244   1.13675   13.898
 5133.00    1.12542   1.14081   13.856
 5134.00    1.13962   1.14167   13.681
 5135.00    1.15225   1.14084   13.548
 5136.00    1.15745   1.13937   13.559
 5137.00    1.15217   1.13579   13.629
 5138.00    1.13800   1.12956   13.556
 5139.00    1.12073   1.12296   13.346
 5140.00    1.10710   1.11858   13.192
 5141.00    1.09663   1.11752   13.180
 5142.00    1.08359   1.11635   13.278
 5143.00    1.06787   1.11298   13.459
 5144.00    1.05549   1.11174   13.684
 5145.00    1.05289   1.11376   13.759
 5146.00    1.06217   1.11453   13.519
 5147.00    1.07423   1.11303   13.272
 5148.00    1.07527   1.11201   13.429
 5149.00    1.06324   1.11263   13.722
 5150.00    1.04554   1.11389   13.550
 5151.00    1.02816   1.11481   13.124
 5152.00    1.01643   1.11711   13.017
 5153.00    1.01989   1.12259   13.168
 5154.00    1.04290   1.13035   13.172
 5155.00    1.06863   1.13901   12.962
 5156.00    1.07803   1.14852   12.737
 5157.00    1.08194   1.15760   12.653
 5158.00    1.10237   1.16327   12.749
 5159.00    1.13850   1.16357   12.901
 5160.00    1.17138   1.15841   12.959
 5161.00    1.17781   1.14779   12.949
 5162.00    1.14587   1.12965   12.955
 5163.00    1.09076   1.10382   12.926
 5164.00    1.03455   1.07467   12.816
 5165.00    0.98144   1.04600   12.754
 5166.00    0.93236   1.01869   12.873
 5167.00    0.90249   0.99311   13.118
 5168.00    0.90486   0.97121   13.340
 5169.00    0.93257   0.95823   13.402
 5170.00    0.96818   0.95777   13.220
 5171.00    0.99512   0.96602   12.804
 5172.00    1.00619   0.97597   12.479
 5173.00    1.00946   0.98822   12.878
 5174.00    1.02142   1.00821   13.724
 5175.00    1.05840   1.03276   12.676
 5176.00    1.11613   1.05207   10.039
 5177.00    1.15975   1.06254    8.520
 5178.00    1.16345   1.06610    8.394
 5179.00    1.13645   1.06214    8.836
 5180.00    1.10142   1.05111    9.128
 5181.00    1.07694   1.03909    9.289
 5182.00    1.06646   1.03061    9.450
 5183.00    1.05545   1.02469    9.408
 5184.00    1.03242   1.02233    9.391
 5185.00    1.00036   1.02983   10.317
 5186.00    0.97160   1.04726   12.762
 5187.00    0.96137   1.06445   15.070
 5188.00    0.97203   1.07498   14.771
 5189.00    0.98962   1.08183   13.818
 5190.00    1.00454   1.08906    0.000
 5191.00    1.01908   1.09386    0.000
 5192.00    1.03693   1.09301    0.000
 5193.00    1.05837   1.09227    0.000
 5194.00    1.08006   1.09730    0.000
 5195.00    1.09590   1.10498    0.000
 5196.00    1.10024   1.11139    0.000
 5197.00    1.09092   1.11782    0.000
 5198.00    1.07512   1.12416    0.000
 5199.00    1.06739   1.12774    0.000
 5200.00    1.07672   1.12686    0.000
 5201.00    1.10181   1.12056    0.000
 5202.00    1.13011   1.10996    0.000
 5203.00    1.14404   1.09797    0.000
 5204.00    1.13874   1.08574    0.000
 5205.00    1.12289   1.07314    0.000
 5206.00    1.10782   1.06403    0.000
 5207.00    1.10070   1.06273    0.000
 5208.00    1.09575   1.06790    0.000
 5209.00    1.08313   1.07650    0.000
 5210.00    1.07247   1.08919    0.000
 5211.00    1.08168   1.10466   14.151
 5212.00    1.10339   1.11919   13.679
 5213.00    1.11607   1.13180   13.460
 5214.00    1.11841   1.14268   13.436
 5215.00    1.12345   1.15098   13.265
 5216.00    1.13586   1.15643   13.060
 5217.00    1.14955   1.16113   13.123
 5218.00    1.15105   1.16602   13.379
 5219.00    1.13075   1.16909   13.525
 5220.00    1.09855   1.16813   13.455
 5221.00    1.07225   1.16285   13.291
 5222.00    1.05753   1.15370   13.260
 5223.00    1.05277   1.14113   13.424
 5224.00    1.05912   1.12811   13.379
 5225.00    1.07726   1.11820   12.854
 5226.00    1.10199   1.11174   12.418
 5227.00    1.12537   1.10888   12.579
 5228.00    1.14147   1.11200   13.086
 5229.00    1.14772   1.12085   13.335
 5230.00    1.14553   1.13031   13.041
 5231.00    1.13672   1.13833   12.480
 5232.00    1.12056   1.14644   12.292
 5233.00    1.10204   1.15385   12.737
 5234.00    1.09805   1.16035   13.223
 5235.00    1.11823   1.16779   13.100
 5236.00    1.14948   1.17640   12.730
 5237.00    1.17313   1.18521   12.626
 5238.00    1.18025   1.19274   12.777
 5239.00    1.17091   1.19795   13.013
 5240.00    1.15225   1.20124   13.246
 5241.00    1.13411   1.20353   13.401
 5242.00    1.12570   1.20331   13.381
 5243.00    1.13294   1.19860   13.228
 5244.00    1.15586   1.19195   13.171
 5245.00    1.18182   1.18652   13.300
 5246.00    1.18677   1.17974   13.436
 5247.00    1.16557   1.16952   13.457
 5248.00    1.14302   1.16104   13.469
 5249.00    1.13628   1.15833   13.538
 5250.00    1.13873   1.15753   13.567
 5251.00    1.14313   1.15598   13.511
 5252.00    1.15123   1.15783   13.456
 5253.00    1.16202   1.16490   13.468
 5254.00    1.16823   1.17276   13.534
 5255.00    1.16651   1.17802   13.619
 5256.00    1.16122   1.18162   13.673
 5257.00    1.16156   1.18421   13.620
 5258.00    1.17637   1.18216   13.387
 5259.00    1.20034   1.17287   13.031
 5260.00    1.21496   1.15779   12.703
 5261.00    1.20977   1.13863   12.433
 5262.00    1.18634   1.11636   12.168
 5263.00    1.14697   1.09433   11.976
 5264.00    1.09481   1.07638   11.981
 5265.00    1.04544   1.06121   12.015
 5266.00    1.02103   1.04763   11.738
 5267.00    1.02485   1.04119   11.270
 5268.00    1.04300   1.04494   11.008
 5269.00    1.06710   1.05124   10.990
 5270.00    1.09673   1.05638   10.994
 5271.00    1.13071   1.06757   10.904
 5272.00    1.16557   1.08643   10.782
 5273.00    1.19717   1.10558   10.791
 5274.00    1.22280   1.12227   11.046
 5275.00    1.24441   1.13824   11.324
 5276.00    1.26345   1.15229   11.271
 5277.00    1.27024   1.16383   11.074
 5278.00    1.25416   1.17342   11.143
 5279.00    1.22474   1.17900   11.400
 5280.00    1.19862   1.18004   11.512
 5281.00    1.17241   1.18046   11.544
 5282.00    1.13703   1.18393   11.745
 5283.00    1.10602   1.18942   11.996
 5284.00    1.09839   1.19541   12.018
 5285.00    1.10867   1.20368   11.884
 5286.00    1.12373   1.21555   11.827
 5287.00    1.15014   1.22731   11.873
 5288.00    1.19812   1.23495   11.902
 5289.00    1.25730   1.23860   11.792
 5290.00    1.30369   1.23992   11.597
 5291.00    1.31310   1.23863   11.672
 5292.00    1.28212   1.23290   12.200
 5293.00    1.24590   1.22233   12.637
 5294.00    1.23714   1.20925   12.372
 5295.00    1.24514   1.19740   11.807
 5296.00    1.24428   1.18787   11.525
 5297.00    1.22490   1.17917   11.615
 5298.00    1.19340   1.17236   11.944
 5299.00    1.16800   1.17202   12.297
 5300.00    1.16212   1.17903   12.484
 5301.00    1.17209   1.18860   12.497
 5302.00    1.18842   1.19762   12.447
 5303.00    1.20544   1.20757   12.476
 5304.00    1.22309   1.21885   12.638
 5305.00    1.24596   1.22915   12.839
 5306.00    1.27098   1.23639   12.940
 5307.00    1.28264   1.24064   12.873
 5308.00    1.27432   1.24313   12.766
 5309.00    1.25860   1.24479   12.915
 5310.00    1.24707   1.24502   13.352
 5311.00    1.24010   1.24321   13.645
 5312.00    1.23701   1.23949   13.582
 5313.00    1.24015   1.23448   13.534
 5314.00    1.24632   1.22959   13.672
 5315.00    1.24574   1.22563   13.713
 5316.00    1.23805   1.22116   13.563
 5317.00    1.23532   1.21586   13.508
 5318.00    1.24256   1.21191   13.644
 5319.00    1.25118   1.20873   13.758
 5320.00    1.24797   1.20246   13.802
 5321.00    1.22365   1.19285   13.966
 5322.00    1.18994   1.18335   14.153
 5323.00    1.17391   1.17291   13.970
 5324.00    1.17736   1.15756   13.533
 5325.00    1.17460   1.14067   13.362
 5326.00    1.15130   1.13089   13.479
 5327.00    1.11369   1.12745   13.467
 5328.00    1.07677   1.12441   13.301
 5329.00    1.05713   1.12467   13.328
 5330.00    1.06364   1.13527   13.528
 5331.00    1.09470   1.15244   13.543
 5332.00    1.13849   1.16696   13.311
 5333.00    1.17837   1.17704   13.081
 5334.00    1.20561   1.18632   12.979
 5335.00    1.22093   1.19445   12.961
 5336.00    1.23078   1.19676   12.876
 5337.00    1.24108   1.19315   12.640
 5338.00    1.24647   1.18937   12.522
 5339.00    1.23725   1.18796   12.812
 5340.00    1.21670   1.18584   13.158
 5341.00    1.19661   1.18306   12.973
 5342.00    1.18333   1.18323   12.661
 5343.00    1.17700   1.18677   12.898
 5344.00    1.17467   1.19038   13.362
 5345.00    1.17249   1.19211   13.290
 5346.00    1.16831   1.19336   12.977
 5347.00    1.16226   1.19722   13.078
 5348.00    1.15692   1.20350   13.385
 5349.00    1.15508   1.20917   13.385
 5350.00    1.15693   1.21532   13.293
 5351.00    1.16237   1.22541   13.485
 5352.00    1.17411   1.23762   13.633
 5353.00    1.19613   1.24760   13.332
 5354.00    1.23074   1.25552   12.974
 5355.00    1.27232   1.26305   13.015
 5356.00    1.30222   1.26849   13.309
 5357.00    1.30494   1.26955   13.498
 5358.00    1.28415   1.26671   13.472
 5359.00    1.25122   1.26143   13.367
 5360.00    1.21339   1.25436   13.431
 5361.00    1.17892   1.24505   13.734
 5362.00    1.16098   1.23387   13.955
 5363.00    1.16392   1.22277   13.864
 5364.00    1.17345   1.21259   13.753
 5365.00    1.17219   1.20266   13.837
 5366.00    1.15241   1.19271   13.883
 5367.00    1.11653   1.18333   13.773
 5368.00    1.07647   1.17584   -2.000
 5369.00    1.05095   1.17234   -2.000
 5370.00    1.06070   1.17268   -2.000
 5371.00    1.10961   1.17552   -2.000
 5372.00    1.17690   1.18239   -2.000
 5373.00    1.23952   1.19392   -2.000
 5374.00    1.28535   1.20693   -2.000
 5375.00    1.31166   1.21829   -2.000
 5376.00    1.32266   1.22709   -2.000
 5377.00    1.32354   1.23271   -2.000
 5378.00    1.31739   1.23563   -2.000
 5379.00    1.30498   1.23647   -2.000
 5380.00    1.28628   1.23488   -2.000
 5381.00    1.26727   1.23239   -2.000
 5382.00    1.25821   1.23078   -2.000
 5383.00    1.25511   1.22925   12.325
 5384.00    1.24046   1.22729   12.329
 5385.00    1.21342   1.22583   12.436
 5386.00    1.19335   1.22379   12.603
 5387.00    1.19192   1.21978   12.806
 5388.00    1.20480   1.21472   13.045
 5389.00    1.21754   1.20866   13.188
 5390.00    1.21358   1.20098   13.042
 5391.00    1.19150   1.19335   12.768
 5392.00    1.16432   1.18686   12.738
 5393.00    1.14296   1.17953   12.967
 5394.00    1.13138   1.17218   13.157
 5395.00    1.12641   1.16897   13.140
 5396.00    1.12103   1.16831   12.992
 5397.00    1.11205   1.16577   12.887
 5398.00    1.10053   1.16405   12.970
 5399.00    1.08849   1.16649   13.193
 5400.00    1.07950   1.16757   13.384
 5401.00    1.08130   1.16324   13.491
 5402.00    1.09821   1.15742   13.574
 5403.00    1.11637   1.15295   13.643
 5404.00    1.11640   1.14838   13.675
 5405.00    1.10074   1.14307   13.694
 5406.00    1.08649   1.13920   13.755
 5407.00    1.08520   1.13984   13.877
 5408.00    1.09994   1.14604   14.028
 5409.00    1.12646   1.15454   14.127
 5410.00    1.15691   1.16285   14.107
 5411.00    1.18516   1.17260   14.024
 5412.00    1.20700   1.18505   13.988
 5413.00    1.21961   1.19759   14.063
 5414.00    1.22286   1.20747   14.239
 5415.00    1.22079   1.21486   14.411
 5416.00    1.21590   1.22089   14.462
 5417.00    1.20322   1.22524   14.387
 5418.00    1.18029   1.22738   14.293
 5419.00    1.15789   1.22777   14.349
 5420.00    1.14958   1.22603   14.569
 5421.00    1.15982   1.22249   14.615
 5422.00    1.18455   1.21983   14.255
 5423.00    1.21330   1.21844   13.799
 5424.00    1.23348   1.21580   13.610
 5425.00    1.23491   1.21080   13.785
 5426.00    1.21610   1.20492   14.190
 5427.00    1.18795   1.20039   14.449
 5428.00    1.16297   1.19652   14.322
 5429.00    1.14666   1.18933   14.029
 5430.00    1.13634   1.18060   13.836
 5431.00    1.12289   1.17644   13.781
 5432.00    1.10477   1.17659   13.873
 5433.00    1.09491   1.17720   14.169
 5434.00    1.10494   1.18014   14.480
 5435.00    1.13494   1.18810   14.270
 5436.00    1.17425   1.19922   13.619
 5437.00    1.20580   1.21104   13.337
 5438.00    1.22517   1.22238   13.612
 5439.00    1.24560   1.23205   13.747
 5440.00    1.27111   1.23835   13.418
 5441.00    1.28788   1.24001   13.182
 5442.00    1.28843   1.23639   13.304
 5443.00    1.28026   1.22795   13.477
 5444.00    1.27267   1.21773   13.535
 5445.00    1.27029   1.20857   13.673
 5446.00    1.27159   1.19981   13.898
 5447.00    1.27032   1.19168   13.917
 5448.00    1.26289   1.18705   13.678
 5449.00    1.24968   1.18633   13.465
 5450.00    1.22992   1.18585   13.442
 5451.00    1.20312   1.18344   13.560
 5452.00    1.17927   1.17972   13.629
 5453.00    1.17378   1.17727   13.466
 5454.00    1.18310   1.17664   13.247
 5455.00    1.18743   1.17555   13.344
 5456.00    1.17840   1.17438   13.696
 5457.00    1.16280   1.17650   13.890
 5458.00    1.15142   1.18112   13.898
 5459.00    1.15203   1.18371   14.063
 5460.00    1.16054   1.18412   14.428
 5461.00    1.16652   1.18584   14.718
 5462.00    1.17023   1.18796   14.769
 5463.00    1.17913   1.18778   14.647
 5464.00    1.19281   1.18797   14.573
 5465.00    1.20342   1.19110   14.732
 5466.00    1.20283   1.19356   14.981
 5467.00    1.18830   1.19337   15.027
 5468.00    1.16958   1.19362   14.908
 5469.00    1.16042   1.19324   14.833
 5470.00    1.16279   1.18875   14.752
 5471.00    1.17059   1.18290   14.527
 5472.00    1.17982   1.17794   14.262
 5473.00    1.18914   1.17025   14.110
 5474.00    1.19853   1.16155   13.979
 5475.00    1.20732   1.15790   13.752
 5476.00    1.21228   1.15693   13.580
 5477.00    1.21099   1.15430   13.620
 5478.00    1.20621   1.15423   13.728
 5479.00    1.20226   1.16008   -2.000
 5480.00    1.20063   1.16671   -2.000
 5481.00    1.20616   1.17163   -2.000
 5482.00    1.23308   1.17775   -2.000
 5483.00    1.29148   1.18466   -2.000
 5484.00    1.37354   1.18945   -2.000
 5485.00    1.46046   1.19337   -2.000
 5486.00    1.52924   1.19747   -2.000
 5487.00    1.54073   1.19923   -2.000
 5488.00    1.43842   1.19981   -2.000
 5489.00    1.23427   1.20166   -2.000
 5490.00    1.05968   1.20261   -2.000
 5491.00    1.00006   1.20220   -2.000
 5492.00    0.98631   1.20321   -2.000
 5493.00    0.96395   1.20383   -2.000
 5494.00    0.99819   1.20137   -2.000
 5495.00    1.11743   1.19977   -2.000
 5496.00    1.22644   1.20037   -2.000
 5497.00    1.25245   1.19842   -2.000
 5498.00    1.22598   1.19391   -2.000
 5499.00    1.19476   1.19157   -2.000
 5500.00    1.17403   1.19066   -2.000
 5501.00    1.16469   1.18783   -2.000
 5502.00    1.16466   1.18394   13.602
 5503.00    1.16953   1.18084   13.979
 5504.00    1.17298   1.17934   14.452
 5505.00    1.16892   1.17880   14.681
 5506.00    1.15388   1.17716   14.818
 5507.00    1.13348   1.17518   14.924
 5508.00    1.12159   1.17480   14.788
 5509.00    1.12637   1.17434   14.518
 5510.00    1.14547   1.17281   14.510
 5511.00    1.16950   1.17238   14.623
 5512.00    1.18675   1.17361   14.314
 5513.00    1.19382   1.17561   14.115
 5514.00    1.19596   1.17961   15.080
 5515.00    1.19582   1.18639   15.540
 5516.00    1.19291   1.19417   12.350
 5517.00    1.19272   1.20154    9.102
 5518.00    1.20300   1.20855    7.905
 5519.00    1.21596   1.21462    8.023
 5520.00    1.21303   1.21807    8.481
 5521.00    1.18991   1.21831    8.577
 5522.00    1.15821   1.21616    8.292
 5523.00    1.13333   1.21237    8.477
 5524.00    1.12441   1.20667   10.271
 5525.00    1.11973   1.19966   13.252
 5526.00    1.10153   1.19425   12.502
 5527.00    1.08257   1.19135    9.717
 5528.00    1.09071   1.18893    8.676
 5529.00    1.12489   1.18775    8.775
 5530.00    1.16095   1.19013    8.779
 5531.00    1.17794   1.19358    8.522
 5532.00    1.16870   1.19556    8.499
 5533.00    1.14867   1.19845    8.695
 5534.00    1.14219   1.20240    8.776
 5535.00    1.15901   1.20493    8.631
 5536.00    1.19341   1.20734    8.374
 5537.00    1.22897   1.21150    8.137
 5538.00    1.24998   1.21545    7.997
 5539.00    1.25564   1.21763    7.963
 5540.00    1.25439   1.21941    7.988
 5541.00    1.25420   1.22157    7.976
 5542.00    1.25739   1.22289    7.907
 5543.00    1.25681   1.22270    7.953
 5544.00    1.24598   1.22302    8.163
 5545.00    1.23015   1.22515    8.127
 5546.00    1.21861   1.22723    7.820
 5547.00    1.21583   1.22861    8.269
 5548.00    1.22171   1.23080   10.624
 5549.00    1.23286   1.23297   14.560
 5550.00    1.24477   1.23303   15.674
 5551.00    1.25352   1.23161   14.342
 5552.00    1.25516   1.23012   13.995
 5553.00    1.24595   1.22810   14.503
 5554.00    1.22937   1.22487   14.906
 5555.00    1.21931   1.22179   14.940
 5556.00    1.22268   1.21986   14.748
 5557.00    1.22935   1.21795   14.470
 5558.00    1.23073   1.21545   14.285
 5559.00    1.23089   1.21278   14.415
 5560.00    1.23498   1.21000   14.767
 5561.00    1.24206   1.20710   14.799
 5562.00    1.24880   1.20352   14.397
 5563.00    1.25233   1.19928   14.198
 5564.00    1.25243   1.19609   14.404
 5565.00    1.25131   1.19404   14.467
 5566.00    1.24656   1.19099   14.174
 5567.00    1.23054   1.18885   14.023
 5568.00    1.20371   1.18964   14.245
 5569.00    1.17795   1.18943   14.532
 5570.00    1.16347   1.18828   14.590
 5571.00    1.16289   1.19078   14.399
 5572.00    1.17174   1.19420   14.070
 5573.00    1.18157   1.19494   13.732
 5574.00    1.19036   1.19750   13.492
 5575.00    1.20318   1.20228   13.399
 5576.00    1.22085   1.20472   13.350
 5577.00    1.23738   1.20627   13.169
 5578.00    1.24473   1.20831   12.952
 5579.00    1.23703   1.20791   12.972
 5580.00    1.21812   1.20549   13.194
 5581.00    1.19974   1.20208   13.289
 5582.00    1.19040   1.19586   13.133
 5583.00    1.19323   1.18715   12.899
 5584.00    1.20855   1.17801   12.821
 5585.00    1.23262   1.16871   13.029
 5586.00    1.25335   1.15967   13.321
 5587.00    1.25536   1.15254   13.334
 5588.00    1.23349   1.14832   13.235
 5589.00    1.19553   1.14719   13.438
 5590.00    1.16112   1.14875   13.730
 5591.00    1.15068   1.15186   13.529
 5592.00    1.16524   1.15649   12.952
 5593.00    1.18867   1.16227   12.513
 5594.00    1.19956   1.16618   12.341
 5595.00    1.18341   1.16697   12.328
 5596.00    1.14873   1.16792   12.382
 5597.00    1.11516   1.16889   12.424
 5598.00    1.09115   1.16675   12.359
 5599.00    1.07680   1.16404   12.159
 5600.00    1.07305   1.16475   11.969
 5601.00    1.08253   1.16806   11.964
 5602.00    1.10844   1.17241   12.200
 5603.00    1.14877   1.17913   12.584
 5604.00    1.18996   1.18856   12.836
 5605.00    1.21733   1.19889   12.782
 5606.00    1.22792   1.20807   12.728
 5607.00    1.22736   1.21537   12.943
 5608.00    1.22415   1.22030   13.107
 5609.00    1.22248   1.22195   12.917
 5610.00    1.21660   1.22071   12.777
 5611.00    1.20173   1.21620   13.024
 5612.00    1.18426   1.20810   13.275
 5613.00    1.17442   1.19990   13.165
 5614.00    1.17861   1.19353   13.085
 5615.00    1.19671   1.18661   13.386
 5616.00    1.22106   1.18026   13.774
 5617.00    1.24336   1.17836   13.816
 5618.00    1.25931   1.17913   13.511
 5619.00    1.26381   1.17951   13.212
 5620.00    1.24879   1.18024   13.368
 5621.00    1.21386   1.18105   13.992
 5622.00    1.17211   1.18166   14.337
 5623.00    1.14068   1.18294   14.049
 5624.00    1.13289   1.18380   13.909
 5625.00    1.14882   1.18456   14.303
 5626.00    1.17346   1.18796   14.626
 5627.00    1.19507   1.19297   14.452
 5628.00    1.21339   1.19701   14.201
 5629.00    1.22959   1.20088   14.171
 5630.00    1.24167   1.20478   14.204
 5631.00    1.24767   1.20663   14.193
 5632.00    1.24804   1.20636   14.254
 5633.00    1.24868   1.20474   14.392
 5634.00    1.25906   1.20140   14.437
 5635.00    1.27949   1.19721   14.357
 5636.00    1.29899   1.19353   14.321
 5637.00    1.30644   1.18983   14.387
 5638.00    1.29613   1.18608   14.464
 5639.00    1.27138   1.18437   14.594
 5640.00    1.24323   1.18446   14.925
 5641.00    1.22237   1.18458   15.277
 5642.00    1.21505   1.18565   15.190
 5643.00    1.21925   1.18858   14.726
 5644.00    1.22567   1.19183   14.381
 5645.00    1.22354   1.19471   14.290
 5646.00    1.20567   1.19792   14.273
 5647.00    1.17653   1.20095   14.260
 5648.00    1.14993   1.20326   14.301
 5649.00    1.13824   1.20490   14.338
 5650.00    1.14513   1.20561   14.254
 5651.00    1.15604   1.20444   14.102
 5652.00    1.14985   1.20135   14.027
 5653.00    1.12692   1.19801   14.021
 5654.00    1.10402   1.19333   13.996
 5655.00    1.09306   1.18526   13.999
 5656.00    1.09811   1.17782   14.129
 5657.00    1.11752   1.17405   14.324
 5658.00    1.14490   1.16957   14.421
 5659.00    1.17024   1.16441   14.349
 5660.00    1.18482   1.16440   14.152
 5661.00    1.18812   1.16785   13.930
 5662.00    1.18281   1.16988   13.812
 5663.00    1.16643   1.17253   13.938
 5664.00    1.13976   1.17749   14.328
 5665.00    1.11885   1.18215   14.663
 5666.00    1.12087   1.18577   14.599
 5667.00    1.14479   1.18953   14.324
 5668.00    1.17658   1.19341   14.176
 5669.00    1.19916   1.19761   14.169
 5670.00    1.20610   1.20259   14.148
 5671.00    1.21327   1.20732   13.998
 5672.00    1.23416   1.21126   13.754
 5673.00    1.25540   1.21548   13.637
 5674.00    1.25780   1.21944   13.706
 5675.00    1.23875   1.22095   13.600
 5676.00    1.21253   1.22041   13.039
 5677.00    1.20564   1.21980   12.263
 5678.00    1.22816   1.21809   11.658
 5679.00    1.25462   1.21374   11.501
 5680.00    1.25958   1.20900   11.835
 5681.00    1.24477   1.20546   12.396
 5682.00    1.22710   1.20162   12.868
 5683.00    1.22574   1.19737   13.195
 5684.00    1.24270   1.19466   13.437
 5685.00    1.25504   1.19379   13.609
 5686.00    1.24581   1.19394   13.706
 5687.00    1.22108   1.19528   13.728
 5688.00    1.19389   1.19791   13.687
 5689.00    1.17390   1.20196   13.605
 5690.00    1.16601   1.20675   13.516
 5691.00    1.17004   1.21081   13.461
 5692.00    1.18172   1.21382   13.407
 5693.00    1.19369   1.21642   13.250
 5694.00    1.19785   1.21728   12.951
 5695.00    1.18860   1.21518   12.571
 5696.00    1.17153   1.21218   12.151
 5697.00    1.16248   1.20892   11.700
 5698.00    1.16927   1.20393   11.306
 5699.00    1.18614   1.19819   11.110
 5700.00    1.20184   1.19382   11.142
 5701.00    1.20597   1.18991   11.335
 5702.00    1.19959   1.18491   11.682
 5703.00    1.19415   1.18013   12.235
 5704.00    1.19603   1.17648   12.865
 5705.00    1.20175   1.17218   13.260
 5706.00    1.19926   1.16694   13.452
 5707.00    1.17691   1.16364   13.816
 5708.00    1.14627   1.16228   14.270
 5709.00    1.13500   1.16136   14.318
 5710.00    1.15228   1.16357   14.101
 5711.00    1.18614   1.16952   14.213
 5712.00    1.21924   1.17597   14.582
 5713.00    1.23692   1.18394   14.631
 5714.00    1.23579   1.19415   14.355
 5715.00    1.22090   1.20293   14.215
 5716.00    1.19594   1.21069   14.332
 5717.00    1.16664   1.21878   14.518
 5718.00    1.15073   1.22491   14.568
 5719.00    1.16695   1.22957   14.386
 5720.00    1.21222   1.23378   14.100
 5721.00    1.26521   1.23606   13.913
 5722.00    1.29983   1.23709   13.880
 5723.00    1.30120   1.23759   13.909
 5724.00    1.28546   1.23613   13.802
 5725.00    1.27792   1.23374   13.455
 5726.00    1.27801   1.23222   13.101
 5727.00    1.27337   1.23033   13.026
 5728.00    1.26523   1.22788   13.272
 5729.00    1.26133   1.22726   13.660
 5730.00    1.26285   1.22812   13.792
 5731.00    1.26416   1.22849   13.462
 5732.00    1.25529   1.22932   13.112
 5733.00    1.23266   1.23143   13.151
 5734.00    1.20917   1.23320   13.403
 5735.00    1.19865   1.23402   13.515
 5736.00    1.19964   1.23478   13.421
 5737.00    1.20310   1.23523   13.244
 5738.00    1.20173   1.23529   13.102
 5739.00    1.19494   1.23538   13.076
 5740.00    1.19149   1.23519    0.000
 5741.00    1.20075   1.23499    0.000
 5742.00    1.22471   1.23527    0.000
 5743.00    1.25532   1.23560    0.000
 5744.00    1.27487   1.23540    0.000
 5745.00    1.27193   1.23475    0.000
 5746.00    1.25140   1.23397    0.000
 5747.00    1.22400   1.23269    0.000
 5748.00    1.19888   1.23037    0.000
 5749.00    1.18360   1.22787    0.000
 5750.00    1.18366   1.22592    0.000
 5751.00    1.19762   1.22372    0.000
 5752.00    1.21560   1.22190    0.000
 5753.00    1.22597   1.22140    0.000
 5754.00    1.22064   1.22149    0.000
 5755.00    1.20260   1.22202    0.000
 5756.00    1.18612   1.22282    0.000
 5757.00    1.18118   1.22288    0.000
 5758.00    1.18705   1.22244    0.000
 5759.00    1.19741   1.22170    0.000
 5760.00    1.20432   1.22019    0.000
 5761.00    1.20481   1.21937    0.000
 5762.00    1.20197   1.21990    0.000
 5763.00    1.19928   1.22074    0.000
 5764.00    1.19776   1.22306    0.000
 5765.00    1.19378   1.22708    0.000
 5766.00    1.18142   1.23030    0.000
 5767.00    1.16186   1.23283    0.000
 5768.00    1.14390   1.23532    0.000
 5769.00    1.13605   1.23618    0.000
 5770.00    1.14180   1.23572    0.000
 5771.00    1.15384   1.23481    0.000
 5772.00    1.15825   1.23291    0.000
 5773.00    1.14944   1.23058    0.000
 5774.00    1.13309   1.22809    0.000
 5775.00    1.12354   1.22428    0.000
 5776.00    1.13474   1.21972    0.000
 5777.00    1.16238   1.21482    0.000
 5778.00    1.18865   1.20810    0.000
 5779.00    1.20073   1.20064    0.000
 5780.00    1.19505   1.19444    0.000
 5781.00    1.17779   1.18859    0.000
 5782.00    1.16138   1.18334    0.000
 5783.00    1.15793   1.18144    0.000
 5784.00    1.17265   1.18235    0.000
 5785.00    1.19543   1.18399    0.000
 5786.00    1.21029   1.18789    0.000
 5787.00    1.21191   1.19417    0.000
 5788.00    1.20307   1.19989    0.000
 5789.00    1.18724   1.20539    0.000
 5790.00    1.16920   1.21185    0.000
 5791.00    1.15704   1.21703    0.000
 5792.00    1.15596   1.22133   -2.000
 5793.00    1.16053   1.22649   -2.000
 5794.00    1.15725   1.23039   -2.000
 5795.00    1.13018   1.23311   -2.000
 5796.00    1.07972   1.23704   -2.000
 5797.00    1.03962   1.24071   -2.000
 5798.00    1.04448   1.24283   -2.000
 5799.00    1.09538   1.24545   -2.000
 5800.00    1.16606   1.24839   -2.000
 5801.00    1.21526   1.24936   -2.000
 5802.00    1.21808   1.24936   -2.000
 5803.00    1.19003   1.24969   -2.000
 5804.00    1.16016   1.24896   -2.000
 5805.00    1.14651   1.24742   -2.000
 5806.00    1.15223   1.24647   -2.000
 5807.00    1.16579   1.24577   -2.000
 5808.00    1.17549   1.24501   -2.000
 5809.00    1.17928   1.24430   -2.000
 5810.00    1.17939   1.24343   -2.000
 5811.00    1.17820   1.24251    0.000
 5812.00    1.17701   1.24126    0.000
 5813.00    1.17557   1.23954    0.000
 5814.00    1.17281   1.23840    0.000
 5815.00    1.16813   1.23823    0.000
 5816.00    1.16539   1.23844    0.000
 5817.00    1.17400   1.23937    0.000
 5818.00    1.20380   1.24166    0.000
 5819.00    1.25906   1.24432    0.000
 5820.00    1.32364   1.24647    0.000
 5821.00    1.36241   1.24871    0.000
 5822.00    1.35678   1.25099    0.000
 5823.00    1.31708   1.25245    0.000
 5824.00    1.26817   1.25343    0.000
 5825.00    1.23757   1.25447    0.000
 5826.00    1.23494   1.25538    0.000
 5827.00    1.24894   1.25600    0.000
 5828.00    1.26318   1.25628    0.000
 5829.00    1.26511   1.25639    0.000
 5830.00    1.25522   1.25647    0.000
 5831.00    1.24574   1.25598    0.000
 5832.00    1.24766   1.25485    0.000
 5833.00    1.26438   1.25418    0.000
 5834.00    1.28548   1.25378    0.000
 5835.00    1.29384   1.25279    0.000
 5836.00    1.28796   1.25238    0.000
 5837.00    1.28015   1.25314    0.000
 5838.00    1.27821   1.25360    0.000
 5839.00    1.28185   1.25384    0.000
 5840.00    1.28524   1.25467    0.000
 5841.00    1.28036   1.25488    0.000
 5842.00    1.26276   1.25380    0.000
 5843.00    1.23494   1.25206    0.000
 5844.00    1.20986   1.24925    0.000
 5845.00    1.20283   1.24517    0.000
 5846.00    1.21581   1.24046    0.000
 5847.00    1.23728   1.23494    0.000
 5848.00    1.24739   1.22878    0.000
 5849.00    1.23222   1.22276    0.000
 5850.00    1.20358   1.21632    0.000
 5851.00    1.18483   1.20944    0.000
 5852.00    1.18605   1.20346    0.000
 5853.00    1.20272   1.19794    0.000
 5854.00    1.21967   1.19225    0.000
 5855.00    1.22175   1.18821    0.000
 5856.00    1.20631   1.18616    0.000
 5857.00    1.17842   1.18462    0.000
 5858.00    1.14355   1.18458    0.000
 5859.00    1.10753   1.18674    0.000
 5860.00    1.07739   1.18928    0.000
 5861.00    1.06093   1.19213    0.000
 5862.00    1.06540   1.19597    0.000
 5863.00    1.08991   1.19925    0.000
 5864.00    1.11952   1.20202    0.000
 5865.00    1.13810   1.20541    0.000
 5866.00    1.14047   1.20827    0.000
 5867.00    1.13410   1.21029    0.000
 5868.00    1.13730   1.21267    0.000
 5869.00    1.15935   1.21473    0.000
 5870.00    1.18759   1.21539    0.000
 5871.00    1.20532   1.21540    0.000
 5872.00    1.20573   1.21496    0.000
 5873.00    1.19348   1.21313    0.000
 5874.00    1.18295   1.21035    0.000
 5875.00    1.18423   1.20756    0.000
 5876.00    1.19555   1.20435    0.000
 5877.00    1.21058   1.20040    0.000
 5878.00    1.22315   1.19660    0.000
 5879.00    1.22769   1.19303    0.000
 5880.00    1.22014   1.18818    0.000
 5881.00    1.20166   1.18185    0.000
 5882.00    1.17967   1.17456    0.000
 5883.00    1.16413   1.16419    0.000
 5884.00    1.16265   1.14955    0.000
 5885.00    1.16755   1.13306    0.000
 5886.00    1.15693   1.11394    0.000
 5887.00    1.12128   1.09125    0.000
 5888.00    1.07079   1.07094    0.000
 5889.00    1.02135   1.05422    0.000
 5890.00    0.98722   1.03780    0.000
 5891.00    0.97477   1.02789    0.000
 5892.00    0.98102   1.02598    0.000
 5893.00    0.99595   1.02466    0.000
 5894.00    1.00666   1.02832    0.000
 5895.00    1.00718   1.03986    0.000
 5896.00    1.00062   1.05090    0.000
 5897.00    0.99659   1.06397    0.000
 5898.00    1.00666   1.08324    0.000
 5899.00    1.03494   1.10111    0.000
 5900.00    1.07598   1.11688    0.000
 5901.00    1.11616   1.13420   13.353
 5902.00    1.14127   1.14883   13.088
 5903.00    1.15214   1.15911   13.106
 5904.00    1.15951   1.16801   13.382
 5905.00    1.16607   1.17504   13.546
 5906.00    1.16603   1.17920   13.216
 5907.00    1.15184   1.18184   12.806
 5908.00    1.12255   1.18363   12.889
 5909.00    1.09556   1.18426   13.185
 5910.00    1.09312   1.18360   13.085
 5911.00    1.11663   1.18215   12.905
 5912.00    1.15221   1.18074   13.266
 5913.00    1.18639   1.17920   13.906
 5914.00    1.21033   1.17762   14.098
 5915.00    1.22234   1.17725   13.911
 5916.00    1.22460   1.17781   13.889
 5917.00    1.21838   1.17889   14.188
 5918.00    1.20593   1.18102   14.615
 5919.00    1.19305   1.18328   14.755
 5920.00    1.18308   1.18542   14.446
 5921.00    1.17032   1.18781   14.259
 5922.00    1.15091   1.18939   14.648
 5923.00    1.13457   1.19029   15.186
 5924.00    1.13247   1.19107   15.195
 5925.00    1.14372   1.19104   14.756
 5926.00    1.15788   1.19054   14.343
 5927.00    1.15995   1.18991   14.250
 5928.00    1.14368   1.18901   14.458
 5929.00    1.12141   1.18856   14.557
 5930.00    1.10965   1.18848   14.307
 5931.00    1.11639   1.18849   14.065
 5932.00    1.14179   1.18916   14.056
 5933.00    1.17918   1.19056   13.964
 5934.00    1.21374   1.19193   13.650
 5935.00    1.22475   1.19295   13.532
 5936.00    1.20764   1.19442   13.803
 5937.00    1.18453   1.19594   14.050
 5938.00    1.17629   1.19627   13.930
 5939.00    1.18587   1.19653   13.642
 5940.00    1.20635   1.19735   13.428
 5941.00    1.22697   1.19730   13.318
 5942.00    1.23693   1.19693   13.352
 5943.00    1.22903   1.19716   13.638
 5944.00    1.20724   1.19697   14.099
 5945.00    1.18719   1.19614   14.385
 5946.00    1.18048   1.19504   14.442
 5947.00    1.18783   1.19357   14.677
 5948.00    1.20234   1.19199   15.110
 5949.00    1.21341   1.19012   15.171
 5950.00    1.21599   1.18800   14.791
 5951.00    1.21312   1.18679   14.598
 5952.00    1.21101   1.18625   14.814
 5953.00    1.21521   1.18540   15.121
 5954.00    1.22442   1.18544   15.238
 5955.00    1.23116   1.18694   15.149
 5956.00    1.23106   1.18852   15.000
 5957.00    1.22452   1.19043   14.958
 5958.00    1.21236   1.19362   14.970
 5959.00    1.19542   1.19705   14.848
 5960.00    1.17729   1.20003   14.674
 5961.00    1.16317   1.20317   14.692
 5962.00    1.15521   1.20613   14.795
 5963.00    1.15165   1.20808   14.650
 5964.00    1.14809   1.20982   14.353
 5965.00    1.14124   1.21168   14.244
 5966.00    1.13622   1.21276   14.270
 5967.00    1.14213   1.21382   14.150
 5968.00    1.15940   1.21518   13.948
 5969.00    1.18046   1.21563   13.915
 5970.00    1.19622   1.21532   14.011
 5971.00    1.19946   1.21466   14.043
 5972.00    1.18861   1.21286   14.063
 5973.00    1.16898   1.20996   14.229
 5974.00    1.15342   1.20691   14.453
 5975.00    1.15387   1.20370   14.534
 5976.00    1.16857   1.20033   14.505
 5977.00    1.18725   1.19769   14.521
 5978.00    1.20174   1.19562   14.600
 5979.00    1.20816   1.19367   14.714
 5980.00    1.20761   1.19245   14.951
 5981.00    1.20357   1.19135   15.370
 5982.00    1.19839   1.19010   15.753
 5983.00    1.19255   1.18985   15.842
 5984.00    1.18470   1.19004   15.730
 5985.00    1.17571   1.19037   15.638
 5986.00    1.17266   1.19218   15.603
 5987.00    1.18192   1.19492   15.512
 5988.00    1.20193   1.19755   15.202
 5989.00    1.22597   1.20064   14.724
 5990.00    1.24584   1.20417   14.449
 5991.00    1.25590   1.20703   14.549
 5992.00    1.25616   1.20893   14.685
 5993.00    1.24915   1.21051   14.583
 5994.00    1.23702   1.21122   14.507
 5995.00    1.22081   1.21062   14.655
 5996.00    1.20055   1.20957   14.756
 5997.00    1.17903   1.20792   14.582
 5998.00    1.16364   1.20576   14.330
 5999.00    1.15973   1.20373   14.224
 6000.00    1.16612   1.20130   14.288
 6001.00    1.17501   1.19904   14.431
 6002.00    1.17448   1.19724   14.519
 6003.00    1.16188   1.19482   14.520
 6004.00    1.14877   1.19292   14.553
 6005.00    1.14544   1.19164   14.679
 6006.00    1.15326   1.18999   14.816
 6007.00    1.16950   1.18935   14.869
 6008.00    1.19013   1.18937   14.804
 6009.00    1.21010   1.18932   14.599
 6010.00    1.22401   1.18998   14.268
 6011.00    1.22847   1.19055   14.042
 6012.00    1.22368   1.19096   14.267
 6013.00    1.21555   1.19130   14.795
 6014.00    1.21322   1.19074   14.894
 6015.00    1.21687   1.19036   14.426
 6016.00    1.21758   1.19009   14.038
 6017.00    1.21278   1.18900   13.957
 6018.00    1.20812   1.18846   13.933
 6019.00    1.20594   1.18884   13.875
 6020.00    1.20305   1.18934   13.923
 6021.00    1.19572   1.19043   14.103
 6022.00    1.18227   1.19269   14.286
 6023.00    1.16556   1.19606   14.388
 6024.00    1.15139   1.19959   14.395
 6025.00    1.14250   1.20352   14.281
 6026.00    1.13952   1.20851   14.053
 6027.00    1.14680   1.21307   13.904
 6028.00    1.16979   1.21702   14.030
 6029.00    1.20623   1.22129   14.199
 6030.00    1.24628   1.22496   13.996
 6031.00    1.27730   1.22764   13.619
 6032.00    1.28816   1.23000   13.544
 6033.00    1.27546   1.23188   13.746
 6034.00    1.24431   1.23288   13.929
 6035.00    1.20720   1.23345   14.107
 6036.00    1.17793   1.23381   14.462
 6037.00    1.16198   1.23364   14.851
 6038.00    1.15730   1.23362   14.956
 6039.00    1.15845   1.23387   14.792
 6040.00    1.16197   1.23408   14.624
 6041.00    1.17267   1.23507   14.660
 6042.00    1.19440   1.23650   14.915
 6043.00    1.21703   1.23785   15.054
 6044.00    1.22632   1.23966   14.824
 6045.00    1.21857   1.24142   14.633
 6046.00    1.20065   1.24250   14.862
 6047.00    1.18702   1.24314   15.149
 6048.00    1.18809   1.24330   14.991
 6049.00    1.19874   1.24251   14.614
 6050.00    1.21051   1.24090   14.440
 6051.00    1.22442   1.23895   14.534
 6052.00    1.24244   1.23666   14.709
 6053.00    1.25852   1.23402   14.637
 6054.00    1.26307   1.23162   14.254
 6055.00    1.24856   1.22979   13.985
 6056.00    1.21740   1.22816   14.029
 6057.00    1.18608   1.22682   13.965
 6058.00    1.16842   1.22600   13.588
 6059.00    1.16357   1.22504   13.408
 6060.00    1.16602   1.22363   13.711
 6061.00    1.17283   1.22264   14.089
 6062.00    1.17963   1.22174   14.140
 6063.00    1.17915   1.22067   14.044
 6064.00    1.17108   1.22132   14.022
 6065.00    1.16611   1.22323   14.012
 6066.00    1.17299   1.22556   13.974
 6067.00    1.19099   1.22978   14.034
 6068.00    1.21133   1.23469   14.274
 6069.00    1.22109   1.23894   14.621
 6070.00    1.21742   1.24300   14.899
 6071.00    1.21128   1.24601   14.904
 6072.00    1.21154   1.24733   14.629
 6073.00    1.21805   1.24699   14.305
 6074.00    1.22536   1.24522   14.171
 6075.00    1.22609   1.24233   14.368
 6076.00    1.21770   1.23796   14.828
 6077.00    1.20434   1.23323   15.244
 6078.00    1.19406   1.22892   15.374
 6079.00    1.19482   1.22418   15.216
 6080.00    1.20558   1.22017   14.951
 6081.00    1.21742   1.21770   14.784
 6082.00    1.22750   1.21545   14.705
 6083.00    1.23882   1.21397   14.535
 6084.00    1.24608   1.21376   14.252
 6085.00    1.23753   1.21352   14.019
 6086.00    1.21248   1.21360   14.012
 6087.00    1.18282   1.21406   14.306
 6088.00    1.16403   1.21421   14.630
 6089.00    1.16618   1.21494   14.543
 6090.00    1.17881   1.21593   14.236
 6091.00    1.18065   1.21670   14.241
 6092.00    1.16882   1.21845   14.515
 6093.00    1.15651   1.22040   14.633
 6094.00    1.15418   1.22144   14.599
 6095.00    1.16427   1.22258   14.694
 6096.00    1.17932   1.22307   14.768
 6097.00    1.18764   1.22130   14.559
 6098.00    1.18419   1.21899   14.496
 6099.00    1.17288   1.21636   15.121
 6100.00    1.16643   1.21183   15.987
 6101.00    1.17550   1.20845   16.036
 6102.00    1.19237   1.20686   15.359
 6103.00    1.20153   1.20506   14.762
 6104.00    1.19834   1.20599   14.513
 6105.00    1.18691   1.20899   14.538
 6106.00    1.17333   1.21165   14.701
 6107.00    1.16427   1.21601   14.869
 6108.00    1.16596   1.22045   14.986
 6109.00    1.18089   1.22361   15.011
 6110.00    1.20433   1.22707   14.853
 6111.00    1.22746   1.22932   14.562
 6112.00    1.24172   1.23036   14.476
 6113.00    1.24434   1.23098   14.752
 6114.00    1.24261   1.22964   14.959
 6115.00    1.24560   1.22748   14.670
 6116.00    1.25557   1.22445   14.153
 6117.00    1.26597   1.21924   13.855
 6118.00    1.26208   1.21454   13.974
 6119.00    1.23546   1.20988   14.401
 6120.00    1.19486   1.20435   14.633
 6121.00    1.15617   1.20157   14.428
 6122.00    1.13348   1.20028   14.303
 6123.00    1.13557   1.19923   14.519
 6124.00    1.16295   1.20118   14.559
 6125.00    1.20301   1.20411   14.250
 6126.00    1.23091   1.20646   14.345
 6127.00    1.23546   1.20973   15.133
 6128.00    1.23086   1.21228   15.719
 6129.00    1.22951   1.21281   15.490
 6130.00    1.22785   1.21226   15.228
 6131.00    1.21823   1.20992   15.460
 6132.00    1.19709   1.20500   15.790
 6133.00    1.17103   1.19934   15.571
 6134.00    1.15637   1.19319   14.536
 6135.00    1.16384   1.18668   13.214
 6136.00    1.19177   1.18231   12.342
 6137.00    1.22861   1.18025   12.033
 6138.00    1.25670   1.18041   11.984
 6139.00    1.26188   1.18337   12.041
 6140.00    1.23972   1.18826   12.273
 6141.00    1.20347   1.19445   12.663
 6142.00    1.17884   1.20072   13.027
 6143.00    1.17612   1.20630   13.260
 6144.00    1.18571   1.21095   13.425
 6145.00    1.19595   1.21378   13.617
 6146.00    1.19978   1.21489   13.895
 6147.00    1.19641   1.21480   14.261
 6148.00    1.18962   1.21356   14.647
 6149.00    1.18190   1.21141   14.900
 6150.00    1.17433   1.20895   14.899
 6151.00    1.17082   1.20651   14.848
 6152.00    1.17526   1.20308   15.106
 6153.00    1.18236   1.19886   15.653
 6154.00    1.18091   1.19410   16.087
 6155.00    1.16612   1.18718   16.039
 6156.00    1.14053   1.17834   15.409
 6157.00    1.10993   1.16844   14.377
 6158.00    1.08046   1.15702   13.322
 6159.00    1.05497   1.14500   12.725
 6160.00    1.03504   1.13397   12.875
 6161.00    1.02570   1.12421   13.543
 6162.00    1.03084   1.11698   14.157
 6163.00    1.04430   1.11290   14.425
 6164.00    1.05642   1.11073   14.434
 6165.00    1.06649   1.11134   14.321
 6166.00    1.08089   1.11417   14.174
 6167.00    1.10707   1.11696   14.001
 6168.00    1.14462   1.12082   13.838
 6169.00    1.17530   1.12567   13.862
 6170.00    1.17912   1.12997   14.202
 6171.00    1.15585   1.13466   14.683
 6172.00    1.12142   1.13992   14.954
 6173.00    1.09915   1.14497   14.802
 6174.00    1.10308   1.14995   14.393
 6175.00    1.12218   1.15471   14.270
 6176.00    1.13754   1.15937   14.707
 6177.00    1.14131   1.16342   15.187
 6178.00    1.13390   1.16659   15.145
 6179.00    1.11922   1.16960   14.962
 6180.00    1.10126   1.17140   15.161
 6181.00    1.08187   1.17168   15.688
 6182.00    1.06346   1.17125   16.241
 6183.00    1.05083   1.16892   16.576
 6184.00    1.04617   1.16507   16.496
 6185.00    1.04571   1.16071   15.885
 6186.00    1.04461   1.15466   14.941
 6187.00    1.04092   1.14875   14.102
 6188.00    1.03597   1.14407   13.583
 6189.00    1.03422   1.13911   13.334
 6190.00    1.04028   1.13649   13.398
 6191.00    1.05660   1.13631   14.016
 6192.00    1.08069   1.13672   15.105
 6193.00    1.10511   1.13960   15.785
 6194.00    1.12597   1.14332   15.543
 6195.00    1.14610   1.14677   15.088
 6196.00    1.16767   1.15109   -2.000
 6197.00    1.18907   1.15444   -2.000
 6198.00    1.20841   1.15711   -2.000
 6199.00    1.22371   1.16010   -2.000
 6200.00    1.22627   1.16252   -2.000
 6201.00    1.20315   1.16502   -2.000
 6202.00    1.15823   1.16766   -2.000
 6203.00    1.11397   1.16995   -2.000
 6204.00    1.08585   1.17211   -2.000
 6205.00    1.07497   1.17320   -2.000
 6206.00    1.07714   1.17311   -2.000
 6207.00    1.08649   1.17199   -2.000
 6208.00    1.09636   1.16871   12.812
 6209.00    1.10056   1.16416   12.811
 6210.00    1.09626   1.15870   13.325
 6211.00    1.08539   1.15149   14.521
 6212.00    1.07587   1.14468   16.007
 6213.00    1.07676   1.13827   16.678
 6214.00    1.08526   1.13171   16.468
 6215.00    1.09017   1.12736   16.447
 6216.00    1.08842   1.12422   16.741
 6217.00    1.08436   1.12184   16.682
 6218.00    1.07911   1.12152   16.237
 6219.00    1.07187   1.12159   15.852
 6220.00    1.06755   1.12229   15.478
 6221.00    1.07304   1.12370   14.859
 6222.00    1.08698   1.12416   14.233
 6223.00    1.10144   1.12479   13.990
 6224.00    1.10864   1.12491   14.187
 6225.00    1.10460   1.12327   14.590
 6226.00    1.09305   1.12178   14.684
 6227.00    1.08212   1.11992   14.126
 6228.00    1.07823   1.11698   13.409
 6229.00    1.08466   1.11548   13.057
 6230.00    1.10076   1.11493   12.882
 6231.00    1.12181   1.11460   12.641
 6232.00    1.13919   1.11628   12.764
 6233.00    1.14471   1.11855   13.729
 6234.00    1.13604   1.12044   15.125
 6235.00    1.11613   1.12232   15.976
 6236.00    1.09169   1.12335   16.389
 6237.00    1.07081   1.12296   16.998
 6238.00    1.06063   1.12094   17.410
 6239.00    1.06590   1.11894   17.057
 6240.00    1.08765   1.11645   16.503
 6241.00    1.12064   1.11308   16.378
 6242.00    1.15174   1.11176   16.553
 6243.00    1.16672   1.11105   16.588
 6244.00    1.15705   1.11041   16.173
 6245.00    1.12484   1.11199   15.543
 6246.00    1.08534   1.11354   15.433
 6247.00    1.05756   1.11439   15.908
 6248.00    1.05523   1.11591   15.735
 6249.00    1.07591   1.11601   14.619
 6250.00    1.09719   1.11447   14.155
 6251.00    1.10261   1.11268   14.938
 6252.00    1.09704   1.10974   15.675
 6253.00    1.09203   1.10609   15.129
 6254.00    1.09539   1.10342   14.112
 6255.00    1.10802   1.10176   13.476
 6256.00    1.12342   1.10070   13.275
 6257.00    1.13370   1.10184   13.430
 6258.00    1.13368   1.10541   13.917
 6259.00    1.12487   1.10928   14.570
 6260.00    1.11555   1.11457   14.964
 6261.00    1.11208   1.12121   14.831
 6262.00    1.11494   1.12709   14.356
 6263.00    1.11994   1.13256   13.901
 6264.00    1.12096   1.13751   13.778
 6265.00    1.11828   1.14134   14.100
 6266.00    1.11869   1.14442   14.779
 6267.00    1.12325   1.14688   15.550
 6268.00    1.12565   1.14872   16.024
 6269.00    1.12253   1.15023   16.206
 6270.00    1.11617   1.15187   16.505
 6271.00    1.11132   1.15316   16.823
 6272.00    1.11266   1.15388   16.578
 6273.00    1.12107   1.15478   15.990
 6274.00    1.13352   1.15517   15.804
 6275.00    1.14598   1.15450   15.914
 6276.00    1.15484   1.15415   15.627
 6277.00    1.15823   1.15357   15.082
 6278.00    1.15660   1.15252   14.932
 6279.00    1.15306   1.15264   15.085
 6280.00    1.15170   1.15294    0.000
 6281.00    1.15370   1.15398    0.000
 6282.00    1.15885   1.15664    0.000
 6283.00    1.17023   1.15917    0.000
 6284.00    1.18980   1.16254    0.000
 6285.00    1.20830   1.16617    0.000
 6286.00    1.21188   1.16883    0.000
 6287.00    1.19746   1.17142    0.000
 6288.00    1.17263   1.17259    0.000
 6289.00    1.15037   1.17271    0.000
 6290.00    1.14210   1.17217    0.000
 6291.00    1.14854   1.16978    0.000
 6292.00    1.16288   1.16705    0.000
 6293.00    1.17753   1.16407    0.000
 6294.00    1.18553   1.16036    0.000
 6295.00    1.18147   1.15699    0.000
 6296.00    1.16506   1.15366    0.000
 6297.00    1.14514   1.15090    0.000
 6298.00    1.13388   1.14939    0.000
 6299.00    1.13912   1.14842    0.000
 6300.00    1.16163   1.14836    0.000
 6301.00    1.19343   1.14989    0.000
 6302.00    1.22217   1.15260    0.000
 6303.00    1.23638   1.15580    0.000
 6304.00    1.23107   1.15956    0.000
 6305.00    1.21190   1.16380    0.000
 6306.00    1.18869   1.16749    0.000
 6307.00    1.16911   1.17033    0.000
 6308.00    1.15652   1.17239    0.000
 6309.00    1.14946   1.17281    0.000
 6310.00    1.14857   1.17181    0.000
 6311.00    1.16026   1.17058    0.000
 6312.00    1.18400   1.16798    0.000
 6313.00    1.20525   1.16422    0.000
 6314.00    1.21160   1.16188    0.000
 6315.00    1.20326   1.15975    0.000
 6316.00    1.18760   1.15758    0.000
 6317.00    1.17442   1.15734    0.000
 6318.00    1.17007   1.15816    0.000
 6319.00    1.17443   1.16021    0.000
 6320.00    1.18259   1.16342    0.000
 6321.00    1.18735   1.16698   16.041
 6322.00    1.18668   1.17129   16.650
 6323.00    1.18518   1.17582   16.928
 6324.00    1.18421   1.17998   16.604
 6325.00    1.17900   1.18307   16.118
 6326.00    1.16723   1.18600   15.794
 6327.00    1.15239   1.18849   15.624
 6328.00    1.14183   1.18916   15.584
 6329.00    1.14288   1.18949   15.703
 6330.00    1.15222   1.18876   15.906
 6331.00    1.15668   1.18698   16.012
 6332.00    1.14987   1.18543   16.007
 6333.00    1.13624   1.18268   16.047
 6334.00    1.12483   1.17984   16.132
 6335.00    1.12420   1.17838   16.111
 6336.00    1.13405   1.17700   16.052
 6337.00    1.14616   1.17600   16.205
 6338.00    1.15412   1.17615   16.621
 6339.00    1.15575   1.17643   17.104
 6340.00    1.15212   1.17723   17.394
 6341.00    1.14712   1.17803   17.332
 6342.00    1.14708   1.17798   17.095
 6343.00    1.15791   1.17893   16.994
 6344.00    1.17926   1.17994   17.007
 6345.00    1.20424   1.18043   16.914
 6346.00    1.22199   1.18183   16.746
 6347.00    1.22356   1.18328   16.664
 6348.00    1.21177   1.18445   16.574
 6349.00    1.19699   1.18526   16.288
 6350.00    1.18609   1.18491   15.924
 6351.00    1.18229   1.18397   15.698
 6352.00    1.18806   1.18175   15.563
 6353.00    1.20249   1.17759   15.377
 6354.00    1.21664   1.17320   15.199
 6355.00    1.21866   1.16843   15.179
 6356.00    1.20261   1.16260   15.364
 6357.00    1.17192   1.15726   15.626
 6358.00    1.14167   1.15296   15.602
 6359.00    1.12761   1.14955   15.100
 6360.00    1.13212   1.14755   14.543
 6361.00    1.14705   1.14700   14.299
 6362.00    1.15969   1.14833   14.170
 6363.00    1.16111   1.15168   13.947
 6364.00    1.15412   1.15587   13.932
 6365.00    1.14783   1.16093   14.292
 6366.00    1.15064   1.16716   14.441
 6367.00    1.16358   1.17345   14.148
 6368.00    1.17586   1.17931   14.508
 6369.00    1.17645   1.18476   15.564
 6370.00    1.16473   1.18972   14.089
 6371.00    1.14935   1.19401   10.558
 6372.00    1.14481   1.19718    8.598
 6373.00    1.15646   1.19913    8.299
 6374.00    1.17175   1.20036    8.590
 6375.00    1.17968   1.20085    8.618
 6376.00    1.18353   1.20001    8.417
 6377.00    1.18778   1.19879    8.320
 6378.00    1.18964   1.19752    8.451
 6379.00    1.18440   1.19578    8.627
 6380.00    1.17012   1.19463    8.425
 6381.00    1.15271   1.19383    8.198
 6382.00    1.14624   1.19308    9.223
 6383.00    1.15920   1.19299   12.810
 6384.00    1.18753   1.19311   17.552
 6385.00    1.21827   1.19311   17.483
 6386.00    1.23467   1.19297   15.914
 6387.00    1.23083   1.19234   16.129
 6388.00    1.21496   1.19092   17.012
 6389.00    1.19445   1.18961   17.336
 6390.00    1.17170   1.18808   17.307
 6391.00    1.15476   1.18559   17.189
 6392.00    1.15646   1.18402   16.719
 6393.00    1.17504   1.18339   15.736
 6394.00    1.19314   1.18247   14.445
 6395.00    1.19978   1.18202   13.307
 6396.00    1.19645   1.18278   12.703
 6397.00    1.19088   1.18364   12.624
 6398.00    1.19155   1.18428   12.845
 6399.00    1.19783   1.18653   13.238
 6400.00    1.20148   1.18891   13.771
 6401.00    1.19877   1.19119   14.248
 6402.00    1.19283   1.19406   14.358
 6403.00    1.19028   1.19566   14.153
 6404.00    1.19669   1.19783   14.015
 6405.00    1.20811   1.19938   14.225
 6406.00    1.21494   1.19841   14.877
 6407.00    1.21511   1.19840   15.732
 6408.00    1.21306   1.19810   16.287
 6409.00    1.21158   1.19602   16.413
 6410.00    1.21011   1.19485   16.378
 6411.00    1.20519   1.19396   16.267
 6412.00    1.19304   1.19298   16.093
 6413.00    1.17420   1.19266   16.194
 6414.00    1.15323   1.19185   16.860
 6415.00    1.13660   1.19101   17.519
 6416.00    1.12859   1.19082   17.291
 6417.00    1.12579   1.19028   16.667
 6418.00    1.12280   1.18984   16.501
 6419.00    1.12145   1.19002   16.546
 6420.00    1.12638   1.19107   16.237
 6421.00    1.13739   1.19318   15.818
 6422.00    1.15105   1.19543   15.730
 6423.00    1.16406   1.19781   15.846
 6424.00    1.17530   1.20028   15.825
 6425.00    1.18733   1.20210   15.591
 6426.00    1.20342   1.20318   15.171
 6427.00    1.22379   1.20332   14.486
 6428.00    1.24261   1.20208   13.622
 6429.00    1.24680   1.20059   12.945
 6430.00    1.23137   1.19972   12.687
 6431.00    1.21239   1.19854   12.796
 6432.00    1.20881   1.19806   13.189
 6433.00    1.22513   1.19793   13.902
 6434.00    1.25173   1.19796   14.911
 6435.00    1.26845   1.19963   15.876
 6436.00    1.26291   1.20083   16.328
 6437.00    1.24250   1.20175   16.136
 6438.00    1.21970   1.20469   15.638
 6439.00    1.20128   1.20761   15.377
 6440.00    1.19272   1.21041   15.456
 6441.00    1.20010   1.21346   15.365
 6442.00    1.22117   1.21532   15.000
 6443.00    1.24202   1.21683   15.035
 6444.00    1.25159   1.21675   15.700
 6445.00    1.24963   1.21421   16.215
 6446.00    1.24276   1.21129   15.845
 6447.00    1.24000   1.20658   14.838
 6448.00    1.24217   1.20116   13.766
 6449.00    1.24005   1.19776   12.976
 6450.00    1.23056   1.19460   12.496
 6451.00    1.22113   1.19289   12.199
 6452.00    1.21476   1.19304   12.204
 6453.00    1.20634   1.19346   12.876
 6454.00    1.19418   1.19561   14.241
 6455.00    1.18350   1.19837   15.505
 6456.00    1.18120   1.20047   15.676
 6457.00    1.19137   1.20213   14.756
 6458.00    1.20732   1.20310   13.752
 6459.00    1.21487   1.20372   13.574
 6460.00    1.21149   1.20304   14.162
 6461.00    1.20744   1.20268   14.707
 6462.00    1.20990   1.20352   14.872
 6463.00    1.21871   1.20410   15.089
 6464.00    1.22835   1.20546   15.449
 6465.00    1.23158   1.20701   15.597
 6466.00    1.22720   1.20867   15.549
 6467.00    1.21932   1.21080   15.661
 6468.00    1.21076   1.21228   15.966
 6469.00    1.20260   1.21251   16.127
 6470.00    1.19684   1.21242   15.793
 6471.00    1.19615   1.21246   14.913
 6472.00    1.20219   1.21131   13.924
 6473.00    1.21582   1.20983   13.266
 6474.00    1.23781   1.20866   12.966
 6475.00    1.26535   1.20729   12.900
 6476.00    1.28586   1.20566   13.110
 6477.00    1.28509   1.20346   13.684
 6478.00    1.26244   1.20104   14.461
 6479.00    1.22991   1.19841   15.108
 6480.00    1.20572   1.19551   15.564
 6481.00    1.20295   1.19296   15.981
 6482.00    1.21514   1.19090   16.321
 6483.00    1.22583   1.18924   16.508
 6484.00    1.22453   1.18758   16.759
 6485.00    1.20898   1.18555   17.178
 6486.00    1.18510   1.18322   17.174
 6487.00    1.16339   1.17971   16.687
 6488.00    1.15416   1.17413   17.373
 6489.00    1.16157   1.16649   18.794
 6490.00    1.17816   1.15767   16.838
 6491.00    1.19288   1.14761   11.039
 6492.00    1.19982   1.13625    8.289
 6493.00    1.19725   1.12659    7.918
 6494.00    1.18593   1.11890    8.462
 6495.00    1.16954   1.11402    8.739
 6496.00    1.15466   1.11340    8.640
 6497.00    1.14670   1.11480    8.602
 6498.00    1.14666   1.12043    8.749
 6499.00    1.15300   1.12928    8.864
 6500.00    1.16309   1.13878    8.525
 6501.00    1.17252   1.14975    8.086
 6502.00    1.17558   1.15983    8.787
 6503.00    1.17311   1.16906   11.882
 6504.00    1.17529   1.17750   16.758
 6505.00    1.18642   1.18370   17.782
 6506.00    1.19731   1.18826   16.331
 6507.00    1.19825   1.19145   16.252
 6508.00    1.18705   1.19348   17.090
 6509.00    1.16945   1.19445   17.741
 6510.00    1.15729   1.19421   17.957
 6511.00    1.15908   1.19322   17.835
 6512.00    1.17566   1.19189   17.433
 6513.00    1.20219   1.19008   16.949
 6514.00    1.23030   1.18815   16.687
 6515.00    1.25226   1.18676   16.730
 6516.00    1.26326   1.18553   16.875
 6517.00    1.26295   1.18513   16.804
 6518.00    1.25540   1.18589   16.295
 6519.00    1.24690   1.18697   15.646
 6520.00    1.24378   1.18883   15.400
 6521.00    1.24815   1.19072   15.542
 6522.00    1.25737   1.19250   15.554
 6523.00    1.26702   1.19463   15.261
 6524.00    1.27291   1.19575   14.961
 6525.00    1.27371   1.19620   14.894
 6526.00    1.27159   1.19669   15.109
 6527.00    1.27184   1.19684   15.429
 6528.00    1.27900   1.19689    0.000
 6529.00    1.28772   1.19670    0.000
 6530.00    1.28638   1.19638    0.000
 6531.00    1.27119   1.19659    0.000
 6532.00    1.24661   1.19720    0.000
 6533.00    1.21837   1.19793    0.000
 6534.00    1.19240   1.19876    0.000
 6535.00    1.17594   1.19921    0.000
 6536.00    1.17421   1.19943    0.000
 6537.00    1.18353   1.19954    0.000
 6538.00    1.19313   1.19878    0.000
 6539.00    1.19099   1.19673    0.000
 6540.00    1.17174   1.19356    0.000
 6541.00    1.14735   1.18920    0.000
 6542.00    1.13714   1.18443    0.000
 6543.00    1.14927   1.17907    0.000
 6544.00    1.17930   1.17253    0.000
 6545.00    1.21281   1.16678    0.000
 6546.00    1.23650   1.16138    0.000
 6547.00    1.25212   1.15583    0.000
 6548.00    1.26772   1.15052    0.000
 6549.00    1.28432   1.14441    0.000
 6550.00    1.29490   1.13839    0.000
 6551.00    1.28622   1.13190    0.000
 6552.00    1.25237   1.12337    0.000
 6553.00    1.20807   1.11339    0.000
 6554.00    1.17244   1.10173    0.000
 6555.00    1.15122   1.08781    0.000
 6556.00    1.14002   1.07200    0.000
 6557.00    1.13034   1.05430    0.000
 6558.00    1.12163   1.03586    0.000
 6559.00    1.13024   1.01861    0.000
 6560.00    1.17618   1.00110    0.000
 6561.00    1.27090   0.98744    0.000
 6562.00    1.41116   0.98306    0.000
 6563.00    1.57578   0.98400    0.000
 6564.00    1.73093   0.99000    0.000
 6565.00    1.83621   1.00098    0.000
 6566.00    1.85924   1.01522    0.000
 6567.00    1.78737   1.03371    0.000
 6568.00    1.64049   1.05229    0.000
 6569.00    1.47196   1.06823    0.000
 6570.00    1.32880   1.08223    0.000
 6571.00    1.22921   1.09409    0.000
 6572.00    1.16869   1.10380    0.000
 6573.00    1.12887   1.11213    0.000
 6574.00    1.10126   1.11997    0.000
 6575.00    1.09418   1.12676    0.000
 6576.00    1.10927   1.13288    0.000
 6577.00    1.13380   1.13886    0.000
 6578.00    1.15678   1.14429    0.000
 6579.00    1.17619   1.14915    0.000
 6580.00    1.19822   1.15396    0.000
 6581.00    1.23443   1.15809    0.000
 6582.00    1.29313   1.16133    0.000
 6583.00    1.37393   1.16439    0.000
 6584.00    1.46128   1.16622    0.000
 6585.00    1.52795   1.16789    0.000
 6586.00    1.55341   1.16905    0.000
 6587.00    1.53194   1.16859    0.000
 6588.00    1.47792   1.16770    0.000
 6589.00    1.41738   1.16577    0.000
 6590.00    1.36104   1.16298    0.000
 6591.00    1.30505   1.15995    0.000
 6592.00    1.25316   1.15780    0.000
 6593.00    1.21622   1.15708    0.000
 6594.00    1.19713   1.15684    0.000
 6595.00    1.19115   1.15752    0.000
 6596.00    1.19495   1.15888    0.000
 6597.00    1.20649   1.16155    0.000
 6598.00    1.22040   1.16538    0.000
 6599.00    1.23037   1.16849    0.000
 6600.00    1.23565   1.17079    0.000
 6601.00    1.23883   1.17234    0.000
 6602.00    1.23999   1.17284    0.000
 6603.00    1.24023   1.17286    0.000
 6604.00    1.24893   1.17237    0.000
 6605.00    1.27227   1.17127    0.000
 6606.00    1.29459   1.17014    0.000
 6607.00    1.29525   1.16899    0.000
 6608.00    1.27676   1.16918    0.000
 6609.00    1.25377   1.17059   15.108
 6610.00    1.23289   1.17228   15.293
 6611.00    1.21512   1.17431   15.605
 6612.00    1.20227   1.17652   15.735
 6613.00    1.19757   1.17978   15.552
 6614.00    1.20504   1.18289   15.445
 6615.00    1.22470   1.18499   15.765
 6616.00    1.24802   1.18643   16.274
 6617.00    1.26498   1.18716   16.564
 6618.00    1.27161   1.18756   16.671
 6619.00    1.26805   1.18715   16.860
 6620.00    1.25598   1.18562   17.279
 6621.00    1.23843   1.18358   17.772
 6622.00    1.21971   1.18101   17.763
 6623.00    1.20360   1.17814   17.112
 6624.00    1.19191   1.17588   16.610
 6625.00    1.18420   1.17335   16.679
 6626.00    1.17799   1.17080   16.812
 6627.00    1.17109   1.16857   16.564
 6628.00    1.16341   1.16635   16.243
 6629.00    1.15699   1.16493   16.167
 6630.00    1.15547   1.16355   16.261
 6631.00    1.16073   1.16195   16.314
 6632.00    1.17099   1.16090   16.165
 6633.00    1.18289   1.16064   15.875
 6634.00    1.19282   1.16106   15.716
 6635.00    1.19764   1.16177   15.780
 6636.00    1.19509   1.16242   15.878
 6637.00    1.18393   1.16319   15.949
 6638.00    1.16469   1.16425   16.185
 6639.00    1.14261   1.16548   16.587
 6640.00    1.12708   1.16616   16.824
 6641.00    1.12296   1.16571   16.843
 6642.00    1.12805   1.16544   17.015
 6643.00    1.13800   1.16565   17.432
 6644.00    1.14899   1.16575   17.730
 6645.00    1.15978   1.16556   17.681
 6646.00    1.17122   1.16496   17.421
 6647.00    1.18226   1.16468   17.152
 6648.00    1.18916   1.16475   17.004
 6649.00    1.18799   1.16423   17.012
 6650.00    1.17803   1.16329   17.112
 6651.00    1.16936   1.16250   17.133
 6652.00    1.17758   1.16158   16.885
 6653.00    1.20328   1.16065   16.389
 6654.00    1.23271   1.15935   15.878
 6655.00    1.25459   1.15788   15.633
 6656.00    1.26335   1.15647   15.829
 6657.00    1.25581   1.15487   16.227
 6658.00    1.23302   1.15307   16.354
 6659.00    1.20582   1.15105   16.306
 6660.00    1.18856   1.14915   16.550
 6661.00    1.18371   1.14698   17.042
 6662.00    1.18481   1.14583   17.334
 6663.00    1.18874   1.14568   17.274
 6664.00    1.19542   1.14572   17.092
 6665.00    1.20328   1.14676   17.106
 6666.00    1.21051   1.14809   17.459
 6667.00    1.21844   1.15040   17.785
 6668.00    1.22834   1.15328   17.593
 6669.00    1.23563   1.15538   17.136
 6670.00    1.23396   1.15661   16.926
 6671.00    1.22229   1.15696   16.980
 6672.00    1.20408   1.15662   17.007
 6673.00    1.18467   1.15530   16.735
 6674.00    1.16873   1.15285   16.210
 6675.00    1.15769   1.14907   15.969
 6676.00    1.15149   1.14496   16.321
 6677.00    1.15084   1.14229   16.671
 6678.00    1.15526   1.14048   16.358
 6679.00    1.16114   1.13882   15.857
 6680.00    1.16629   1.13802   15.797
 6681.00    1.17434   1.13807   16.092
 6682.00    1.18783   1.13978   16.378
 6683.00    1.20160   1.14207   16.450
 6684.00    1.20646   1.14371   16.417
 6685.00    1.19402   1.14539   16.724
 6686.00    1.16629   1.14682   17.527
 6687.00    1.14113   1.14822   18.128
 6688.00    1.13503   1.14904   17.974
 6689.00    1.14985   1.14912   17.688
 6690.00    1.17760   1.14897   17.727
 6691.00    1.20545   1.14839   17.610
 6692.00    1.22311   1.14781   17.034
 6693.00    1.22781   1.14696   16.469
 6694.00    1.22620   1.14573   16.210
 6695.00    1.23215   1.14508   16.047
 6696.00    1.24826   1.14470    0.000
 6697.00    1.25911   1.14455    0.000
 6698.00    1.25338   1.14495    0.000
 6699.00    1.23429   1.14518    0.000
 6700.00    1.20971   1.14573    0.000
 6701.00    1.18588   1.14630    0.000
 6702.00    1.16343   1.14654    0.000
 6703.00    1.13889   1.14696    0.000
 6704.00    1.11880   1.14717    0.000
 6705.00    1.11981   1.14696    0.000
 6706.00    1.14435   1.14620    0.000
 6707.00    1.17611   1.14518    0.000
 6708.00    1.20096   1.14346    0.000
 6709.00    1.21389   1.14140    0.000
 6710.00    1.21473   1.13865    0.000
 6711.00    1.20685   1.13484    0.000
 6712.00    1.19831   1.13110    0.000
 6713.00    1.19995   1.12674    0.000
 6714.00    1.21848   1.12265    0.000
 6715.00    1.25413   1.11890    0.000
 6716.00    1.30013   1.11591    0.000
 6717.00    1.34551   1.11479    0.000
 6718.00    1.38261   1.11431    0.000
 6719.00    1.40741   1.11463    0.000
 6720.00    1.41576   1.11573    0.000
 6721.00    1.40543   1.11780    0.000
 6722.00    1.38271   1.12071    0.000
 6723.00    1.35758   1.12325    0.000
 6724.00    1.33085   1.12529    0.000
 6725.00    1.29745   1.12737    0.000
 6726.00    1.25821   1.12955    0.000
 6727.00    1.22248   1.13141    0.000
 6728.00    1.20809   1.13291    0.000
 6729.00    1.22808   1.13397    0.000
 6730.00    1.26925   1.13485    0.000
 6731.00    1.30587   1.13545    0.000
 6732.00    1.32627   1.13572    0.000
 6733.00    1.33077   1.13569    0.000
 6734.00    1.32251   1.13541    0.000
 6735.00    1.30475   1.13461    0.000
 6736.00    1.27935   1.13332    0.000
 6737.00    1.24985   1.13215    0.000
 6738.00    1.22516   1.13102    0.000
 6739.00    1.21220   1.13005    0.000
 6740.00    1.20720   1.12867    0.000
 6741.00    1.20017   1.12696    0.000
 6742.00    1.18174   1.12583    0.000
 6743.00    1.15088   1.12478    0.000
 6744.00    1.12080   1.12370    0.000
 6745.00    1.10512   1.12237    0.000
 6746.00    1.10467   1.12074    0.000
 6747.00    1.11376   1.11983    0.000
 6748.00    1.12686   1.11905    0.000
 6749.00    1.14025   1.11890    0.000
 6750.00    1.15301   1.11924    0.000
 6751.00    1.16896   1.11970    0.000
 6752.00    1.19617   1.12161    0.000
 6753.00    1.23398   1.12385   12.990
 6754.00    1.26599   1.12670   11.182
 6755.00    1.27737   1.12996   10.455
 6756.00    1.26600   1.13290   10.151
 6757.00    1.23668   1.13611   10.009
 6758.00    1.19764   1.13878   10.389
 6759.00    1.16426   1.14079   11.361
 6760.00    1.15727   1.14201   12.003
 6761.00    1.18063   1.14271   11.632
 6762.00    1.21364   1.14279   11.023
 6763.00    1.23232   1.14213   10.833
 6764.00    1.22356   1.14099   11.119
 6765.00    1.19844   1.13943   11.722
 6766.00    1.18912   1.13841   12.337
 6767.00    1.20987   1.13804   12.808
 6768.00    1.24589   1.13786   13.285
 6769.00    1.27863   1.13803   13.732
 6770.00    1.29716   1.13902   13.796
 6771.00    1.30053   1.14090   13.577
 6772.00    1.29585   1.14346   13.649
 6773.00    1.28927   1.14586   14.143
 6774.00    1.28218   1.14786   14.666
 6775.00    1.26953   1.14943   15.106
 6776.00    1.24372   1.15032   15.700
 6777.00    1.20756   1.15045   15.881
 6778.00    1.17382   1.14931   14.684
 6779.00    1.15297   1.14711   13.058
 6780.00    1.14922   1.14391   12.296
 6781.00    1.15992   1.14027   12.223
 6782.00    1.17640   1.13664   12.101
 6783.00    1.18645   1.13335   12.048
 6784.00    1.17985   1.13060   12.723
 6785.00    1.15883   1.12849   13.983
 6786.00    1.13509   1.12735   14.743
 6787.00    1.11855   1.12677   14.713
 6788.00    1.11609   1.12692   14.624
 6789.00    1.13348   1.12757   14.548
 6790.00    1.16847   1.12850   14.124
 6791.00    1.19863   1.12940   13.519
 6792.00    1.20101   1.13017   13.165
 6793.00    1.18757   1.13129   13.268
 6794.00    1.18251   1.13232   13.830
 6795.00    1.17919   1.13367   14.595
 6796.00    1.16291   1.13489   15.179
 6797.00    1.15222   1.13603   15.564
 6798.00    1.17059   1.13767   15.852
 6799.00    1.20199   1.13896   15.636
 6800.00    1.21858   1.14017   14.632
 6801.00    1.22173   1.14117   13.403
 6802.00    1.22211   1.14157   12.488
 6803.00    1.21150   1.14212   11.933
 6804.00    1.18057   1.14237   11.710
 6805.00    1.14062   1.14215   11.979
 6806.00    1.10972   1.14221   12.880
 6807.00    1.09613   1.14190   14.211
 6808.00    1.09954   1.14146   15.489
 6809.00    1.11401   1.14147   16.347
 6810.00    1.13150   1.14119   16.460
 6811.00    1.14558   1.14114   15.445
 6812.00    1.15919   1.14104   13.723
 6813.00    1.18693   1.14059   12.307
 6814.00    1.22352   1.14100   11.644
 6815.00    1.22737   1.14159   11.723
 6816.00    1.18228   1.14210   12.451
 6817.00    1.13379   1.14276   13.630
 6818.00    1.12362   1.14330   14.875
 6819.00    1.14803   1.14446   15.654
 6820.00    1.18715   1.14589   15.713
 6821.00    1.22485   1.14689   15.416
 6822.00    1.24784   1.14782   15.224
 6823.00    1.24642   1.14842   15.349
 6824.00    1.22494   1.14902   15.671
 6825.00    1.20324   1.14937   15.729
 6826.00    1.19539   1.14921   15.293
 6827.00    1.20022   1.14932   14.621
 6828.00    1.20877   1.14948   13.989
 6829.00    1.21007   1.14967   13.518
 6830.00    1.20001   1.14963   13.302
 6831.00    1.18368   1.14931   13.439
 6832.00    1.16935   1.14923   13.942
 6833.00    1.16566   1.14897   14.694
 6834.00    1.18072   1.14809   15.460
 6835.00    1.21753   1.14657   15.857
 6836.00    1.26004   1.14464   15.372
 6837.00    1.27825   1.14243   13.906
 6838.00    1.26008   1.14034   12.337
 6839.00    1.21729   1.13823   11.482
 6840.00    1.17112   1.13663   11.357
 6841.00    1.14121   1.13607   11.669
 6842.00    1.12796   1.13614   12.335
 6843.00    1.11755   1.13707   13.451
 6844.00    1.10742   1.13827   14.772
 6845.00    1.10626   1.13964   15.550
 6846.00    1.11770   1.14130   15.610
 6847.00    1.13826   1.14247   15.520
 6848.00    1.16209   1.14301   15.436
 6849.00    1.18314   1.14294   15.195
 6850.00    1.19745   1.14209   15.044
 6851.00    1.20376   1.14081   15.374
 6852.00    1.20385   1.13895   15.989
 6853.00    1.20045   1.13658   16.340
 6854.00    1.19367   1.13470   16.461
 6855.00    1.18207   1.13319   16.712
 6856.00    1.16574   1.13186   16.797
 6857.00    1.14622   1.13115   16.258
 6858.00    1.12567   1.13057   15.510
 6859.00    1.10754   1.13054   15.101
 6860.00    1.09746   1.13123   14.857
 6861.00    1.09935   1.13233   14.502
 6862.00    1.11020   1.13377   14.340
 6863.00    1.12609   1.13471   14.641
 6864.00    1.14992   1.13527   14.873
 6865.00    1.18187   1.13575   14.392
 6866.00    1.20811   1.13616   13.541
 6867.00    1.21325   1.13670   12.891
 6868.00    1.19541   1.13702   12.545
 6869.00    1.16574   1.13723   12.449
 6870.00    1.14454   1.13744   12.611
 6871.00    1.14340   1.13815   13.106
 6872.00    1.15085   1.13946   14.057
 6873.00    1.15569   1.14087   15.422
 6874.00    1.16639   1.14246   16.575
 6875.00    1.18758   1.14392   16.917
 6876.00    1.20196   1.14549   16.952
 6877.00    1.19320   1.14669   17.259
 6878.00    1.16401   1.14751   17.566
 6879.00    1.12850   1.14788   17.509
 6880.00    1.10389   1.14809   17.262
 6881.00    1.09747   1.14836   17.039
 6882.00    1.10094   1.14885   16.779
 6883.00    1.10811   1.14972   16.422
 6884.00    1.12354   1.15057   16.048
 6885.00    1.14606   1.15214   15.734
 6886.00    1.16209   1.15414   15.497
 6887.00    1.16323   1.15644   15.399
 6888.00    1.15485   1.15883   15.551
 6889.00    1.14857   1.16094   15.925
 6890.00    1.15593   1.16290   16.266
 6891.00    1.17757   1.16442   16.246
 6892.00    1.20121   1.16561   15.732
 6893.00    1.21477   1.16634   15.157
 6894.00    1.21301   1.16685   15.233
 6895.00    1.20028   1.16717   16.032
 6896.00    1.18812   1.16738   16.819
 6897.00    1.18294   1.16772   16.919
 6898.00    1.18234   1.16793   16.380
 6899.00    1.17920   1.16852   15.591
 6900.00    1.16622   1.16948   14.919
 6901.00    1.14563   1.17063   14.580
 6902.00    1.12788   1.17181   14.657
 6903.00    1.11851   1.17294   15.055
 6904.00    1.11580   1.17418   15.509
 6905.00    1.11555   1.17544   15.762
 6906.00    1.11255   1.17628   15.724
 6907.00    1.10081   1.17656   15.624
 6908.00    1.07902   1.17642   15.809
 6909.00    1.06287   1.17569   16.261
 6910.00    1.07453   1.17463   16.630
 6911.00    1.11273   1.17333   16.667
 6912.00    1.15601   1.17159   16.429
 6913.00    1.18401   1.17021   16.314
 6914.00    1.18622   1.16911   16.709
 6915.00    1.16966   1.16796   17.415
 6916.00    1.15246   1.16759   17.840
 6917.00    1.14954   1.16710   17.865
 6918.00    1.16505   1.16717   17.733
 6919.00    1.18513   1.16750   17.370
 6920.00    1.19108   1.16742   16.710
 6921.00    1.18163   1.16760   16.248
 6922.00    1.16730   1.16721   16.383
 6923.00    1.15715   1.16716   16.677
 6924.00    1.15516   1.16727   16.457
 6925.00    1.15847   1.16766   15.917
 6926.00    1.16335   1.16825   15.573
 6927.00    1.17257   1.16867   15.510
 6928.00    1.18803   1.16946   15.574
 6929.00    1.20183   1.17022   15.598
 6930.00    1.20548   1.17135   15.530
 6931.00    1.20052   1.17221   15.534
 6932.00    1.19075   1.17326   15.725
 6933.00    1.17395   1.17440   15.912
 6934.00    1.15154   1.17524   15.885
 6935.00    1.13681   1.17617   15.727
 6936.00    1.13896   1.17682   15.566
 6937.00    1.14958   1.17771   15.360
 6938.00    1.15579   1.17843   15.136
 6939.00    1.15218   1.17888   15.133
 6940.00    1.14105   1.17891   15.412
 6941.00    1.13076   1.17864   15.602
 6942.00    1.12707   1.17829   15.486
 6943.00    1.12773   1.17778   15.408
 6944.00    1.12843   1.17774   15.579
 6945.00    1.12681   1.17785   15.710
 6946.00    1.12051   1.17791   15.668
 6947.00    1.10739   1.17801   15.806
 6948.00    1.09434   1.17820   16.201
 6949.00    1.09805   1.17838   16.308
 6950.00    1.12114   1.17887   15.948
 6951.00    1.14473   1.17940   15.705
 6952.00    1.15772   1.17999   15.838
 6953.00    1.16790   1.18091   16.003
 6954.00    1.18298   1.18193   16.027
 6955.00    1.20208   1.18339   16.180
 6956.00    1.21948   1.18498   16.531
 6957.00    1.22755   1.18687   16.756
 6958.00    1.22069   1.18889   16.661
 6959.00    1.19856   1.19104   16.400
 6960.00    1.17148   1.19307   16.212
 6961.00    1.15653   1.19477   16.243
 6962.00    1.15745   1.19641   16.324
 6963.00    1.16311   1.19761   16.080
 6964.00    1.16605   1.19876   15.593
 6965.00    1.16630   1.19959   15.281
 6966.00    1.16407   1.20028   15.131
 6967.00    1.15810   1.20034   14.861
 6968.00    1.14746   1.19984   14.721
 6969.00    1.13463   1.19874   15.227
 6970.00    1.13146   1.19705   16.050
 6971.00    1.15013   1.19517   16.117
 6972.00    1.17829   1.19224   15.575
 6973.00    1.18958   1.18899   15.477
 6974.00    1.18026   1.18531   15.929
 6975.00    1.16453   1.18191   16.332
 6976.00    1.14758   1.17918   16.453
 6977.00    1.12689   1.17727   16.514
 6978.00    1.10589   1.17727   16.644
 6979.00    1.09371   1.17828   16.774
 6980.00    1.09940   1.18031   16.670
 6981.00    1.12398   1.18325   16.242
 6982.00    1.14972   1.18656   15.929
 6983.00    1.15664   1.19044   16.116
 6984.00    1.15016   1.19384   16.360
 6985.00    1.14614   1.19658   16.008
 6986.00    1.14370   1.19868   15.420
 6987.00    1.13588   1.19972   15.248
 6988.00    1.12924   1.20050   15.546
 6989.00    1.13805   1.20080   16.021
 6990.00    1.17285   1.20082   16.318
 6991.00    1.22815   1.20063   16.273
 6992.00    1.27194   1.20010   16.174
 6993.00    1.27668   1.19967   16.335
 6994.00    1.25253   1.19914   16.643
 6995.00    1.22195   1.19836   16.848
 6996.00    1.19114   1.19740   16.925
 6997.00    1.16164   1.19608   17.017
 6998.00    1.14294   1.19480   17.291
 6999.00    1.14132   1.19374   17.760
 7000.00    1.15022   1.19277   18.111
 7001.00    1.16238   1.19195   -2.000
 7002.00    1.17939   1.19104   -2.000
 7003.00    1.20031   1.19064   -2.000
 7004.00    1.21421   1.19069   -2.000
 7005.00    1.21386   1.19115   -2.000
 7006.00    1.20467   1.19170   -2.000
 7007.00    1.19506   1.19208   -2.000
 7008.00    1.18949   1.19253   -2.000
 7009.00    1.18899   1.19262   -2.000
 7010.00    1.19226   1.19268   -2.000
 7011.00    1.19880   1.19244   -2.000
 7012.00    1.20993   1.19179   -2.000
 7013.00    1.22454   1.19097   -2.000
 7014.00    1.23716   1.19000   -2.000
 7015.00    1.24026   1.18971   -2.000
 7016.00    1.22740   1.19023   -2.000
 7017.00    1.20180   1.19091   -2.000
 7018.00    1.17704   1.19173   -2.000
 7019.00    1.16297   1.19251   -2.000
 7020.00    1.16076   1.19348   -2.000
 7021.00    1.16867   1.19448   -2.000
 7022.00    1.18323   1.19557   -2.000
 7023.00    1.19439   1.19671   -2.000
 7024.00    1.18861   1.19791   -2.000
 7025.00    1.16575   1.19893   -2.000
 7026.00    1.13987   1.19998   -2.000
 7027.00    1.12271   1.20142   -2.000
 7028.00    1.11838   1.20285   -2.000
 7029.00    1.12451   1.20447   -2.000
 7030.00    1.13511   1.20581   -2.000
 7031.00    1.14710   1.20712   -2.000
 7032.00    1.16101   1.20830   -2.000
 7033.00    1.17772   1.20926   -2.000
 7034.00    1.19647   1.21029   -2.000
 7035.00    1.21234   1.21144   -2.000
 7036.00    1.21904   1.21283   -2.000
 7037.00    1.21640   1.21498   -2.000
 7038.00    1.20809   1.21809   -2.000
 7039.00    1.19361   1.22158   -2.000
 7040.00    1.17513   1.22523   -2.000
 7041.00    1.17314   1.22868   -2.000
 7042.00    1.20574   1.23201   -2.000
 7043.00    1.24760   1.23476   -2.000
 7044.00    1.25934   1.23676   -2.000
 7045.00    1.24797   1.23771   -2.000
 7046.00    1.24197   1.23695   -2.000
 7047.00    1.23743   1.23450   -2.000
 7048.00    1.21588   1.23002   -2.000
 7049.00    1.18173   1.22404   -2.000
 7050.00    1.15067   1.21643   -2.000
 7051.00    1.12690   1.20759   -2.000
 7052.00    1.10774   1.19836   -2.000
 7053.00    1.09328   1.18870   -2.000
 7054.00    1.08628   1.17964   -2.000
 7055.00    1.09035   1.17105   -2.000
 7056.00    1.10758   1.16330   -2.000
 7057.00    1.13598   1.15665   -2.000
 7058.00    1.16844   1.15109   -2.000
 7059.00    1.19285   1.14700   -2.000
 7060.00    1.20170   1.14408   -2.000
 7061.00    1.20031   1.14201   -2.000
 7062.00    1.19699   1.14053   -2.000
 7063.00    1.19375   1.13965   -2.000
 7064.00    1.18851   1.13896   -2.000
 7065.00    1.17788   1.13916   -2.000
 7066.00    1.16039   1.13987   -2.000
 7067.00    1.13867   1.14137   -2.000
 7068.00    1.11814   1.14355   -2.000
 7069.00    1.10570   1.14602   -2.000
 7070.00    1.10814   1.14894   -2.000
 7071.00    1.12999   1.15185   -2.000
 7072.00    1.16630   1.15494   -2.000
 7073.00    1.20037   1.15780   -2.000
 7074.00    1.21732   1.16025   -2.000
 7075.00    1.21283   1.16201   -2.000
 7076.00    1.19676   1.16291   -2.000
 7077.00    1.19047   1.16270   -2.000
 7078.00    1.20497   1.16120   -2.000
 7079.00    1.23175   1.15852   -2.000
 7080.00    1.25284   1.15431   -2.000
 7081.00    1.24996   1.14895   -2.000
 7082.00    1.22179   1.14262   -2.000
 7083.00    1.18634   1.13544   -2.000
 7084.00    1.15990   1.12801   -2.000
 7085.00    1.14840   1.12031   -2.000
 7086.00    1.14830   1.11269   -2.000
 7087.00    1.14980   1.10581   -2.000
 7088.00    1.14579   1.09992   -2.000
 7089.00    1.13462   1.09498   -2.000
 7090.00    1.11807   1.09159   -2.000
 7091.00    1.09955   1.08893   -2.000
 7092.00    1.08077   1.08773   -2.000
 7093.00    1.06283   1.08728   -2.000
 7094.00    1.05213   1.08779   -2.000
 7095.00    1.05698   1.08954   -2.000
 7096.00    1.07490   1.09120   -2.000
 7097.00    1.09402   1.09400   -2.000
 7098.00    1.10495   1.09627   -2.000
 7099.00    1.10540   1.09894   -2.000
 7100.00    1.10371   1.10145   -2.000
 7101.00    1.11137   1.10378   -2.000
 7102.00    1.12611   1.10614   -2.000
 7103.00    1.13637   1.10787   -2.000
 7104.00    1.13684   1.10954   -2.000
 7105.00    1.12991   1.11053   -2.000
 7106.00    1.12234   1.11136   -2.000
 7107.00    1.11874   1.11185   -2.000
 7108.00    1.11236   1.11229   -2.000
 7109.00    1.09856   1.11270   -2.000
 7110.00    1.09672   1.11332   -2.000
 7111.00    1.12540   1.11409   -2.000
 7112.00    1.16303   1.11511   -2.000
 7113.00    1.17572   1.11626   -2.000
 7114.00    1.16169   1.11753   -2.000
 7115.00    1.13601   1.11881   -2.000
 7116.00    1.10429   1.11967   -2.000
 7117.00    1.07013   1.12039   -2.000
 7118.00    1.04664   1.12021   -2.000
 7119.00    1.04222   1.11959   -2.000
 7120.00    1.04495   1.11785   -2.000
 7121.00    1.03983   1.11525   -2.000
 7122.00    1.02787   1.11192   -2.000
 7123.00    1.02208   1.10764   -2.000
 7124.00    1.03935   1.10312   -2.000
 7125.00    1.07697   1.09830   -2.000
 7126.00    1.09786   1.09377   -2.000
 7127.00    1.08143   1.08943   -2.000
 7128.00    1.06016   1.08588   -2.000
 7129.00    1.06286   1.08318   -2.000
 7130.00    1.07276   1.08167   -2.000
 7131.00    1.06209   1.08109   -2.000
 7132.00    1.02063   1.08153   -2.000
 7133.00    0.96412   1.08296   -2.000
 7134.00    0.93257   1.08457   -2.000
 7135.00    0.95136   1.08670   -2.000
 7136.00    1.01008   1.08873   -2.000
 7137.00    1.08399   1.09094   -2.000
 7138.00    1.14832   1.09286   -2.000
 7139.00    1.18283   1.09445   -2.000
 7140.00    1.17624   1.09566   -2.000
 7141.00    1.13737   1.09627   -2.000
 7142.00    1.09455   1.09677   -2.000
 7143.00    1.06692   1.09683   -2.000
 7144.00    1.05424   1.09660   -2.000
 7145.00    1.05269   1.09670   -2.000
 7146.00    1.06091   1.09698   -2.000
 7147.00    1.07502   1.09778   -2.000
 7148.00    1.08873   1.09922   -2.000
 7149.00    1.10159   1.10117   -2.000
 7150.00    1.11839   1.10371   -2.000
 7151.00    1.13625   1.10645   -2.000
 7152.00    1.14367   1.10947   -2.000
 7153.00    1.13250   1.11232   -2.000
 7154.00    1.10367   1.11473   -2.000
 7155.00    1.07176   1.11690   -2.000
 7156.00    1.05788   1.11783   -2.000
 7157.00    1.06631   1.11803   -2.000
 7158.00    1.08571   1.11757   -2.000
 7159.00    1.10905   1.11625   -2.000
 7160.00    1.13381   1.11457   -2.000
 7161.00    1.14954   1.11248   -2.000
 7162.00    1.14425   1.11102   -2.000
 7163.00    1.12523   1.10974   -2.000
 7164.00    1.11321   1.10935   -2.000
 7165.00    1.12048   1.10969   -2.000
 7166.00    1.14869   1.11082   -2.000
 7167.00    1.19355   1.11268   -2.000
 7168.00    1.24108   1.11483   -2.000
 7169.00    1.26007   1.11727   -2.000
 7170.00    1.22318   1.11956   -2.000
 7171.00    1.14366   1.12184   -2.000
 7172.00    1.06065   1.12344   -2.000
 7173.00    1.00613   1.12447   -2.000
 7174.00    0.99488   1.12483   -2.000
 7175.00    1.01800   1.12460   -2.000
 7176.00    1.05134   1.12396   -2.000
 7177.00    1.06932   1.12289   -2.000
 7178.00    1.06194   1.12172   -2.000
 7179.00    1.05157   1.12063   -2.000
 7180.00    1.05873   1.11965   -2.000
 7181.00    1.06229   1.11875   -2.000
 7182.00    1.03719   1.11792   -2.000
 7183.00    0.99884   1.11689   -2.000
 7184.00    0.97808   1.11600   -2.000
 7185.00    0.99008   1.11496   -2.000
 7186.00    1.02790   1.11429   -2.000
 7187.00    1.06224   1.11422   -2.000
 7188.00    1.07081   1.11428   -2.000
 7189.00    1.06230   1.11479   -2.000
 7190.00    1.05510   1.11527   -2.000
 7191.00    1.05777   1.11623   -2.000
 7192.00    1.06845   1.11727   -2.000
 7193.00    1.07699   1.11829   -2.000
 7194.00    1.07584   1.11966   -2.000
 7195.00    1.06695   1.12058   -2.000
 7196.00    1.05488   1.12148   -2.000
 7197.00    1.04298   1.12188   -2.000
 7198.00    1.04032   1.12172   -2.000
 7199.00    1.06224   1.12169   -2.000
 7200.00    1.10714   1.12137   -2.000
 7201.00    1.14860   1.12090   -2.000
 7202.00    1.16731   1.12006   -2.000
 7203.00    1.16410   1.11886   -2.000
 7204.00    1.13562   1.11817   -2.000
 7205.00    1.07022   1.11738   -2.000
 7206.00    0.98817   1.11714   -2.000
 7207.00    0.94416   1.11752   -2.000
 7208.00    0.95556   1.11828   -2.000
 7209.00    0.98642   1.11989   -2.000
 7210.00    1.01181   1.12152   -2.000
 7211.00    1.03698   1.12366   -2.000
 7212.00    1.06749   1.12590   -2.000
 7213.00    1.09909   1.12854   -2.000
 7214.00    1.12425   1.13159   -2.000
 7215.00    1.13498   1.13413   -2.000
 7216.00    1.12419   1.13679   -2.000
 7217.00    1.08979   1.13892   -2.000
 7218.00    1.04537   1.14093   -2.000
