###################################################################
## OUTPUT of StarlightChains_v04.for    [Cid@UFSC - 01/Apr/2007] ##
###################################################################

## Some input info
2001B.txt                                [arq_obs]
Base.CB07.vall.4m                        [arq_base]
Masks.EmLines.NEW.gm                     [arq_masks]
StCv04.C11.config                        [arq_config]
   66                                    [N_base]
    0                                    [N_YAV_components = # of components with extra extinction!]
    0                                    [i_FitPowerLaw (1/0 = Yes/No)]
-9.99                                    [alpha_PowerLaw]
CCM                                      [red_law_option]
 1.458241                                [q_norm = A(l_norm)/A(V)]

## (Re)Sampling Parameters
 3741.00                                 [l_ini (A)]
 7218.00                                 [l_fin (A)]
    1.00                                 [dl    (A)]     (OBS: dl_cushion =    50.00 A)

## Normalization info
 4020.00                                 [l_norm (A) - for base]
 4010.00                                 [llow_norm (A) - window for f_obs]
 4060.00                                 [lupp_norm (A) - window for f_obs]
5.074487E-15                             [fobs_norm (in input units)]

## S/N
 3691.00                                 [llow_SN (A) - window for S/N]
 7268.00                                 [lupp_SN (A) - window for S/N]
   5.455                                 [S/N in S/N window]
   7.700                                 [S/N in norm. window]
  17.639                                 [S/N_err in S/N window]
  24.898                                 [S/N_err in norm. window]
  1.0000                                 [fscale_chi2]

## etc...
    -2007252                             [idum_orig]
  2397                                   [NOl_eff]
  2392                                   [Nl_eff]
     5    NSIGMA                         [Ntot_cliped & clip_method]
  1914010                                [Nglobal_steps]
   7                                     [N_chains]
  22                                     [NEX0s_base = N_base in EX0s-fits]
 0   0   1       18   2.0   8.595E+01    [Clip-Bug, RC-Crash & Burn-In warning-flags, n_censored_weights, wei_nsig_threshold & wei_limit]
    18     17.453     16.928      0.525  [idt_all, wdt_TotTime, wdt_UsrTime & wdt_SysTime (sec)]

## Synthesis Results - Best model ##

 2.43750E-01                             [chi2/Nl_eff]
     1.70769                             [adev (%)]

    99.80427                             [sum-of-x (%)]
 8.21486E-15                             [Flux_tot (units of input spectrum!)]
 1.84748E-11                             [Mini_tot (???)]
 1.10682E-11                             [Mcor_tot (???)]

 -36.94                                  [v0_min  (km/s)]
 173.46                                  [vd_min  (km/s)]
 0.3601                                  [AV_min  (mag)]
 0.0000                                  [YAV_min (mag)]

# j     x_j(%)      Mini_j(%)     Mcor_j(%)     age_j(yr)     Z_j      (L/M)_j    YAV?  Mstars   component_j        a/Fe...       SSP_chi2r SSP_adev(%)   SSP_AV   SSP_x(%)
  1      3.3586     1.3677E-01    2.2830E-01    1.000000E+06  0.00400  1.094E-02    0   1.0000   age020_m42            0.0000     1.5702E+00     5.2032   2.3917    80.1173
  2      0.0012     1.3802E-05    2.3036E-05    3.160000E+06  0.00400  4.007E-02    0   0.9999   age045_m42            0.0000     1.1300E+00     4.0374   1.6379    86.9643
  3      0.0000     0.0000E+00    0.0000E+00    5.010000E+06  0.00400  2.539E-02    0   0.9488   age055_m42            0.0000     1.2254E+00     4.3355   1.9631    84.5490
  4      0.0000     0.0000E+00    0.0000E+00    6.610000E+06  0.00400  2.620E-02    0   0.9220   age061_m42            0.0000     9.9395E-01     3.7723   1.5498    87.7973
  5      0.0000     0.0000E+00    0.0000E+00    1.000000E+07  0.00400  1.322E-02    0   0.8862   age070_m42            0.0000     5.3322E-01     2.7111   1.1839    93.3911
  6      0.0000     0.0000E+00    0.0000E+00    1.445000E+07  0.00400  7.883E-03    0   0.8571   age078_m42            0.0000     6.8295E-01     3.1751   1.5298    90.1754
  7      2.5232     2.1408E-01    2.9209E-01    2.512000E+07  0.00400  5.251E-03    0   0.8174   age090_m42            0.0000     4.8005E-01     2.5368   1.0349    94.7791
  8      2.3784     2.9039E-01    3.8054E-01    4.000000E+07  0.00400  3.649E-03    0   0.7851   age104_m42            0.0000     4.2626E-01     2.3186   0.8107    95.4338
  9      0.2129     3.0618E-02    3.8990E-02    5.500000E+07  0.00400  3.098E-03    0   0.7629   age110_m42            0.0000     5.4076E-01     2.5975   0.9976    93.9655
 10      0.0000     0.0000E+00    0.0000E+00    1.015200E+08  0.00400  2.228E-03    0   0.7207   age116_m42            0.0000     6.6199E-01     2.9453   1.0383    93.2490
 11      0.0000     0.0000E+00    0.0000E+00    2.861200E+08  0.00400  1.093E-03    0   0.6648   age125_m42            0.0000     6.0365E-01     2.6979   0.4341    97.9027
 12      0.0000     0.0000E+00    0.0000E+00    5.088000E+08  0.00400  6.597E-04    0   0.6365   age130_m42            0.0000     7.1739E-01     3.0834   0.4590    97.0486
 13      0.0000     0.0000E+00    0.0000E+00    1.434000E+09  0.00400  2.132E-04    0   0.5798   age139_m42            0.0000     6.1863E-01     3.1150  -0.4968    98.0546
 14      0.0000     0.0000E+00    0.0000E+00    4.250000E+09  0.00400  5.895E-05    0   0.5377   age158_m42            0.0000     9.5011E-01     4.3581  -0.8584    90.7120
 15      1.7642     2.2393E+01    1.9482E+01    7.500000E+09  0.00400  3.510E-05    0   0.5212   age171_m42            0.0000     1.1895E+00     5.0278  -1.0000    88.2043
 16      0.0000     0.0000E+00    0.0000E+00    1.300000E+10  0.00400  2.005E-05    0   0.5034   age193_m42            0.0000     1.7340E+00     6.4360  -1.0000    81.1927
 17      0.0000     0.0000E+00    0.0000E+00    1.800000E+10  0.00400  1.525E-05    0   0.4967   age213_m42            0.0000     1.8217E+00     6.6550  -1.0000    79.9172
 18      0.0000     0.0000E+00    0.0000E+00    1.000000E+06  0.00800  1.238E-02    0   1.0000   age020_m52            0.0000     1.5661E+00     5.2012   2.3880    80.2724
 19      0.0000     0.0000E+00    0.0000E+00    3.160000E+06  0.00800  3.074E-02    0   0.9966   age045_m52            0.0000     1.5240E+00     5.1047   2.3104    81.0192
 20      0.0000     0.0000E+00    0.0000E+00    5.010000E+06  0.00800  2.668E-02    0   0.9443   age055_m52            0.0000     1.2207E+00     4.4016   2.0459    83.7480
 21      3.5628     7.4312E-02    1.1383E-01    6.610000E+06  0.00800  2.136E-02    0   0.9177   age061_m52            0.0000     4.4798E-01     2.6141   0.6998    93.6207
 22      0.5388     1.9756E-02    2.9108E-02    1.000000E+07  0.00800  1.215E-02    0   0.8827   age070_m52            0.0000     5.3820E-01     2.8825   1.3466    93.9576
 23      0.9787     5.0024E-02    7.1408E-02    1.445000E+07  0.00800  8.717E-03    0   0.8552   age078_m52            0.0000     5.8591E-01     2.9571   1.4872    91.7641
 24      2.3964     1.9092E-01    2.6011E-01    2.512000E+07  0.00800  5.592E-03    0   0.8162   age090_m52            0.0000     4.1594E-01     2.4265   1.0911    96.2864
 25      2.6075     2.9818E-01    3.9025E-01    4.000000E+07  0.00800  3.896E-03    0   0.7841   age104_m52            0.0000     4.0659E-01     2.3485   1.0163    96.5151
 26      0.0000     0.0000E+00    0.0000E+00    1.015200E+08  0.00800  2.148E-03    0   0.7226   age116_m52            0.0000     5.0429E-01     2.5493   0.9880    94.8443
 27      0.0000     0.0000E+00    0.0000E+00    2.861200E+08  0.00800  9.925E-04    0   0.6683   age125_m52            0.0000     6.1359E-01     2.8809   0.5220    98.0610
 28      0.0005     7.5788E-04    7.7648E-04    9.047900E+08  0.00800  3.141E-04    0   0.6138   age135_m52            0.0000     8.5976E-01     3.8611  -0.2262    99.7383
 29      0.0000     0.0000E+00    0.0000E+00    1.434000E+09  0.00800  1.719E-04    0   0.5853   age139_m52            0.0000     9.6809E-01     4.2381  -0.7883    96.7737
 30      0.0000     0.0000E+00    0.0000E+00    2.500000E+09  0.00800  7.872E-05    0   0.5600   age150_m52            0.0000     1.3418E+00     5.3095  -0.9830    90.8541
 31      0.0000     0.0000E+00    0.0000E+00    4.250000E+09  0.00800  4.336E-05    0   0.5426   age158_m52            0.0000     1.3679E+00     5.3528  -0.9919    89.7273
 32      0.0000     0.0000E+00    0.0000E+00    6.250000E+09  0.00800  3.159E-05    0   0.5319   age166_m52            0.0000     2.0920E+00     7.1090  -1.0000    81.8833
 33      0.0000     0.0000E+00    0.0000E+00    1.300000E+10  0.00800  1.361E-05    0   0.5073   age193_m52            0.0000     6.1802E+00    12.9670  -1.0000    64.8473
 34      0.0000     0.0000E+00    0.0000E+00    1.800000E+10  0.00800  9.886E-06    0   0.4990   age213_m52            0.0000     7.4580E+00    14.2769  -1.0000    61.2632
 35      0.6580     1.8986E-02    3.1692E-02    1.000000E+06  0.02000  1.544E-02    0   1.0000   age020_m62            0.0000     1.5784E+00     5.2406   2.3857    80.3913
 36      4.3774     5.1841E-02    8.5302E-02    3.160000E+06  0.02000  3.762E-02    0   0.9858   age045_m62            0.0000     1.5744E+00     5.2295   2.3259    81.0690
 37      0.0000     0.0000E+00    0.0000E+00    5.010000E+06  0.02000  3.296E-02    0   0.9342   age055_m62            0.0000     1.1815E+00     4.2956   1.9276    85.4416
 38     25.7054     9.9241E-01    1.4678E+00    8.710000E+06  0.02000  1.154E-02    0   0.8861   age067_m62            0.0000     1.6403E+00     4.9673   0.6591   103.3037
 39      0.0000     0.0000E+00    0.0000E+00    1.445000E+07  0.02000  7.663E-03    0   0.8472   age078_m62            0.0000     6.4937E-01     3.0689   0.9468    98.3656
 40      0.0000     0.0000E+00    0.0000E+00    2.512000E+07  0.02000  4.532E-03    0   0.8099   age090_m62            0.0000     7.4267E-01     3.1974   0.9273    98.7103
 41      0.0000     0.0000E+00    0.0000E+00    5.500000E+07  0.02000  2.733E-03    0   0.7595   age110_m62            0.0000     4.1466E-01     2.4175   1.0007    95.6875
 42      0.0000     0.0000E+00    0.0000E+00    1.609000E+08  0.02000  1.369E-03    0   0.6985   age120_m62            0.0000     5.5360E-01     2.7018   0.8709    96.9544
 43      0.0000     0.0000E+00    0.0000E+00    2.861200E+08  0.02000  9.013E-04    0   0.6714   age125_m62            0.0000     6.9026E-01     2.9981   0.6312    99.2285
 44      0.0000     0.0000E+00    0.0000E+00    5.088000E+08  0.02000  5.028E-04    0   0.6449   age130_m62            0.0000     1.0021E+00     3.9326   0.3102    99.2140
 45      0.0126     2.3136E-02    2.3863E-02    9.047900E+08  0.02000  2.428E-04    0   0.6179   age135_m62            0.0000     1.0424E+00     4.4286  -0.2332    96.6216
 46      0.0000     0.0000E+00    0.0000E+00    1.434000E+09  0.02000  1.263E-04    0   0.5908   age139_m62            0.0000     1.2117E+00     4.9011  -0.6517    93.9601
 47      0.0000     0.0000E+00    0.0000E+00    2.500000E+09  0.02000  5.985E-05    0   0.5673   age150_m62            0.0000     1.7507E+00     6.1026  -0.9562    89.9961
 48      0.0000     0.0000E+00    0.0000E+00    4.250000E+09  0.02000  3.271E-05    0   0.5468   age158_m62            0.0000     2.9726E+00     8.5519  -1.0000    78.8335
 49      0.0000     0.0000E+00    0.0000E+00    1.000000E+10  0.02000  1.360E-05    0   0.5167   age181_m62            0.0000     6.0491E+00    12.6476  -1.0000    66.4164
 50      0.0000     0.0000E+00    0.0000E+00    1.800000E+10  0.02000  7.124E-06    0   0.5013   age213_m62            0.0000     8.5339E+00    15.2514  -1.0000    59.5411
 51      1.4870     2.5560E-02    4.2655E-02    1.000000E+06  0.05000  2.592E-02    0   0.9998   age020_m72            0.0000     1.6069E+00     5.3242   2.3747    80.4886
 52      0.0000     0.0000E+00    0.0000E+00    3.160000E+06  0.05000  4.845E-02    0   0.9577   age045_m72            0.0000     1.4805E+00     4.9322   2.2085    82.2066
 53      0.0000     0.0000E+00    0.0000E+00    5.010000E+06  0.05000  3.072E-02    0   0.9147   age055_m72            0.0000     8.9630E-01     3.8819   1.6142    91.1564
 54      0.0000     0.0000E+00    0.0000E+00    6.610000E+06  0.05000  1.455E-02    0   0.8877   age061_m72            0.0000     4.7263E+00     7.7449   0.6828   106.5627
 55      0.0000     0.0000E+00    0.0000E+00    1.000000E+07  0.05000  9.074E-03    0   0.8524   age070_m72            0.0000     1.5088E+00     4.7830   1.8271    90.2253
 56      0.0000     0.0000E+00    0.0000E+00    2.512000E+07  0.05000  4.250E-03    0   0.7902   age090_m72            0.0000     1.0003E+00     3.6971   1.4812    93.5871
 57      0.0000     0.0000E+00    0.0000E+00    4.000000E+07  0.05000  3.087E-03    0   0.7618   age104_m72            0.0000     1.0448E+00     3.5659   1.2263    96.3751
 58      0.0000     0.0000E+00    0.0000E+00    1.015200E+08  0.05000  1.700E-03    0   0.7096   age116_m72            0.0000     5.4304E-01     2.6688   0.9894    97.7341
 59      7.3877     4.4575E+00    4.9351E+00    2.861200E+08  0.05000  7.384E-04    0   0.6633   age125_m72            0.0000     8.0883E-01     3.3596   0.5248    99.3711
 60     33.7633     3.9388E+01    4.1893E+01    5.088000E+08  0.05000  3.819E-04    0   0.6372   age130_m72            0.0000     1.0262E+00     4.2446   0.0899    98.1645
 61      4.1631     1.1067E+01    1.1287E+01    9.047900E+08  0.05000  1.676E-04    0   0.6110   age135_m72            0.0000     1.6878E+00     5.9923  -0.5135    92.2476
 62      0.0000     0.0000E+00    0.0000E+00    1.434000E+09  0.05000  8.837E-05    0   0.5874   age139_m72            0.0000     1.9542E+00     6.4099  -0.9524    91.1144
 63      1.9265     2.0276E+01    1.8946E+01    2.500000E+09  0.05000  4.233E-05    0   0.5598   age150_m72            0.0000     3.1875E+00     8.8546  -1.0000    79.5052
 64      0.0000     0.0000E+00    0.0000E+00    6.250000E+09  0.05000  1.435E-05    0   0.5249   age166_m72            0.0000     7.2365E+00    13.9257  -1.0000    63.0871
 65      0.0000     0.0000E+00    0.0000E+00    1.300000E+10  0.05000  6.513E-06    0   0.5036   age193_m72            0.0000     1.0949E+01    17.3121  -1.0000    55.5712
 66      0.0000     0.0000E+00    0.0000E+00    1.800000E+10  0.05000  4.527E-06    0   0.4945   age213_m72            0.0000     1.3357E+01    19.1355  -1.0000    51.2601


## Synthesis Results - Average & Chains ##

# j      x_j: min, <> & last-chain-values for 1 ...  7 chains
  1      3.3586      1.6063      1.7677      2.2869      1.7249      2.6161      2.1119      2.0480      1.7617
  2      0.0012      0.3484      0.7667      0.3905      0.0000      0.0000      0.0000      0.8692      0.4761
  3      0.0000      0.2134      0.4107      0.3021      0.0000      0.1502      0.5663      0.0000      0.0000
  4      0.0000      0.3172      0.8048      0.0000      0.0000      0.6214      0.0000      0.9530      0.6885
  5      0.0000      0.5778      0.2694      0.5263      0.6009      0.8242      0.1173      0.0000      0.4827
  6      0.0000      0.2905      0.0000      0.0000      0.9263      0.0000      0.8349      0.0000      0.0000
  7      2.5232      1.5597      1.7255      1.0855      0.4330      2.1349      3.4643      2.8199      0.0000
  8      2.3784      1.1183      2.1705      1.6438      4.3928      0.5455      0.0544      1.9406      1.4880
  9      0.2129      0.7978      1.5053      0.0000      0.8687      0.3887      0.8076      0.6543      0.0000
 10      0.0000      0.4044      0.0000      0.9036      0.0000      0.5852      1.2371      0.0000      0.1425
 11      0.0000      0.4476      0.4005      0.0000      0.0000      0.0000      0.0000      0.0000      0.0000
 12      0.0000      0.4534      0.0000      0.0000      0.0000      0.0000      0.0000      0.0000      0.1198
 13      0.0000      0.1375      0.5810      0.0000      0.0000      0.0580      0.0000      0.0000      0.1243
 14      0.0000      0.0562      0.0000      0.2146      0.0000      0.0000      0.0000      0.0000      0.0000
 15      1.7642      1.4396      1.6008      1.7098      1.7610      1.6152      1.5946      1.5235      1.2986
 16      0.0000      0.0572      0.3172      0.0000      0.0000      0.0000      0.1444      0.0000      0.0002
 17      0.0000      0.0204      0.0000      0.0000      0.0000      0.0000      0.0000      0.0000      0.0000
 18      0.0000      0.3170      1.3377      1.0385      0.0000      0.5499      0.0000      0.4443      0.0000
 19      0.0000      0.0958      0.2034      0.5605      0.0148      0.0000      0.0000      0.0000      0.5549
 20      0.0000      0.2676      0.9259      0.0000      0.5134      0.0000      0.0000      0.0000      0.0000
 21      3.5628      9.6394      8.3675      9.0238      7.5383      9.6989      7.9862      6.0727     11.1247
 22      0.5388      1.8145      1.4755      2.2534      2.6638      3.0892      2.2338      0.5673      1.7688
 23      0.9787      0.7350      0.3047      0.7177      1.2524      0.9363      0.6340      1.7201      0.5554
 24      2.3964      1.9617      2.2989      2.4413      1.1292      2.1772      3.0300      2.6176      1.6867
 25      2.6075      2.9132      3.0200      3.0260      1.3120      3.1498      3.9792      3.5617      3.4984
 26      0.0000      0.7191      1.2297      0.0000      0.0000      0.8615      0.2083      0.0000      0.0000
 27      0.0000      0.6909      0.0000      0.0103      0.6090      0.0000      0.0000      0.0000      1.0239
 28      0.0005      2.8036      2.6301      2.6239      2.7513      3.3004      2.1704      2.7786      2.1992
 29      0.0000      0.0523      0.0000      0.0000      0.0000      0.0000      0.0000      0.0000      0.0000
 30      0.0000      0.0343      0.0000      0.0000      0.0599      0.0000      0.0157      0.0000      0.0000
 31      0.0000      0.0548      0.0000      0.0000      0.2871      0.0000      0.0000      0.1384      0.0000
 32      0.0000      0.0253      0.0000      0.0000      0.0000      0.0000      0.0000      0.0000      0.0000
 33      0.0000      0.0098      0.0000      0.0000      0.0354      0.0000      0.0000      0.0497      0.0000
 34      0.0000      0.0271      0.0000      0.0000      0.0000      0.1626      0.0000      0.0000      0.0000
 35      0.6580      0.2462      0.0000      0.0000      0.6664      0.1774      0.0386      1.7970      0.5671
 36      4.3774      3.4075      3.0463      3.2528      3.7399      3.8002      3.8733      3.5027      4.1328
 37      0.0000      0.2152      0.0000      0.0000      0.2651      0.0000      0.0000      0.1695      0.0000
 38     25.7054     21.0123     20.6509     21.5761     22.7586     21.7323     21.3023     22.6533     22.9039
 39      0.0000      0.6744      0.1567      0.0000      0.5666      0.0000      0.0648      0.0872      0.1534
 40      0.0000      0.3458      0.5662      0.0000      0.0000      0.0000      0.3873      0.3650      0.0867
 41      0.0000      0.4727      0.0000      1.2325      0.0000      0.0000      0.0000      0.0067      0.0000
 42      0.0000      0.6927      0.0000      0.6323      0.0000      0.8165      1.1767      0.0000      0.5047
 43      0.0000      0.8250      0.6436      0.0000      1.4639      0.0000      0.0000      0.0000      1.4853
 44      0.0000      1.3345      0.0000      2.3899      0.7727      1.6033      1.2950      0.0000      1.0871
 45      0.0126      1.5967      1.8969      1.8540      0.6936      0.7524      1.6462      2.4353      1.7484
 46      0.0000      0.6558      0.4582      0.5211      0.4648      0.6863      1.4888      0.0000      0.8625
 47      0.0000      0.0294      0.0000      0.0000      0.0000      0.0000      0.0000      0.0000      0.0000
 48      0.0000      0.1399      0.0440      0.0000      0.0090      0.0000      0.0000      0.0000      0.2250
 49      0.0000      0.0751      0.0000      0.0000      0.0000      0.0000      0.0000      0.1801      0.0000
 50      0.0000      0.0080      0.1338      0.0000      0.0000      0.0000      0.0000      0.0000      0.0000
 51      1.4870      0.4569      0.5779      1.1090      0.0000      0.0000      0.6171      0.5232      1.0218
 52      0.0000      0.1865      0.4261      0.0000      0.2687      0.0000      0.0000      0.0000      0.2963
 53      0.0000      0.1096      0.0000      0.0000      0.0345      0.0000      0.0000      0.0469      0.0680
 54      0.0000      0.1285      0.0000      0.0000      0.0000      0.0000      0.0000      0.0000      0.0000
 55      0.0000      0.1063      0.0338      0.0000      0.2044      0.2056      0.0000      0.0405      0.0000
 56      0.0000      0.1700      0.0000      0.0000      0.0000      0.0000      0.0000      0.0000      0.0000
 57      0.0000      0.1134      0.0988      0.0000      0.0000      0.0000      0.0000      0.1084      0.0000
 58      0.0000      0.2657      0.1359      0.1376      0.0531      0.0000      0.0340      0.0000      0.0000
 59      7.3877      9.2984      8.7229     10.0247     11.9342      9.4769      9.1414     10.5884      8.9528
 60     33.7633     20.7458     23.4336     21.8557     22.2733     22.1066     23.1065     23.2016     22.1871
 61      4.1631      2.3860      2.2883      2.0128      2.8042      2.8606      2.4947      3.1169      2.0296
 62      0.0000      0.1960      0.5358      0.1663      0.0000      0.0000      0.0631      0.0000      0.3122
 63      1.9265      1.6017      1.5628      1.9321      1.7729      1.6444      1.5271      2.0346      2.0361
 64      0.0000      0.0141      0.0000      0.0000      0.0000      0.1482      0.1167      0.0673      0.0000
 65      0.0000      0.0098      0.0000      0.1224      0.0000      0.0000      0.0000      0.0000      0.0000
 66      0.0000      0.0164      0.0000      0.0000      0.0000      0.0000      0.0000      0.0000      0.0000

# j      m_j: min, <> & last-chain-values for 1 ...  7 chains
  1  2.2830E-01  1.1092E-01  1.1455E-01  1.5269E-01  1.2164E-01  1.7810E-01  1.4735E-01  1.3509E-01  1.2841E-01
  2  2.3036E-05  6.5670E-03  1.3563E-02  7.1185E-03  0.0000E+00  0.0000E+00  0.0000E+00  1.5651E-02  9.4734E-03
  3  0.0000E+00  6.0256E-03  1.0880E-02  8.2467E-03  0.0000E+00  4.1790E-03  1.6154E-02  0.0000E+00  0.0000E+00
  4  0.0000E+00  8.4332E-03  2.0078E-02  0.0000E+00  0.0000E+00  1.6286E-02  0.0000E+00  2.4200E-02  1.9320E-02
  5  0.0000E+00  2.9263E-02  1.2804E-02  2.5769E-02  3.1079E-02  4.1149E-02  6.0027E-03  0.0000E+00  2.5802E-02
  6  0.0000E+00  2.3859E-02  0.0000E+00  0.0000E+00  7.7703E-02  0.0000E+00  6.9286E-02  0.0000E+00  0.0000E+00
  7  2.9209E-01  1.8342E-01  1.9043E-01  1.2343E-01  5.2003E-02  2.4752E-01  4.1163E-01  3.1675E-01  0.0000E+00
  8  3.8054E-01  1.8176E-01  3.3107E-01  2.5834E-01  7.2917E-01  8.7408E-02  8.9359E-03  3.0128E-01  2.5530E-01
  9  3.8990E-02  1.4841E-01  2.6279E-01  0.0000E+00  1.6505E-01  7.1287E-02  1.5181E-01  1.1626E-01  0.0000E+00
 10  0.0000E+00  9.8822E-02  0.0000E+00  2.1350E-01  0.0000E+00  1.4099E-01  3.0545E-01  0.0000E+00  3.6751E-02
 11  0.0000E+00  2.0569E-01  1.7270E-01  0.0000E+00  0.0000E+00  0.0000E+00  0.0000E+00  0.0000E+00  0.0000E+00
 12  0.0000E+00  3.3049E-01  0.0000E+00  0.0000E+00  0.0000E+00  0.0000E+00  0.0000E+00  0.0000E+00  9.2178E-02
 13  0.0000E+00  2.8247E-01  1.1202E+00  0.0000E+00  0.0000E+00  1.1752E-01  0.0000E+00  0.0000E+00  2.6963E-01
 14  0.0000E+00  3.8755E-01  0.0000E+00  1.4299E+00  0.0000E+00  0.0000E+00  0.0000E+00  0.0000E+00  0.0000E+00
 15  1.9482E+01  1.6149E+01  1.6851E+01  1.8544E+01  2.0174E+01  1.7863E+01  1.8073E+01  1.6325E+01  1.5377E+01
 16  0.0000E+00  1.0842E+00  5.6461E+00  0.0000E+00  0.0000E+00  0.0000E+00  2.7674E+00  0.0000E+00  3.6861E-03
 17  0.0000E+00  5.0199E-01  0.0000E+00  0.0000E+00  0.0000E+00  0.0000E+00  0.0000E+00  0.0000E+00  0.0000E+00
 18  0.0000E+00  1.9342E-02  7.6603E-02  6.1274E-02  0.0000E+00  3.3082E-02  0.0000E+00  2.5898E-02  0.0000E+00
 19  0.0000E+00  2.3457E-03  4.6742E-03  1.3274E-02  3.7139E-04  0.0000E+00  0.0000E+00  0.0000E+00  1.4346E-02
 20  0.0000E+00  7.1557E-03  2.3232E-02  0.0000E+00  1.4020E-02  0.0000E+00  0.0000E+00  0.0000E+00  0.0000E+00
 21  1.1383E-01  3.1286E-01  2.5486E-01  2.8319E-01  2.4987E-01  3.1035E-01  2.6190E-01  1.8827E-01  3.8114E-01
 22  2.9108E-02  9.9584E-02  7.5997E-02  1.1958E-01  1.4931E-01  1.6715E-01  1.2387E-01  2.9740E-02  1.0247E-01
 23  7.1408E-02  5.4474E-02  2.1194E-02  5.1432E-02  9.4793E-02  6.8418E-02  4.7476E-02  1.2177E-01  4.3450E-02
 24  2.6011E-01  2.1631E-01  2.3788E-01  2.6027E-01  1.2716E-01  2.3667E-01  3.3758E-01  2.7569E-01  1.9632E-01
 25  3.9025E-01  4.4293E-01  4.3089E-01  4.4484E-01  2.0372E-01  4.7213E-01  6.1128E-01  5.1724E-01  5.6145E-01
 26  0.0000E+00  1.8276E-01  2.9328E-01  0.0000E+00  0.0000E+00  2.1586E-01  5.3500E-02  0.0000E+00  0.0000E+00
 27  0.0000E+00  3.5143E-01  0.0000E+00  5.0780E-03  3.1636E-01  0.0000E+00  0.0000E+00  0.0000E+00  5.4977E-01
 28  7.7648E-04  4.1388E+00  3.6436E+00  3.7453E+00  4.1480E+00  4.8036E+00  3.2374E+00  3.9181E+00  3.4270E+00
 29  0.0000E+00  1.3445E-01  0.0000E+00  0.0000E+00  0.0000E+00  0.0000E+00  0.0000E+00  0.0000E+00  0.0000E+00
 30  0.0000E+00  1.8450E-01  0.0000E+00  0.0000E+00  3.2888E-01  0.0000E+00  8.5275E-02  0.0000E+00  0.0000E+00
 31  0.0000E+00  5.1851E-01  0.0000E+00  0.0000E+00  2.7721E+00  0.0000E+00  0.0000E+00  1.2502E+00  0.0000E+00
 32  0.0000E+00  3.2167E-01  0.0000E+00  0.0000E+00  0.0000E+00  0.0000E+00  0.0000E+00  0.0000E+00  0.0000E+00
 33  0.0000E+00  2.7591E-01  0.0000E+00  0.0000E+00  1.0168E+00  0.0000E+00  0.0000E+00  1.3376E+00  0.0000E+00
 34  0.0000E+00  1.0323E+00  0.0000E+00  0.0000E+00  0.0000E+00  6.1123E+00  0.0000E+00  0.0000E+00  0.0000E+00
 35  3.1692E-02  1.2046E-02  0.0000E+00  0.0000E+00  3.3300E-02  8.5576E-03  1.9095E-03  8.3981E-02  2.9288E-02
 36  8.5302E-02  6.7455E-02  5.6592E-02  6.2261E-02  7.5608E-02  7.4166E-02  7.7472E-02  6.6231E-02  8.6359E-02
 37  0.0000E+00  4.6083E-03  0.0000E+00  0.0000E+00  5.7962E-03  0.0000E+00  0.0000E+00  3.4667E-03  0.0000E+00
 38  1.4678E+00  1.2189E+00  1.1242E+00  1.2101E+00  1.3482E+00  1.2428E+00  1.2485E+00  1.2552E+00  1.4024E+00
 39  0.0000E+00  5.6325E-02  1.2284E-02  0.0000E+00  4.8333E-02  0.0000E+00  5.4650E-03  6.9588E-03  1.3521E-02
 40  0.0000E+00  4.6689E-02  7.1733E-02  0.0000E+00  0.0000E+00  0.0000E+00  5.2837E-02  4.7062E-02  1.2350E-02
 41  0.0000E+00  9.9247E-02  0.0000E+00  2.5019E-01  0.0000E+00  0.0000E+00  0.0000E+00  1.3428E-03  0.0000E+00
 42  0.0000E+00  2.6701E-01  0.0000E+00  2.3566E-01  0.0000E+00  3.1027E-01  4.5826E-01  0.0000E+00  2.0534E-01
 43  0.0000E+00  4.6427E-01  3.3987E-01  0.0000E+00  8.4133E-01  0.0000E+00  0.0000E+00  0.0000E+00  8.8230E-01
 44  0.0000E+00  1.2930E+00  0.0000E+00  2.2390E+00  7.6465E-01  1.5316E+00  1.2678E+00  0.0000E+00  1.1118E+00
 45  2.3863E-02  3.0697E+00  3.4224E+00  3.4463E+00  1.3618E+00  1.4260E+00  3.1977E+00  4.4722E+00  3.5482E+00
 46  0.0000E+00  2.3173E+00  1.5197E+00  1.7806E+00  1.6775E+00  2.3909E+00  5.3158E+00  0.0000E+00  3.2174E+00
 47  0.0000E+00  2.1079E-01  0.0000E+00  0.0000E+00  0.0000E+00  0.0000E+00  0.0000E+00  0.0000E+00  0.0000E+00
 48  0.0000E+00  1.7663E+00  5.2123E-01  0.0000E+00  1.1634E-01  0.0000E+00  0.0000E+00  0.0000E+00  2.9990E+00
 49  0.0000E+00  2.1555E+00  0.0000E+00  0.0000E+00  0.0000E+00  0.0000E+00  0.0000E+00  4.9380E+00  0.0000E+00
 50  0.0000E+00  4.2505E-01  6.6772E+00  0.0000E+00  0.0000E+00  0.0000E+00  0.0000E+00  0.0000E+00  0.0000E+00
 51  4.2655E-02  1.3313E-02  1.5802E-02  3.1245E-02  0.0000E+00  0.0000E+00  1.8168E-02  1.4562E-02  3.1430E-02
 52  0.0000E+00  2.7854E-03  5.9716E-03  0.0000E+00  4.0976E-03  0.0000E+00  0.0000E+00  0.0000E+00  4.6699E-03
 53  0.0000E+00  2.4653E-03  0.0000E+00  0.0000E+00  7.9342E-04  0.0000E+00  0.0000E+00  1.0067E-03  1.6145E-03
 54  0.0000E+00  5.9220E-03  0.0000E+00  0.0000E+00  0.0000E+00  0.0000E+00  0.0000E+00  0.0000E+00  0.0000E+00
 55  0.0000E+00  7.5437E-03  2.2492E-03  0.0000E+00  1.4817E-02  1.4384E-02  0.0000E+00  2.7442E-03  0.0000E+00
 56  0.0000E+00  2.3875E-02  0.0000E+00  0.0000E+00  0.0000E+00  0.0000E+00  0.0000E+00  0.0000E+00  0.0000E+00
 57  0.0000E+00  2.1148E-02  1.7277E-02  0.0000E+00  0.0000E+00  0.0000E+00  0.0000E+00  1.9304E-02  0.0000E+00
 58  0.0000E+00  8.3794E-02  4.0204E-02  4.1962E-02  1.7090E-02  0.0000E+00  1.0824E-02  0.0000E+00  0.0000E+00
 59  4.9351E+00  6.3100E+00  5.5550E+00  6.5777E+00  8.2709E+00  6.3404E+00  6.2680E+00  6.8634E+00  6.4132E+00
 60  4.1893E+01  2.6149E+01  2.7719E+01  2.6636E+01  2.8672E+01  2.7471E+01  2.9428E+01  2.7934E+01  2.9520E+01
 61  1.1287E+01  6.5710E+00  5.9140E+00  5.3597E+00  7.8871E+00  7.7671E+00  6.9419E+00  8.1994E+00  5.9002E+00
 62  0.0000E+00  9.8446E-01  2.5248E+00  8.0760E-01  0.0000E+00  0.0000E+00  3.2026E-01  0.0000E+00  1.6547E+00
 63  1.8946E+01  1.6002E+01  1.4652E+01  1.8663E+01  1.8089E+01  1.6197E+01  1.5415E+01  1.9416E+01  2.1472E+01
 64  0.0000E+00  3.8982E-01  0.0000E+00  0.0000E+00  0.0000E+00  4.0387E+00  3.2573E+00  1.7771E+00  0.0000E+00
 65  0.0000E+00  5.7132E-01  0.0000E+00  6.9107E+00  0.0000E+00  0.0000E+00  0.0000E+00  0.0000E+00  0.0000E+00
 66  0.0000E+00  1.3525E+00  0.0000E+00  0.0000E+00  0.0000E+00  0.0000E+00  0.0000E+00  0.0000E+00  0.0000E+00

# AV, chi2 & Mass for <> & i_chain = 1 ...  7 solutions
AV       0.3601      0.3845      0.3750      0.3853      0.3797      0.3877      0.3832      0.3762      0.3818
chi2 2.4375E-01  2.5273E-01  2.5036E-01  2.5040E-01  2.5013E-01  2.5017E-01  2.4979E-01  2.4867E-01  2.5033E-01
Mass 1.1068E-11  1.1258E-11  1.1844E-11  1.1657E-11  1.0953E-11  1.1469E-11  1.1123E-11  1.1656E-11  1.0627E-11
 -36.94                                  [v0_min (km/s) before EX0s...]
 173.46                                  [vd_min (km/s) before EX0s...]


## Synthetic spectrum (Best Model) ##l_obs f_obs f_syn wei
 3478    [Nl_obs]
 3741.00    0.77496   0.74258    0.000
 3742.00    0.74658   0.74062    0.000
 3743.00    0.70960   0.72803    0.000
 3744.00    0.68999   0.70648    0.000
 3745.00    0.68709   0.67778   14.554
 3746.00    0.67393   0.64488   14.838
 3747.00    0.63936   0.61267   15.641
 3748.00    0.59904   0.58759   16.694
 3749.00    0.57739   0.57596   17.319
 3750.00    0.59476   0.58154   16.813
 3751.00    0.64729   0.60373   15.449
 3752.00    0.70702   0.63750   14.144
 3753.00    0.74642   0.67520   13.397
 3754.00    0.75007   0.70923   13.332
 3755.00    0.72404   0.73474   13.811
 3756.00    0.69208   0.75073   14.449
 3757.00    0.67381   0.75929   14.841
 3758.00    0.67685   0.76372   14.774
 3759.00    0.69588   0.76666   14.370
 3760.00    0.71555   0.76900   13.975
 3761.00    0.72024   0.76991   13.884
 3762.00    0.70128   0.76730   14.260
 3763.00    0.66868   0.75882   14.955
 3764.00    0.64488   0.74293   15.507
 3765.00    0.63667   0.71929   15.707
 3766.00    0.63286   0.68910   15.801
 3767.00    0.62244   0.65579   16.066
 3768.00    0.60206   0.62506   16.610
 3769.00    0.58172   0.60338   17.190
 3770.00    0.57888   0.59597   17.275
 3771.00    0.59878   0.60491   16.701
 3772.00    0.63240   0.62826   15.813
 3773.00    0.66613   0.66117   15.012
 3774.00    0.68894   0.69810   14.515
 3775.00    0.70364   0.73459   14.212
 3776.00    0.72291   0.76815   13.833
 3777.00    0.75184   0.79789   13.301
 3778.00    0.78762   0.82355   12.696
 3779.00    0.82995   0.84478   12.049
 3780.00    0.87717   0.86108   11.400
 3781.00    0.91106   0.87185   10.976
 3782.00    0.90831   0.87661   11.009
 3783.00    0.87539   0.87532   11.423
 3784.00    0.84069   0.86849   11.895
 3785.00    0.81721   0.85727   12.237
 3786.00    0.80057   0.84337   12.491
 3787.00    0.78473   0.82838   12.743
 3788.00    0.76671   0.81303   13.043
 3789.00    0.74879   0.79678   13.355
 3790.00    0.73545   0.77799   13.597
 3791.00    0.72593   0.75457   13.776
 3792.00    0.71368   0.72489   14.012
 3793.00    0.68899   0.68890   14.514
 3794.00    0.64889   0.64901   15.411
 3795.00    0.61527   0.61045   16.253
 3796.00    0.61560   0.58023   16.244
 3797.00    0.63841   0.56510   15.664
 3798.00    0.65024   0.56923   15.379
 3799.00    0.64590   0.59229   15.482
 3800.00    0.64393   0.62932   15.530
 3801.00    0.65884   0.67269   15.178
 3802.00    0.69281   0.71483   14.434
 3803.00    0.73115   0.75070   13.677
 3804.00    0.75539   0.77893   13.238
 3805.00    0.76810   0.80122   13.019
 3806.00    0.78433   0.82057   12.750
 3807.00    0.80860   0.83914   12.367
 3808.00    0.83565   0.85685   11.967
 3809.00    0.85900   0.87159   11.641
 3810.00    0.87365   0.88079   11.446
 3811.00    0.87813   0.88310   11.388
 3812.00    0.87488   0.87938   11.430
 3813.00    0.87022   0.87227   11.491
 3814.00    0.86807   0.86432   11.520
 3815.00    0.86068   0.85648   11.619
 3816.00    0.84094   0.84846   11.891
 3817.00    0.82308   0.83997   12.150
 3818.00    0.82412   0.83166   12.134
 3819.00    0.83171   0.82515   12.023
 3820.00    0.82408   0.82181   12.135
 3821.00    0.80642   0.82109   12.401
 3822.00    0.79385   0.82042   12.597
 3823.00    0.77950   0.81677   12.829
 3824.00    0.75132   0.80844   13.310
 3825.00    0.72177   0.79552   13.855
 3826.00    0.70941   0.77893   14.096
 3827.00    0.70796   0.75922   14.125
 3828.00    0.69937   0.73579   14.299
 3829.00    0.67745   0.70741   14.761
 3830.00    0.64751   0.67328   15.444
 3831.00    0.62097   0.63450   16.104
 3832.00    0.60662   0.59488   16.485
 3833.00    0.60079   0.56031   16.645
 3834.00    0.59702   0.53709   16.750
 3835.00    0.59925   0.52989   16.688
 3836.00    0.61203   0.54005   16.339
 3837.00    0.62695   0.56527   15.950
 3838.00    0.63475   0.60088   15.754
 3839.00    0.64128   0.64171   15.594
 3840.00    0.65750   0.68332   15.209
 3841.00    0.68541   0.72253   14.590
 3842.00    0.72076   0.75739   13.874
 3843.00    0.75806   0.78704   13.192
 3844.00    0.79161   0.81134   12.632
 3845.00    0.81637   0.83065   12.249
 3846.00    0.83195   0.84576   12.020
 3847.00    0.84608   0.85764    0.000
 3848.00    0.86353   0.86738    0.000
 3849.00    0.87485   0.87594    0.000
 3850.00    0.87216   0.88390    0.000
 3851.00    0.86577   0.89103    0.000
 3852.00    0.86686   0.89646    0.000
 3853.00    0.86925   0.89953    0.000
 3854.00    0.86409   0.90023    0.000
 3855.00    0.85599   0.89939    0.000
 3856.00    0.85633   0.89827    0.000
 3857.00    0.87400   0.89803    0.000
 3858.00    0.90481   0.89929    0.000
 3859.00    0.92466   0.90217    0.000
 3860.00    0.91845   0.90634    0.000
 3861.00    0.90474   0.91090    0.000
 3862.00    0.90396   0.91463    0.000
 3863.00    0.90932   0.91677    0.000
 3864.00    0.91164   0.91735    0.000
 3865.00    0.92186   0.91685    0.000
 3866.00    0.94974   0.91561    0.000
 3867.00    0.98463   0.91336    0.000
 3868.00    1.00649   0.90918    0.000
 3869.00    0.99856   0.90229    0.000
 3870.00    0.96226   0.89303    0.000
 3871.00    0.92513   0.88305    0.000
 3872.00    0.90646   0.87441    0.000
 3873.00    0.89220   0.86789    0.000
 3874.00    0.86856   0.86243    0.000
 3875.00    0.84735   0.85611    0.000
 3876.00    0.83893   0.84743    0.000
 3877.00    0.83207   0.83621    0.000
 3878.00    0.81537   0.82313    0.000
 3879.00    0.79337   0.80857    0.000
 3880.00    0.77346   0.79184    0.000
 3881.00    0.75635   0.77135   13.221
 3882.00    0.74366   0.74553   13.447
 3883.00    0.74263   0.71348   13.466
 3884.00    0.75621   0.67560   13.224
 3885.00    0.77684   0.63440   12.873
 3886.00    0.79561   0.59485   12.569
 3887.00    0.80826   0.56364   -1.000
 3888.00    0.81042   0.54720   -1.000
 3889.00    0.79595   0.54929   -1.000
 3890.00    0.76936   0.56925   12.998
 3891.00    0.75045   0.60219   13.325
 3892.00    0.74858   0.64119   13.359
 3893.00    0.74992   0.68003   13.335
 3894.00    0.74553   0.71480   13.413
 3895.00    0.74645   0.74414   13.397
 3896.00    0.76152   0.76842   13.132
 3897.00    0.78486   0.78880   12.741
 3898.00    0.80783   0.80656   12.379
 3899.00    0.82661   0.82263   12.098
 3900.00    0.84105   0.83716   11.890
 3901.00    0.85345   0.84959   11.717
 3902.00    0.86659   0.85937   11.539
 3903.00    0.88204   0.86675   11.337
 3904.00    0.89682   0.87307   11.150
 3905.00    0.90371   0.88019   11.065
 3906.00    0.90283   0.88950   11.076
 3907.00    0.90440   0.90101   11.057
 3908.00    0.90861   0.91320   11.006
 3909.00    0.90035   0.92377   11.107
 3910.00    0.87951   0.93089   11.370
 3911.00    0.86974   0.93389   11.498
 3912.00    0.87948   0.93329   11.370
 3913.00    0.88885   0.93017   11.251
 3914.00    0.88678   0.92552   11.277
 3915.00    0.88529   0.91988   11.296
 3916.00    0.89477   0.91351   11.176
 3917.00    0.91273   0.90696   10.956
 3918.00    0.93069   0.90124   10.745
 3919.00    0.93875   0.89759   10.652
 3920.00    0.92980   0.89661   10.755
 3921.00    0.90351   0.89763   11.068
 3922.00    0.87522   0.89877   11.426
 3923.00    0.87133   0.89760   11.477
 3924.00    0.89195   0.89225   11.211
 3925.00    0.90437   0.88196   11.057
 3926.00    0.88751   0.86694   11.267
 3927.00    0.84764   0.84765   11.797
 3928.00    0.79999   0.82444   12.500
 3929.00    0.75900   0.79787   13.175
 3930.00    0.73240   0.76950   13.654
 3931.00    0.71921   0.74267   13.904
 3932.00    0.71194   0.72233   14.046
 3933.00    0.70122   0.71348   14.261
 3934.00    0.69007   0.71903   14.491
 3935.00    0.69373   0.73813   14.415
 3936.00    0.71772   0.76644   13.933
 3937.00    0.75313   0.79791   13.278
 3938.00    0.79113   0.82701   12.640
 3939.00    0.82736   0.85006   12.087
 3940.00    0.85698   0.86581   11.669
 3941.00    0.87433   0.87504   11.437
 3942.00    0.87809   0.87993   11.388
 3943.00    0.87229   0.88296   11.464
 3944.00    0.86302   0.88587   11.587
 3945.00    0.85648   0.88904   11.676
 3946.00    0.85683   0.89178   11.671
 3947.00    0.86465   0.89327   11.565
 3948.00    0.87463   0.89324   11.433
 3949.00    0.87890   0.89202   11.378
 3950.00    0.87984   0.88999   11.366
 3951.00    0.88737   0.88726   11.269
 3952.00    0.89760   0.88360   11.141
 3953.00    0.89387   0.87866   11.187
 3954.00    0.87107   0.87220   11.480
 3955.00    0.83996   0.86422   11.905
 3956.00    0.81684   0.85476   12.242
 3957.00    0.81396   0.84350   12.286
 3958.00    0.82182   0.82941   12.168
 3959.00    0.81565   0.81106   12.260
 3960.00    0.78830   0.78743    0.000
 3961.00    0.75166   0.75835    0.000
 3962.00    0.71375   0.72430    0.000
 3963.00    0.67656   0.68582    0.000
 3964.00    0.64830   0.64339    0.000
 3965.00    0.63952   0.59818    0.000
 3966.00    0.64448   0.55297    0.000
 3967.00    0.64718   0.51263    0.000
 3968.00    0.64983   0.48342    0.000
 3969.00    0.66664   0.47101    0.000
 3970.00    0.68981   0.47821    0.000
 3971.00    0.69612   0.50378    0.000
 3972.00    0.68462   0.54293    0.000
 3973.00    0.67489   0.58933    0.000
 3974.00    0.67990   0.63714    0.000
 3975.00    0.70188   0.68231    0.000
 3976.00    0.73852   0.72266    0.000
 3977.00    0.78313   0.75726    0.000
 3978.00    0.82175   0.78583    0.000
 3979.00    0.84076   0.80846    0.000
 3980.00    0.84506   0.82574    0.000
 3981.00    0.85112   0.83905   11.749
 3982.00    0.86331   0.85024   11.583
 3983.00    0.87546   0.86099   11.423
 3984.00    0.88559   0.87215   11.292
 3985.00    0.89646   0.88357   11.155
 3986.00    0.90995   0.89453   10.990
 3987.00    0.92554   0.90433   10.805
 3988.00    0.93991   0.91270   10.639
 3989.00    0.94954   0.91976   10.531
 3990.00    0.95576   0.92561   10.463
 3991.00    0.96254   0.93008   10.389
 3992.00    0.97011   0.93264   10.308
 3993.00    0.97600   0.93290   10.246
 3994.00    0.97940   0.93121   10.210
 3995.00    0.98112   0.92892   10.192
 3996.00    0.98199   0.92788   10.183
 3997.00    0.98285   0.92951   10.175
 3998.00    0.98490   0.93390   10.153
 3999.00    0.98784   0.93964   10.123
 4000.00    0.98660   0.94447   10.136
 4001.00    0.97704   0.94636   10.235
 4002.00    0.96620   0.94447   10.350
 4003.00    0.96430   0.93960   10.370
 4004.00    0.96874   0.93384   10.323
 4005.00    0.97094   0.92958   10.299
 4006.00    0.97171   0.92845   10.291
 4007.00    0.97581   0.93073   10.248
 4008.00    0.97960   0.93556   10.208
 4009.00    0.97795   0.94170   10.226
 4010.00    0.97770   0.94804   10.228
 4011.00    0.98824   0.95391   10.119
 4012.00    1.00421   0.95902    9.958
 4013.00    1.01464   0.96329    9.856
 4014.00    1.02007   0.96684    9.803
 4015.00    1.02639   0.96991    9.743
 4016.00    1.03230   0.97272    9.687
 4017.00    1.03298   0.97513    9.681
 4018.00    1.02789   0.97642    9.729
 4019.00    1.02009   0.97531    9.803
 4020.00    1.01358   0.97050    9.866
 4021.00    1.01055   0.96154    9.896
 4022.00    1.00836   0.94943    9.917
 4023.00    1.00375   0.93664    9.963
 4024.00    0.99862   0.92625   10.014
 4025.00    0.99603   0.92046   10.040
 4026.00    0.99420   0.91942   10.058
 4027.00    0.99007   0.92114   10.100
 4028.00    0.98452   0.92282   10.157
 4029.00    0.98057   0.92272   10.198
 4030.00    0.98012   0.92121   10.203
 4031.00    0.98343   0.92037   10.169
 4032.00    0.98903   0.92255   10.111
 4033.00    0.99585   0.92906   10.042
 4034.00    1.00563   0.93948    9.944
 4035.00    1.02131   0.95197    9.791
 4036.00    1.04446   0.96394    9.574
 4037.00    1.06879   0.97297    9.356
 4038.00    1.07496   0.97754    9.303
 4039.00    1.05300   0.97733    9.497
 4040.00    1.02531   0.97291    9.753
 4041.00    1.01516   0.96525    9.851
 4042.00    1.01234   0.95553    9.878
 4043.00    1.00018   0.94549    9.998
 4044.00    0.98628   0.93749   10.139
 4045.00    0.98335   0.93384   10.169
 4046.00    0.98745   0.93556   10.127
 4047.00    0.99114   0.94154   10.089
 4048.00    0.99793   0.94905   10.021
 4049.00    1.01056   0.95504    9.896
 4050.00    1.01929   0.95750    9.811
 4051.00    1.01464   0.95601    9.856
 4052.00    1.00000   0.95158   10.000
 4053.00    0.98422   0.94594   10.160
 4054.00    0.97355   0.94079   10.272
 4055.00    0.97160   0.93727   10.292
 4056.00    0.97948   0.93570   10.210
 4057.00    0.99071   0.93559   10.094
 4058.00    0.98903   0.93580   10.111
 4059.00    0.96970   0.93497   10.312
 4060.00    0.95496   0.93212   10.472
 4061.00    0.95980   0.92736   10.419
 4062.00    0.96566   0.92199   10.356
 4063.00    0.95794   0.91778   10.439
 4064.00    0.95516   0.91583   10.469
 4065.00    0.97239   0.91597   10.284
 4066.00    0.99280   0.91698   10.072
 4067.00    0.99808   0.91741   10.019
 4068.00    0.99267   0.91630   10.074
 4069.00    0.98785   0.91348   10.123
 4070.00    0.98784   0.90944   10.123
 4071.00    0.99012   0.90481   10.100
 4072.00    0.98714   0.89968   10.130
 4073.00    0.97266   0.89359   10.281
 4074.00    0.94681   0.88629   10.562
 4075.00    0.91818   0.87866   10.891
 4076.00    0.90296   0.87299   11.075
 4077.00    0.90863   0.87165   11.006
 4078.00    0.92444   0.87549   10.817
 4079.00    0.93652   0.88292   10.678
 4080.00    0.93911   0.89064   10.648
 4081.00    0.93543   0.89546   10.690
 4082.00    0.93540   0.89588   10.691
 4083.00    0.93998   0.89259   10.639
 4084.00    0.93477   0.88759   10.698
 4085.00    0.91683   0.88279   10.907
 4086.00    0.90719   0.87899   11.023
 4087.00    0.91606   0.87567   10.916
 4088.00    0.92519   0.87154   10.809
 4089.00    0.91977   0.86528   10.872
 4090.00    0.90575   0.85588   11.041
 4091.00    0.88903   0.84270   11.248
 4092.00    0.86517   0.82531    0.000
 4093.00    0.83690   0.80330    0.000
 4094.00    0.82055   0.77647    0.000
 4095.00    0.82160   0.74493    0.000
 4096.00    0.82525   0.70927    0.000
 4097.00    0.82577   0.67076    0.000
 4098.00    0.83832   0.63183    0.000
 4099.00    0.86957   0.59654    0.000
 4100.00    0.90451   0.57020    0.000
 4101.00    0.92496   0.55813    0.000
 4102.00    0.92095   0.56320    0.000
 4103.00    0.89556   0.58440    0.000
 4104.00    0.86420   0.61697    0.000
 4105.00    0.83943   0.65437    0.000
 4106.00    0.82418   0.69075    0.000
 4107.00    0.81738   0.72255    0.000
 4108.00    0.81741   0.74882    0.000
 4109.00    0.82431   0.77054    0.000
 4110.00    0.83943   0.78941    0.000
 4111.00    0.85931   0.80682    0.000
 4112.00    0.87493   0.82321    0.000
 4113.00    0.88207   0.83801   11.337
 4114.00    0.88454   0.85010   11.305
 4115.00    0.88708   0.85838   11.273
 4116.00    0.89191   0.86248   11.212
 4117.00    0.89898   0.86313   11.124
 4118.00    0.90623   0.86208   11.035
 4119.00    0.90996   0.86153   10.989
 4120.00    0.90684   0.86322   11.027
 4121.00    0.90115   0.86777   11.097
 4122.00    0.90356   0.87445   11.067
 4123.00    0.91395   0.88147   10.942
 4124.00    0.91951   0.88677   10.875
 4125.00    0.91624   0.88887   10.914
 4126.00    0.91296   0.88741   10.953
 4127.00    0.91259   0.88326   10.958
 4128.00    0.90889   0.87800   11.002
 4129.00    0.90269   0.87335   11.078
 4130.00    0.90317   0.87079   11.072
 4131.00    0.90925   0.87144   10.998
 4132.00    0.90908   0.87591   11.000
 4133.00    0.90401   0.88402   11.062
 4134.00    0.90940   0.89466   10.996
 4135.00    0.92605   0.90601   10.799
 4136.00    0.93766   0.91603   10.665
 4137.00    0.93776   0.92284   10.664
 4138.00    0.93466   0.92492   10.699
 4139.00    0.93560   0.92135   10.688
 4140.00    0.94092   0.91241   10.628
 4141.00    0.94380   0.90020   10.596
 4142.00    0.93514   0.88844   10.694
 4143.00    0.91922   0.88105   10.879
 4144.00    0.91149   0.88021   10.971
 4145.00    0.91613   0.88518   10.915
 4146.00    0.92402   0.89297   10.822
 4147.00    0.92861   0.90013   10.769
 4148.00    0.92986   0.90452   10.754
 4149.00    0.93046   0.90574   10.747
 4150.00    0.93274   0.90455   10.721
 4151.00    0.93307   0.90203   10.717
 4152.00    0.92547   0.89913   10.805
 4153.00    0.91598   0.89669   10.917
 4154.00    0.91823   0.89555   10.890
 4155.00    0.93010   0.89635   10.752
 4156.00    0.93661   0.89930   10.677
 4157.00    0.93565   0.90393   10.688
 4158.00    0.93757   0.90932   10.666
 4159.00    0.94521   0.91453   10.580
 4160.00    0.95297   0.91894   10.494
 4161.00    0.95842   0.92233   10.434
 4162.00    0.96273   0.92466   10.387
 4163.00    0.96378   0.92581   10.376
 4164.00    0.95808   0.92560   10.438
 4165.00    0.94930   0.92393   10.534
 4166.00    0.94493   0.92083   10.583
 4167.00    0.94323   0.91628   10.602
 4168.00    0.93710   0.91010   10.671
 4169.00    0.93045   0.90217   10.748
 4170.00    0.93186   0.89294   10.731
 4171.00    0.93202   0.88369   10.729
 4172.00    0.91314   0.87620   10.951
 4173.00    0.88116   0.87177   11.349
 4174.00    0.85966   0.87054   11.633
 4175.00    0.86045   0.87169   11.622
 4176.00    0.87920   0.87415   11.374
 4177.00    0.90050   0.87737   11.105
 4178.00    0.90884   0.88120   11.003
 4179.00    0.90837   0.88551   11.009
 4180.00    0.91373   0.88985   10.944
 4181.00    0.92340   0.89356   10.829
 4182.00    0.92489   0.89616   10.812
 4183.00    0.91584   0.89748   10.919
 4184.00    0.90433   0.89765   11.058
 4185.00    0.90103   0.89710   11.098
 4186.00    0.91195   0.89660   10.965
 4187.00    0.92839   0.89708   10.771
 4188.00    0.93592   0.89926   10.685
 4189.00    0.93426   0.90320   10.704
 4190.00    0.93251   0.90816   10.724
 4191.00    0.93400   0.91273   10.707
 4192.00    0.93684   0.91525   10.674
 4193.00    0.93955   0.91436   10.643
 4194.00    0.93964   0.90952   10.642
 4195.00    0.92987   0.90141   10.754
 4196.00    0.90637   0.89182   11.033
 4197.00    0.88288   0.88289   11.327
 4198.00    0.87792   0.87636   11.391
 4199.00    0.89047   0.87301   11.230
 4200.00    0.90679   0.87271   11.028
 4201.00    0.91773   0.87484   10.896
 4202.00    0.92146   0.87880   10.852
 4203.00    0.92277   0.88414   10.837
 4204.00    0.92634   0.89043   10.795
 4205.00    0.92699   0.89712   10.788
 4206.00    0.91906   0.90347   10.881
 4207.00    0.91168   0.90882   10.969
 4208.00    0.91625   0.91279   10.914
 4209.00    0.92562   0.91530   10.804
 4210.00    0.92681   0.91635   10.790
 4211.00    0.92298   0.91579   10.834
 4212.00    0.92447   0.91358   10.817
 4213.00    0.93235   0.91023   10.726
 4214.00    0.94037   0.90702   10.634
 4215.00    0.94117   0.90558   10.625
 4216.00    0.93288   0.90685   10.720
 4217.00    0.92592   0.91037   10.800
 4218.00    0.92900   0.91429   10.764
 4219.00    0.93105   0.91614   10.741
 4220.00    0.91975   0.91388   10.873
 4221.00    0.90640   0.90651   11.033
 4222.00    0.90414   0.89449   11.060
 4223.00    0.89876   0.87978   11.126
 4224.00    0.87340   0.86567   11.450
 4225.00    0.84110   0.85591   11.889
 4226.00    0.82577   0.85336   12.110
 4227.00    0.83520   0.85852   11.973
 4228.00    0.86215   0.86909   11.599
 4229.00    0.89009   0.88086   11.235
 4230.00    0.90503   0.88973   11.049
 4231.00    0.90769   0.89356   11.017
 4232.00    0.90649   0.89272   11.032
 4233.00    0.90810   0.88931   11.012
 4234.00    0.91386   0.88574   10.943
 4235.00    0.91764   0.88364   10.898
 4236.00    0.91266   0.88362   10.957
 4237.00    0.89905   0.88564   11.123
 4238.00    0.88465   0.88937   11.304
 4239.00    0.88359   0.89438   11.318
 4240.00    0.90149   0.90011   11.093
 4241.00    0.92245   0.90570   10.841
 4242.00    0.92991   0.91009   10.754
 4243.00    0.92698   0.91222   10.788
 4244.00    0.92192   0.91138   10.847
 4245.00    0.91322   0.90762   10.950
 4246.00    0.89893   0.90176   11.124
 4247.00    0.88580   0.89507   11.289
 4248.00    0.88081   0.88884   11.353
 4249.00    0.88302   0.88397   11.325
 4250.00    0.88759   0.88089   11.266
 4251.00    0.89037   0.87966   11.231
 4252.00    0.89167   0.88011   11.215
 4253.00    0.89798   0.88189   11.136
 4254.00    0.91009   0.88441   10.988
 4255.00    0.91494   0.88677   10.930
 4256.00    0.90399   0.88797   11.062
 4257.00    0.88732   0.88754   11.270
 4258.00    0.87707   0.88610   11.402
 4259.00    0.87388   0.88528   11.443
 4260.00    0.87465   0.88687   11.433
 4261.00    0.87926   0.89163   11.373
 4262.00    0.88752   0.89861   11.267
 4263.00    0.89670   0.90547   11.152
 4264.00    0.90333   0.90963   11.070
 4265.00    0.90477   0.90937   11.053
 4266.00    0.89950   0.90435   11.117
 4267.00    0.88762   0.89543   11.266
 4268.00    0.87317   0.88413   11.453
 4269.00    0.86452   0.87223   11.567
 4270.00    0.86447   0.86155   11.568
 4271.00    0.86500   0.85384   11.561
 4272.00    0.86049   0.85036   11.621
 4273.00    0.85583   0.85162   11.685
 4274.00    0.85724   0.85714   11.665
 4275.00    0.86560   0.86557   11.553
 4276.00    0.87694   0.87497   11.403
 4277.00    0.88420   0.88327   11.310
 4278.00    0.88492   0.88882   11.301
 4279.00    0.88462   0.89095   11.304
 4280.00    0.88656   0.88997   11.280
 4281.00    0.88644   0.88695   11.281
 4282.00    0.88121   0.88297   11.348
 4283.00    0.87377   0.87866   11.445
 4284.00    0.86738   0.87394   11.529
 4285.00    0.86239   0.86836   11.596
 4286.00    0.85856   0.86163   11.647
 4287.00    0.85645   0.85430   11.676
 4288.00    0.85647   0.84782   11.676
 4289.00    0.85804   0.84393   11.655
 4290.00    0.85777   0.84362   11.658
 4291.00    0.85037   0.84633   11.760
 4292.00    0.83875   0.85011   11.922
 4293.00    0.83568   0.85261   11.966
 4294.00    0.84245   0.85203   11.870
 4295.00    0.84238   0.84769   11.871
 4296.00    0.82716   0.83986   12.090
 4297.00    0.80740   0.82959   12.385
 4298.00    0.79416   0.81846   12.592
 4299.00    0.78995   0.80833   12.659
 4300.00    0.79321   0.80077   12.607
 4301.00    0.80048   0.79656   12.492
 4302.00    0.80507   0.79538   12.421
 4303.00    0.79891   0.79605   12.517
 4304.00    0.78459   0.79714   12.746
 4305.00    0.77621   0.79775   12.883
 4306.00    0.77764   0.79800   12.859
 4307.00    0.77745   0.79889   12.863
 4308.00    0.77266   0.80155   12.942
 4309.00    0.77481   0.80643   12.907
 4310.00    0.78784   0.81303   12.693
 4311.00    0.80235   0.82030   12.463
 4312.00    0.81344   0.82760   12.292
 4313.00    0.82595   0.83495   12.108
 4314.00    0.84240   0.84271   11.874
 4315.00    0.85919   0.85076   11.636
 4316.00    0.87254   0.85807   11.454
 4317.00    0.88066   0.86310   11.364
 4318.00    0.88242   0.86447   11.352
 4319.00    0.87737   0.86157   11.374
 4320.00    0.86753   0.85450   11.473
 4321.00    0.85672   0.84383   11.745
 4322.00    0.84507   0.83065   11.994
 4323.00    0.82964   0.81671   11.837
 4324.00    0.81436   0.80436   11.807
 4325.00    0.80909   0.79579   13.243
 4326.00    0.81274   0.79188   16.863
 4327.00    0.81288   0.79159   20.214
 4328.00    0.80629   0.79237   -2.000
 4329.00    0.80141   0.79140   -2.000
 4330.00    0.80150   0.78672   -2.000
 4331.00    0.80098   0.77739   -2.000
 4332.00    0.79376   0.76294   -2.000
 4333.00    0.77941   0.74272   -2.000
 4334.00    0.77335   0.71603   -2.000
 4335.00    0.80111   0.68289   -2.000
 4336.00    0.87017   0.64510   -2.000
 4337.00    0.96491   0.60673   -2.000
 4338.00    1.06028   0.57358   -2.000
 4339.00    1.13008   0.55162   -2.000
 4340.00    1.15827   0.54493   -2.000
 4341.00    1.14157   0.55429   -2.000
 4342.00    1.08697   0.57707   -2.000
 4343.00    1.00846   0.60835   -2.000
 4344.00    0.92038   0.64279    0.000
 4345.00    0.83732   0.67595    0.000
 4346.00    0.77914   0.70479    0.000
 4347.00    0.76328   0.72768    0.000
 4348.00    0.78037   0.74423    0.000
 4349.00    0.80038   0.75539    0.000
 4350.00    0.80742   0.76334    0.000
 4351.00    0.80461   0.77089   19.721
 4352.00    0.80097   0.78034   19.872
 4353.00    0.80516   0.79250   19.854
 4354.00    0.81907   0.80645   19.695
 4355.00    0.83822   0.82026   19.668
 4356.00    0.85697   0.83224   19.803
 4357.00    0.87085   0.84181   19.907
 4358.00    0.87884   0.84954   19.904
 4359.00    0.88287   0.85661   19.871
 4360.00    0.88550   0.86390   19.885
 4361.00    0.88886   0.87142   19.961
 4362.00    0.89365   0.87830   20.022
 4363.00    0.89881   0.88326   19.967
 4364.00    0.90155   0.88527   19.862
 4365.00    0.89915   0.88413   19.864
 4366.00    0.89294   0.88061   19.984
 4367.00    0.88617   0.87613   20.116
 4368.00    0.87766   0.87207   20.218
 4369.00    0.86528   0.86903   20.301
 4370.00    0.85607   0.86672   20.307
 4371.00    0.85952   0.86448   20.186
 4372.00    0.86954   0.86208   20.091
 4373.00    0.87175   0.86022   20.222
 4374.00    0.86561   0.86011   20.445
 4375.00    0.86129   0.86252   20.437
 4376.00    0.86456   0.86684   20.167
 4377.00    0.87312   0.87102   19.875
 4378.00    0.87594   0.87227   19.792
 4379.00    0.86345   0.86834   19.997
 4380.00    0.84616   0.85862   20.226
 4381.00    0.84170   0.84449   20.117
 4382.00    0.84507   0.82905   19.819
 4383.00    0.83902   0.81593   19.715
 4384.00    0.82228   0.80797   19.801
 4385.00    0.80694   0.80629   19.843
 4386.00    0.80468   0.81009   19.787
 4387.00    0.81900   0.81756   19.745
 4388.00    0.83677   0.82667   19.813
 4389.00    0.84201   0.83587   19.989
 4390.00    0.84039   0.84416   20.078
 4391.00    0.84705   0.85100   19.915
 4392.00    0.86045   0.85632   19.752
 4393.00    0.86874   0.86049   19.845
 4394.00    0.86692   0.86406   19.776
 4395.00    0.85817   0.86734   19.322
 4396.00    0.85140   0.87006   19.747
 4397.00    0.85434   0.87153   21.756
 4398.00    0.86383   0.87123   20.945
 4399.00    0.87034   0.86916   15.455
 4400.00    0.86696   0.86583   11.835
 4401.00    0.85387   0.86191   11.141
 4402.00    0.84202   0.85793   11.796
 4403.00    0.84177   0.85444   12.040
 4404.00    0.84672   0.85207   11.815
 4405.00    0.84578   0.85156   11.927
 4406.00    0.84246   0.85338   11.925
 4407.00    0.84538   0.85745   11.358
 4408.00    0.85248   0.86304   11.555
 4409.00    0.85822   0.86879   14.223
 4410.00    0.86534   0.87296   19.614
 4411.00    0.87677   0.87397   22.421
 4412.00    0.88398   0.87117   20.859
 4413.00    0.87858   0.86539   20.075
 4414.00    0.86792   0.85886   20.523
 4415.00    0.86337   0.85433   20.729
 4416.00    0.86399   0.85376   20.535
 4417.00    0.86418   0.85740   20.519
 4418.00    0.86491   0.86373   20.694
 4419.00    0.86905   0.87040   20.814
 4420.00    0.87453   0.87549   20.876
 4421.00    0.87765   0.87823   20.968
 4422.00    0.87770   0.87906   21.022
 4423.00    0.87626   0.87889   20.967
 4424.00    0.87582   0.87845   20.928
 4425.00    0.87874   0.87794   21.012
 4426.00    0.88608   0.87719   21.071
 4427.00    0.89440   0.87594   20.979
 4428.00    0.89345   0.87407   20.922
 4429.00    0.87850   0.87154   21.068
 4430.00    0.86211   0.86843   21.223
 4431.00    0.85864   0.86493   21.165
 4432.00    0.86758   0.86160   21.031
 4433.00    0.87981   0.85937   21.042
 4434.00    0.88598   0.85932   21.217
 4435.00    0.88279   0.86207   21.450
 4436.00    0.87739   0.86709   21.614
 4437.00    0.87766   0.87261   21.636
 4438.00    0.88289   0.87628   21.571
 4439.00    0.88863   0.87643   21.520
 4440.00    0.89196   0.87307   21.550
 4441.00    0.89122   0.86799   21.655
 4442.00    0.88553   0.86386   21.736
 4443.00    0.87615   0.86280   21.729
 4444.00    0.86750   0.86531   21.704
 4445.00    0.86423   0.87024   21.737
 4446.00    0.86837   0.87559   21.792
 4447.00    0.87771   0.87951   21.812
 4448.00    0.88521   0.88103   21.791
 4449.00    0.88496   0.87995   21.769
 4450.00    0.87720   0.87651   21.799
 4451.00    0.86728   0.87113   21.865
 4452.00    0.86331   0.86432   21.851
 4453.00    0.86574   0.85684   21.755
 4454.00    0.86187   0.84966   21.828
 4455.00    0.84831   0.84368   22.125
 4456.00    0.84439   0.83939   22.229
 4457.00    0.85793   0.83678   21.961
 4458.00    0.86391   0.83556   21.844
 4459.00    0.84786   0.83553   22.173
 4460.00    0.83371   0.83668   22.457
 4461.00    0.84077   0.83895    0.000
 4462.00    0.85520   0.84192    0.000
 4463.00    0.86092   0.84466    0.000
 4464.00    0.86084   0.84601    0.000
 4465.00    0.86133   0.84509    0.000
 4466.00    0.86159   0.84182    0.000
 4467.00    0.86065   0.83710    0.000
 4468.00    0.86182   0.83266    0.000
 4469.00    0.86756   0.83055    0.000
 4470.00    0.87630   0.83239    0.000
 4471.00    0.88544   0.83875    0.000
 4472.00    0.89325   0.84878    0.000
 4473.00    0.89778   0.86045    0.000
 4474.00    0.89671   0.87112    0.000
 4475.00    0.89169   0.87827    0.000
 4476.00    0.88934   0.88019    0.000
 4477.00    0.89172   0.87649    0.000
 4478.00    0.89196   0.86845    0.000
 4479.00    0.88308   0.85890    0.000
 4480.00    0.86400   0.85140    0.000
 4481.00    0.84303   0.84883    0.000
 4482.00    0.83636   0.85208   22.436
 4483.00    0.84906   0.85962   22.322
 4484.00    0.86802   0.86826   21.944
 4485.00    0.88146   0.87473   21.481
 4486.00    0.88849   0.87722   21.242
 4487.00    0.89124   0.87588   21.266
 4488.00    0.89050   0.87239   21.247
 4489.00    0.88675   0.86880   21.057
 4490.00    0.88076   0.86648   20.936
 4491.00    0.87309   0.86571   21.017
 4492.00    0.86449   0.86605   21.157
 4493.00    0.85912   0.86703   21.252
 4494.00    0.86358   0.86856   21.360
 4495.00    0.87496   0.87089   21.506
 4496.00    0.87976   0.87413   21.608
 4497.00    0.87614   0.87808   21.613
 4498.00    0.87844   0.88238   21.568
 4499.00    0.88870   0.88687   21.573
 4500.00    0.89039   0.89169   21.726
 4501.00    0.88065   0.89697   22.007
 4502.00    0.87782   0.90245   22.246
 4503.00    0.88925   0.90731   22.291
 4504.00    0.90236   0.91054   22.122
 4505.00    0.90912   0.91157   21.885
 4506.00    0.91345   0.91063   21.812
 4507.00    0.91729   0.90848   21.918
 4508.00    0.91651   0.90591   21.974
 4509.00    0.90956   0.90319   21.902
 4510.00    0.90019   0.90010   21.860
 4511.00    0.89396   0.89631   21.910
 4512.00    0.89467   0.89184   21.956
 4513.00    0.89647   0.88720   22.006
 4514.00    0.88683   0.88320   22.193
 4515.00    0.86882   0.88045   22.463
 4516.00    0.86156   0.87908   22.552
 4517.00    0.87031   0.87866   22.429
 4518.00    0.88154   0.87841   22.358
 4519.00    0.88577   0.87749   22.447
 4520.00    0.88359   0.87528   22.583
 4521.00    0.87606   0.87149   22.740
 4522.00    0.86262   0.86619   23.022
 4523.00    0.84579   0.85966   23.368
 4524.00    0.83141   0.85234   23.547
 4525.00    0.82367   0.84483   23.559
 4526.00    0.82303   0.83786   23.641
 4527.00    0.82507   0.83222   23.812
 4528.00    0.82335   0.82851   23.852
 4529.00    0.81931   0.82689   23.777
 4530.00    0.82113   0.82707   23.843
 4531.00    0.83032   0.82859   24.039
 4532.00    0.84066   0.83126   24.088
 4533.00    0.84789   0.83532   23.950
 4534.00    0.85224   0.84104   23.850
 4535.00    0.85640   0.84818   23.883
 4536.00    0.86297   0.85574   23.975
 4537.00    0.86893   0.86227   24.107
 4538.00    0.86820   0.86661   24.318
 4539.00    0.86297   0.86851   24.504
 4540.00    0.86137   0.86856   24.485
 4541.00    0.86193   0.86770   24.348
 4542.00    0.85639   0.86651   24.363
 4543.00    0.84843   0.86500   24.529
 4544.00    0.85018   0.86275   24.612
 4545.00    0.85974   0.85936   24.573
 4546.00    0.86396   0.85484   24.565
 4547.00    0.86068   0.84969   24.610
 4548.00    0.85741   0.84467   24.614
 4549.00    0.85359   0.84051   24.648
 4550.00    0.84267   0.83755    0.000
 4551.00    0.82807   0.83583    0.000
 4552.00    0.82047   0.83534    0.000
 4553.00    0.82205   0.83631    0.000
 4554.00    0.82719   0.83916    0.000
 4555.00    0.83312   0.84415    0.000
 4556.00    0.84029   0.85097    0.000
 4557.00    0.84771   0.85864    0.000
 4558.00    0.85343   0.86572    0.000
 4559.00    0.85800   0.87083    0.000
 4560.00    0.86307   0.87317    0.000
 4561.00    0.86667   0.87279    0.000
 4562.00    0.86508   0.87067    0.000
 4563.00    0.85895   0.86830    0.000
 4564.00    0.85209   0.86707    0.000
 4565.00    0.84644   0.86766    0.000
 4566.00    0.84239   0.86972    0.000
 4567.00    0.84175   0.87213    0.000
 4568.00    0.84675   0.87373    0.000
 4569.00    0.85705   0.87399    0.000
 4570.00    0.86872   0.87320    0.000
 4571.00    0.87360   0.87217    0.000
 4572.00    0.86589   0.87161    0.000
 4573.00    0.85402   0.87165    0.000
 4574.00    0.85193   0.87177    0.000
 4575.00    0.85921   0.87112    0.000
 4576.00    0.86548   0.86897    0.000
 4577.00    0.86467   0.86505    0.000
 4578.00    0.85668   0.85970    0.000
 4579.00    0.84547   0.85372    0.000
 4580.00    0.83637   0.84814    0.000
 4581.00    0.83193   0.84392    0.000
 4582.00    0.83193   0.84172    0.000
 4583.00    0.83446   0.84174    0.000
 4584.00    0.83742   0.84373    0.000
 4585.00    0.84049   0.84701    0.000
 4586.00    0.84408   0.85064    0.000
 4587.00    0.84714   0.85366    0.000
 4588.00    0.84864   0.85536    0.000
 4589.00    0.85005   0.85550    0.000
 4590.00    0.85237   0.85437    0.000
 4591.00    0.85128   0.85260    0.000
 4592.00    0.84327   0.85091    0.000
 4593.00    0.83532   0.84985    0.000
 4594.00    0.83629   0.84963    0.000
 4595.00    0.84292   0.85017    0.000
 4596.00    0.84684   0.85113    0.000
 4597.00    0.84689   0.85214    0.000
 4598.00    0.84603   0.85291    0.000
 4599.00    0.84458   0.85338    0.000
 4600.00    0.84205   0.85369    0.000
 4601.00    0.84064   0.85416    0.000
 4602.00    0.84272   0.85516    0.000
 4603.00    0.84718   0.85704    0.000
 4604.00    0.85170   0.86003    0.000
 4605.00    0.85632   0.86406    0.000
 4606.00    0.86236   0.86873    0.000
 4607.00    0.87051   0.87331    0.000
 4608.00    0.87946   0.87697    0.000
 4609.00    0.88481   0.87908    0.000
 4610.00    0.88360   0.87950    0.000
 4611.00    0.87936   0.87855    0.000
 4612.00    0.87624   0.87680    0.000
 4613.00    0.87186   0.87476    0.000
 4614.00    0.86409   0.87266    0.000
 4615.00    0.85919   0.87058    0.000
 4616.00    0.86301   0.86863    0.000
 4617.00    0.87084   0.86709    0.000
 4618.00    0.87571   0.86641    0.000
 4619.00    0.87816   0.86689    0.000
 4620.00    0.88048   0.86847    0.000
 4621.00    0.88011   0.87061    0.000
 4622.00    0.87574   0.87255    0.000
 4623.00    0.87378   0.87357    0.000
 4624.00    0.87887   0.87334    0.000
 4625.00    0.88453   0.87197    0.000
 4626.00    0.88308   0.86989    0.000
 4627.00    0.87610   0.86768    0.000
 4628.00    0.86959   0.86578    0.000
 4629.00    0.86804   0.86430    0.000
 4630.00    0.87055   0.86303    0.000
 4631.00    0.86896   0.86160    0.000
 4632.00    0.86021   0.85971    0.000
 4633.00    0.85623   0.85729    0.000
 4634.00    0.86473   0.85450    0.000
 4635.00    0.87308   0.85166    0.000
 4636.00    0.86879   0.84913    0.000
 4637.00    0.85768   0.84722    0.000
 4638.00    0.85004   0.84608    0.000
 4639.00    0.84786   0.84561    0.000
 4640.00    0.84896   0.84537    0.000
 4641.00    0.85128   0.84464    0.000
 4642.00    0.85173   0.84267    0.000
 4643.00    0.84577   0.83903    0.000
 4644.00    0.83434   0.83399    0.000
 4645.00    0.82797   0.82855    0.000
 4646.00    0.83292   0.82413    0.000
 4647.00    0.84148   0.82202    0.000
 4648.00    0.84459   0.82279    0.000
 4649.00    0.84163   0.82607    0.000
 4650.00    0.83650   0.83070    0.000
 4651.00    0.83363   0.83534    0.000
 4652.00    0.83503   0.83908    0.000
 4653.00    0.83880   0.84180    0.000
 4654.00    0.84359   0.84413    0.000
 4655.00    0.85123   0.84695    0.000
 4656.00    0.86245   0.85072    0.000
 4657.00    0.87417   0.85509    0.000
 4658.00    0.88234   0.85894    0.000
 4659.00    0.88437   0.86088    0.000
 4660.00    0.88059   0.85979    0.000
 4661.00    0.87435   0.85527    0.000
 4662.00    0.86700   0.84773    0.000
 4663.00    0.85562   0.83820    0.000
 4664.00    0.84022   0.82810    0.000
 4665.00    0.82720   0.81907    0.000
 4666.00    0.82065   0.81265    0.000
 4667.00    0.81801   0.80989    0.000
 4668.00    0.81811   0.81109    0.000
 4669.00    0.82470   0.81561    0.000
 4670.00    0.83731   0.82214    0.000
 4671.00    0.84750   0.82918    0.000
 4672.00    0.85026   0.83546    0.000
 4673.00    0.84938   0.84028    0.000
 4674.00    0.84835   0.84334    0.000
 4675.00    0.84606   0.84463    0.000
 4676.00    0.84286   0.84432    0.000
 4677.00    0.84269   0.84279    0.000
 4678.00    0.84617   0.84062    0.000
 4679.00    0.84814   0.83848    0.000
 4680.00    0.84569   0.83696    0.000
 4681.00    0.84158   0.83637    0.000
 4682.00    0.83940   0.83661    0.000
 4683.00    0.84073   0.83737    0.000
 4684.00    0.84458   0.83824    0.000
 4685.00    0.84796   0.83892    0.000
 4686.00    0.85009   0.83931    0.000
 4687.00    0.85311   0.83945    0.000
 4688.00    0.85549   0.83948    0.000
 4689.00    0.85152   0.83964    0.000
 4690.00    0.84381   0.84013    0.000
 4691.00    0.84451   0.84104    0.000
 4692.00    0.85369   0.84215    0.000
 4693.00    0.85565   0.84298    0.000
 4694.00    0.84788   0.84291    0.000
 4695.00    0.84701   0.84138    0.000
 4696.00    0.85718   0.83816    0.000
 4697.00    0.86245   0.83351    0.000
 4698.00    0.85504   0.82815    0.000
 4699.00    0.84373   0.82298    0.000
 4700.00    0.83673   0.81875    0.000
 4701.00    0.83496   0.81587    0.000
 4702.00    0.83522   0.81439    0.000
 4703.00    0.83279   0.81401    0.000
 4704.00    0.82600   0.81432    0.000
 4705.00    0.81742   0.81499    0.000
 4706.00    0.81150   0.81583    0.000
 4707.00    0.81202   0.81674    0.000
 4708.00    0.81693   0.81766    0.000
 4709.00    0.81922   0.81855    0.000
 4710.00    0.81744   0.81939    0.000
 4711.00    0.81704   0.82027    0.000
 4712.00    0.82091   0.82152    0.000
 4713.00    0.82718   0.82366    0.000
 4714.00    0.83367   0.82718    0.000
 4715.00    0.83937   0.83217    0.000
 4716.00    0.84343   0.83821    0.000
 4717.00    0.84515   0.84448    0.000
 4718.00    0.84481   0.85010    0.000
 4719.00    0.84357   0.85443    0.000
 4720.00    0.84196   0.85716    0.000
 4721.00    0.84003   0.85819    0.000
 4722.00    0.83921   0.85747    0.000
 4723.00    0.84135   0.85496    0.000
 4724.00    0.84397   0.85063    0.000
 4725.00    0.84159   0.84466    0.000
 4726.00    0.83412   0.83761    0.000
 4727.00    0.82679   0.83054    0.000
 4728.00    0.82259   0.82463    0.000
 4729.00    0.82058   0.82083    0.000
 4730.00    0.81794   0.81955    0.000
 4731.00    0.81256   0.82046    0.000
 4732.00    0.80852   0.82283    0.000
 4733.00    0.81240   0.82585    0.000
 4734.00    0.81960   0.82883    0.000
 4735.00    0.81878   0.83136    0.000
 4736.00    0.81368   0.83339    0.000
 4737.00    0.81830   0.83508    0.000
 4738.00    0.82911   0.83656    0.000
 4739.00    0.82991   0.83790    0.000
 4740.00    0.82270   0.83910    0.000
 4741.00    0.82347   0.84024    0.000
 4742.00    0.83181   0.84135    0.000
 4743.00    0.83393   0.84243    0.000
 4744.00    0.82868   0.84349    0.000
 4745.00    0.82609   0.84444    0.000
 4746.00    0.82873   0.84509    0.000
 4747.00    0.83152   0.84521    0.000
 4748.00    0.83176   0.84459    0.000
 4749.00    0.83013   0.84308    0.000
 4750.00    0.82746   0.84069    0.000
 4751.00    0.82442   0.83763    0.000
 4752.00    0.82247   0.83436    0.000
 4753.00    0.82270   0.83140    0.000
 4754.00    0.82290   0.82923    0.000
 4755.00    0.82029   0.82808    0.000
 4756.00    0.81825   0.82770    0.000
 4757.00    0.82174   0.82745    0.000
 4758.00    0.82533   0.82665    0.000
 4759.00    0.81921   0.82466    0.000
 4760.00    0.80581   0.82122    0.000
 4761.00    0.79572   0.81667   30.081
 4762.00    0.79320   0.81187   30.509
 4763.00    0.79600   0.80789   30.750
 4764.00    0.80069   0.80568   30.687
 4765.00    0.80396   0.80570   30.580
 4766.00    0.80314   0.80773   30.574
 4767.00    0.79879   0.81113   30.648
 4768.00    0.79885   0.81517   30.670
 4769.00    0.81058   0.81920   30.530
 4770.00    0.82552   0.82285   30.326
 4771.00    0.82949   0.82603   30.243
 4772.00    0.82425   0.82894   30.283
 4773.00    0.82112   0.83163   30.324
 4774.00    0.82383   0.83394   30.279
 4775.00    0.82898   0.83558   30.159
 4776.00    0.83176   0.83630   30.108
 4777.00    0.82905   0.83588   30.257
 4778.00    0.82248   0.83429   30.482
 4779.00    0.81640   0.83175   30.573
 4780.00    0.81350   0.82865   30.569
 4781.00    0.81377   0.82525   30.638
 4782.00    0.81388   0.82190   30.794
 4783.00    0.81075   0.81891   30.942
 4784.00    0.80676   0.81646   31.007
 4785.00    0.80530   0.81472   30.984
 4786.00    0.80340   0.81391   30.960
 4787.00    0.79758   0.81417   31.007
 4788.00    0.79331   0.81568   31.046
 4789.00    0.79756   0.81854   30.935
 4790.00    0.80670   0.82261   30.651
 4791.00    0.81339   0.82734   30.305
 4792.00    0.81786   0.83202   30.119
 4793.00    0.82277   0.83575   30.218
 4794.00    0.82467   0.83776   30.404
 4795.00    0.81968   0.83775   30.425
 4796.00    0.81226   0.83603   30.402
 4797.00    0.80902   0.83337   30.525
 4798.00    0.80977   0.83065   30.629
 4799.00    0.81056   0.82844   30.496
 4800.00    0.80911   0.82689   30.316
 4801.00    0.80576   0.82579   30.360
 4802.00    0.80372   0.82476   30.570
 4803.00    0.80553   0.82343   30.723
 4804.00    0.80920   0.82173   30.714
 4805.00    0.81121   0.81992   30.568
 4806.00    0.81063   0.81838   30.409
 4807.00    0.80875   0.81738   30.366
 4808.00    0.80805   0.81706   30.477
 4809.00    0.80894   0.81742   30.671
 4810.00    0.80705   0.81833   30.767
 4811.00    0.80047   0.81967   30.678
 4812.00    0.79714   0.82138   30.609
 4813.00    0.80401   0.82340   30.723
 4814.00    0.81540   0.82562   30.792
 4815.00    0.82239   0.82778   30.632
 4816.00    0.82347   0.82946   30.539
 4817.00    0.82152   0.83012   30.763
 4818.00    0.81933   0.82913   30.994
 4819.00    0.81692   0.82612   30.932
 4820.00    0.80996   0.82146   30.891
 4821.00    0.79774   0.81607   31.158
 4822.00    0.78966   0.81085   31.385
 4823.00    0.79253   0.80655   31.238
 4824.00    0.79894   0.80360   31.064
 4825.00    0.79967   0.80202   31.247
 4826.00    0.79555   0.80142   31.635
 4827.00    0.79213   0.80108   31.916
 4828.00    0.79338   0.80052   32.014
 4829.00    0.79754   0.79973   32.000
 4830.00    0.79522   0.79882   31.953
 4831.00    0.78287   0.79789   31.919
 4832.00    0.77258   0.79704   31.883
 4833.00    0.77439   0.79627   31.842
 4834.00    0.78201   0.79527   31.847
 4835.00    0.78624   0.79364   31.925
 4836.00    0.78624   0.79123   32.027
 4837.00    0.78358   0.78820   32.115
 4838.00    0.77728   0.78476   32.237
 4839.00    0.76775   0.78115   32.421
 4840.00    0.75975   0.77778   32.601
 4841.00    0.75738   0.77491   32.692
 4842.00    0.76038   0.77231   32.669
 4843.00    0.76578   0.76945   32.576
 4844.00    0.76971   0.76582   32.512
 4845.00    0.76972   0.76132   32.510
 4846.00    0.76606   0.75596   32.481
 4847.00    0.75841   0.74968   32.456
 4848.00    0.74449   0.74247    0.000
 4849.00    0.72686   0.73422    0.000
 4850.00    0.71570   0.72436    0.000
 4851.00    0.71309   0.71233    0.000
 4852.00    0.70602   0.69800    0.000
 4853.00    0.69322   0.68136    0.000
 4854.00    0.70017   0.66221    0.000
 4855.00    0.75570   0.64036    0.000
 4856.00    0.87537   0.61603    0.000
 4857.00    1.05847   0.59058    0.000
 4858.00    1.28613   0.56678    0.000
 4859.00    1.51849   0.54777    0.000
 4860.00    1.69706   0.53614    0.000
 4861.00    1.76991   0.53383    0.000
 4862.00    1.70994   0.54128    0.000
 4863.00    1.53046   0.55707    0.000
 4864.00    1.28782   0.57850    0.000
 4865.00    1.04478   0.60218    0.000
 4866.00    0.84772   0.62471    0.000
 4867.00    0.72188   0.64366    0.000
 4868.00    0.66918   0.65843    0.000
 4869.00    0.66875   0.66987    0.000
 4870.00    0.68309   0.67919    0.000
 4871.00    0.68869   0.68760    0.000
 4872.00    0.68877   0.69613    0.000
 4873.00    0.69205   0.70536    0.000
 4874.00    0.70145   0.71533    0.000
 4875.00    0.71703   0.72576   33.685
 4876.00    0.73696   0.73591   33.183
 4877.00    0.75397   0.74478   32.936
 4878.00    0.75689   0.75180   32.962
 4879.00    0.74668   0.75671   33.144
 4880.00    0.73940   0.75938   33.320
 4881.00    0.74224   0.75995   33.415
 4882.00    0.74598   0.75895   33.468
 4883.00    0.74550   0.75715   33.476
 4884.00    0.74646   0.75522   33.359
 4885.00    0.75053   0.75349   33.160
 4886.00    0.75115   0.75201   33.067
 4887.00    0.74583   0.75099   33.171
 4888.00    0.73983   0.75131   33.373
 4889.00    0.73778   0.75376   33.488
 4890.00    0.74039   0.75868   33.341
 4891.00    0.74683   0.76612   32.992
 4892.00    0.75605   0.77545   32.717
 4893.00    0.76811   0.78554   32.621
 4894.00    0.78351   0.79495   32.569
 4895.00    0.79850   0.80215   32.452
 4896.00    0.80549   0.80631   32.294
 4897.00    0.80179   0.80756   32.217
 4898.00    0.79213   0.80644   32.363
 4899.00    0.78438   0.80384   32.661
 4900.00    0.78545   0.80106   32.830
 4901.00    0.79291   0.79926   32.790
 4902.00    0.79614   0.79880   32.729
 4903.00    0.79222   0.79925   32.750
 4904.00    0.78811   0.79986   32.787
 4905.00    0.78717   0.79982   32.823
 4906.00    0.78612   0.79849   32.919
 4907.00    0.78197   0.79601   33.034
 4908.00    0.77469   0.79319   33.044
 4909.00    0.76756   0.79082   33.014
 4910.00    0.76549   0.78950   33.166
 4911.00    0.76902   0.78951   33.434
 4912.00    0.77375   0.79043   33.485
 4913.00    0.77494   0.79089   33.327
 4914.00    0.77013   0.78920   33.305
 4915.00    0.76237   0.78417   33.482
 4916.00    0.75794   0.77563   33.606
 4917.00    0.75645   0.76460   33.620
 4918.00    0.75136   0.75321   33.713
 4919.00    0.74079   0.74354   33.910
 4920.00    0.72927   0.73725   34.033
 4921.00    0.72290   0.73559   33.975
 4922.00    0.72635   0.73920   33.767
 4923.00    0.73879   0.74737   33.541
 4924.00    0.75436   0.75859   33.406
 4925.00    0.76665   0.77118   33.197
 4926.00    0.77201   0.78335   32.638
 4927.00    0.77465   0.79352   31.892
 4928.00    0.78229   0.80054   31.408
 4929.00    0.79109   0.80367   31.293
 4930.00    0.78964   0.80305   31.381
 4931.00    0.77958   0.79975   31.664
 4932.00    0.77287   0.79491   32.268
 4933.00    0.77120   0.78927   33.082
 4934.00    0.76694   0.78341   33.755
 4935.00    0.75857   0.77827   34.065
 4936.00    0.75128   0.77492   34.035
 4937.00    0.74851   0.77400   33.835
 4938.00    0.75037   0.77555   33.675
 4939.00    0.75479   0.77924   33.645
 4940.00    0.75964   0.78442    0.000
 4941.00    0.76664   0.79022    0.000
 4942.00    0.77865   0.79586    0.000
 4943.00    0.79144   0.80090    0.000
 4944.00    0.79733   0.80498    0.000
 4945.00    0.79691   0.80791    0.000
 4946.00    0.79659   0.80985    0.000
 4947.00    0.79772   0.81118    0.000
 4948.00    0.79741   0.81187    0.000
 4949.00    0.79506   0.81159    0.000
 4950.00    0.79246   0.81016    0.000
 4951.00    0.79099   0.80741    0.000
 4952.00    0.79266   0.80282    0.000
 4953.00    0.80287   0.79614    0.000
 4954.00    0.82705   0.78840    0.000
 4955.00    0.86282   0.78175    0.000
 4956.00    0.90242   0.77767    0.000
 4957.00    0.93997   0.77655    0.000
 4958.00    0.97023   0.77818    0.000
 4959.00    0.98399   0.78192    0.000
 4960.00    0.97277   0.78654    0.000
 4961.00    0.93889   0.79048    0.000
 4962.00    0.89292   0.79276    0.000
 4963.00    0.84593   0.79300    0.000
 4964.00    0.80713   0.79131    0.000
 4965.00    0.78219   0.78865    0.000
 4966.00    0.77200   0.78624    0.000
 4967.00    0.77114   0.78497    0.000
 4968.00    0.77196   0.78521    0.000
 4969.00    0.77150   0.78696    0.000
 4970.00    0.77068   0.78988    0.000
 4971.00    0.77095   0.79323    0.000
 4972.00    0.77357   0.79611    0.000
 4973.00    0.77915   0.79775    0.000
 4974.00    0.78644   0.79753    0.000
 4975.00    0.79082   0.79513    0.000
 4976.00    0.78777   0.79058    0.000
 4977.00    0.77841   0.78397    0.000
 4978.00    0.76663   0.77546    0.000
 4979.00    0.75374   0.76578    0.000
 4980.00    0.74086   0.75642    0.000
 4981.00    0.73308   0.74894    0.000
 4982.00    0.73489   0.74442    0.000
 4983.00    0.74326   0.74349    0.000
 4984.00    0.75173   0.74593    0.000
 4985.00    0.75732   0.75071    0.000
 4986.00    0.76008   0.75650    0.000
 4987.00    0.76124   0.76219    0.000
 4988.00    0.76202   0.76693    0.000
 4989.00    0.76248   0.77024    0.000
 4990.00    0.76192   0.77208    0.000
 4991.00    0.75961   0.77298    0.000
 4992.00    0.75617   0.77354    0.000
 4993.00    0.75495   0.77394    0.000
 4994.00    0.75838   0.77391    0.000
 4995.00    0.76356   0.77293    0.000
 4996.00    0.76466   0.77042    0.000
 4997.00    0.75684   0.76621    0.000
 4998.00    0.74253   0.76080    0.000
 4999.00    0.73746   0.75503    0.000
 5000.00    0.76010   0.74943    0.000
 5001.00    0.81903   0.74418    0.000
 5002.00    0.91402   0.73953    0.000
 5003.00    1.03864   0.73614    0.000
 5004.00    1.17852   0.73483    0.000
 5005.00    1.30938   0.73555    0.000
 5006.00    1.40000   0.73736    0.000
 5007.00    1.41725   0.73920    0.000
 5008.00    1.34670   0.74016    0.000
 5009.00    1.21164   0.73955    0.000
 5010.00    1.05347   0.73725    0.000
 5011.00    0.90899   0.73345    0.000
 5012.00    0.80276   0.72875    0.000
 5013.00    0.74172   0.72401    0.000
 5014.00    0.71864   0.71992    0.000
 5015.00    0.71688   0.71725    0.000
 5016.00    0.72101   0.71676    0.000
 5017.00    0.72581   0.71851    0.000
 5018.00    0.72933   0.72168    0.000
 5019.00    0.72659   0.72574    0.000
 5020.00    0.71744   0.73057    0.000
 5021.00    0.71276   0.73578    0.000
 5022.00    0.72030   0.74081    0.000
 5023.00    0.73306   0.74509    0.000
 5024.00    0.74140   0.74824    0.000
 5025.00    0.74385   0.75071    0.000
 5026.00    0.74272   0.75321    0.000
 5027.00    0.73969   0.75584    0.000
 5028.00    0.73687   0.75856    0.000
 5029.00    0.73764   0.76141   36.848
 5030.00    0.74339   0.76409   36.944
 5031.00    0.75114   0.76562   36.940
 5032.00    0.75657   0.76514   36.759
 5033.00    0.75664   0.76260   36.632
 5034.00    0.75120   0.75844   36.725
 5035.00    0.74359   0.75274   36.891
 5036.00    0.73688   0.74558   36.988
 5037.00    0.73122   0.73763   37.113
 5038.00    0.72602   0.73055   37.357
 5039.00    0.72161   0.72653   37.628
 5040.00    0.71904   0.72651   37.783
 5041.00    0.71971   0.72976   37.748
 5042.00    0.72499   0.73533   37.582
 5043.00    0.73551   0.74198   37.474
 5044.00    0.74800   0.74800   37.499
 5045.00    0.75457   0.75208   37.499
 5046.00    0.75185   0.75377   37.406
 5047.00    0.74583   0.75317   37.402
 5048.00    0.74203   0.75103   37.560
 5049.00    0.73976   0.74883   37.668
 5050.00    0.73757   0.74782   37.664
 5051.00    0.73673   0.74849   37.839
 5052.00    0.73937   0.75066   38.216
 5053.00    0.74677   0.75402   38.275
 5054.00    0.75679   0.75823   37.815
 5055.00    0.76356   0.76281   37.372
 5056.00    0.76484   0.76712   37.297
 5057.00    0.76504   0.77084   37.369
 5058.00    0.76707   0.77362   37.365
 5059.00    0.76848   0.77497   37.355
 5060.00    0.76741   0.77438   37.451
 5061.00    0.76540   0.77149   37.669
 5062.00    0.76320   0.76687   37.924
 5063.00    0.75918   0.76171   38.067
 5064.00    0.75324   0.75659   38.066
 5065.00    0.74818   0.75185   38.063
 5066.00    0.74507   0.74824   38.165
 5067.00    0.74183   0.74612   38.337
 5068.00    0.73864   0.74497   38.510
 5069.00    0.73918   0.74430   38.634
 5070.00    0.74281   0.74404   38.674
 5071.00    0.74264   0.74377   38.634
 5072.00    0.73608   0.74306   38.637
 5073.00    0.72843   0.74200   38.887
 5074.00    0.72511   0.74046   39.285
 5075.00    0.72749   0.73780   39.379
 5076.00    0.73214   0.73374   39.131
 5077.00    0.73238   0.72920   39.080
 5078.00    0.72640   0.72528   39.380
 5079.00    0.71940   0.72248   39.564
 5080.00    0.71629   0.72106   39.414
 5081.00    0.71837   0.72142   39.250
 5082.00    0.72394   0.72371   39.263
 5083.00    0.72946   0.72754   39.320
 5084.00    0.73320   0.73224   39.305
 5085.00    0.73604   0.73712   39.241
 5086.00    0.73814   0.74169   39.192
 5087.00    0.73835   0.74568   39.202
 5088.00    0.73765   0.74911   39.244
 5089.00    0.73943   0.75204   39.227
 5090.00    0.74504   0.75429   39.108
 5091.00    0.75233   0.75546   38.919
 5092.00    0.75691   0.75505   38.716
 5093.00    0.75442   0.75273   38.562
 5094.00    0.74706   0.74857   38.552
 5095.00    0.74242   0.74307   38.774
 5096.00    0.74056   0.73711   39.143
 5097.00    0.73384   0.73212   39.420
 5098.00    0.72344   0.72904   39.554
 5099.00    0.71992   0.72797   39.705
 5100.00    0.72443   0.72845   39.840
 5101.00    0.72710   0.72992   39.713
 5102.00    0.72433   0.73173   39.364
 5103.00    0.72164   0.73314   39.112
 5104.00    0.72285   0.73342   39.016
 5105.00    0.72712   0.73262   38.870
 5106.00    0.73113   0.73130   38.685
 5107.00    0.73119   0.73002   38.688
 5108.00    0.72737   0.72977   38.853
 5109.00    0.72328   0.73085   38.917
 5110.00    0.72177   0.73297   38.894
 5111.00    0.72384   0.73607   39.027
 5112.00    0.73001   0.73981   39.134
 5113.00    0.73987   0.74367   38.758
 5114.00    0.74982   0.74737   38.196
 5115.00    0.75453   0.75017   38.221
 5116.00    0.75297   0.75128   38.701
 5117.00    0.74853   0.75048   38.764
 5118.00    0.74430   0.74778   38.424
 5119.00    0.74113   0.74330   38.490
 5120.00    0.73635   0.73727   38.994
 5121.00    0.72654   0.73042   39.240
 5122.00    0.71573   0.72387   39.086
 5123.00    0.71231   0.71826   39.005
 5124.00    0.71567   0.71390   39.184
 5125.00    0.71750   0.71095   39.435
 5126.00    0.71428   0.70953   39.560
 5127.00    0.70887   0.70974   39.493
 5128.00    0.70625   0.71150   39.404
 5129.00    0.70988   0.71400   39.536
 5130.00    0.71561   0.71661   39.774
 5131.00    0.71574   0.71941   39.809
 5132.00    0.71155   0.72232   39.770
 5133.00    0.71043   0.72433   40.004
 5134.00    0.71251   0.72481   40.239
 5135.00    0.71220   0.72382   40.020
 5136.00    0.70873   0.72173   40.151
 5137.00    0.70575   0.71962   41.554
 5138.00    0.70510   0.71771   41.953
 5139.00    0.70611   0.71520   39.183
 5140.00    0.70701   0.71287   39.355
 5141.00    0.70627   0.71170   49.397
 5142.00    0.70441   0.71109   49.218
 5143.00    0.70311   0.71049   25.802
 5144.00    0.70247   0.70981   15.438
 5145.00    0.70149   0.70908   13.204
 5146.00    0.70005   0.70884   13.970
 5147.00    0.69924   0.70881   14.711
 5148.00    0.70095   0.70839   14.378
 5149.00    0.70631   0.70778   14.018
 5150.00    0.71290   0.70739   13.990
 5151.00    0.71648   0.70749   14.007
 5152.00    0.71528   0.70859   13.994
 5153.00    0.71111   0.71090   14.043
 5154.00    0.70969   0.71435   14.085
 5155.00    0.71603   0.71859   13.977
 5156.00    0.72645   0.72279   13.770
 5157.00    0.73307   0.72634   13.628
 5158.00    0.73393   0.72845   13.618
 5159.00    0.73142   0.72812   13.705
 5160.00    0.72663   0.72505   13.782
 5161.00    0.71934   0.71918   13.810
 5162.00    0.70948   0.71012   14.041
 5163.00    0.69749   0.69805   14.617
 5164.00    0.68426   0.68392   14.770
 5165.00    0.67055   0.66975   14.115
 5166.00    0.65606   0.65800   14.771
 5167.00    0.64115   0.64964   20.473
 5168.00    0.62945   0.64371   37.902
 5169.00    0.62522   0.63992   53.879
 5170.00    0.62867   0.63993   44.241
 5171.00    0.63631   0.64517   39.513
 5172.00    0.64272   0.65434   41.386
 5173.00    0.64585   0.66473   42.786
 5174.00    0.65356   0.67469   41.936
 5175.00    0.67302   0.68384   41.294
 5176.00    0.69544   0.69160   41.294
 5177.00    0.70695   0.69652   41.175
 5178.00    0.70598   0.69705   40.946
 5179.00    0.69838   0.69282   41.031
 5180.00    0.68783   0.68516   41.497
 5181.00    0.67629   0.67715   42.116
 5182.00    0.66630   0.67194   42.562
 5183.00    0.65986   0.67053   42.664
 5184.00    0.65693   0.67223   42.689
 5185.00    0.65748   0.67607   42.906
 5186.00    0.66400   0.68165   43.030
 5187.00    0.67718   0.68833   42.704
 5188.00    0.69074   0.69370   42.167
 5189.00    0.69696   0.69585   41.816
 5190.00    0.69408   0.69590    0.000
 5191.00    0.68601   0.69544    0.000
 5192.00    0.68066   0.69501    0.000
 5193.00    0.68473   0.69505    0.000
 5194.00    0.69824   0.69601    0.000
 5195.00    0.71740   0.69842    0.000
 5196.00    0.73831   0.70228    0.000
 5197.00    0.75644   0.70616    0.000
 5198.00    0.76588   0.70868    0.000
 5199.00    0.76394   0.70955    0.000
 5200.00    0.75547   0.70849    0.000
 5201.00    0.74570   0.70487    0.000
 5202.00    0.73297   0.69879    0.000
 5203.00    0.71527   0.69162    0.000
 5204.00    0.69708   0.68494    0.000
 5205.00    0.68423   0.67951    0.000
 5206.00    0.67816   0.67622    0.000
 5207.00    0.67719   0.67598    0.000
 5208.00    0.67850   0.67903    0.000
 5209.00    0.68092   0.68501    0.000
 5210.00    0.68702   0.69252    0.000
 5211.00    0.69760   0.69973   41.972
 5212.00    0.70717   0.70572   41.761
 5213.00    0.71036   0.71039   42.061
 5214.00    0.70783   0.71414   42.654
 5215.00    0.70389   0.71760   43.189
 5216.00    0.70355   0.72086   43.567
 5217.00    0.70891   0.72364   43.778
 5218.00    0.71672   0.72574   43.736
 5219.00    0.72249   0.72692   43.458
 5220.00    0.72415   0.72638   43.183
 5221.00    0.72152   0.72321   43.106
 5222.00    0.71548   0.71711   43.183
 5223.00    0.70685   0.70876   43.322
 5224.00    0.69573   0.70012   43.514
 5225.00    0.68440   0.69386   43.709
 5226.00    0.67864   0.69118   43.727
 5227.00    0.68073   0.69143   43.534
 5228.00    0.68515   0.69375   43.405
 5229.00    0.68757   0.69711   43.477
 5230.00    0.69078   0.70068   43.502
 5231.00    0.69680   0.70433   43.382
 5232.00    0.70164   0.70763   43.485
 5233.00    0.70223   0.71062   43.959
 5234.00    0.70107   0.71393   44.311
 5235.00    0.70214   0.71759   44.241
 5236.00    0.70764   0.72174   44.172
 5237.00    0.71625   0.72647   44.404
 5238.00    0.72307   0.73109   44.608
 5239.00    0.72583   0.73470   44.469
 5240.00    0.72794   0.73682   44.116
 5241.00    0.73073   0.73777   43.795
 5242.00    0.72971   0.73770   43.629
 5243.00    0.72428   0.73603   43.590
 5244.00    0.72190   0.73263   43.514
 5245.00    0.72446   0.72854   43.332
 5246.00    0.72232   0.72460   43.174
 5247.00    0.71156   0.72072   43.147
 5248.00    0.70194   0.71708   43.222
 5249.00    0.70014   0.71452   43.318
 5250.00    0.70145   0.71368   43.372
 5251.00    0.70061   0.71422   43.427
 5252.00    0.69797   0.71532   43.632
 5253.00    0.69660   0.71723   43.963
 5254.00    0.69979   0.72048   44.133
 5255.00    0.70740   0.72401   44.025
 5256.00    0.71500   0.72609   43.868
 5257.00    0.71933   0.72574   43.796
 5258.00    0.72061   0.72271   43.677
 5259.00    0.71854   0.71697   43.475
 5260.00    0.71082   0.70833   43.397
 5261.00    0.69729   0.69723   43.619
 5262.00    0.68147   0.68507   44.151
 5263.00    0.66803   0.67363   44.753
 5264.00    0.66065   0.66463   44.990
 5265.00    0.65887   0.65833   44.804
 5266.00    0.65795   0.65357   44.659
 5267.00    0.65524   0.65049   44.795
 5268.00    0.65239   0.65084   44.985
 5269.00    0.65112   0.65488   45.021
 5270.00    0.65174   0.66074   44.922
 5271.00    0.65588   0.66665   44.747
 5272.00    0.66621   0.67251   44.529
 5273.00    0.67990   0.67968   44.358
 5274.00    0.68866   0.68847   44.366
 5275.00    0.69166   0.69698   44.454
 5276.00    0.69740   0.70347   44.316
 5277.00    0.70785   0.70788   44.016
 5278.00    0.71499   0.71074   44.018
 5279.00    0.71480   0.71264   44.362
 5280.00    0.71116   0.71362   44.546
 5281.00    0.70753   0.71378   44.462
 5282.00    0.70467   0.71476   44.557
 5283.00    0.70538   0.71800   44.902
 5284.00    0.71409   0.72296   45.019
 5285.00    0.72842   0.72843   44.734
 5286.00    0.73896   0.73393   44.386
 5287.00    0.74103   0.73942   44.275
 5288.00    0.73773   0.74412   44.474
 5289.00    0.73449   0.74652   44.863
 5290.00    0.73555   0.74609   45.193
 5291.00    0.73888   0.74368   45.338
 5292.00    0.73764   0.74004   45.350
 5293.00    0.73099   0.73488   45.258
 5294.00    0.72476   0.72803   45.071
 5295.00    0.72061   0.72070   44.990
 5296.00    0.71508   0.71500   45.304
 5297.00    0.70882   0.71182   45.803
 5298.00    0.70683   0.71041   45.854
 5299.00    0.70921   0.71040   45.441
 5300.00    0.71127   0.71258   45.159
 5301.00    0.71320   0.71732   45.102
 5302.00    0.71962   0.72333   44.864
 5303.00    0.72910   0.72868   44.522
 5304.00    0.73464   0.73275   44.550
 5305.00    0.73521   0.73622   44.787
 5306.00    0.73599   0.73948   44.562
 5307.00    0.73886   0.74199   44.024
 5308.00    0.74127   0.74312   43.973
 5309.00    0.74132   0.74294   44.422
 5310.00    0.73883   0.74188   44.654
 5311.00    0.73436   0.74022   44.498
 5312.00    0.72891   0.73788   44.377
 5313.00    0.72410   0.73459   44.335
 5314.00    0.72157   0.73091   44.046
 5315.00    0.72127   0.72799   43.512
 5316.00    0.72168   0.72613   43.028
 5317.00    0.72160   0.72476   42.639
 5318.00    0.72072   0.72336   42.178
 5319.00    0.71979   0.72168   41.616
 5320.00    0.71966   0.71917   41.090
 5321.00    0.71891   0.71500   40.758
 5322.00    0.71494   0.70927   40.695
 5323.00    0.70792   0.70294   40.732
 5324.00    0.70023   0.69591   40.606
 5325.00    0.69278   0.68788   40.418
 5326.00    0.68554   0.68101   40.472
 5327.00    0.68062   0.67836   40.688
 5328.00    0.68093   0.68014   40.745
 5329.00    0.68550   0.68411   40.692
 5330.00    0.69112   0.68903   40.843
 5331.00    0.69816   0.69547   41.233
 5332.00    0.70848   0.70315   41.638
 5333.00    0.71866   0.70965   41.891
 5334.00    0.72272   0.71318   42.000
 5335.00    0.72094   0.71421   42.198
 5336.00    0.71808   0.71368   42.718
 5337.00    0.71610   0.71178   43.293
 5338.00    0.71415   0.70916   43.447
 5339.00    0.71165   0.70743   43.368
 5340.00    0.70885   0.70728   43.602
 5341.00    0.70679   0.70790   44.089
 5342.00    0.70664   0.70850   44.357
 5343.00    0.70861   0.70921   44.300
 5344.00    0.71195   0.71065   44.159
 5345.00    0.71532   0.71230   44.166
 5346.00    0.71739   0.71324   44.399
 5347.00    0.71784   0.71408   44.678
 5348.00    0.71709   0.71616   44.732
 5349.00    0.71550   0.71977   44.580
 5350.00    0.71410   0.72414   44.440
 5351.00    0.71606   0.72878   44.468
 5352.00    0.72362   0.73401   44.681
 5353.00    0.73283   0.73951   44.915
 5354.00    0.73787   0.74411   44.974
 5355.00    0.73916   0.74716   44.901
 5356.00    0.74054   0.74871   44.859
 5357.00    0.74274   0.74880   44.860
 5358.00    0.74379   0.74706   44.868
 5359.00    0.74164   0.74333   45.004
 5360.00    0.73583   0.73834   45.373
 5361.00    0.72928   0.73291   45.748
 5362.00    0.72543   0.72720   45.846
 5363.00    0.72368   0.72129   45.833
 5364.00    0.72138   0.71559   46.001
 5365.00    0.71760   0.71047   46.190
 5366.00    0.71284   0.70588   46.141
 5367.00    0.70765   0.70139   46.105
 5368.00    0.70225   0.69734   46.424
 5369.00    0.69630   0.69522   46.856
 5370.00    0.69075   0.69613   46.956
 5371.00    0.68995   0.69962   46.768
 5372.00    0.69720   0.70445   46.552
 5373.00    0.70874   0.70996   46.293
 5374.00    0.71820   0.71584   45.945
 5375.00    0.72332   0.72141   45.781
 5376.00    0.72476   0.72561   46.012
 5377.00    0.72350   0.72761   46.312
 5378.00    0.72105   0.72762   46.301
 5379.00    0.71993   0.72656   46.226
 5380.00    0.72108   0.72515   46.433
 5381.00    0.72101   0.72381   46.663
 5382.00    0.71705   0.72288   46.542
 5383.00    0.71338   0.72233   46.268
 5384.00    0.71427   0.72179   46.165
 5385.00    0.71605   0.72095   46.123
 5386.00    0.71373   0.71961   45.949
 5387.00    0.70924   0.71757   45.803
 5388.00    0.70662   0.71473   45.891
 5389.00    0.70602   0.71123   46.113
 5390.00    0.70548   0.70733   46.296
 5391.00    0.70363   0.70341   46.468
 5392.00    0.70006   0.69981   46.626
 5393.00    0.69546   0.69640   46.515
 5394.00    0.69094   0.69292   46.363
 5395.00    0.68727   0.69020   47.438
 5396.00    0.68501   0.68929   49.468
 5397.00    0.68453   0.68928   47.985
 5398.00    0.68591   0.68880   44.035
 5399.00    0.68858   0.68802   48.440
 5400.00    0.69087   0.68740   65.713
 5401.00    0.68973   0.68586   47.243
 5402.00    0.68423   0.68240   22.020
 5403.00    0.67823   0.67813   14.609
 5404.00    0.67570   0.67506   13.767
 5405.00    0.67627   0.67361   14.835
 5406.00    0.67755   0.67288   15.010
 5407.00    0.67761   0.67278   14.760
 5408.00    0.67646   0.67462   15.093
 5409.00    0.67678   0.67917   14.701
 5410.00    0.68106   0.68503   13.561
 5411.00    0.68921   0.69041   14.812
 5412.00    0.69891   0.69519   23.564
 5413.00    0.70648   0.70038   51.833
 5414.00    0.70981   0.70598   64.598
 5415.00    0.71035   0.71055   47.401
 5416.00    0.71033   0.71312   44.800
 5417.00    0.71042   0.71409   49.313
 5418.00    0.71001   0.71433   50.224
 5419.00    0.70798   0.71423   48.270
 5420.00    0.70491   0.71343   47.974
 5421.00    0.70417   0.71136   48.757
 5422.00    0.70678   0.70871   48.984
 5423.00    0.70838   0.70711   48.834
 5424.00    0.70547   0.70660   48.824
 5425.00    0.69980   0.70547   -2.000
 5426.00    0.69437   0.70245   -2.000
 5427.00    0.69045   0.69854   -2.000
 5428.00    0.68783   0.69584   -2.000
 5429.00    0.68536   0.69408   -2.000
 5430.00    0.68321   0.69148   -2.000
 5431.00    0.68382   0.68851   -2.000
 5432.00    0.68816   0.68725   -2.000
 5433.00    0.69370   0.68869   -2.000
 5434.00    0.69720   0.69198   -2.000
 5435.00    0.69687   0.69631   -2.000
 5436.00    0.69390   0.70176   -2.000
 5437.00    0.69268   0.70779   -2.000
 5438.00    0.69645   0.71334   -2.000
 5439.00    0.70469   0.71738   -2.000
 5440.00    0.71375   0.71940   46.306
 5441.00    0.71821   0.71914   46.439
 5442.00    0.71590   0.71637   46.815
 5443.00    0.71003   0.71146   47.317
 5444.00    0.70399   0.70575   47.810
 5445.00    0.69864   0.70131   48.354
 5446.00    0.69458   0.69917   48.888
 5447.00    0.69312   0.69842   49.092
 5448.00    0.69436   0.69815   48.898
 5449.00    0.69648   0.69851   48.674
 5450.00    0.69784   0.69947   48.645
 5451.00    0.69798   0.69983   48.665
 5452.00    0.69698   0.69842   48.638
 5453.00    0.69506   0.69594   48.683
 5454.00    0.69268   0.69454   48.882
 5455.00    0.69066   0.69492   49.176
 5456.00    0.69030   0.69589   49.535
 5457.00    0.69280   0.69675   50.003
 5458.00    0.69611   0.69783   50.460
 5459.00    0.69530   0.69907   50.599
 5460.00    0.69170   0.69942   50.441
 5461.00    0.69389   0.69887   50.430
 5462.00    0.70251   0.69856   50.697
 5463.00    0.70701   0.69861   50.869
 5464.00    0.70343   0.69858   50.804
 5465.00    0.69931   0.69899   50.798
 5466.00    0.69889   0.70007   50.905
 5467.00    0.69845   0.70081   50.808
 5468.00    0.69570   0.70038   50.563
 5469.00    0.69283   0.69891   50.680
 5470.00    0.69190   0.69647   51.111
 5471.00    0.69288   0.69297   51.129
 5472.00    0.69413   0.68907   50.666
 5473.00    0.69325   0.68498   50.517
 5474.00    0.68957   0.68038   50.899
 5475.00    0.68460   0.67682   51.185
 5476.00    0.68006   0.67600   51.072
 5477.00    0.67696   0.67686   50.898
 5478.00    0.67511   0.67768   50.924
 5479.00    0.67377   0.67897   51.059
 5480.00    0.67454   0.68210   50.858
 5481.00    0.68070   0.68629   49.850
 5482.00    0.69092   0.68991   48.527
 5483.00    0.69906   0.69253   47.989
 5484.00    0.70179   0.69433   48.262
 5485.00    0.70037   0.69550   48.341
 5486.00    0.69745   0.69647   47.978
 5487.00    0.69554   0.69726   47.898
 5488.00    0.69603   0.69745   48.319
 5489.00    0.69872   0.69736   48.758
 5490.00    0.70133   0.69738   48.982
 5491.00    0.70067   0.69741   49.214
 5492.00    0.69711   0.69758   49.648
 5493.00    0.69426   0.69787   50.272
 5494.00    0.69400   0.69749   50.859
 5495.00    0.69544   0.69634   51.094
 5496.00    0.69701   0.69573   51.026
 5497.00    0.69754   0.69583   51.024
 5498.00    0.69762   0.69493   51.181
 5499.00    0.69880   0.69266   51.278
 5500.00    0.70015   0.69054   51.179
 5501.00    0.69888   0.68936   50.972
 5502.00    0.69491   0.68810   50.981
 5503.00    0.69095   0.68597   51.521
 5504.00    0.68925   0.68374   52.223
 5505.00    0.69037   0.68275   52.289
 5506.00    0.69284   0.68278   51.943
 5507.00    0.69413   0.68241   52.088
 5508.00    0.69344   0.68152   52.398
 5509.00    0.69178   0.68085   51.877
 5510.00    0.69010   0.68058   51.591
 5511.00    0.68900   0.68074   53.071
 5512.00    0.68923   0.68149   52.757
 5513.00    0.69151   0.68301   47.351
 5514.00    0.69562   0.68532   46.616
 5515.00    0.70054   0.68854   62.965
 5516.00    0.70517   0.69250   66.614
 5517.00    0.70870   0.69625   29.128
 5518.00    0.71115   0.69906   15.707
 5519.00    0.71302   0.70091   12.926
 5520.00    0.71422   0.70180   13.600
 5521.00    0.71428   0.70135   14.413
 5522.00    0.71331   0.69944   14.152
 5523.00    0.71170   0.69657   13.939
 5524.00    0.70913   0.69328   14.088
 5525.00    0.70492   0.68970   14.131
 5526.00    0.69915   0.68637   14.217
 5527.00    0.69326   0.68453   14.733
 5528.00    0.69038   0.68421   14.775
 5529.00    0.69301   0.68440   13.572
 5530.00    0.69833   0.68487   13.540
 5531.00    0.70107   0.68598   18.751
 5532.00    0.70094   0.68729   39.234
 5533.00    0.70110   0.68838   63.156
 5534.00    0.70207   0.68970   50.597
 5535.00    0.70287   0.69119   57.199
 5536.00    0.70493   0.69250   59.845
 5537.00    0.70908   0.69401   -2.000
 5538.00    0.70898   0.69592   -2.000
 5539.00    0.69925   0.69745   -2.000
 5540.00    0.69168   0.69788   -2.000
 5541.00    0.70148   0.69770   -2.000
 5542.00    0.71887   0.69774   -2.000
 5543.00    0.72068   0.69789   -2.000
 5544.00    0.69881   0.69791   -2.000
 5545.00    0.66434   0.69848   -2.000
 5546.00    0.64523   0.69994   -2.000
 5547.00    0.66903   0.70155   -2.000
 5548.00    0.73581   0.70277   -2.000
 5549.00    0.81916   0.70370   -2.000
 5550.00    0.87617   0.70407   -2.000
 5551.00    0.87105   0.70348   -2.000
 5552.00    0.80867   0.70217   -2.000
 5553.00    0.72622   0.70082   -2.000
 5554.00    0.67096   0.69952   -2.000
 5555.00    0.67106   0.69797   -2.000
 5556.00    0.69950   0.69638   -2.000
 5557.00    0.71146   0.69522   -2.000
 5558.00    0.70478   0.69413   -2.000
 5559.00    0.70022   0.69261   -2.000
 5560.00    0.70136   0.69061   -2.000
 5561.00    0.70141   0.68864   14.124
 5562.00    0.70018   0.68687   14.234
 5563.00    0.70063   0.68487   14.660
 5564.00    0.70116   0.68281   14.386
 5565.00    0.69892   0.68140   13.305
 5566.00    0.69528   0.68046   14.037
 5567.00    0.69313   0.67953   21.125
 5568.00    0.69262   0.67926   48.353
 5569.00    0.69230   0.67988   77.051
 5570.00    0.69142   0.68011   53.990
 5571.00    0.69013   0.68031   47.413
 5572.00    0.68932   0.68179   52.283
 5573.00    0.68985   0.68365   54.550
 5574.00    0.69163   0.68477   51.819
 5575.00    0.69414   0.68594   50.271
 5576.00    0.69709   0.68748   50.714
 5577.00    0.70015   0.68865   51.515
 5578.00    0.70243   0.68911   51.942
 5579.00    0.70292   0.68862   52.060
 5580.00    0.70096   0.68699   52.168
 5581.00    0.69707   0.68453   52.502
 5582.00    0.69351   0.68117   53.009
 5583.00    0.69127   0.67654   53.462
 5584.00    0.68718   0.67089   53.631
 5585.00    0.67862   0.66533   53.509
 5586.00    0.66849   0.66076   53.464
 5587.00    0.66169   0.65742   53.772
 5588.00    0.66089   0.65564   54.162
 5589.00    0.66570   0.65563   54.077
 5590.00    0.67252   0.65713   53.142
 5591.00    0.67775   0.65941   52.040
 5592.00    0.68082   0.66198   52.757
 5593.00    0.68233   0.66504   54.935
 5594.00    0.68226   0.66808   52.661
 5595.00    0.68090   0.66942   47.633
 5596.00    0.67981   0.66903   53.505
 5597.00    0.68003   0.66874   77.300
 5598.00    0.68062   0.66884   51.532
 5599.00    0.67987   0.66826   22.272
 5600.00    0.67683   0.66767   14.561
 5601.00    0.67282   0.66886   13.759
 5602.00    0.67216   0.67226   14.960
 5603.00    0.67714   0.67661   15.191
 5604.00    0.68430   0.68122   14.582
 5605.00    0.68973   0.68604   14.364
 5606.00    0.69333   0.69065   14.434
 5607.00    0.69621   0.69410   14.394
 5608.00    0.69830   0.69568   14.321
 5609.00    0.69924   0.69548   14.339
 5610.00    0.69912   0.69396   14.289
 5611.00    0.69777   0.69122   14.186
 5612.00    0.69435   0.68670   14.452
 5613.00    0.68934   0.68102   14.955
 5614.00    0.68556   0.67665   14.430
 5615.00    0.68429   0.67435   13.450
 5616.00    0.68288   0.67247   15.223
 5617.00    0.67984   0.67063   25.744
 5618.00    0.67801   0.67018   62.295
 5619.00    0.67975   0.67131   75.943
 5620.00    0.68367   0.67242   53.019
 5621.00    0.68705   0.67218   50.300
 5622.00    0.68779   0.67105   55.922
 5623.00    0.68579   0.67075   57.082
 5624.00    0.68346   0.67185   54.820
 5625.00    0.68291   0.67315   54.301
 5626.00    0.68422   0.67449   55.045
 5627.00    0.68653   0.67693   55.418
 5628.00    0.68895   0.68018   55.246
 5629.00    0.69150   0.68283   54.888
 5630.00    0.69529   0.68431   54.503
 5631.00    0.69988   0.68483   54.206
 5632.00    0.70221   0.68443   54.154
 5633.00    0.70011   0.68310   54.314
 5634.00    0.69427   0.68092   54.398
 5635.00    0.68747   0.67823   54.298
 5636.00    0.68342   0.67594   54.263
 5637.00    0.68340   0.67435   54.389
 5638.00    0.68504   0.67293   54.417
 5639.00    0.68610   0.67162   54.264
 5640.00    0.68642   0.67140   54.231
 5641.00    0.68669   0.67214   54.436
 5642.00    0.68755   0.67295   54.593
 5643.00    0.68918   0.67376   54.578
 5644.00    0.69107   0.67501   54.640
 5645.00    0.69208   0.67655   54.898
 5646.00    0.69100   0.67785   55.126
 5647.00    0.68852   0.67861   55.107
 5648.00    0.68753   0.67902   54.823
 5649.00    0.68886   0.67941   54.446
 5650.00    0.69001   0.67956   54.223
 5651.00    0.68934   0.67861   54.074
 5652.00    0.68753   0.67615   53.567
 5653.00    0.68509   0.67333   52.661
 5654.00    0.68149   0.67105   51.850
 5655.00    0.67720   0.66775   51.394
 5656.00    0.67400   0.66285   51.119
 5657.00    0.67207   0.65934   50.816
 5658.00    0.66943   0.65866   50.430
 5659.00    0.66524   0.65825   50.169
 5660.00    0.66097   0.65714   50.414
 5661.00    0.65891   0.65772   51.203
 5662.00    0.66087   0.66062   52.100
 5663.00    0.66590   0.66352   52.684
 5664.00    0.67039   0.66525   52.833
 5665.00    0.67245   0.66683   52.802
 5666.00    0.67310   0.66911   53.083
 5667.00    0.67366   0.67162   53.821
 5668.00    0.67473   0.67356   54.684
 5669.00    0.67644   0.67518   55.303
 5670.00    0.67877   0.67741   55.507
 5671.00    0.68204   0.68011   55.403
 5672.00    0.68658   0.68207   55.296
 5673.00    0.69094   0.68303   55.313
 5674.00    0.69236   0.68394   55.354
 5675.00    0.69062   0.68456   55.384
 5676.00    0.68837   0.68369   55.493
 5677.00    0.68727   0.68165   55.747
 5678.00    0.68684   0.67981   56.113
 5679.00    0.68565   0.67782   56.430
 5680.00    0.68255   0.67481   56.501
 5681.00    0.67910   0.67167   56.451
 5682.00    0.67856   0.66972   56.655
 5683.00    0.67993   0.66840   57.110
 5684.00    0.67865   0.66694   57.424
 5685.00    0.67471   0.66593   57.508
 5686.00    0.67278   0.66628   57.640
 5687.00    0.67411   0.66768   57.923
 5688.00    0.67586   0.66947   58.206
 5689.00    0.67681   0.67137   58.411
 5690.00    0.67795   0.67372   58.564
 5691.00    0.67915   0.67604   58.545
 5692.00    0.67898   0.67748   58.190
 5693.00    0.67742   0.67796   57.781
 5694.00    0.67604   0.67786   57.849
 5695.00    0.67634   0.67675   58.313
 5696.00    0.67866   0.67445   58.572
 5697.00    0.68083   0.67198   58.474
 5698.00    0.67946   0.66962   58.373
 5699.00    0.67439   0.66678   58.494
 5700.00    0.66857   0.66382   58.798
 5701.00    0.66444   0.66167   59.105
 5702.00    0.66271   0.65983   59.212
 5703.00    0.66185   0.65735   59.137
 5704.00    0.65928   0.65463   59.070
 5705.00    0.65484   0.65231   59.107
 5706.00    0.65032   0.65005   59.200
 5707.00    0.64645   0.64798   59.199
 5708.00    0.64319   0.64704   58.964
 5709.00    0.64223   0.64728   58.574
 5710.00    0.64570   0.64854   58.282
 5711.00    0.65173   0.65149   58.314
 5712.00    0.65630   0.65564   58.692
 5713.00    0.65959   0.65993   58.930
 5714.00    0.66459   0.66427   58.442
 5715.00    0.67078   0.66878   57.647
 5716.00    0.67534   0.67277   57.452
 5717.00    0.67845   0.67610   57.863
 5718.00    0.68248   0.67894   58.206
 5719.00    0.68739   0.68127   58.157
 5720.00    0.69116   0.68301   57.902
 5721.00    0.69243   0.68409   57.911
 5722.00    0.69110   0.68453   58.516
 5723.00    0.68833   0.68455   59.185
 5724.00    0.68574   0.68382   59.070
 5725.00    0.68388   0.68221   58.541
 5726.00    0.68247   0.68078   58.602
 5727.00    0.68147   0.68007   59.281
 5728.00    0.68088   0.67916   59.908
 5729.00    0.68008   0.67786   60.178
 5730.00    0.67865   0.67745   60.155
 5731.00    0.67818   0.67820   59.813
 5732.00    0.68035   0.67887   59.120
 5733.00    0.68331   0.67911   58.313
 5734.00    0.68386   0.67947   57.691
 5735.00    0.68240   0.68002   57.221
 5736.00    0.68138   0.68022   56.692
 5737.00    0.68126   0.67992   56.036
 5738.00    0.68096   0.67953   55.353
 5739.00    0.67979   0.67928   54.864
 5740.00    0.67762   0.67903    0.000
 5741.00    0.67471   0.67855    0.000
 5742.00    0.67158   0.67826    0.000
 5743.00    0.66904   0.67835    0.000
 5744.00    0.66774   0.67827    0.000
 5745.00    0.66755   0.67737    0.000
 5746.00    0.66804   0.67608    0.000
 5747.00    0.66921   0.67509    0.000
 5748.00    0.67093   0.67415    0.000
 5749.00    0.67183   0.67265    0.000
 5750.00    0.67074   0.67085    0.000
 5751.00    0.66884   0.66948    0.000
 5752.00    0.66845   0.66885    0.000
 5753.00    0.67086   0.66893    0.000
 5754.00    0.67548   0.66941    0.000
 5755.00    0.67927   0.66987    0.000
 5756.00    0.67935   0.67033    0.000
 5757.00    0.67638   0.67076    0.000
 5758.00    0.67304   0.67082    0.000
 5759.00    0.67141   0.67029    0.000
 5760.00    0.67208   0.66945    0.000
 5761.00    0.67357   0.66913    0.000
 5762.00    0.67399   0.66999    0.000
 5763.00    0.67317   0.67149    0.000
 5764.00    0.67215   0.67308    0.000
 5765.00    0.67216   0.67501    0.000
 5766.00    0.67374   0.67714    0.000
 5767.00    0.67598   0.67856    0.000
 5768.00    0.67768   0.67899    0.000
 5769.00    0.67886   0.67872    0.000
 5770.00    0.68003   0.67794    0.000
 5771.00    0.68125   0.67688    0.000
 5772.00    0.68264   0.67557    0.000
 5773.00    0.68484   0.67399    0.000
 5774.00    0.68725   0.67227    0.000
 5775.00    0.68632   0.67025    0.000
 5776.00    0.67981   0.66768    0.000
 5777.00    0.67113   0.66459    0.000
 5778.00    0.66438   0.66081    0.000
 5779.00    0.65899   0.65637    0.000
 5780.00    0.65331   0.65244    0.000
 5781.00    0.64864   0.64965    0.000
 5782.00    0.64717   0.64735    0.000
 5783.00    0.64956   0.64572    0.000
 5784.00    0.65455   0.64605    0.000
 5785.00    0.65910   0.64806    0.000
 5786.00    0.66141   0.65038    0.000
 5787.00    0.66345   0.65287    0.000
 5788.00    0.66723   0.65569    0.000
 5789.00    0.67140   0.65846    0.000
 5790.00    0.67400   0.66108    0.000
 5791.00    0.67516   0.66337    0.000
 5792.00    0.67592   0.66508    0.000
 5793.00    0.67705   0.66670    0.000
 5794.00    0.67875   0.66838    0.000
 5795.00    0.68069   0.66940    0.000
 5796.00    0.68267   0.67018    0.000
 5797.00    0.68518   0.67160    0.000
 5798.00    0.68783   0.67296    0.000
 5799.00    0.68846   0.67350    0.000
 5800.00    0.68605   0.67399    0.000
 5801.00    0.68274   0.67462    0.000
 5802.00    0.68086   0.67441    0.000
 5803.00    0.68055   0.67353    0.000
 5804.00    0.68130   0.67288    0.000
 5805.00    0.68317   0.67244    0.000
 5806.00    0.68554   0.67190    0.000
 5807.00    0.68641   0.67162    0.000
 5808.00    0.68486   0.67188    0.000
 5809.00    0.68259   0.67225    0.000
 5810.00    0.68140   0.67222    0.000
 5811.00    0.68144   0.67198    0.000
 5812.00    0.68196   0.67184    0.000
 5813.00    0.68206   0.67153    0.000
 5814.00    0.68154   0.67104    0.000
 5815.00    0.68126   0.67116    0.000
 5816.00    0.68191   0.67207    0.000
 5817.00    0.68322   0.67305    0.000
 5818.00    0.68456   0.67401    0.000
 5819.00    0.68546   0.67536    0.000
 5820.00    0.68616   0.67668    0.000
 5821.00    0.68763   0.67738    0.000
 5822.00    0.68980   0.67773    0.000
 5823.00    0.69089   0.67813    0.000
 5824.00    0.69020   0.67829    0.000
 5825.00    0.68938   0.67815    0.000
 5826.00    0.68984   0.67809    0.000
 5827.00    0.69118   0.67819    0.000
 5828.00    0.69198   0.67798    0.000
 5829.00    0.69064   0.67736    0.000
 5830.00    0.68710   0.67681    0.000
 5831.00    0.68354   0.67631    0.000
 5832.00    0.68215   0.67538    0.000
 5833.00    0.68385   0.67430    0.000
 5834.00    0.68812   0.67393    0.000
 5835.00    0.69310   0.67389    0.000
 5836.00    0.69642   0.67358    0.000
 5837.00    0.69609   0.67361    0.000
 5838.00    0.69254   0.67445    0.000
 5839.00    0.68896   0.67518    0.000
 5840.00    0.68755   0.67530    0.000
 5841.00    0.68789   0.67526    0.000
 5842.00    0.68848   0.67500    0.000
 5843.00    0.68776   0.67414    0.000
 5844.00    0.68514   0.67270    0.000
 5845.00    0.68127   0.67091    0.000
 5846.00    0.67703   0.66889    0.000
 5847.00    0.67302   0.66669    0.000
 5848.00    0.66969   0.66432    0.000
 5849.00    0.66725   0.66185    0.000
 5850.00    0.66525   0.65915    0.000
 5851.00    0.66254   0.65605    0.000
 5852.00    0.65807   0.65309    0.000
 5853.00    0.65103   0.65076   -2.000
 5854.00    0.64010   0.64848   -2.000
 5855.00    0.62431   0.64608   -2.000
 5856.00    0.60804   0.64477   -2.000
 5857.00    0.60046   0.64492   -2.000
 5858.00    0.60518   0.64563   -2.000
 5859.00    0.61744   0.64657   -2.000
 5860.00    0.63007   0.64797   -2.000
 5861.00    0.63683   0.64983   -2.000
 5862.00    0.63571   0.65198   -2.000
 5863.00    0.62972   0.65397   -2.000
 5864.00    0.62540   0.65521   -2.000
 5865.00    0.62988   0.65624   -2.000
 5866.00    0.64264   0.65771   -2.000
 5867.00    0.65558   0.65894   -2.000
 5868.00    0.66404   0.65938   -2.000
 5869.00    0.66990   0.65938   -2.000
 5870.00    0.67786   0.65909   -2.000
 5871.00    0.69263   0.65822   -2.000
 5872.00    0.71439   0.65677   -2.000
 5873.00    0.73855   0.65486    0.000
 5874.00    0.76020   0.65266    0.000
 5875.00    0.77534   0.65077    0.000
 5876.00    0.77957   0.64944    0.000
 5877.00    0.76918   0.64792    0.000
 5878.00    0.74573   0.64622    0.000
 5879.00    0.71614   0.64483    0.000
 5880.00    0.68813   0.64347    0.000
 5881.00    0.66770   0.64067    0.000
 5882.00    0.65619   0.63636    0.000
 5883.00    0.65058   0.63064    0.000
 5884.00    0.64715   0.62295    0.000
 5885.00    0.64294   0.61340    0.000
 5886.00    0.63659   0.60271    0.000
 5887.00    0.62830   0.59074    0.000
 5888.00    0.61898   0.57916    0.000
 5889.00    0.61002   0.57081    0.000
 5890.00    0.60345   0.56488    0.000
 5891.00    0.60115   0.56022    0.000
 5892.00    0.60271   0.55897    0.000
 5893.00    0.60597   0.56083    0.000
 5894.00    0.60988   0.56383    0.000
 5895.00    0.61458   0.56943    0.000
 5896.00    0.61951   0.57765    0.000
 5897.00    0.62377   0.58546    0.000
 5898.00    0.62801   0.59391    0.000
 5899.00    0.63384   0.60455    0.000
 5900.00    0.64120   0.61455    0.000
 5901.00    0.64856   0.62234   53.305
 5902.00    0.65495   0.62918   52.745
 5903.00    0.65993   0.63493   53.170
 5904.00    0.66261   0.63891   54.489
 5905.00    0.66206   0.64191   56.065
 5906.00    0.65897   0.64436   57.520
 5907.00    0.65520   0.64572   58.823
 5908.00    0.65223   0.64623   59.873
 5909.00    0.65043   0.64648   60.495
 5910.00    0.64833   0.64634   60.708
 5911.00    0.64403   0.64531   60.653
 5912.00    0.63836   0.64390   60.276
 5913.00    0.63410   0.64298   59.542
 5914.00    0.63304   0.64244   58.944
 5915.00    0.63539   0.64214   59.069
 5916.00    0.63975   0.64229   59.678
 5917.00    0.64413   0.64305   59.958
 5918.00    0.64787   0.64424   59.463
 5919.00    0.65140   0.64553   58.339
 5920.00    0.65520   0.64648   57.192
 5921.00    0.65919   0.64722   56.581
 5922.00    0.66212   0.64795   56.367
 5923.00    0.66258   0.64823   56.202
 5924.00    0.66101   0.64800   56.488
 5925.00    0.65895   0.64758   57.808
 5926.00    0.65719   0.64711   59.548
 5927.00    0.65558   0.64639   60.468
 5928.00    0.65346   0.64545   60.687
 5929.00    0.65049   0.64481   61.112
 5930.00    0.64792   0.64472   61.523
 5931.00    0.64720   0.64467   61.235
 5932.00    0.64745   0.64441   60.830
 5933.00    0.64675   0.64471   61.197
 5934.00    0.64487   0.64567   61.690
 5935.00    0.64310   0.64618   61.149
 5936.00    0.64323   0.64612   60.087
 5937.00    0.64624   0.64643   59.598
 5938.00    0.65043   0.64685   59.409
 5939.00    0.65288   0.64653   58.515
 5940.00    0.65197   0.64620   56.498
 5941.00    0.64817   0.64639   53.777
 5942.00    0.64443   0.64632   51.364
 5943.00    0.64387   0.64590   50.069
 5944.00    0.64631   0.64581   49.974
 5945.00    0.64943   0.64583   50.905
 5946.00    0.65116   0.64525   52.877
 5947.00    0.65034   0.64418   55.813
 5948.00    0.64737   0.64345   58.899
 5949.00    0.64381   0.64299   60.995
 5950.00    0.64187   0.64193   62.029
 5951.00    0.64307   0.64072   62.674
 5952.00    0.64675   0.64053   63.140
 5953.00    0.65086   0.64080   63.279
 5954.00    0.65325   0.64054   63.026
 5955.00    0.65265   0.64051   62.580
 5956.00    0.64948   0.64150   62.488
 5957.00    0.64537   0.64282   63.042
 5958.00    0.64227   0.64402   63.597
 5959.00    0.64111   0.64542   63.488
 5960.00    0.64043   0.64691   63.248
 5961.00    0.63887   0.64827   63.495
 5962.00    0.63787   0.64947   63.567
 5963.00    0.63934   0.65026   62.750
 5964.00    0.64257   0.65071   61.773
 5965.00    0.64588   0.65135   61.475
 5966.00    0.64872   0.65206   61.452
 5967.00    0.65141   0.65243   61.128
 5968.00    0.65444   0.65279   60.922
 5969.00    0.65755   0.65321   61.237
 5970.00    0.65890   0.65303   61.372
 5971.00    0.65740   0.65223   60.747
 5972.00    0.65496   0.65107   60.212
 5973.00    0.65403   0.64933   60.643
 5974.00    0.65481   0.64713   61.631
 5975.00    0.65603   0.64507   62.355
 5976.00    0.65608   0.64317   62.637
 5977.00    0.65405   0.64139   62.780
 5978.00    0.65062   0.63995   63.211
 5979.00    0.64717   0.63876   64.030
 5980.00    0.64487   0.63776   64.669
 5981.00    0.64383   0.63687   64.730
 5982.00    0.64263   0.63583   64.793
 5983.00    0.64032   0.63514   65.327
 5984.00    0.63812   0.63522   65.736
 5985.00    0.63745   0.63538   65.474
 5986.00    0.63817   0.63551   65.071
 5987.00    0.63944   0.63661   65.120
 5988.00    0.64051   0.63825   65.443
 5989.00    0.64108   0.63926   65.679
 5990.00    0.64146   0.64004   65.816
 5991.00    0.64218   0.64118   65.934
 5992.00    0.64362   0.64190   65.956
 5993.00    0.64574   0.64177   65.684
 5994.00    0.64795   0.64141   64.916
 5995.00    0.64942   0.64103   63.866
 5996.00    0.64934   0.64023   63.293
 5997.00    0.64744   0.63911   63.485
 5998.00    0.64431   0.63810   63.705
 5999.00    0.64093   0.63731   63.443
 6000.00    0.63826   0.63636   63.268
 6001.00    0.63676   0.63529   63.531
 6002.00    0.63612   0.63454   63.573
 6003.00    0.63576   0.63376   63.143
 6004.00    0.63531   0.63272   63.220
 6005.00    0.63475   0.63188   64.247
 6006.00    0.63445   0.63127   65.113
 6007.00    0.63453   0.63079   65.100
 6008.00    0.63453   0.63075   65.210
 6009.00    0.63413   0.63088   66.114
 6010.00    0.63350   0.63067   66.921
 6011.00    0.63279   0.63037   66.880
 6012.00    0.63178   0.63036   66.546
 6013.00    0.63031   0.63022   66.545
 6014.00    0.62865   0.62935   66.814
 6015.00    0.62765   0.62821   67.037
 6016.00    0.62859   0.62778   67.003
 6017.00    0.63104   0.62750   66.923
 6018.00    0.63219   0.62668   67.405
 6019.00    0.63064   0.62633   68.213
 6020.00    0.62825   0.62703   67.963
 6021.00    0.62713   0.62775   67.291
 6022.00    0.62787   0.62841   69.286
 6023.00    0.63038   0.63006   71.590
 6024.00    0.63424   0.63227   65.216
 6025.00    0.63845   0.63407   59.226
 6026.00    0.64151   0.63591   75.391
 6027.00    0.64263   0.63832   85.946
 6028.00    0.64229   0.64040   49.019
 6029.00    0.64133   0.64181   20.849
 6030.00    0.64057   0.64332   14.740
 6031.00    0.64084   0.64482   14.653
 6032.00    0.64285   0.64571   15.870
 6033.00    0.64611   0.64624   15.814
 6034.00    0.64884   0.64665   15.319
 6035.00    0.64994   0.64679   15.326
 6036.00    0.64981   0.64663   15.372
 6037.00    0.64898   0.64622   15.277
 6038.00    0.64759   0.64583   15.598
 6039.00    0.64621   0.64559   15.968
 6040.00    0.64591   0.64538   15.010
 6041.00    0.64705   0.64537   14.161
 6042.00    0.64894   0.64580   17.329
 6043.00    0.65092   0.64627   34.009
 6044.00    0.65277   0.64662   85.946
 6045.00    0.65420   0.64724   85.946
 6046.00    0.65473   0.64767   61.790
 6047.00    0.65411   0.64742   62.531
 6048.00    0.65249   0.64695   70.994
 6049.00    0.65048   0.64639   70.821
 6050.00    0.64896   0.64523   67.668
 6051.00    0.64799   0.64362   67.748
 6052.00    0.64673   0.64222   68.990
 6053.00    0.64482   0.64098   69.359
 6054.00    0.64275   0.63968   69.398
 6055.00    0.64128   0.63870   69.528
 6056.00    0.64103   0.63826   69.260
 6057.00    0.64186   0.63799   68.660
 6058.00    0.64289   0.63773   68.506
 6059.00    0.64340   0.63749   68.878
 6060.00    0.64307   0.63691   69.021
 6061.00    0.64177   0.63633   68.637
 6062.00    0.63957   0.63604   68.146
 6063.00    0.63709   0.63558   67.819
 6064.00    0.63535   0.63548   67.577
 6065.00    0.63519   0.63656   67.341
 6066.00    0.63700   0.63818   67.111
 6067.00    0.64050   0.63978   66.838
 6068.00    0.64482   0.64190   66.442
 6069.00    0.64869   0.64423   65.997
 6070.00    0.65091   0.64583   65.719
 6071.00    0.65134   0.64672   65.762
 6072.00    0.65095   0.64700   66.111
 6073.00    0.65067   0.64636   66.419
 6074.00    0.65084   0.64500   66.224
 6075.00    0.65053   0.64329   65.784
 6076.00    0.64818   0.64092   65.836
 6077.00    0.64409   0.63816   66.272
 6078.00    0.64018   0.63592   66.268
 6079.00    0.63753   0.63397   65.816
 6080.00    0.63588   0.63174   65.674
 6081.00    0.63440   0.63017   65.954
 6082.00    0.63241   0.62960   66.166
 6083.00    0.63068   0.62900   66.385
 6084.00    0.63083   0.62832   67.110
 6085.00    0.63292   0.62815   67.978
 6086.00    0.63544   0.62832   68.017
 6087.00    0.63710   0.62823   67.484
 6088.00    0.63725   0.62787   67.538
 6089.00    0.63577   0.62792   68.216
 6090.00    0.63309   0.62843   68.577
 6091.00    0.63028   0.62862   68.378
 6092.00    0.62858   0.62880   68.137
 6093.00    0.62800   0.62963   68.105
 6094.00    0.62792   0.63026   68.147
 6095.00    0.62902   0.63017   68.063
 6096.00    0.63225   0.62988   67.781
 6097.00    0.63525   0.62881   67.614
 6098.00    0.63417   0.62688   67.968
 6099.00    0.62924   0.62515   68.580
 6100.00    0.62384   0.62309   68.792
 6101.00    0.61961   0.62080   68.602
 6102.00    0.61637   0.61986   68.483
 6103.00    0.61442   0.62006   68.418
 6104.00    0.61467   0.62045   68.048
 6105.00    0.61771   0.62172   67.381
 6106.00    0.62324   0.62387   66.713
 6107.00    0.62921   0.62597   66.178
 6108.00    0.63287   0.62787   65.789
 6109.00    0.63328   0.62941   65.667
 6110.00    0.63143   0.63038   65.933
 6111.00    0.62960   0.63108   66.418
 6112.00    0.62991   0.63146   66.776
 6113.00    0.63177   0.63115   66.835
 6114.00    0.63300   0.63010   66.707
 6115.00    0.63261   0.62872   66.804
 6116.00    0.63079   0.62697   67.474
 6117.00    0.62792   0.62425   68.363
 6118.00    0.62447   0.62136   68.783
 6119.00    0.62103   0.61910   68.718
 6120.00    0.61823   0.61670   68.591
 6121.00    0.61641   0.61470   68.478
 6122.00    0.61576   0.61427   68.309
 6123.00    0.61654   0.61439   68.403
 6124.00    0.61863   0.61464   68.992
 6125.00    0.62084   0.61611   69.302
 6126.00    0.62185   0.61793   68.456
 6127.00    0.62193   0.61901   67.217
 6128.00    0.62217   0.62003   66.856
 6129.00    0.62279   0.62069   67.340
 6130.00    0.62324   0.62016   67.923
 6131.00    0.62279   0.61858   68.328
 6132.00    0.62090   0.61606   68.663
 6133.00    0.61762   0.61297   68.978
 6134.00    0.61365   0.60982   69.131
 6135.00    0.61016   0.60660   68.736
 6136.00    0.60835   0.60400   67.649
 6137.00    0.60874   0.60326   66.552
 6138.00    0.61080   0.60404   66.222
 6139.00    0.61261   0.60533   66.629
 6140.00    0.61249   0.60760   67.272
 6141.00    0.61116   0.61103   67.708
 6142.00    0.61065   0.61411   67.791
 6143.00    0.61257   0.61610   67.867
 6144.00    0.61701   0.61778   68.341
 6145.00    0.62175   0.61918   69.101
 6146.00    0.62402   0.61955   69.793
 6147.00    0.62290   0.61925   70.301
 6148.00    0.61920   0.61897   70.655
 6149.00    0.61481   0.61844   70.825
 6150.00    0.61161   0.61771   70.803
 6151.00    0.61017   0.61720   70.739
 6152.00    0.61017   0.61635   70.798
 6153.00    0.61105   0.61483   70.980
 6154.00    0.61187   0.61314   71.153
 6155.00    0.61118   0.61084   71.133
 6156.00    0.60797   0.60707   70.802
 6157.00    0.60272   0.60273   70.249
 6158.00    0.59666   0.59858   69.731
 6159.00    0.59075   0.59398   69.603
 6160.00    0.58574   0.58940   69.986
 6161.00    0.58221   0.58613   70.458
 6162.00    0.58044   0.58440   70.619
 6163.00    0.58021   0.58361   70.721
 6164.00    0.58123   0.58350   71.019
 6165.00    0.58348   0.58457   71.079
 6166.00    0.58628   0.58671   70.529
 6167.00    0.58756   0.58844   69.838
 6168.00    0.58620   0.58961   69.499
 6169.00    0.58422   0.59177   69.287
 6170.00    0.58425   0.59439   68.889
 6171.00    0.58708   0.59608   68.528
 6172.00    0.59182   0.59803   68.623
 6173.00    0.59653   0.60106   69.419
 6174.00    0.59973   0.60355   70.707
 6175.00    0.60162   0.60519   71.566
 6176.00    0.60319   0.60732   71.242
 6177.00    0.60516   0.60951   70.080
 6178.00    0.60766   0.61066   68.955
 6179.00    0.61004   0.61157   68.622
 6180.00    0.61168   0.61266   69.274
 6181.00    0.61266   0.61282   70.269
 6182.00    0.61333   0.61208   70.859
 6183.00    0.61393   0.61113   70.912
 6184.00    0.61426   0.60957   70.557
 6185.00    0.61353   0.60718   69.832
 6186.00    0.61114   0.60436   68.902
 6187.00    0.60732   0.60174   68.173
 6188.00    0.60311   0.59968   67.827
 6189.00    0.60007   0.59782   67.578
 6190.00    0.59896   0.59658   67.371
 6191.00    0.59885   0.59694   67.799
 6192.00    0.59880   0.59819   69.124
 6193.00    0.59896   0.59935   70.608
 6194.00    0.59961   0.60105   71.560
 6195.00    0.60039   0.60318   72.234
 6196.00    0.60082   0.60472   72.794
 6197.00    0.60071   0.60570   72.546
 6198.00    0.60027   0.60658   70.861
 6199.00    0.60009   0.60750   67.863
 6200.00    0.60050   0.60840   63.880
 6201.00    0.60132   0.60924   59.301
 6202.00    0.60272   0.61019   55.739
 6203.00    0.60562   0.61122   55.495
 6204.00    0.61016   0.61196   57.429
 6205.00    0.61493   0.61208   55.534
 6206.00    0.61795   0.61153   52.986
 6207.00    0.61765   0.61044   65.343
 6208.00    0.61391   0.60842   85.946
 6209.00    0.60848   0.60551   51.108
 6210.00    0.60338   0.60232   22.726
 6211.00    0.59982   0.59879   15.905
 6212.00    0.59794   0.59508   15.650
 6213.00    0.59687   0.59196   17.032
 6214.00    0.59602   0.58938   17.173
 6215.00    0.59567   0.58729   16.700
 6216.00    0.59621   0.58620   16.692
 6217.00    0.59759   0.58583   16.726
 6218.00    0.59903   0.58576   16.569
 6219.00    0.59911   0.58622   16.812
 6220.00    0.59706   0.58709   17.237
 6221.00    0.59336   0.58790   16.471
 6222.00    0.58942   0.58845   15.636
 6223.00    0.58706   0.58891   18.560
 6224.00    0.58721   0.58911   32.870
 6225.00    0.58933   0.58838   72.494
 6226.00    0.59200   0.58715   73.517
 6227.00    0.59344   0.58609   55.979
 6228.00    0.59248   0.58457   57.980
 6229.00    0.58912   0.58303   66.954
 6230.00    0.58501   0.58269   68.580
 6231.00    0.58301   0.58282   65.988
 6232.00    0.58413   0.58303   65.493
 6233.00    0.58663   0.58417   66.409
 6234.00    0.58872   0.58532   67.273
 6235.00    0.58964   0.58539   68.152
 6236.00    0.58895   0.58529   69.251
 6237.00    0.58627   0.58481   70.289
 6238.00    0.58171   0.58299   71.068
 6239.00    0.57600   0.58115   71.670
 6240.00    0.57010   0.57994   71.938
 6241.00    0.56481   0.57818   71.482
 6242.00    0.56009   0.57676   70.663
 6243.00    0.55512   0.57686   70.527
 6244.00    0.55010   0.57693   71.230
 6245.00    0.54647   0.57690   71.857
 6246.00    0.54503   0.57798   72.133
 6247.00    0.54545   0.57878   72.771
 6248.00    0.54740   0.57861   73.835
 6249.00    0.55068   0.57848   74.284
 6250.00    0.55448   0.57773   73.111
 6251.00    0.55735   0.57596   70.169
 6252.00    0.55858   0.57422   66.526
 6253.00    0.55848   0.57243   63.661
 6254.00    0.55783   0.57059   62.097
 6255.00    0.55748   0.56969   61.660
 6256.00    0.55793   0.56947   62.505
 6257.00    0.55920   0.56981   65.079
 6258.00    0.56137   0.57154   68.713
 6259.00    0.56455   0.57394   71.246
 6260.00    0.56870   0.57620   71.913
 6261.00    0.57338   0.57908   71.829
 6262.00    0.57732   0.58217   -2.000
 6263.00    0.57896   0.58413   -2.000
 6264.00    0.57851   0.58573   -2.000
 6265.00    0.57794   0.58756   -2.000
 6266.00    0.57885   0.58861   -2.000
 6267.00    0.58177   0.58910   -2.000
 6268.00    0.58596   0.58999   -2.000
 6269.00    0.58991   0.59087   -2.000
 6270.00    0.59288   0.59140   -2.000
 6271.00    0.59504   0.59206   -2.000
 6272.00    0.59625   0.59269   -2.000
 6273.00    0.59617   0.59301   -2.000
 6274.00    0.59521   0.59317   16.254
 6275.00    0.59442   0.59300   17.181
 6276.00    0.59428   0.59256   16.894
 6277.00    0.59426   0.59220   16.974
 6278.00    0.59253   0.59173   17.219
 6279.00    0.58726   0.59139   16.218
 6280.00    0.58008   0.59157    0.000
 6281.00    0.57509   0.59206    0.000
 6282.00    0.57399   0.59290    0.000
 6283.00    0.57576   0.59415    0.000
 6284.00    0.57895   0.59545    0.000
 6285.00    0.58238   0.59668    0.000
 6286.00    0.58542   0.59771    0.000
 6287.00    0.58796   0.59828    0.000
 6288.00    0.59026   0.59831    0.000
 6289.00    0.59257   0.59781    0.000
 6290.00    0.59450   0.59690    0.000
 6291.00    0.59548   0.59554    0.000
 6292.00    0.59604   0.59376    0.000
 6293.00    0.59796   0.59204    0.000
 6294.00    0.60384   0.59027    0.000
 6295.00    0.61614   0.58836    0.000
 6296.00    0.63539   0.58678    0.000
 6297.00    0.65959   0.58549    0.000
 6298.00    0.68389   0.58445    0.000
 6299.00    0.70198   0.58394    0.000
 6300.00    0.70909   0.58381    0.000
 6301.00    0.70335   0.58420    0.000
 6302.00    0.68705   0.58530    0.000
 6303.00    0.66517   0.58660    0.000
 6304.00    0.64210   0.58796    0.000
 6305.00    0.62120   0.58968    0.000
 6306.00    0.60535   0.59114    0.000
 6307.00    0.59625   0.59179    0.000
 6308.00    0.59311   0.59213    0.000
 6309.00    0.59324   0.59192    0.000
 6310.00    0.59389   0.59062    0.000
 6311.00    0.59316   0.58905    0.000
 6312.00    0.59112   0.58747    0.000
 6313.00    0.58887   0.58518    0.000
 6314.00    0.58660   0.58315    0.000
 6315.00    0.58379   0.58216    0.000
 6316.00    0.58026   0.58116    0.000
 6317.00    0.57632   0.58060    0.000
 6318.00    0.57269   0.58156    0.000
 6319.00    0.57036   0.58302    0.000
 6320.00    0.57023   0.58449    0.000
 6321.00    0.57279   0.58675   67.725
 6322.00    0.57778   0.58923   65.371
 6323.00    0.58422   0.59120   64.283
 6324.00    0.59077   0.59304   64.680
 6325.00    0.59618   0.59457   66.060
 6326.00    0.59991   0.59543   67.298
 6327.00    0.60199   0.59595   67.179
 6328.00    0.60274   0.59601   65.570
 6329.00    0.60240   0.59541   63.387
 6330.00    0.60091   0.59449   61.947
 6331.00    0.59829   0.59314   62.176
 6332.00    0.59529   0.59148   63.995
 6333.00    0.59270   0.58978   66.764
 6334.00    0.59034   0.58792   69.839
 6335.00    0.58748   0.58644   72.601
 6336.00    0.58366   0.58562   74.518
 6337.00    0.57939   0.58484   75.420
 6338.00    0.57672   0.58433   75.739
 6339.00    0.57748   0.58438   75.926
 6340.00    0.58094   0.58431   75.695
 6341.00    0.58481   0.58397   74.766
 6342.00    0.58695   0.58368   73.803
 6343.00    0.58638   0.58359   73.412
 6344.00    0.58423   0.58372   73.037
 6345.00    0.58257   0.58393   72.120
 6346.00    0.58276   0.58459   71.418
 6347.00    0.58516   0.58582   71.693
 6348.00    0.58898   0.58690   72.261
 6349.00    0.59279   0.58767   72.079
 6350.00    0.59527   0.58826   71.211
 6351.00    0.59565   0.58824   70.281
 6352.00    0.59417   0.58741   69.653
 6353.00    0.59155   0.58582   69.469
 6354.00    0.58837   0.58370   69.777
 6355.00    0.58488   0.58134   70.624
 6356.00    0.58098   0.57859   72.118
 6357.00    0.57724   0.57570   74.081
 6358.00    0.57576   0.57342   75.629
 6359.00    0.57857   0.57168   76.034
 6360.00    0.58582   0.57032   75.796
 6361.00    0.59586   0.56997   75.600
 6362.00    0.60567   0.57070   75.226
 6363.00    0.61252   0.57203   74.481
 6364.00    0.61563   0.57395   74.037
 6365.00    0.61523   0.57637   74.401
 6366.00    0.61166   0.57892   75.036
 6367.00    0.60592   0.58145   75.336
 6368.00    0.60017   0.58381   75.571
 6369.00    0.59640   0.58587   75.946
 6370.00    0.59519   0.58774   75.787
 6371.00    0.59595   0.58942   74.954
 6372.00    0.59729   0.59073   74.833
 6373.00    0.59803   0.59157   75.863
 6374.00    0.59800   0.59212   75.830
 6375.00    0.59752   0.59237   74.360
 6376.00    0.59684   0.59201   75.672
 6377.00    0.59600   0.59133   79.314
 6378.00    0.59476   0.59081   73.910
 6379.00    0.59295   0.59013   65.000
 6380.00    0.59087   0.58940   77.120
 6381.00    0.58909   0.58924   85.946
 6382.00    0.58819   0.58926   65.481
 6383.00    0.58817   0.58923   25.299
 6384.00    0.58813   0.58954   16.498
 6385.00    0.58759   0.58985   15.767
 6386.00    0.58729   0.58972   17.211
 6387.00    0.58760   0.58945   17.504
 6388.00    0.58748   0.58884   16.954
 6389.00    0.58606   0.58770   16.903
 6390.00    0.58378   0.58659   17.153
 6391.00    0.58155   0.58536   17.230
 6392.00    0.58009   0.58395   17.241
 6393.00    0.57943   0.58321   17.313
 6394.00    0.57872   0.58278   17.246
 6395.00    0.57738   0.58205   17.115
 6396.00    0.57572   0.58194   17.481
 6397.00    0.57421   0.58237   18.037
 6398.00    0.57307   0.58227   17.123
 6399.00    0.57283   0.58247   15.882
 6400.00    0.57456   0.58350   18.621
 6401.00    0.57836   0.58411   34.675
 6402.00    0.58270   0.58458   85.946
 6403.00    0.58582   0.58536   85.946
 6404.00    0.58678   0.58562   77.938
 6405.00    0.58552   0.58552   85.946
 6406.00    0.58284   0.58505   59.207
 6407.00    0.57991   0.58426   24.022
 6408.00    0.57793   0.58380   16.377
 6409.00    0.57736   0.58307   16.138
 6410.00    0.57766   0.58220   17.654
 6411.00    0.57793   0.58216   17.757
 6412.00    0.57740   0.58203   17.197
 6413.00    0.57633   0.58156   17.202
 6414.00    0.57608   0.58163   17.398
 6415.00    0.57690   0.58164   17.365
 6416.00    0.57721   0.58128   17.329
 6417.00    0.57628   0.58128   17.405
 6418.00    0.57522   0.58158   17.328
 6419.00    0.57504   0.58197   17.198
 6420.00    0.57574   0.58280   17.549
 6421.00    0.57655   0.58423   17.915
 6422.00    0.57642   0.58575   16.845
 6423.00    0.57554   0.58704   15.911
 6424.00    0.57557   0.58829   19.403
 6425.00    0.57716   0.58904   37.674
 6426.00    0.57915   0.58881   85.946
 6427.00    0.58018   0.58817   85.946
 6428.00    0.57953   0.58723   64.131
 6429.00    0.57732   0.58580   62.340
 6430.00    0.57444   0.58455   67.511
 6431.00    0.57218   0.58375   66.050
 6432.00    0.57168   0.58308   63.252
 6433.00    0.57263   0.58278   63.804
 6434.00    0.57327   0.58271   65.548
 6435.00    0.57265   0.58277   66.338
 6436.00    0.57132   0.58315   66.546
 6437.00    0.57024   0.58342   67.085
 6438.00    0.57015   0.58401   68.392
 6439.00    0.57098   0.58523   70.351
 6440.00    0.57193   0.58632   72.331
 6441.00    0.57253   0.58737   73.725
 6442.00    0.57281   0.58845   74.305
 6443.00    0.57276   0.58886   74.277
 6444.00    0.57208   0.58838   74.167
 6445.00    0.57043   0.58704   74.456
 6446.00    0.56758   0.58518   75.372
 6447.00    0.56397   0.58292   76.577
 6448.00    0.56070   0.58020   77.296
 6449.00    0.55897   0.57814   77.438
 6450.00    0.55962   0.57692   77.676
 6451.00    0.56224   0.57582   78.101
 6452.00    0.56531   0.57566   78.127
 6453.00    0.56753   0.57648   77.787
 6454.00    0.56829   0.57706   77.772
 6455.00    0.56806   0.57784   78.155
 6456.00    0.56795   0.57904   78.348
 6457.00    0.56804   0.57963   78.273
 6458.00    0.56733   0.57969   78.321
 6459.00    0.56508   0.58000   78.014
 6460.00    0.56137   0.58001   76.160
 6461.00    0.55734   0.57950   72.568
 6462.00    0.55500   0.57964   68.197
 6463.00    0.55628   0.58024   64.221
 6464.00    0.56225   0.58056   61.539
 6465.00    0.57165   0.58141   60.607
 6466.00    0.58130   0.58265   61.554
 6467.00    0.58828   0.58330   63.912
 6468.00    0.59090   0.58387   66.548
 6469.00    0.58946   0.58458   68.362
 6470.00    0.58595   0.58466   68.922
 6471.00    0.58259   0.58466   69.036
 6472.00    0.58110   0.58498   70.064
 6473.00    0.58182   0.58492   71.958
 6474.00    0.58366   0.58466   73.440
 6475.00    0.58465   0.58463   74.275
 6476.00    0.58289   0.58421   75.285
 6477.00    0.57854   0.58325   76.268
 6478.00    0.57344   0.58230   76.223
 6479.00    0.56886   0.58129   75.567
 6480.00    0.56518   0.57999   75.662
 6481.00    0.56255   0.57893   76.564
 6482.00    0.56109   0.57829   77.288
 6483.00    0.56121   0.57771   77.618
 6484.00    0.56310   0.57715   77.931
 6485.00    0.56574   0.57654   77.676
 6486.00    0.56742   0.57532   76.020
 6487.00    0.56755   0.57323   73.911
 6488.00    0.56655   0.57024   72.993
 6489.00    0.56469   0.56607   73.310
 6490.00    0.56178   0.56100   73.928
 6491.00    0.55714   0.55573   74.729
 6492.00    0.55018   0.55031   76.136
 6493.00    0.54171   0.54553   77.613
 6494.00    0.53343   0.54241   77.758
 6495.00    0.52655   0.54065   75.589
 6496.00    0.52197   0.54079   71.451
 6497.00    0.52122   0.54297   67.155
 6498.00    0.52567   0.54625   64.396
 6499.00    0.53468   0.55068   63.568
 6500.00    0.54593   0.55565   64.418
 6501.00    0.55661   0.56032   66.632
 6502.00    0.56431   0.56481   69.767
 6503.00    0.56803   0.56864   73.048
 6504.00    0.56824   0.57153   75.424
 6505.00    0.56653   0.57383   76.127
 6506.00    0.56475   0.57545   75.130
 6507.00    0.56360   0.57633   73.258
 6508.00    0.56306   0.57677   71.545
 6509.00    0.56359   0.57690   70.498
 6510.00    0.56556   0.57656   70.251
 6511.00    0.56802   0.57583   70.840
 6512.00    0.56958   0.57500   72.199
 6513.00    0.56993   0.57404   74.013
 6514.00    0.56953   0.57286   75.413
 6515.00    0.56864   0.57198   74.677
 6516.00    0.56736   0.57153   71.001
 6517.00    0.56586   0.57118   66.461
 6518.00    0.56449   0.57135   63.315
 6519.00    0.56379   0.57192   61.902
 6520.00    0.56442   0.57248   61.908
 6521.00    0.56692   0.57309   63.487
 6522.00    0.57092   0.57350   66.796
 6523.00    0.57417   0.57362   70.835
 6524.00    0.57423   0.57349   73.653
 6525.00    0.57098   0.57296   74.094
 6526.00    0.56633   0.57232   72.639
 6527.00    0.56334   0.57161   71.014
 6528.00    0.56401   0.57078    0.000
 6529.00    0.56681   0.57007    0.000
 6530.00    0.56869   0.56947    0.000
 6531.00    0.56835   0.56899    0.000
 6532.00    0.56623   0.56868    0.000
 6533.00    0.56398   0.56844    0.000
 6534.00    0.56336   0.56834    0.000
 6535.00    0.56496   0.56821    0.000
 6536.00    0.56827   0.56785    0.000
 6537.00    0.57192   0.56731    0.000
 6538.00    0.57457   0.56637    0.000
 6539.00    0.57594   0.56485    0.000
 6540.00    0.57804   0.56295    0.000
 6541.00    0.58635   0.56054    0.000
 6542.00    0.60824   0.55766    0.000
 6543.00    0.65064   0.55476    0.000
 6544.00    0.71575   0.55169    0.000
 6545.00    0.79667   0.54857    0.000
 6546.00    0.87805   0.54573    0.000
 6547.00    0.93806   0.54276    0.000
 6548.00    0.95747   0.53965    0.000
 6549.00    0.92929   0.53634    0.000
 6550.00    0.86034   0.53240    0.000
 6551.00    0.77112   0.52778    0.000
 6552.00    0.68573   0.52233    0.000
 6553.00    0.62185   0.51589    0.000
 6554.00    0.59179   0.50843    0.000
 6555.00    0.60652   0.49969    0.000
 6556.00    0.69728   0.49012    0.000
 6557.00    0.93193   0.48007    0.000
 6558.00    1.37209   0.46933    0.000
 6559.00    2.02782   0.45954    0.000
 6560.00    2.82321   0.45208   -2.000
 6561.00    3.57640   0.44648    0.000
 6562.00    4.07896   0.44448    0.000
 6563.00    4.17596   0.44707    0.000
 6564.00    3.82973   0.45228    0.000
 6565.00    3.16168   0.46009    0.000
 6566.00    2.37073   0.47029    0.000
 6567.00    1.65252   0.48037    0.000
 6568.00    1.13272   0.48983    0.000
 6569.00    0.82171   0.49882    0.000
 6570.00    0.66607   0.50623    0.000
 6571.00    0.59754   0.51230    0.000
 6572.00    0.56403   0.51780    0.000
 6573.00    0.54911   0.52248    0.000
 6574.00    0.54968   0.52663    0.000
 6575.00    0.55890   0.53072    0.000
 6576.00    0.57886   0.53445    0.000
 6577.00    0.62944   0.53778    0.000
 6578.00    0.73562   0.54095    0.000
 6579.00    0.91490   0.54363    0.000
 6580.00    1.15933   0.54588    0.000
 6581.00    1.42500   0.54799    0.000
 6582.00    1.64860   0.54961    0.000
 6583.00    1.76424   0.55102    0.000
 6584.00    1.73474   0.55236    0.000
 6585.00    1.57139   0.55304    0.000
 6586.00    1.32261   0.55351    0.000
 6587.00    1.05997   0.55367    0.000
 6588.00    0.84244   0.55308    0.000
 6589.00    0.69392   0.55220    0.000
 6590.00    0.61099   0.55132    0.000
 6591.00    0.57178   0.55023    0.000
 6592.00    0.55454   0.54936    0.000
 6593.00    0.54852   0.54926    0.000
 6594.00    0.54867   0.54954    0.000
 6595.00    0.55184   0.55035    0.000
 6596.00    0.55582   0.55189    0.000
 6597.00    0.55897   0.55352    0.000
 6598.00    0.56075   0.55514    0.000
 6599.00    0.56186   0.55677    0.000
 6600.00    0.56311   0.55790    0.000
 6601.00    0.56467   0.55851    0.000
 6602.00    0.56600   0.55868    0.000
 6603.00    0.56595   0.55838    0.000
 6604.00    0.56385   0.55776    0.000
 6605.00    0.56003   0.55700    0.000
 6606.00    0.55578   0.55642    0.000
 6607.00    0.55291   0.55614    0.000
 6608.00    0.55240   0.55619    0.000
 6609.00    0.55384   0.55675   85.946
 6610.00    0.55648   0.55771   85.946
 6611.00    0.55969   0.55898   73.223
 6612.00    0.56266   0.56038   71.870
 6613.00    0.56444   0.56174   80.856
 6614.00    0.56460   0.56306   80.838
 6615.00    0.56359   0.56410   76.981
 6616.00    0.56250   0.56484   76.579
 6617.00    0.56266   0.56523   77.446
 6618.00    0.56415   0.56521   77.281
 6619.00    0.56554   0.56490   76.985
 6620.00    0.56570   0.56416   77.240
 6621.00    0.56455   0.56314   77.285
 6622.00    0.56237   0.56214   76.761
 6623.00    0.55955   0.56087   76.265
 6624.00    0.55664   0.55964   76.072
 6625.00    0.55427   0.55867   75.823
 6626.00    0.55261   0.55748   75.447
 6627.00    0.55136   0.55644   75.353
 6628.00    0.55058   0.55557   75.655
 6629.00    0.55076   0.55447   75.973
 6630.00    0.55158   0.55358   75.947
 6631.00    0.55188   0.55303   75.480
 6632.00    0.55129   0.55251   74.778
 6633.00    0.55064   0.55238   74.250
 6634.00    0.55076   0.55279   74.162
 6635.00    0.55204   0.55325   74.539
 6636.00    0.55409   0.55379   75.195
 6637.00    0.55596   0.55457   75.797
 6638.00    0.55736   0.55509   76.137
 6639.00    0.55871   0.55527   76.251
 6640.00    0.55991   0.55548   76.422
 6641.00    0.56024   0.55554   76.977
 6642.00    0.55974   0.55542   77.631
 6643.00    0.55930   0.55544   77.603
 6644.00    0.55940   0.55561   76.947
 6645.00    0.55991   0.55587   76.547
 6646.00    0.56058   0.55625   76.621
 6647.00    0.56114   0.55667   76.617
 6648.00    0.56121   0.55711   76.300
 6649.00    0.56044   0.55744   75.963
 6650.00    0.55910   0.55763   75.925
 6651.00    0.55794   0.55776   76.311
 6652.00    0.55728   0.55763   76.882
 6653.00    0.55685   0.55732   77.161
 6654.00    0.55655   0.55700   77.066
 6655.00    0.55647   0.55632   76.931
 6656.00    0.55660   0.55537   76.947
 6657.00    0.55670   0.55443   77.071
 6658.00    0.55639   0.55321   77.228
 6659.00    0.55530   0.55169   77.356
 6660.00    0.55351   0.55039   77.387
 6661.00    0.55150   0.54920   77.237
 6662.00    0.54998   0.54805   76.825
 6663.00    0.54946   0.54751   76.140
 6664.00    0.54965   0.54738   75.401
 6665.00    0.54972   0.54757   74.983
 6666.00    0.54952   0.54833   75.180
 6667.00    0.54953   0.54923   75.907
 6668.00    0.55011   0.55014   76.048
 6669.00    0.55134   0.55105   74.643
 6670.00    0.55315   0.55137   74.031
 6671.00    0.55534   0.55116   76.663
 6672.00    0.55775   0.55061   76.286
 6673.00    0.56032   0.54927   67.686
 6674.00    0.56338   0.54748   67.933
 6675.00    0.56724   0.54591   85.946
 6676.00    0.57117   0.54440   85.946
 6677.00    0.57366   0.54322   37.927
 6678.00    0.57349   0.54295   19.482
 6679.00    0.57020   0.54341   16.038
 6680.00    0.56470   0.54439   17.168
 6681.00    0.55890   0.54595   18.556
 6682.00    0.55467   0.54771   18.275
 6683.00    0.55316   0.54940   17.719
 6684.00    0.55394   0.55096   17.854
 6685.00    0.55547   0.55221   18.511
 6686.00    0.55656   0.55304   18.356
 6687.00    0.55666   0.55358   16.833
 6688.00    0.55607   0.55380   16.991
 6689.00    0.55546   0.55362   24.155
 6690.00    0.55497   0.55329   56.728
 6691.00    0.55418   0.55270   85.946
 6692.00    0.55240   0.55181   84.663
 6693.00    0.54946   0.55103   67.448
 6694.00    0.54684   0.55019   74.514
 6695.00    0.54647   0.54935   80.261
 6696.00    0.54812   0.54889    0.000
 6697.00    0.55016   0.54850    0.000
 6698.00    0.55150   0.54834    0.000
 6699.00    0.55183   0.54842    0.000
 6700.00    0.55116   0.54837    0.000
 6701.00    0.54985   0.54848    0.000
 6702.00    0.54851   0.54857    0.000
 6703.00    0.54773   0.54837    0.000
 6704.00    0.54750   0.54826    0.000
 6705.00    0.54762   0.54809    0.000
 6706.00    0.54852   0.54759    0.000
 6707.00    0.55092   0.54713    0.000
 6708.00    0.55537   0.54648    0.000
 6709.00    0.56581   0.54542    0.000
 6710.00    0.59487   0.54427    0.000
 6711.00    0.65933   0.54292    0.000
 6712.00    0.77183   0.54141    0.000
 6713.00    0.93053   0.53992    0.000
 6714.00    1.10673   0.53857    0.000
 6715.00    1.25527   0.53772    0.000
 6716.00    1.33256   0.53720    0.000
 6717.00    1.31221   0.53711    0.000
 6718.00    1.20260   0.53763    0.000
 6719.00    1.03860   0.53847    0.000
 6720.00    0.86623   0.53959    0.000
 6721.00    0.72617   0.54076    0.000
 6722.00    0.63506   0.54182    0.000
 6723.00    0.59145   0.54293    0.000
 6724.00    0.58702   0.54381    0.000
 6725.00    0.61521   0.54442    0.000
 6726.00    0.67929   0.54503    0.000
 6727.00    0.78063   0.54549    0.000
 6728.00    0.90323   0.54580    0.000
 6729.00    1.01846   0.54602    0.000
 6730.00    1.09380   0.54608    0.000
 6731.00    1.10525   0.54602    0.000
 6732.00    1.05053   0.54582    0.000
 6733.00    0.94646   0.54541    0.000
 6734.00    0.82328   0.54485    0.000
 6735.00    0.71160   0.54416    0.000
 6736.00    0.62848   0.54339    0.000
 6737.00    0.57757   0.54262    0.000
 6738.00    0.55163   0.54174    0.000
 6739.00    0.53973   0.54081    0.000
 6740.00    0.53481   0.54013    0.000
 6741.00    0.53321   0.53939    0.000
 6742.00    0.53321   0.53859    0.000
 6743.00    0.53392   0.53800    0.000
 6744.00    0.53437   0.53740    0.000
 6745.00    0.53405   0.53682    0.000
 6746.00    0.53349   0.53628    0.000
 6747.00    0.53315   0.53596    0.000
 6748.00    0.53244   0.53574    0.000
 6749.00    0.53122   0.53554    0.000
 6750.00    0.53104   0.53591    0.000
 6751.00    0.53266   0.53640    0.000
 6752.00    0.53402   0.53705    0.000
 6753.00    0.53389   0.53824   28.961
 6754.00    0.53481   0.53941   18.464
 6755.00    0.53778   0.54070   17.170
 6756.00    0.53807   0.54211   18.679
 6757.00    0.53356   0.54319   19.381
 6758.00    0.53119   0.54407   18.773
 6759.00    0.53631   0.54469   18.250
 6760.00    0.54410   0.54481   18.439
 6761.00    0.54807   0.54455   18.899
 6762.00    0.54741   0.54400   18.123
 6763.00    0.54417   0.54303   16.856
 6764.00    0.54050   0.54199   19.031
 6765.00    0.53770   0.54108   32.501
 6766.00    0.53582   0.54013   85.552
 6767.00    0.53426   0.53943   85.946
 6768.00    0.53243   0.53925   72.742
 6769.00    0.53071   0.53944   67.995
 6770.00    0.53095   0.53995   76.541
 6771.00    0.53381   0.54085   77.505
 6772.00    0.53726   0.54199   73.296
 6773.00    0.53946   0.54310   72.846
 6774.00    0.54069   0.54415   74.385
 6775.00    0.54155   0.54500   74.425
 6776.00    0.54174   0.54534   73.537
 6777.00    0.54098   0.54525   73.213
 6778.00    0.53957   0.54468   73.464
 6779.00    0.53766   0.54352   73.869
 6780.00    0.53483   0.54210   74.290
 6781.00    0.53162   0.54060   74.650
 6782.00    0.53009   0.53898   74.803
 6783.00    0.53093   0.53766   74.783
 6784.00    0.53208   0.53677   74.900
 6785.00    0.53208   0.53609   75.230
 6786.00    0.53189   0.53584   75.311
 6787.00    0.53292   0.53599   74.318
 6788.00    0.53566   0.53619   71.397
 6789.00    0.53896   0.53638   66.303
 6790.00    0.54025   0.53661   59.785
 6791.00    0.53870   0.53678   53.677
 6792.00    0.53653   0.53680   49.731
 6793.00    0.53554   0.53691   48.074
 6794.00    0.53534   0.53698   47.672
 6795.00    0.53530   0.53708   47.706
 6796.00    0.53548   0.53742   47.968
 6797.00    0.53586   0.53769   48.303
 6798.00    0.53595   0.53804   48.503
 6799.00    0.53501   0.53842   49.384
 6800.00    0.53254   0.53856   52.900
 6801.00    0.52953   0.53882   58.245
 6802.00    0.52854   0.53885   59.022
 6803.00    0.53041   0.53855   58.098
 6804.00    0.53319   0.53851   71.257
 6805.00    0.53480   0.53817   85.946
 6806.00    0.53441   0.53766   48.623
 6807.00    0.53270   0.53744   23.963
 6808.00    0.53153   0.53700   17.761
 6809.00    0.53199   0.53666   17.792
 6810.00    0.53365   0.53646   19.118
 6811.00    0.53492   0.53608   19.047
 6812.00    0.53387   0.53609   18.619
 6813.00    0.53071   0.53620   18.782
 6814.00    0.52812   0.53617   18.910
 6815.00    0.52762   0.53644   18.798
 6816.00    0.52839   0.53672   19.130
 6817.00    0.52947   0.53711   19.446
 6818.00    0.53046   0.53762   18.245
 6819.00    0.53075   0.53799   17.367
 6820.00    0.52971   0.53842   21.417
 6821.00    0.52901   0.53877   41.036
 6822.00    0.53202   0.53897   85.946
 6823.00    0.53765   0.53900   84.317
 6824.00    0.53981   0.53874   57.273
 6825.00    0.53523   0.53848   51.596
 6826.00    0.52576   0.53819   49.802
 6827.00    0.51540   0.53776   45.879
 6828.00    0.50834   0.53735   42.828
 6829.00    0.50610   0.53697   42.328
 6830.00    0.50754   0.53672   43.949
 6831.00    0.51276   0.53645   46.797
 6832.00    0.52351   0.53591   49.464
 6833.00    0.53966   0.53526   50.470
 6834.00    0.55818   0.53444   49.368
 6835.00    0.57408   0.53323   47.592
 6836.00    0.58246   0.53185   47.232
 6837.00    0.58391   0.53034   48.788
 6838.00    0.58403   0.52886   51.192
 6839.00    0.58600   0.52776   53.122
 6840.00    0.58865   0.52698   -1.000
 6841.00    0.58861   0.52668   -1.000
 6842.00    0.58260   0.52691   53.910
 6843.00    0.57241   0.52754   54.913
 6844.00    0.56389   0.52858   55.861
 6845.00    0.55942   0.52966   56.391
 6846.00    0.55683   0.53069   56.949
 6847.00    0.55307   0.53158   58.215
 6848.00    0.54657   0.53210   60.499
 6849.00    0.54048   0.53236   62.183
 6850.00    0.54029   0.53208   60.499
 6851.00    0.54481   0.53134   56.593
 6852.00    0.54722   0.53066   53.846
 6853.00    0.54517   0.52972   52.864
 6854.00    0.54150   0.52855   52.670
 6855.00    0.53839   0.52776   53.766
 6856.00    0.53648   0.52702   57.310
 6857.00    0.53696   0.52635   59.847
 6858.00    0.54085   0.52614   56.344
 6859.00    0.54580   0.52613   55.888
 6860.00    0.54804   0.52629   71.632
 6861.00    0.54906   0.52659   74.172
 6862.00    0.55308   0.52686   35.779
 6863.00    0.55707   0.52711   20.049
 6864.00    0.55434   0.52726   16.707
 6865.00    0.54887   0.52730   17.685
 6866.00    0.55065   0.52725   18.680
 6867.00    0.55696   0.52707   18.140
 6868.00    0.55725   0.52684   17.773
 6869.00    0.55397   0.52678   17.992
 6870.00    0.55761   0.52677   17.983
 6871.00    0.56518   0.52678   17.700
 6872.00    0.56470   0.52698   17.730
 6873.00    0.55504   0.52736   18.053
 6874.00    0.54439   0.52777   18.246
 6875.00    0.53755   0.52807   18.481
 6876.00    0.53494   0.52831   19.085
 6877.00    0.53621   0.52844   18.997
 6878.00    0.53991   0.52838   17.502
 6879.00    0.54144   0.52826   17.539
 6880.00    0.53710   0.52816   24.061
 6881.00    0.53257   0.52817   49.601
 6882.00    0.53593   0.52820   85.710
 6883.00    0.54150   0.52862   62.475
 6884.00    0.53838   0.52937   49.184
 6885.00    0.53208   0.53014   48.069
 6886.00    0.53542   0.53115   47.367
 6887.00    0.54492   0.53224   45.114
 6888.00    0.54805   0.53316   44.885
 6889.00    0.54366   0.53398   47.747
 6890.00    0.53869   0.53455   52.891
 6891.00    0.53596   0.53478   58.572
 6892.00    0.53458   0.53487   62.317
 6893.00    0.53428   0.53485   63.687
 6894.00    0.53511   0.53465   64.410
 6895.00    0.53560   0.53442   65.307
 6896.00    0.53430   0.53418   66.141
 6897.00    0.53272   0.53407   66.625
 6898.00    0.53315   0.53412   66.383
 6899.00    0.53457   0.53410   64.672
 6900.00    0.53449   0.53419   61.316
 6901.00    0.53259   0.53443   57.621
 6902.00    0.53052   0.53464   54.899
 6903.00    0.53045   0.53491   53.332
 6904.00    0.53313   0.53501   52.796
 6905.00    0.53558   0.53507   53.677
 6906.00    0.53512   0.53513   56.170
 6907.00    0.53538   0.53479   58.762
 6908.00    0.54031   0.53438   58.823
 6909.00    0.54492   0.53383   55.589
 6910.00    0.54247   0.53293   50.702
 6911.00    0.53572   0.53227   46.364
 6912.00    0.53109   0.53159   43.794
 6913.00    0.52885   0.53081   43.156
 6914.00    0.52674   0.53059   44.342
 6915.00    0.52618   0.53045   47.254
 6916.00    0.52853   0.53044   51.645
 6917.00    0.52965   0.53077   56.691
 6918.00    0.52573   0.53094   60.925
 6919.00    0.52098   0.53116   63.193
 6920.00    0.52091   0.53119   63.521
 6921.00    0.52329   0.53096   63.126
 6922.00    0.52380   0.53073   63.131
 6923.00    0.52386   0.53040   63.398
 6924.00    0.52575   0.53005   63.443
 6925.00    0.52627   0.52978   63.582
 6926.00    0.52300   0.52974   63.968
 6927.00    0.52160   0.52980   63.458
 6928.00    0.52717   0.52995   61.599
 6929.00    0.53435   0.53009   60.403
 6930.00    0.53590   0.53039   60.123
 6931.00    0.53278   0.53081   56.292
 6932.00    0.52812   0.53100   50.440
 6933.00    0.52019   0.53129   53.210
 6934.00    0.50922   0.53161   68.850
 6935.00    0.50423   0.53186   56.130
 6936.00    0.51165   0.53208   28.668
 6937.00    0.52390   0.53213   19.076
 6938.00    0.53073   0.53207   17.622
 6939.00    0.53123   0.53183   18.840
 6940.00    0.52871   0.53140   19.387
 6941.00    0.52475   0.53068   19.046
 6942.00    0.51988   0.53001   19.065
 6943.00    0.51482   0.52943   19.430
 6944.00    0.51134   0.52871   19.620
 6945.00    0.51250   0.52831   19.509
 6946.00    0.51805   0.52803   19.281
 6947.00    0.52109   0.52767   19.192
 6948.00    0.51685   0.52758   19.356
 6949.00    0.50981   0.52748   19.615
 6950.00    0.50610   0.52733   19.756
 6951.00    0.50640   0.52745   19.747
 6952.00    0.50823   0.52761   19.677
 6953.00    0.50860   0.52784   19.662
 6954.00    0.50670   0.52824   19.735
 6955.00    0.50544   0.52876   19.785
 6956.00    0.50720   0.52934   19.716
 6957.00    0.51063   0.53000   19.584
 6958.00    0.51343   0.53065   19.477
 6959.00    0.51478   0.53111   19.426
 6960.00    0.51476   0.53165   19.427
 6961.00    0.51380   0.53203   19.463
 6962.00    0.51261   0.53211   19.508
 6963.00    0.51195   0.53237   19.533
 6964.00    0.51164   0.53248   19.545
 6965.00    0.51009   0.53235   19.604
 6966.00    0.50681   0.53227   19.731
 6967.00    0.50391   0.53191   19.845
 6968.00    0.50380   0.53142   19.849
 6969.00    0.50733   0.53074   19.711
 6970.00    0.51314   0.52943   19.488
 6971.00    0.51778   0.52798   19.313
 6972.00    0.51898   0.52634   19.269
 6973.00    0.51764   0.52431   19.319
 6974.00    0.51528   0.52217   19.407
 6975.00    0.51230   0.52016   19.520
 6976.00    0.50768   0.51880   19.697
 6977.00    0.49968   0.51792   20.013
 6978.00    0.49042   0.51757   20.391
 6979.00    0.48720   0.51818   20.526
 6980.00    0.49266   0.51932   20.298
 6981.00    0.50028   0.52092   19.989
 6982.00    0.50465   0.52271   19.816
 6983.00    0.50680   0.52435   19.732
 6984.00    0.50824   0.52604   19.676
 6985.00    0.50784   0.52731   19.691
 6986.00    0.50520   0.52814   19.794
 6987.00    0.50221   0.52882   19.912
 6988.00    0.50020   0.52913   19.992
 6989.00    0.49873   0.52925   20.051
 6990.00    0.49733   0.52924   20.107
 6991.00    0.49666   0.52912   20.134
 6992.00    0.49856   0.52897   20.058
 6993.00    0.50521   0.52855   19.794
 6994.00    0.51491   0.52799   19.421
 6995.00    0.52141   0.52735   19.179
 6996.00    0.52177   0.52656   19.165
 6997.00    0.51926   0.52582   19.258
 6998.00    0.51705   0.52496   19.341
 6999.00    0.51531   0.52408   19.406
 7000.00    0.51263   0.52341   19.507
 7001.00    0.50740   0.52293   -2.000
 7002.00    0.50098   0.52259   -2.000
 7003.00    0.49789   0.52231   -2.000
 7004.00    0.49985   0.52220   -2.000
 7005.00    0.50385   0.52229   -2.000
 7006.00    0.50617   0.52249   -2.000
 7007.00    0.50480   0.52253   -2.000
 7008.00    0.50176   0.52249   -2.000
 7009.00    0.50209   0.52241   -2.000
 7010.00    0.50547   0.52205   -2.000
 7011.00    0.50526   0.52151   -2.000
 7012.00    0.49939   0.52082   -2.000
 7013.00    0.49313   0.52020   -2.000
 7014.00    0.49123   0.51975   -2.000
 7015.00    0.49395   0.51917   -2.000
 7016.00    0.49444   0.51894   -2.000
 7017.00    0.48326   0.51915   -2.000
 7018.00    0.46872   0.51939   -2.000
 7019.00    0.47421   0.51961   -2.000
 7020.00    0.49842   0.51975   -2.000
 7021.00    0.51263   0.51995   -2.000
 7022.00    0.50731   0.52030   -2.000
 7023.00    0.49987   0.52051   -2.000
 7024.00    0.49960   0.52074   -2.000
 7025.00    0.50004   0.52124   -2.000
 7026.00    0.49875   0.52181   -2.000
 7027.00    0.50081   0.52248   -2.000
 7028.00    0.50640   0.52311   -2.000
 7029.00    0.50942   0.52374   -2.000
 7030.00    0.50775   0.52442   -2.000
 7031.00    0.50487   0.52485   -2.000
 7032.00    0.50379   0.52524   -2.000
 7033.00    0.50503   0.52552   -2.000
 7034.00    0.50690   0.52571   -2.000
 7035.00    0.50682   0.52623   -2.000
 7036.00    0.50483   0.52693   -2.000
 7037.00    0.50324   0.52766   -2.000
 7038.00    0.50221   0.52869   -2.000
 7039.00    0.50014   0.52998   -2.000
 7040.00    0.49889   0.53137   -2.000
 7041.00    0.50259   0.53266   -2.000
 7042.00    0.51003   0.53369   -2.000
 7043.00    0.51531   0.53450   -2.000
 7044.00    0.51608   0.53503   -2.000
 7045.00    0.51455   0.53527   -2.000
 7046.00    0.51362   0.53494   -2.000
 7047.00    0.51485   0.53423   -2.000
 7048.00    0.51596   0.53309   -2.000
 7049.00    0.51293   0.53141   -2.000
 7050.00    0.50689   0.52972   -2.000
 7051.00    0.50283   0.52775   -2.000
 7052.00    0.50143   0.52578   -2.000
 7053.00    0.49945   0.52400   -2.000
 7054.00    0.49604   0.52229   -2.000
 7055.00    0.49269   0.52101   -2.000
 7056.00    0.48945   0.51986   -2.000
 7057.00    0.48540   0.51893   -2.000
 7058.00    0.48231   0.51827   -2.000
 7059.00    0.48333   0.51754   -2.000
 7060.00    0.48805   0.51709   -2.000
 7061.00    0.49321   0.51670   -2.000
 7062.00    0.49688   0.51611   -2.000
 7063.00    0.49875   0.51572   -2.000
 7064.00    0.49870   0.51530   -2.000
 7065.00    0.49692   0.51499   -2.000
 7066.00    0.49493   0.51505   -2.000
 7067.00    0.49451   0.51510   -2.000
 7068.00    0.49502   0.51552   -2.000
 7069.00    0.49441   0.51636   -2.000
 7070.00    0.49234   0.51725   -2.000
 7071.00    0.48991   0.51826   -2.000
 7072.00    0.48774   0.51926   -2.000
 7073.00    0.48580   0.52012   -2.000
 7074.00    0.48407   0.52086   -2.000
 7075.00    0.48302   0.52122   -2.000
 7076.00    0.48427   0.52111   -2.000
 7077.00    0.48883   0.52069   -2.000
 7078.00    0.49364   0.51968   -2.000
 7079.00    0.49438   0.51824   -2.000
 7080.00    0.49157   0.51641   -2.000
 7081.00    0.48846   0.51415   -2.000
 7082.00    0.48534   0.51186   -2.000
 7083.00    0.48078   0.50928   -2.000
 7084.00    0.47545   0.50677   -2.000
 7085.00    0.47182   0.50481   -2.000
 7086.00    0.47231   0.50296   -2.000
 7087.00    0.47703   0.50151   -2.000
 7088.00    0.48066   0.50053   -2.000
 7089.00    0.47799   0.49971   -2.000
 7090.00    0.47312   0.49957   -2.000
 7091.00    0.47369   0.49966   -2.000
 7092.00    0.47931   0.49976   -2.000
 7093.00    0.48309   0.50035   -2.000
 7094.00    0.47712   0.50087   -2.000
 7095.00    0.46049   0.50164   -2.000
 7096.00    0.44909   0.50249   -2.000
 7097.00    0.45854   0.50312   -2.000
 7098.00    0.47808   0.50390   -2.000
 7099.00    0.48706   0.50448   -2.000
 7100.00    0.48399   0.50496   -2.000
 7101.00    0.47868   0.50521   -2.000
 7102.00    0.47565   0.50521   -2.000
 7103.00    0.47433   0.50516   -2.000
 7104.00    0.47280   0.50495   -2.000
 7105.00    0.47036   0.50454   -2.000
 7106.00    0.46996   0.50389   -2.000
 7107.00    0.47359   0.50324   -2.000
 7108.00    0.47618   0.50272   -2.000
 7109.00    0.47254   0.50224   -2.000
 7110.00    0.46674   0.50184   -2.000
 7111.00    0.46506   0.50150   -2.000
 7112.00    0.46593   0.50148   -2.000
 7113.00    0.46532   0.50162   -2.000
 7114.00    0.46453   0.50174   -2.000
 7115.00    0.46642   0.50194   -2.000
 7116.00    0.46991   0.50193   -2.000
 7117.00    0.47190   0.50201   -2.000
 7118.00    0.47035   0.50189   -2.000
 7119.00    0.46655   0.50154   -2.000
 7120.00    0.46659   0.50121   -2.000
 7121.00    0.47185   0.50044   -2.000
 7122.00    0.46988   0.49978   -2.000
 7123.00    0.45333   0.49907   -2.000
 7124.00    0.43971   0.49810   -2.000
 7125.00    0.44563   0.49723   -2.000
 7126.00    0.45888   0.49624   -2.000
 7127.00    0.46154   0.49554   -2.000
 7128.00    0.45597   0.49520   -2.000
 7129.00    0.45266   0.49486   -2.000
 7130.00    0.45540   0.49488   -2.000
 7131.00    0.46318   0.49537   -2.000
 7132.00    0.47370   0.49609   -2.000
 7133.00    0.48505   0.49710   -2.000
 7134.00    0.49696   0.49802   -2.000
 7135.00    0.50887   0.49885   -2.000
 7136.00    0.51812   0.49977   -2.000
 7137.00    0.52209   0.50044   -2.000
 7138.00    0.52029   0.50079   -2.000
 7139.00    0.51325   0.50088   -2.000
 7140.00    0.50168   0.50087   -2.000
 7141.00    0.48799   0.50059   -2.000
 7142.00    0.47735   0.50007   -2.000
 7143.00    0.47267   0.49946   -2.000
 7144.00    0.47088   0.49869   -2.000
 7145.00    0.46815   0.49820   -2.000
 7146.00    0.46450   0.49784   -2.000
 7147.00    0.46244   0.49746   -2.000
 7148.00    0.46500   0.49771   -2.000
 7149.00    0.47137   0.49820   -2.000
 7150.00    0.47470   0.49899   -2.000
 7151.00    0.47196   0.50013   -2.000
 7152.00    0.47044   0.50115   -2.000
 7153.00    0.47488   0.50227   -2.000
 7154.00    0.47887   0.50310   -2.000
 7155.00    0.47849   0.50362   -2.000
 7156.00    0.48094   0.50408   -2.000
 7157.00    0.48747   0.50404   -2.000
 7158.00    0.48385   0.50370   -2.000
 7159.00    0.46644   0.50302   -2.000
 7160.00    0.45652   0.50225   -2.000
 7161.00    0.46367   0.50176   -2.000
 7162.00    0.46512   0.50134   -2.000
 7163.00    0.44878   0.50103   -2.000
 7164.00    0.43778   0.50107   -2.000
 7165.00    0.44748   0.50162   -2.000
 7166.00    0.46064   0.50268   -2.000
 7167.00    0.46310   0.50401   -2.000
 7168.00    0.46453   0.50530   -2.000
 7169.00    0.47423   0.50650   -2.000
 7170.00    0.48657   0.50756   -2.000
 7171.00    0.49355   0.50844   -2.000
 7172.00    0.49300   0.50895   -2.000
 7173.00    0.48694   0.50898   -2.000
 7174.00    0.47971   0.50860   -2.000
 7175.00    0.47417   0.50778   -2.000
 7176.00    0.46994   0.50690   -2.000
 7177.00    0.46624   0.50604   -2.000
 7178.00    0.46351   0.50500   -2.000
 7179.00    0.46304   0.50393   -2.000
 7180.00    0.46578   0.50281   -2.000
 7181.00    0.46808   0.50175   -2.000
 7182.00    0.46175   0.50102   -2.000
 7183.00    0.44750   0.50016   -2.000
 7184.00    0.43877   0.49923   -2.000
 7185.00    0.44211   0.49848   -2.000
 7186.00    0.44942   0.49756   -2.000
 7187.00    0.45241   0.49706   -2.000
 7188.00    0.45005   0.49677   -2.000
 7189.00    0.44691   0.49667   -2.000
 7190.00    0.44996   0.49711   -2.000
 7191.00    0.45857   0.49744   -2.000
 7192.00    0.46268   0.49807   -2.000
 7193.00    0.45810   0.49881   -2.000
 7194.00    0.45138   0.49962   -2.000
 7195.00    0.44752   0.50041   -2.000
 7196.00    0.44539   0.50079   -2.000
 7197.00    0.44429   0.50123   -2.000
 7198.00    0.44648   0.50145   -2.000
 7199.00    0.45419   0.50158   -2.000
 7200.00    0.46717   0.50147   -2.000
 7201.00    0.47777   0.50083   -2.000
 7202.00    0.47388   0.50035   -2.000
 7203.00    0.45974   0.49975   -2.000
 7204.00    0.45654   0.49914   -2.000
 7205.00    0.46821   0.49865   -2.000
 7206.00    0.47581   0.49789   -2.000
 7207.00    0.47365   0.49769   -2.000
 7208.00    0.47585   0.49776   -2.000
 7209.00    0.48296   0.49808   -2.000
 7210.00    0.47729   0.49877   -2.000
 7211.00    0.45688   0.49933   -2.000
 7212.00    0.44122   0.50007   -2.000
 7213.00    0.44181   0.50081   -2.000
 7214.00    0.45400   0.50152   -2.000
 7215.00    0.46917   0.50217   -2.000
 7216.00    0.47999   0.50275   -2.000
 7217.00    0.48196   0.50322   -2.000
 7218.00    0.47445   0.50359   -2.000
