###################################################################
## OUTPUT of StarlightChains_v04.for    [Cid@UFSC - 01/Apr/2007] ##
###################################################################

## Some input info
2001I.txt                                [arq_obs]
Base.CB07.vall.4m                        [arq_base]
Masks.EmLines.NEW.gm                     [arq_masks]
StCv04.C11.config                        [arq_config]
   66                                    [N_base]
    0                                    [N_YAV_components = # of components with extra extinction!]
    0                                    [i_FitPowerLaw (1/0 = Yes/No)]
-9.99                                    [alpha_PowerLaw]
CCM                                      [red_law_option]
 1.458241                                [q_norm = A(l_norm)/A(V)]

## (Re)Sampling Parameters
 3741.00                                 [l_ini (A)]
 7218.00                                 [l_fin (A)]
    1.00                                 [dl    (A)]     (OBS: dl_cushion =    50.00 A)

## Normalization info
 4020.00                                 [l_norm (A) - for base]
 4010.00                                 [llow_norm (A) - window for f_obs]
 4060.00                                 [lupp_norm (A) - window for f_obs]
1.390080E-15                             [fobs_norm (in input units)]

## S/N
 3691.00                                 [llow_SN (A) - window for S/N]
 7268.00                                 [lupp_SN (A) - window for S/N]
   9.450                                 [S/N in S/N window]
  11.719                                 [S/N in norm. window]
  21.556                                 [S/N_err in S/N window]
  26.734                                 [S/N_err in norm. window]
  1.0000                                 [fscale_chi2]

## etc...
    -2007261                             [idum_orig]
  2383                                   [NOl_eff]
  2365                                   [Nl_eff]
    18    NSIGMA                         [Ntot_cliped & clip_method]
  2419340                                [Nglobal_steps]
   7                                     [N_chains]
  35                                     [NEX0s_base = N_base in EX0s-fits]
 0   0   1        6   2.0   9.913E+01    [Clip-Bug, RC-Crash & Burn-In warning-flags, n_censored_weights, wei_nsig_threshold & wei_limit]
    21     20.464     19.968      0.497  [idt_all, wdt_TotTime, wdt_UsrTime & wdt_SysTime (sec)]

## Synthesis Results - Best model ##

 7.20908E-01                             [chi2/Nl_eff]
     2.50627                             [adev (%)]

    97.11969                             [sum-of-x (%)]
 2.90549E-15                             [Flux_tot (units of input spectrum!)]
 1.97354E-11                             [Mini_tot (???)]
 1.06109E-11                             [Mcor_tot (???)]

  17.39                                  [v0_min  (km/s)]
 192.15                                  [vd_min  (km/s)]
 0.5707                                  [AV_min  (mag)]
 0.0000                                  [YAV_min (mag)]

# j     x_j(%)      Mini_j(%)     Mcor_j(%)     age_j(yr)     Z_j      (L/M)_j    YAV?  Mstars   component_j        a/Fe...       SSP_chi2r SSP_adev(%)   SSP_AV   SSP_x(%)
  1      1.3417     1.8591E-02    3.4577E-02    1.000000E+06  0.00400  1.094E-02    0   1.0000   age020_m42            0.0000     2.7243E+00     6.1187   2.9312    75.2127
  2      0.0000     0.0000E+00    0.0000E+00    3.160000E+06  0.00400  4.007E-02    0   0.9999   age045_m42            0.0000     2.2932E+00     5.2307   2.1655    82.1261
  3      0.0000     0.0000E+00    0.0000E+00    5.010000E+06  0.00400  2.539E-02    0   0.9488   age055_m42            0.0000     2.3274E+00     5.4175   2.4944    79.6939
  4      0.0005     2.8257E-06    4.8456E-06    6.610000E+06  0.00400  2.620E-02    0   0.9220   age061_m42            0.0000     2.0339E+00     4.9001   2.0710    83.1796
  5      2.9731     3.4091E-02    5.6191E-02    1.000000E+07  0.00400  1.322E-02    0   0.8862   age070_m42            0.0000     1.2267E+00     3.3963   1.6681    90.1257
  6      3.0162     5.8000E-02    9.2460E-02    1.445000E+07  0.00400  7.883E-03    0   0.8571   age078_m42            0.0000     1.4368E+00     3.8469   2.0230    86.6320
  7      5.6746     1.6382E-01    2.4905E-01    2.512000E+07  0.00400  5.251E-03    0   0.8174   age090_m42            0.0000     1.1283E+00     3.1583   1.5114    91.8191
  8      3.8372     1.5941E-01    2.3277E-01    4.000000E+07  0.00400  3.649E-03    0   0.7851   age104_m42            0.0000     1.0725E+00     3.0315   1.2890    92.3817
  9      3.9094     1.9129E-01    2.7143E-01    5.500000E+07  0.00400  3.098E-03    0   0.7629   age110_m42            0.0000     1.2722E+00     3.5034   1.4900    90.3241
 10      0.8659     5.8911E-02    7.8966E-02    1.015200E+08  0.00400  2.228E-03    0   0.7207   age116_m42            0.0000     1.4434E+00     3.9308   1.5388    89.2706
 11      0.0000     0.0000E+00    0.0000E+00    2.861200E+08  0.00400  1.093E-03    0   0.6648   age125_m42            0.0000     1.3881E+00     3.4323   0.9189    94.5583
 12      0.0000     0.0000E+00    0.0000E+00    5.088000E+08  0.00400  6.597E-04    0   0.6365   age130_m42            0.0000     1.5189E+00     3.9796   0.9578    93.0781
 13      0.0000     0.0000E+00    0.0000E+00    1.434000E+09  0.00400  2.132E-04    0   0.5798   age139_m42            0.0000     1.2797E+00     3.9565   0.0001    94.1499
 14      0.0000     0.0000E+00    0.0000E+00    4.250000E+09  0.00400  5.895E-05    0   0.5377   age158_m42            0.0000     1.7342E+00     5.2690  -0.3400    86.1689
 15      0.4695     2.0276E+00    1.9656E+00    7.500000E+09  0.00400  3.510E-05    0   0.5212   age171_m42            0.0000     1.9926E+00     5.8276  -0.4903    84.1305
 16      0.0000     0.0000E+00    0.0000E+00    1.300000E+10  0.00400  2.005E-05    0   0.5034   age193_m42            0.0000     2.2912E+00     6.3663  -0.6197    82.3382
 17      1.4596     1.4509E+01    1.3403E+01    1.800000E+10  0.00400  1.525E-05    0   0.4967   age213_m42            0.0000     2.2825E+00     6.2707  -0.6513    82.2788
 18      0.3788     4.6385E-03    8.6272E-03    1.000000E+06  0.00800  1.238E-02    0   1.0000   age020_m52            0.0000     2.7164E+00     6.1167   2.9284    75.3252
 19      0.0001     3.3552E-07    6.2191E-07    3.160000E+06  0.00800  3.074E-02    0   0.9966   age045_m52            0.0000     2.6940E+00     6.0619   2.8507    76.0182
 20      0.0000     0.0000E+00    0.0000E+00    5.010000E+06  0.00800  2.668E-02    0   0.9443   age055_m52            0.0000     2.2953E+00     5.4196   2.5771    78.9338
 21      0.0001     6.7935E-07    1.1595E-06    6.610000E+06  0.00800  2.136E-02    0   0.9177   age061_m52            0.0000     1.1399E+00     3.4219   1.1848    90.3030
 22      1.4865     1.8546E-02    3.0449E-02    1.000000E+07  0.00800  1.215E-02    0   0.8827   age070_m52            0.0000     1.1986E+00     3.3664   1.8248    90.9678
 23      0.4282     7.4465E-03    1.1844E-02    1.445000E+07  0.00800  8.717E-03    0   0.8552   age078_m52            0.0000     1.2926E+00     3.6328   1.9778    88.2818
 24      0.0000     0.0000E+00    0.0000E+00    2.512000E+07  0.00800  5.592E-03    0   0.8162   age090_m52            0.0000     1.0154E+00     2.9941   1.5662    93.3730
 25      2.0154     7.8419E-02    1.1436E-01    4.000000E+07  0.00800  3.896E-03    0   0.7841   age104_m52            0.0000     1.0324E+00     2.9840   1.4954    93.4183
 26      0.0000     0.0000E+00    0.0000E+00    1.015200E+08  0.00800  2.148E-03    0   0.7226   age116_m52            0.0000     1.2357E+00     3.4478   1.4812    91.1439
 27      0.0000     0.0000E+00    0.0000E+00    2.861200E+08  0.00800  9.925E-04    0   0.6683   age125_m52            0.0000     1.3079E+00     3.7872   1.0203    94.0478
 28      0.0000     0.0000E+00    0.0000E+00    9.047900E+08  0.00800  3.141E-04    0   0.6138   age135_m52            0.0000     1.6820E+00     4.6671   0.2817    95.2389
 29      0.0000     0.0000E+00    0.0000E+00    1.434000E+09  0.00800  1.719E-04    0   0.5853   age139_m52            0.0000     1.8977E+00     4.9652  -0.2777    92.3496
 30      0.0000     0.0000E+00    0.0000E+00    2.500000E+09  0.00800  7.872E-05    0   0.5600   age150_m52            0.0000     2.2659E+00     6.1808  -0.4559    85.9663
 31      0.0000     0.0000E+00    0.0000E+00    4.250000E+09  0.00800  4.336E-05    0   0.5426   age158_m52            0.0000     2.2599E+00     6.2377  -0.4652    84.9108
 32      0.0000     0.0000E+00    0.0000E+00    6.250000E+09  0.00800  3.159E-05    0   0.5319   age166_m52            0.0000     2.7578E+00     7.0442  -0.6207    83.0777
 33      0.0000     0.0000E+00    0.0000E+00    1.300000E+10  0.00800  1.361E-05    0   0.5073   age193_m52            0.0000     3.5098E+00     8.2281  -1.0000    79.0753
 34      2.3113     3.5441E+01    3.2893E+01    1.800000E+10  0.00800  9.886E-06    0   0.4990   age213_m52            0.0000     4.2688E+00     9.3301  -1.0000    74.7178
 35      0.0605     5.9382E-04    1.1045E-03    1.000000E+06  0.02000  1.544E-02    0   1.0000   age020_m62            0.0000     2.7332E+00     6.1416   2.9252    75.4665
 36      0.0000     0.0000E+00    0.0000E+00    3.160000E+06  0.02000  3.762E-02    0   0.9858   age045_m62            0.0000     2.7522E+00     6.1491   2.8685    75.9782
 37      3.0143     1.3863E-02    2.4088E-02    5.010000E+06  0.02000  3.296E-02    0   0.9342   age055_m62            0.0000     2.2647E+00     5.4243   2.4620    80.4105
 38     21.9634     2.8851E-01    4.7548E-01    8.710000E+06  0.02000  1.154E-02    0   0.8861   age067_m62            0.0000     2.4915E+00     5.2081   1.0775   103.1676
 39      0.0000     0.0000E+00    0.0000E+00    1.445000E+07  0.02000  7.663E-03    0   0.8472   age078_m62            0.0000     1.3289E+00     3.3961   1.4064    96.1941
 40      0.0006     1.9611E-05    2.9541E-05    2.512000E+07  0.02000  4.532E-03    0   0.8099   age090_m62            0.0000     1.4625E+00     3.5496   1.3821    96.7824
 41      3.2089     1.7799E-01    2.5143E-01    5.500000E+07  0.02000  2.733E-03    0   0.7595   age110_m62            0.0000     9.8159E-01     2.9968   1.4818    92.5444
 42      1.3028     1.4426E-01    1.8741E-01    1.609000E+08  0.02000  1.369E-03    0   0.6985   age120_m62            0.0000     1.1947E+00     3.5394   1.3638    93.2053
 43      0.2435     4.0950E-02    5.1136E-02    2.861200E+08  0.02000  9.013E-04    0   0.6714   age125_m62            0.0000     1.3429E+00     3.8943   1.1281    95.2126
 44      0.0000     0.0000E+00    0.0000E+00    5.088000E+08  0.02000  5.028E-04    0   0.6449   age130_m62            0.0000     1.8072E+00     4.9050   0.8240    94.4106
 45      0.0000     0.0000E+00    0.0000E+00    9.047900E+08  0.02000  2.428E-04    0   0.6179   age135_m62            0.0000     1.8397E+00     5.3728   0.2864    91.7098
 46      0.0000     0.0000E+00    0.0000E+00    1.434000E+09  0.02000  1.263E-04    0   0.5908   age139_m62            0.0000     2.0127E+00     5.8123  -0.1292    89.0864
 47      0.0000     0.0000E+00    0.0000E+00    2.500000E+09  0.02000  5.985E-05    0   0.5673   age150_m62            0.0000     2.6618E+00     6.9992  -0.4217    84.8283
 48      4.6394     2.1501E+01    2.1866E+01    4.250000E+09  0.02000  3.271E-05    0   0.5468   age158_m62            0.0000     3.5224E+00     8.2451  -0.6568    81.3521
 49      0.0000     0.0000E+00    0.0000E+00    1.000000E+10  0.02000  1.360E-05    0   0.5167   age181_m62            0.0000     4.6458E+00     9.5772  -0.9318    78.3340
 50      0.0000     0.0000E+00    0.0000E+00    1.800000E+10  0.02000  7.124E-06    0   0.5013   age213_m62            0.0000     5.7010E+00    10.8972  -1.0000    72.6329
 51      0.6334     3.7044E-03    6.8884E-03    1.000000E+06  0.05000  2.592E-02    0   0.9998   age020_m72            0.0000     2.7635E+00     6.1853   2.9142    75.5560
 52      0.0000     0.0000E+00    0.0000E+00    3.160000E+06  0.05000  4.845E-02    0   0.9577   age045_m72            0.0000     2.6447E+00     5.9548   2.7502    77.0769
 53      0.0000     0.0000E+00    0.0000E+00    5.010000E+06  0.05000  3.072E-02    0   0.9147   age055_m72            0.0000     1.8511E+00     4.3265   2.1080    87.6544
 54      0.0000     0.0000E+00    0.0000E+00    6.610000E+06  0.05000  1.455E-02    0   0.8877   age061_m72            0.0000     8.0269E+00     8.1927   1.0962   106.9569
 55      0.0000     0.0000E+00    0.0000E+00    1.000000E+07  0.05000  9.074E-03    0   0.8524   age070_m72            0.0000     2.9288E+00     5.3301   2.3378    86.1186
 56      0.0000     0.0000E+00    0.0000E+00    2.512000E+07  0.05000  4.250E-03    0   0.7902   age090_m72            0.0000     2.1129E+00     4.1762   1.9727    90.1463
 57      0.0000     0.0000E+00    0.0000E+00    4.000000E+07  0.05000  3.087E-03    0   0.7618   age104_m72            0.0000     2.2406E+00     3.9836   1.7088    93.2670
 58      0.0005     4.1486E-05    5.4753E-05    1.015200E+08  0.05000  1.700E-03    0   0.7096   age116_m72            0.0000     1.2121E+00     3.3491   1.4776    94.2102
 59      0.2522     5.1769E-02    6.3866E-02    2.861200E+08  0.05000  7.384E-04    0   0.6633   age125_m72            0.0000     1.4526E+00     4.2793   1.0281    95.0660
 60     20.4055     8.0996E+00    9.5991E+00    5.088000E+08  0.05000  3.819E-04    0   0.6372   age130_m72            0.0000     1.7075E+00     5.1966   0.6057    93.3308
 61     10.5274     9.5217E+00    1.0821E+01    9.047900E+08  0.05000  1.676E-04    0   0.6110   age135_m72            0.0000     2.5243E+00     6.9235   0.0197    86.9764
 62      0.0000     0.0000E+00    0.0000E+00    1.434000E+09  0.05000  8.837E-05    0   0.5874   age139_m72            0.0000     2.8972E+00     7.2375  -0.4160    85.8096
 63      0.0000     0.0000E+00    0.0000E+00    2.500000E+09  0.05000  4.233E-05    0   0.5598   age150_m72            0.0000     3.9188E+00     8.6842  -0.6327    81.1032
 64      0.6992     7.3859E+00    7.2106E+00    6.250000E+09  0.05000  1.435E-05    0   0.5249   age166_m72            0.0000     5.1948E+00    10.0836  -1.0000    76.9389
 65      0.0000     0.0000E+00    0.0000E+00    1.300000E+10  0.05000  6.513E-06    0   0.5036   age193_m72            0.0000     7.1919E+00    12.3451  -1.0000    67.8152
 66      0.0000     0.0000E+00    0.0000E+00    1.800000E+10  0.05000  4.527E-06    0   0.4945   age213_m72            0.0000     8.9938E+00    13.8544  -1.0000    62.5815


## Synthesis Results - Average & Chains ##

# j      x_j: min, <> & last-chain-values for 1 ...  7 chains
  1      1.3417      1.5219      1.4758      1.5718      1.2975      1.4947      1.3635      2.0209      1.5120
  2      0.0000      0.1750      0.0000      0.0000      0.0000      0.0000      0.1321      0.0000      0.2733
  3      0.0000      0.0907      0.1262      0.0000      0.0000      0.0000      0.0000      0.0000      0.0000
  4      0.0005      0.1174      0.0000      0.0778      0.0000      0.4516      0.0072      0.0000      0.0000
  5      2.9731      2.9064      1.8629      2.9404      3.0962      2.8054      2.5062      2.5342      3.1159
  6      3.0162      2.7900      2.9071      2.4199      2.7387      2.7497      2.8768      2.4872      2.7199
  7      5.6746      4.1252      4.5005      4.6531      4.9141      4.6579      3.9477      4.2467      4.4483
  8      3.8372      2.8440      2.5739      3.0298      3.4397      2.9176      3.4104      2.7195      3.1530
  9      3.9094      2.7051      2.6628      2.7980      3.1908      2.9655      2.6092      3.3678      2.6796
 10      0.8659      0.6733      0.3300      0.6468      1.1233      0.7136      0.6687      0.6104      0.8187
 11      0.0000      0.3912      0.0000      0.2535      0.0000      0.3907      0.0000      0.3492      0.0000
 12      0.0000      0.2307      0.2541      0.1105      0.0000      0.0000      0.0000      0.0000      0.0000
 13      0.0000      3.5704      3.9574      3.1642      3.2757      2.5806      3.1452      3.5001      3.6319
 14      0.0000      0.0392      0.0000      0.0000      0.0000      0.0000      0.0000      0.0000      0.0493
 15      0.4695      1.0823      0.9355      0.6970      1.0990      1.0586      1.1360      0.8776      1.2965
 16      0.0000      0.3215      0.3450      0.4171      0.0535      0.2795      0.2756      0.3208      0.0000
 17      1.4596      1.5801      1.5252      1.6683      1.6125      1.3642      1.5278      1.4793      1.4853
 18      0.3788      0.8675      0.8274      0.7637      0.6693      0.6890      0.9553      0.8278      1.3277
 19      0.0001      0.4778      0.4598      0.8216      0.2932      0.6584      0.1217      0.5190      0.3480
 20      0.0000      0.1077      0.2131      0.0000      0.0437      0.0000      0.0000      0.2884      0.0000
 21      0.0001      0.6270      0.7108      0.4684      0.0000      0.5881      0.0000      0.6395      1.2672
 22      1.4865      2.3109      2.3647      2.2028      2.5417      2.2012      2.2474      2.1678      2.1671
 23      0.4282      0.8303      0.7858      1.2022      0.9757      0.6830      0.9860      1.1161      1.5857
 24      0.0000      0.6717      0.9100      0.3938      1.0096      0.0000      0.0185      0.8102      0.8794
 25      2.0154      1.7793      1.6566      2.1200      2.1643      1.6298      1.3814      1.2906      1.5809
 26      0.0000      0.2894      0.0665      0.2918      0.0000      0.3580      2.3459      0.1965      0.0000
 27      0.0000      0.3706      1.4575      0.0000      0.2514      0.0326      0.2894      0.0000      0.0000
 28      0.0000      0.1077      0.0000      0.0000      0.0000      0.0000      0.0000      0.0000      0.0662
 29      0.0000      0.0463      0.0000      0.0000      0.0000      0.0000      0.0000      0.0000      0.0000
 30      0.0000      0.0186      0.0000      0.0000      0.0459      0.0000      0.0000      0.0000      0.0000
 31      0.0000      0.0236      0.0000      0.0000      0.0000      0.0000      0.0000      0.0000      0.0000
 32      0.0000      0.0125      0.0000      0.0000      0.0000      0.0000      0.0000      0.0000      0.0000
 33      0.0000      0.3090      0.3124      0.4458      0.2897      0.3129      0.3880      0.2749      0.3225
 34      2.3113      2.1834      2.1458      2.0991      2.4082      1.9666      2.1464      2.2096      2.3167
 35      0.0605      0.7355      0.7107      0.8557      0.4364      1.0778      0.6608      0.1229      0.9174
 36      0.0000      0.2062      0.2096      0.0313      0.1605      0.0000      0.0000      0.2628      0.0000
 37      3.0143      3.8776      3.7330      3.7561      3.7862      3.2195      4.0068      4.0048      3.7551
 38     21.9634     14.4612     16.1021     15.1497     14.4647     15.2274     16.5136     14.7770     14.4240
 39      0.0000      0.1471      0.0000      0.1003      0.5263      0.2990      0.0000      0.0000      0.2864
 40      0.0006      0.3731      0.0267      0.2671      0.4422      1.8326      0.4682      0.3135      0.1593
 41      3.2089      2.7531      4.1016      2.9561      2.7052      2.0288      2.5270      3.1858      2.4856
 42      1.3028      1.9597      2.3952      1.4012      1.5685      2.0123      2.1575      1.8373      0.6504
 43      0.2435      0.4599      0.0000      0.3560      0.1945      0.4554      0.0000      0.4268      0.7510
 44      0.0000      0.2710      0.0000      0.0000      0.0707      0.0000      0.2964      0.0000      0.0698
 45      0.0000      0.1481      0.0000      0.0000      0.0000      0.0000      0.1060      0.0411      0.0000
 46      0.0000      0.0518      0.0000      0.0000      0.0000      0.0362      0.2114      0.0000      0.0000
 47      0.0000      1.2097      1.2266      1.1242      1.1192      1.2489      1.0834      0.9306      1.1840
 48      4.6394      4.1069      4.3098      4.1383      4.2587      4.3019      4.1641      4.1762      4.0905
 49      0.0000      0.0320      0.0000      0.0000      0.0000      0.0000      0.0000      0.2230      0.0000
 50      0.0000      0.1671      0.0000      0.2632      0.1833      0.2112      0.1340      0.3507      0.0000
 51      0.6334      1.2340      0.9151      1.3454      1.2563      1.4408      0.7286      0.8955      1.1925
 52      0.0000      0.6448      1.0803      0.6419      0.1789      0.5546      0.5011      0.7201      0.4593
 53      0.0000      0.0636      0.0000      0.0000      0.0000      0.0000      0.0390      0.1688      0.0000
 54      0.0000      0.0563      0.0000      0.0256      0.0000      0.0000      0.0000      0.0000      0.0000
 55      0.0000      0.0580      0.0000      0.0404      0.0000      0.0000      0.0915      0.0000      0.0000
 56      0.0000      0.0920      0.0000      0.0745      0.0878      0.0000      0.0000      0.0000      0.0959
 57      0.0000      0.1146      0.0000      0.0000      0.0000      0.0000      0.0000      0.0124      0.0000
 58      0.0005      1.7824      1.3083      1.7135      2.4725      1.3897      1.7952      2.1095      1.9530
 59      0.2522      0.4829      0.0047      1.2408      0.7620      0.8406      0.7040      0.4366      0.8857
 60     20.4055     16.0096     16.2556     16.1531     15.8629     17.8731     17.3204     18.1072     16.7112
 61     10.5274      8.4540      8.6692      8.9049      9.2301      8.4190      8.2071      8.2727      9.0483
 62      0.0000      0.0351      0.0000      0.0234      0.0000      0.0000      0.0000      0.0000      0.0515
 63      0.0000      0.0247      0.0000      0.1924      0.0000      0.1610      0.0000      0.0000      0.0000
 64      0.6992      0.6671      0.6504      0.7796      0.6031      0.7188      0.6775      0.5889      0.7175
 65      0.0000      0.0047      0.0000      0.0000      0.0000      0.0000      0.0185      0.0000      0.0000
 66      0.0000      0.0031      0.0000      0.0000      0.0000      0.0000      0.0000      0.0000      0.0012

# j      m_j: min, <> & last-chain-values for 1 ...  7 chains
  1  3.4577E-02  3.5233E-02  3.5671E-02  3.5517E-02  2.9800E-02  3.5780E-02  3.1953E-02  4.5828E-02  3.6105E-02
  2  0.0000E+00  1.1059E-03  0.0000E+00  0.0000E+00  0.0000E+00  0.0000E+00  8.4533E-04  0.0000E+00  1.7814E-03
  3  0.0000E+00  8.5873E-04  1.2470E-03  0.0000E+00  0.0000E+00  0.0000E+00  0.0000E+00  0.0000E+00  0.0000E+00
  4  4.8456E-06  1.0465E-03  0.0000E+00  6.7664E-04  0.0000E+00  4.1617E-03  6.5008E-05  0.0000E+00  0.0000E+00
  5  5.6191E-02  4.9343E-02  3.3021E-02  4.8727E-02  5.2152E-02  4.9250E-02  4.3073E-02  4.2144E-02  5.4566E-02
  6  9.2460E-02  7.6829E-02  8.3578E-02  6.5042E-02  7.4822E-02  7.8294E-02  8.0193E-02  6.7089E-02  7.7256E-02
  7  2.4905E-01  1.6264E-01  1.8525E-01  1.7905E-01  1.9221E-01  1.8989E-01  1.5755E-01  1.6400E-01  1.8089E-01
  8  2.3277E-01  1.5497E-01  1.4643E-01  1.6115E-01  1.8596E-01  1.6439E-01  1.8812E-01  1.4515E-01  1.7722E-01
  9  2.7143E-01  1.6871E-01  1.7339E-01  1.7033E-01  1.9743E-01  1.9125E-01  1.6473E-01  2.0574E-01  1.7238E-01
 10  7.8966E-02  5.5162E-02  2.8228E-02  5.1722E-02  9.1299E-02  6.0448E-02  5.5459E-02  4.8986E-02  6.9182E-02
 11  0.0000E+00  6.0267E-02  0.0000E+00  3.8110E-02  0.0000E+00  6.2231E-02  0.0000E+00  5.2684E-02  0.0000E+00
 12  0.0000E+00  5.6376E-02  6.4820E-02  2.6364E-02  0.0000E+00  0.0000E+00  0.0000E+00  0.0000E+00  0.0000E+00
 13  0.0000E+00  2.4592E+00  2.8457E+00  2.1272E+00  2.2384E+00  1.8379E+00  2.1929E+00  2.3614E+00  2.5802E+00
 14  0.0000E+00  9.0472E-02  0.0000E+00  0.0000E+00  0.0000E+00  0.0000E+00  0.0000E+00  0.0000E+00  1.1757E-01
 15  1.9656E+00  4.0702E+00  3.6732E+00  2.5583E+00  4.1005E+00  4.1165E+00  4.3246E+00  3.2328E+00  5.0291E+00
 16  0.0000E+00  2.0444E+00  2.2904E+00  2.5886E+00  3.3770E-01  1.8377E+00  1.7739E+00  1.9982E+00  0.0000E+00
 17  1.3403E+01  1.3034E+01  1.3136E+01  1.3432E+01  1.3197E+01  1.1636E+01  1.2758E+01  1.1953E+01  1.2638E+01
 18  8.6272E-03  1.7747E-02  1.7672E-02  1.5250E-02  1.3585E-02  1.4575E-02  1.9784E-02  1.6588E-02  2.8016E-02
 19  6.2191E-07  3.9235E-03  3.9416E-03  6.5848E-03  2.3882E-03  5.5898E-03  1.0112E-03  4.1739E-03  2.9472E-03
 20  0.0000E+00  9.6528E-04  1.9940E-03  0.0000E+00  3.8845E-04  0.0000E+00  0.0000E+00  2.5322E-03  0.0000E+00
 21  1.1595E-06  6.8226E-03  8.0744E-03  4.9748E-03  0.0000E+00  6.6175E-03  0.0000E+00  6.8164E-03  1.4223E-02
 22  3.0449E-02  4.2520E-02  4.5426E-02  3.9561E-02  4.6398E-02  4.1879E-02  4.1860E-02  3.9071E-02  4.1130E-02
 23  1.1844E-02  2.0631E-02  2.0385E-02  2.9157E-02  2.4051E-02  1.7549E-02  2.4800E-02  2.7164E-02  4.0640E-02
 24  0.0000E+00  2.4830E-02  3.5122E-02  1.4208E-02  3.7028E-02  0.0000E+00  6.9100E-04  2.9338E-02  3.3530E-02
 25  1.1436E-01  9.0693E-02  8.8157E-02  1.0547E-01  1.0945E-01  8.5898E-02  7.1276E-02  6.4437E-02  8.3115E-02
 26  0.0000E+00  2.4659E-02  5.9192E-03  2.4264E-02  0.0000E+00  3.1540E-02  2.0233E-01  1.6398E-02  0.0000E+00
 27  0.0000E+00  6.3199E-02  2.5951E-01  0.0000E+00  4.2531E-02  5.7530E-03  4.9962E-02  0.0000E+00  0.0000E+00
 28  0.0000E+00  5.3326E-02  0.0000E+00  0.0000E+00  0.0000E+00  0.0000E+00  0.0000E+00  0.0000E+00  3.3802E-02
 29  0.0000E+00  3.9951E-02  0.0000E+00  0.0000E+00  0.0000E+00  0.0000E+00  0.0000E+00  0.0000E+00  0.0000E+00
 30  0.0000E+00  3.3566E-02  0.0000E+00  0.0000E+00  8.2094E-02  0.0000E+00  0.0000E+00  0.0000E+00  0.0000E+00
 31  0.0000E+00  7.4804E-02  0.0000E+00  0.0000E+00  0.0000E+00  0.0000E+00  0.0000E+00  0.0000E+00  0.0000E+00
 32  0.0000E+00  5.3222E-02  0.0000E+00  0.0000E+00  0.0000E+00  0.0000E+00  0.0000E+00  0.0000E+00  0.0000E+00
 33  0.0000E+00  2.9174E+00  3.0791E+00  4.1076E+00  2.7129E+00  3.0545E+00  3.7080E+00  2.5421E+00  3.1405E+00
 34  3.2893E+01  2.7912E+01  2.8639E+01  2.6192E+01  3.0542E+01  2.5996E+01  2.7776E+01  2.7669E+01  3.0548E+01
 35  1.1045E-03  1.2064E-02  1.2170E-02  1.3701E-02  7.1012E-03  1.8281E-02  1.0972E-02  1.9750E-03  1.5523E-02
 36  0.0000E+00  1.3687E-03  1.4522E-03  2.0296E-04  1.0565E-03  0.0000E+00  0.0000E+00  1.7086E-03  0.0000E+00
 37  2.4088E-02  2.7835E-02  2.7977E-02  2.6317E-02  2.6964E-02  2.3897E-02  2.9116E-02  2.8159E-02  2.7804E-02
 38  4.7548E-01  2.8123E-01  3.2693E-01  2.8756E-01  2.7908E-01  3.0620E-01  3.2509E-01  2.8149E-01  2.8933E-01
 39  0.0000E+00  4.1189E-03  0.0000E+00  2.7415E-03  1.4620E-02  8.6557E-03  0.0000E+00  0.0000E+00  8.2717E-03
 40  2.9541E-05  1.6887E-02  1.2632E-03  1.1800E-02  1.9858E-02  8.5767E-02  2.1451E-02  1.3897E-02  7.4360E-03
 41  2.5143E-01  1.9377E-01  3.0140E-01  2.0308E-01  1.8890E-01  1.4765E-01  1.8004E-01  2.1964E-01  1.8045E-01
 42  1.8741E-01  2.5323E-01  3.2315E-01  1.7674E-01  2.0108E-01  2.6888E-01  2.8223E-01  2.3257E-01  8.6693E-02
 43  5.1136E-02  8.6758E-02  0.0000E+00  6.5563E-02  3.6412E-02  8.8844E-02  0.0000E+00  7.8867E-02  1.4614E-01
 44  0.0000E+00  8.8046E-02  0.0000E+00  0.0000E+00  2.2770E-02  0.0000E+00  9.7453E-02  0.0000E+00  2.3385E-02
 45  0.0000E+00  9.5444E-02  0.0000E+00  0.0000E+00  0.0000E+00  0.0000E+00  6.9140E-02  2.5979E-02  0.0000E+00
 46  0.0000E+00  6.1422E-02  0.0000E+00  0.0000E+00  0.0000E+00  4.4345E-02  2.5358E-01  0.0000E+00  0.0000E+00
 47  0.0000E+00  2.9041E+00  3.0744E+00  2.6343E+00  2.6657E+00  3.1001E+00  2.6328E+00  2.1882E+00  2.9318E+00
 48  2.1866E+01  1.7388E+01  1.9050E+01  1.7101E+01  1.7888E+01  1.8833E+01  1.7847E+01  1.7319E+01  1.7863E+01
 49  0.0000E+00  3.0747E-01  0.0000E+00  0.0000E+00  0.0000E+00  0.0000E+00  0.0000E+00  2.1021E+00  0.0000E+00
 50  0.0000E+00  2.9779E+00  0.0000E+00  4.5778E+00  3.2415E+00  3.8926E+00  2.4171E+00  6.1215E+00  0.0000E+00
 51  6.8884E-03  1.2055E-02  9.3333E-03  1.2829E-02  1.2176E-02  1.4554E-02  7.2055E-03  8.5692E-03  1.2017E-02
 52  0.0000E+00  3.2278E-03  5.6463E-03  3.1366E-03  8.8858E-04  2.8710E-03  2.5397E-03  3.5313E-03  2.3717E-03
 53  0.0000E+00  4.7951E-04  0.0000E+00  0.0000E+00  0.0000E+00  0.0000E+00  2.9750E-04  1.2467E-03  0.0000E+00
 54  0.0000E+00  8.7010E-04  0.0000E+00  3.8629E-04  0.0000E+00  0.0000E+00  0.0000E+00  0.0000E+00  0.0000E+00
 55  0.0000E+00  1.3811E-03  0.0000E+00  9.3823E-04  0.0000E+00  0.0000E+00  2.2037E-03  0.0000E+00  0.0000E+00
 56  0.0000E+00  4.3322E-03  0.0000E+00  3.4225E-03  4.1033E-03  0.0000E+00  0.0000E+00  0.0000E+00  4.6589E-03
 57  0.0000E+00  7.1597E-03  0.0000E+00  0.0000E+00  0.0000E+00  0.0000E+00  0.0000E+00  7.5901E-04  0.0000E+00
 58  5.4753E-05  1.8842E-01  1.4440E-01  1.7681E-01  2.5932E-01  1.5191E-01  1.9211E-01  2.1844E-01  2.1296E-01
 59  6.3866E-02  1.0987E-01  1.1249E-03  2.7554E-01  1.7200E-01  1.9775E-01  1.6214E-01  9.7301E-02  2.0784E-01
 60  9.5991E+00  6.7652E+00  7.1717E+00  6.6624E+00  6.6504E+00  7.8097E+00  7.4091E+00  7.4950E+00  7.2839E+00
 61  1.0821E+01  7.8055E+00  8.3568E+00  8.0251E+00  8.4549E+00  8.0378E+00  7.6708E+00  7.4819E+00  8.6172E+00
 62  0.0000E+00  5.9087E-02  0.0000E+00  3.8484E-02  0.0000E+00  0.0000E+00  0.0000E+00  0.0000E+00  8.9424E-02
 63  0.0000E+00  8.2867E-02  0.0000E+00  6.2910E-01  0.0000E+00  5.5750E-01  0.0000E+00  0.0000E+00  0.0000E+00
 64  7.2106E+00  6.1803E+00  6.2907E+00  7.0493E+00  5.5429E+00  6.8857E+00  6.3537E+00  5.3438E+00  6.8558E+00
 65  0.0000E+00  9.2364E-02  0.0000E+00  0.0000E+00  0.0000E+00  0.0000E+00  3.6742E-01  0.0000E+00  0.0000E+00
 66  0.0000E+00  8.6151E-02  0.0000E+00  0.0000E+00  0.0000E+00  0.0000E+00  0.0000E+00  0.0000E+00  3.3831E-02

# AV, chi2 & Mass for <> & i_chain = 1 ...  7 solutions
AV       0.5707      0.5492      0.5520      0.5459      0.5442      0.5586      0.5483      0.5488      0.5496
chi2 7.2091E-01  7.3817E-01  7.3501E-01  7.3491E-01  7.3485E-01  7.3418E-01  7.3481E-01  7.3479E-01  7.3564E-01
Mass 1.0611E-11  1.1476E-11  1.1033E-11  1.1706E-11  1.1490E-11  1.1240E-11  1.1323E-11  1.1710E-11  1.1132E-11
  17.39                                  [v0_min (km/s) before EX0s...]
 192.15                                  [vd_min (km/s) before EX0s...]


## Synthetic spectrum (Best Model) ##l_obs f_obs f_syn wei
 3478    [Nl_obs]
 3741.00    0.50636   0.69915    0.000
 3742.00    0.45891   0.70490    0.000
 3743.00    0.51006   0.69938    0.000
 3744.00    0.59273   0.68392    0.000
 3745.00    0.57509   0.66055   17.389
 3746.00    0.48242   0.63194   -1.000
 3747.00    0.46712   0.60178   21.408
 3748.00    0.54537   0.57502   18.336
 3749.00    0.60070   0.55728   16.647
 3750.00    0.58134   0.55324   17.202
 3751.00    0.52466   0.56477   19.060
 3752.00    0.49109   0.58982   20.363
 3753.00    0.52249   0.62298   19.139
 3754.00    0.58979   0.65739   16.955
 3755.00    0.63011   0.68711   15.870
 3756.00    0.64297   0.70883   15.553
 3757.00    0.66794   0.72234   14.972
 3758.00    0.70662   0.72974   14.152
 3759.00    0.72800   0.73383   13.736
 3760.00    0.70467   0.73652   14.191
 3761.00    0.63815   0.73801   15.670
 3762.00    0.58603   0.73708   17.064
 3763.00    0.60497   0.73187   16.530
 3764.00    0.66259   0.72075   15.092
 3765.00    0.68943   0.70293   14.505
 3766.00    0.66828   0.67894   14.964
 3767.00    0.62834   0.65088   15.915
 3768.00    0.61847   0.62254   16.169
 3769.00    0.66037   0.59888   15.143
 3770.00    0.70185   0.58490   14.248
 3771.00    0.68553   0.58406   14.587
 3772.00    0.62802   0.59699   15.923
 3773.00    0.58308   0.62129   17.150
 3774.00    0.59201   0.65266   16.892
 3775.00    0.65432   0.68661   15.283
 3776.00    0.71234   0.71981   14.038
 3777.00    0.73159   0.75037   13.669
 3778.00    0.76250   0.77744   13.115
 3779.00    0.83937   0.80053   11.914
 3780.00    0.90481   0.81915   11.052
 3781.00    0.91230   0.83277   10.961
 3782.00    0.89876   0.84089   11.126
 3783.00    0.90106   0.84323   11.098
 3784.00    0.90090   0.83990   11.100
 3785.00    0.88218   0.83157   11.336
 3786.00    0.86553   0.81948   11.554
 3787.00    0.86983   0.80519   11.496
 3788.00    0.88689   0.78997   11.275
 3789.00    0.88125   0.77416   11.348
 3790.00    0.80540   0.75697   12.416
 3791.00    0.67501   0.73679   14.815
 3792.00    0.58410   0.71194   17.120
 3793.00    0.58468   0.68169   17.103
 3794.00    0.63856   0.64704   15.660
 3795.00    0.67434   0.61110   14.829
 3796.00    0.63554   0.57898   15.735
 3797.00    0.56411   0.55661   17.727
 3798.00    0.58112   0.54906   17.208
 3799.00    0.68097   0.55866   14.685
 3800.00    0.71998   0.58391   13.889
 3801.00    0.66424   0.61988   15.055
 3802.00    0.62185   0.65998   16.081
 3803.00    0.64716   0.69820   15.452
 3804.00    0.70158   0.73085   14.254
 3805.00    0.74081   0.75706   13.499
 3806.00    0.74880   0.77818   13.355
 3807.00    0.75214   0.79632   13.295
 3808.00    0.79205   0.81278   12.625
 3809.00    0.84279   0.82724   11.865
 3810.00    0.84025   0.83810   11.901
 3811.00    0.80208   0.84366   12.468
 3812.00    0.79862   0.84336   12.522
 3813.00    0.82248   0.83819   12.158
 3814.00    0.81579   0.83013   12.258
 3815.00    0.78779   0.82094   12.694
 3816.00    0.79049   0.81147   12.650
 3817.00    0.82427   0.80182   12.132
 3818.00    0.85005   0.79225   11.764
 3819.00    0.84495   0.78383   11.835
 3820.00    0.81281   0.77801   12.303
 3821.00    0.78330   0.77534   12.767
 3822.00    0.78258   0.77465   12.778
 3823.00    0.79039   0.77341   12.652
 3824.00    0.77030   0.76918   12.982
 3825.00    0.72182   0.76075   13.854
 3826.00    0.67139   0.74824   14.895
 3827.00    0.64874   0.73215   15.414
 3828.00    0.66278   0.71255   15.088
 3829.00    0.67885   0.68881   14.731
 3830.00    0.66523   0.66027   15.032
 3831.00    0.64557   0.62717   15.490
 3832.00    0.65219   0.59155   15.333
 3833.00    0.67203   0.55742   14.880
 3834.00    0.66962   0.52997   14.934
 3835.00    0.61892   0.51408   16.157
 3836.00    0.54014   0.51271   18.514
 3837.00    0.51875   0.52606   19.277
 3838.00    0.59375   0.55172   16.842
 3839.00    0.67658   0.58580   14.780
 3840.00    0.68935   0.62412   14.506
 3841.00    0.66836   0.66307   14.962
 3842.00    0.67173   0.69984   14.887
 3843.00    0.70811   0.73255   14.122
 3844.00    0.75691   0.76018   13.212
 3845.00    0.78949   0.78250   12.666
 3846.00    0.79532   0.79994   12.574
 3847.00    0.79355   0.81329    0.000
 3848.00    0.80627   0.82353    0.000
 3849.00    0.84114   0.83169    0.000
 3850.00    0.88638   0.83861    0.000
 3851.00    0.91441   0.84467    0.000
 3852.00    0.91131   0.84964    0.000
 3853.00    0.88902   0.85295    0.000
 3854.00    0.87145   0.85422    0.000
 3855.00    0.88086   0.85365    0.000
 3856.00    0.90972   0.85202    0.000
 3857.00    0.92230   0.85036    0.000
 3858.00    0.90882   0.84963    0.000
 3859.00    0.89490   0.85051    0.000
 3860.00    0.89443   0.85322    0.000
 3861.00    0.89655   0.85738    0.000
 3862.00    0.88383   0.86202    0.000
 3863.00    0.84699   0.86593    0.000
 3864.00    0.80943   0.86822    0.000
 3865.00    0.81302   0.86861    0.000
 3866.00    0.85477   0.86734    0.000
 3867.00    0.88969   0.86471    0.000
 3868.00    0.89019   0.86071    0.000
 3869.00    0.85900   0.85515    0.000
 3870.00    0.81904   0.84809    0.000
 3871.00    0.79751   0.84033    0.000
 3872.00    0.79637   0.83319    0.000
 3873.00    0.79944   0.82760    0.000
 3874.00    0.80266   0.82341    0.000
 3875.00    0.81143   0.81928    0.000
 3876.00    0.82186   0.81358    0.000
 3877.00    0.82207   0.80540    0.000
 3878.00    0.80191   0.79477    0.000
 3879.00    0.76229   0.78212    0.000
 3880.00    0.72683   0.76749    0.000
 3881.00    0.72013   0.75014   13.886
 3882.00    0.73150   0.72889   13.671
 3883.00    0.73637   0.70268   13.580
 3884.00    0.73549   0.67130   13.596
 3885.00    0.73709   0.63597   13.567
 3886.00    0.72646   0.59980   13.765
 3887.00    0.69145   0.56771   14.462
 3888.00    0.65733   0.54534   15.213
 3889.00    0.64545   0.53728   15.493
 3890.00    0.62407   0.54527   16.024
 3891.00    0.57199   0.56751   17.483
 3892.00    0.54716   0.59930   18.276
 3893.00    0.59913   0.63503   16.691
 3894.00    0.68007   0.66996   14.704
 3895.00    0.72999   0.70127   13.699
 3896.00    0.75998   0.72801   13.158
 3897.00    0.79396   0.75041   12.595
 3898.00    0.81526   0.76930   12.266
 3899.00    0.80693   0.78554   12.393
 3900.00    0.78485   0.79970   12.741
 3901.00    0.76737   0.81186   13.031
 3902.00    0.75312   0.82182   13.278
 3903.00    0.74148   0.82960   13.487
 3904.00    0.74569   0.83585   13.410
 3905.00    0.77504   0.84184   12.903
 3906.00    0.82339   0.84896   12.145
 3907.00    0.87409   0.85791   11.440
 3908.00    0.90699   0.86829   11.025
 3909.00    0.91829   0.87869   10.890
 3910.00    0.92452   0.88741   10.816
 3911.00    0.92550   0.89319   10.805
 3912.00    0.89729   0.89560   11.145
 3913.00    0.85290   0.89498   11.725
 3914.00    0.85121   0.89201   11.748
 3915.00    0.90306   0.88732   11.073
 3916.00    0.94968   0.88136   10.530
 3917.00    0.95202   0.87456   10.504
 3918.00    0.92244   0.86760   10.841
 3919.00    0.89821   0.86142   11.133
 3920.00    0.91273   0.85689   10.956
 3921.00    0.93460   0.85423   10.700
 3922.00    0.89063   0.85264   11.228
 3923.00    0.80939   0.85050   12.355
 3924.00    0.80125   0.84597   12.480
 3925.00    0.85555   0.83778   11.688
 3926.00    0.85421   0.82553   11.707
 3927.00    0.78555   0.80954   12.730
 3928.00    0.74206   0.79043   13.476
 3929.00    0.75473   0.76892   13.250
 3930.00    0.77830   0.74602   12.849
 3931.00    0.76404   0.72354   13.088
 3932.00    0.69241   0.70431   14.442
 3933.00    0.60280   0.69177   16.589
 3934.00    0.56412   0.68880   17.727
 3935.00    0.60084   0.69653   16.643
 3936.00    0.68911   0.71367   14.512
 3937.00    0.78036   0.73691   12.815
 3938.00    0.83088   0.76210   12.035
 3939.00    0.84405   0.78545   11.848
 3940.00    0.84764   0.80450   11.797
 3941.00    0.84484   0.81844   11.837
 3942.00    0.82964   0.82793   12.053
 3943.00    0.82113   0.83451   12.178
 3944.00    0.83614   0.83978   11.960
 3945.00    0.84592   0.84472   11.821
 3946.00    0.81904   0.84943   12.209
 3947.00    0.78307   0.85347   12.770
 3948.00    0.78458   0.85638   12.746
 3949.00    0.83078   0.85798   12.037
 3950.00    0.89212   0.85838   11.209
 3951.00    0.91744   0.85770   10.900
 3952.00    0.88571   0.85593   11.290
 3953.00    0.85180   0.85289   11.740
 3954.00    0.86792   0.84838   11.522
 3955.00    0.90740   0.84220   11.020
 3956.00    0.92160   0.83424   10.851
 3957.00    0.89783   0.82421   11.138
 3958.00    0.85639   0.81147   11.677
 3959.00    0.83792   0.79504   11.934
 3960.00    0.85525   0.77395    0.000
 3961.00    0.86484   0.74772    0.000
 3962.00    0.83446   0.71646    0.000
 3963.00    0.78796   0.68068    0.000
 3964.00    0.75885   0.64113    0.000
 3965.00    0.75492   0.59887    0.000
 3966.00    0.74891   0.55589    0.000
 3967.00    0.68926   0.51556    0.000
 3968.00    0.59021   0.48257    0.000
 3969.00    0.55573   0.46192    0.000
 3970.00    0.62324   0.45735    0.000
 3971.00    0.70428   0.47001    0.000
 3972.00    0.72069   0.49795    0.000
 3973.00    0.67135   0.53692    0.000
 3974.00    0.61039   0.58171    0.000
 3975.00    0.61556   0.62762    0.000
 3976.00    0.70448   0.67120    0.000
 3977.00    0.81627   0.71034    0.000
 3978.00    0.88274   0.74396    0.000
 3979.00    0.86884   0.77165    0.000
 3980.00    0.81024   0.79356    0.000
 3981.00    0.79177   0.81048   12.630
 3982.00    0.83040   0.82380   12.042
 3983.00    0.86930   0.83509   11.503
 3984.00    0.88643   0.84564   11.281
 3985.00    0.90681   0.85608   11.028
 3986.00    0.93615   0.86631   10.682
 3987.00    0.95296   0.87591   10.494
 3988.00    0.94202   0.88448   10.615
 3989.00    0.90871   0.89183   11.005
 3990.00    0.89026   0.89796   11.233
 3991.00    0.92567   0.90282   10.803
 3992.00    0.98261   0.90615   10.177
 3993.00    0.99168   0.90766   10.084
 3994.00    0.95417   0.90737   10.480
 3995.00    0.92358   0.90597   10.827
 3996.00    0.92272   0.90472   10.838
 3997.00    0.93983   0.90498   10.640
 3998.00    0.95288   0.90749   10.494
 3999.00    0.94476   0.91186   10.585
 4000.00    0.92069   0.91670   10.861
 4001.00    0.90247   0.92013   11.081
 4002.00    0.91374   0.92070   10.944
 4003.00    0.96175   0.91806   10.398
 4004.00    1.01592   0.91313    9.843
 4005.00    1.03869   0.90777    9.627
 4006.00    1.03049   0.90390    9.704
 4007.00    1.01342   0.90283    9.868
 4008.00    1.00261   0.90482    9.974
 4009.00    0.99873   0.90932   10.013
 4010.00    0.98581   0.91539   10.144
 4011.00    0.96210   0.92206   10.394
 4012.00    0.96827   0.92859   10.328
 4013.00    1.02214   0.93446    9.783
 4014.00    1.05933   0.93942    9.440
 4015.00    1.03420   0.94343    9.669
 4016.00    1.00846   0.94661    9.916
 4017.00    1.03713   0.94899    9.642
 4018.00    1.07281   0.95032    9.321
 4019.00    1.06327   0.94994    9.405
 4020.00    1.02982   0.94697    9.710
 4021.00    1.00793   0.94076    9.921
 4022.00    1.00104   0.93148    9.990
 4023.00    1.00482   0.92042    9.952
 4024.00    1.02304   0.90973    9.775
 4025.00    1.04564   0.90161    9.564
 4026.00    1.04024   0.89729    9.613
 4027.00    0.99162   0.89638   10.085
 4028.00    0.92333   0.89719   10.830
 4029.00    0.88180   0.89784   11.341
 4030.00    0.91260   0.89750   10.958
 4031.00    0.98995   0.89679   10.102
 4032.00    1.01333   0.89742    9.868
 4033.00    0.96469   0.90109   10.366
 4034.00    0.94536   0.90855   10.578
 4035.00    1.00000   0.91917   10.000
 4036.00    1.06609   0.93113    9.380
 4037.00    1.09771   0.94210    9.110
 4038.00    1.10277   0.94999    9.068
 4039.00    1.08271   0.95354    9.236
 4040.00    1.02529   0.95246    9.753
 4041.00    0.96214   0.94724   10.393
 4042.00    0.95717   0.93890   10.447
 4043.00    1.00387   0.92902    9.961
 4044.00    1.02906   0.91972    9.718
 4045.00    1.00571   0.91332    9.943
 4046.00    0.96707   0.91152   10.341
 4047.00    0.94763   0.91456   10.553
 4048.00    0.95960   0.92097   10.421
 4049.00    0.97808   0.92820   10.224
 4050.00    0.96281   0.93372   10.386
 4051.00    0.91748   0.93597   10.899
 4052.00    0.88084   0.93473   11.353
 4053.00    0.87511   0.93091   11.427
 4054.00    0.89577   0.92598   11.164
 4055.00    0.91617   0.92137   10.915
 4056.00    0.91421   0.91803   10.938
 4057.00    0.91868   0.91621   10.885
 4058.00    0.96747   0.91543   10.336
 4059.00    1.02176   0.91469    9.787
 4060.00    1.01731   0.91294    9.830
 4061.00    0.97055   0.90962   10.303
 4062.00    0.94121   0.90517   10.625
 4063.00    0.94991   0.90083   10.527
 4064.00    0.98137   0.89799   10.190
 4065.00    1.00781   0.89731    9.923
 4066.00    1.01227   0.89846    9.879
 4067.00    1.01215   0.90031    9.880
 4068.00    1.02341   0.90157    9.771
 4069.00    1.01752   0.90131    9.828
 4070.00    0.97042   0.89932   10.305
 4071.00    0.91883   0.89592   10.883
 4072.00    0.90450   0.89152   11.056
 4073.00    0.91349   0.88628   10.947
 4074.00    0.92007   0.88022   10.869
 4075.00    0.93213   0.87378   10.728
 4076.00    0.95954   0.86821   10.422
 4077.00    0.98422   0.86524   10.160
 4078.00    0.98296   0.86613   10.173
 4079.00    0.94946   0.87077   10.532
 4080.00    0.90106   0.87746   11.098
 4081.00    0.87653   0.88375   11.409
 4082.00    0.89033   0.88766   11.232
 4083.00    0.90800   0.88853   11.013
 4084.00    0.90688   0.88713   11.027
 4085.00    0.90980   0.88485   10.991
 4086.00    0.93151   0.88279   10.735
 4087.00    0.95027   0.88109   10.523
 4088.00    0.94672   0.87898   10.563
 4089.00    0.92573   0.87529   10.802
 4090.00    0.90598   0.86884   11.038
 4091.00    0.90766   0.85881   11.017
 4092.00    0.92343   0.84471    0.000
 4093.00    0.91553   0.82625    0.000
 4094.00    0.86830   0.80326    0.000
 4095.00    0.80457   0.77574    0.000
 4096.00    0.75001   0.74396    0.000
 4097.00    0.71888   0.70875    0.000
 4098.00    0.72020   0.67192    0.000
 4099.00    0.75556   0.63646    0.000
 4100.00    0.80199   0.60656    0.000
 4101.00    0.81992   0.58684    0.000
 4102.00    0.79996   0.58092    0.000
 4103.00    0.76867   0.58995    0.000
 4104.00    0.75575   0.61199    0.000
 4105.00    0.77473   0.64259    0.000
 4106.00    0.79963   0.67647    0.000
 4107.00    0.78503   0.70915    0.000
 4108.00    0.73601   0.73799    0.000
 4109.00    0.70245   0.76234    0.000
 4110.00    0.71816   0.78294    0.000
 4111.00    0.78580   0.80101    0.000
 4112.00    0.87895   0.81746    0.000
 4113.00    0.95398   0.83241   10.482
 4114.00    0.97442   0.84522   10.263
 4115.00    0.93106   0.85499   10.740
 4116.00    0.86901   0.86107   11.507
 4117.00    0.85094   0.86356   11.752
 4118.00    0.88209   0.86344   11.337
 4119.00    0.92587   0.86239   10.801
 4120.00    0.95364   0.86220   10.486
 4121.00    0.95737   0.86406   10.445
 4122.00    0.95443   0.86813   10.478
 4123.00    0.96216   0.87352   10.393
 4124.00    0.96193   0.87871   10.396
 4125.00    0.92836   0.88220   10.772
 4126.00    0.87454   0.88302   11.435
 4127.00    0.83459   0.88106   11.982
 4128.00    0.83354   0.87704   11.997
 4129.00    0.87494   0.87223   11.429
 4130.00    0.93263   0.86809   10.722
 4131.00    0.97385   0.86599   10.268
 4132.00    0.98527   0.86694   10.149
 4133.00    0.97336   0.87135   10.274
 4134.00    0.95984   0.87890   10.418
 4135.00    0.95809   0.88849   10.437
 4136.00    0.95450   0.89842   10.477
 4137.00    0.93689   0.90667   10.674
 4138.00    0.91802   0.91125   10.893
 4139.00    0.91368   0.91067   10.945
 4140.00    0.92415   0.90465   10.821
 4141.00    0.93979   0.89454   10.641
 4142.00    0.94734   0.88305   10.556
 4143.00    0.93787   0.87354   10.662
 4144.00    0.91318   0.86871   10.951
 4145.00    0.89283   0.86947   11.200
 4146.00    0.91045   0.87459   10.984
 4147.00    0.96663   0.88162   10.345
 4148.00    1.01159   0.88805    9.885
 4149.00    1.00695   0.89226    9.931
 4150.00    0.95976   0.89383   10.419
 4151.00    0.91524   0.89326   10.926
 4152.00    0.93354   0.89146   10.712
 4153.00    1.00431   0.88939    9.957
 4154.00    1.03813   0.88801    9.633
 4155.00    1.00689   0.88809    9.932
 4156.00    0.97553   0.89003   10.251
 4157.00    0.97446   0.89372   10.262
 4158.00    0.96784   0.89867   10.332
 4159.00    0.93607   0.90415   10.683
 4160.00    0.89960   0.90938   11.116
 4161.00    0.88839   0.91373   11.256
 4162.00    0.91972   0.91683   10.873
 4163.00    0.96455   0.91844   10.367
 4164.00    0.96728   0.91845   10.338
 4165.00    0.93479   0.91701   10.698
 4166.00    0.92724   0.91432   10.785
 4167.00    0.95903   0.91045   10.427
 4168.00    0.99369   0.90525   10.063
 4169.00    1.00256   0.89859    9.974
 4170.00    0.97829   0.89071   10.222
 4171.00    0.92941   0.88236   10.760
 4172.00    0.87673   0.87469   11.406
 4173.00    0.84812   0.86882   11.791
 4174.00    0.86295   0.86542   11.588
 4175.00    0.90408   0.86459   11.061
 4176.00    0.93375   0.86593   10.710
 4177.00    0.93398   0.86881   10.707
 4178.00    0.91350   0.87256   10.947
 4179.00    0.90429   0.87666   11.058
 4180.00    0.92744   0.88080   10.782
 4181.00    0.94216   0.88467   10.614
 4182.00    0.90067   0.88797   11.103
 4183.00    0.83918   0.89031   11.916
 4184.00    0.82151   0.89149   12.173
 4185.00    0.84399   0.89178   11.849
 4186.00    0.86834   0.89173   11.516
 4187.00    0.88078   0.89193   11.354
 4188.00    0.89006   0.89301   11.235
 4189.00    0.91429   0.89547   10.937
 4190.00    0.95739   0.89925   10.445
 4191.00    0.98756   0.90340   10.126
 4192.00    0.97394   0.90653   10.268
 4193.00    0.92545   0.90737   10.806
 4194.00    0.87300   0.90512   11.455
 4195.00    0.84693   0.89968   11.807
 4196.00    0.85987   0.89207   11.630
 4197.00    0.89488   0.88394   11.175
 4198.00    0.92150   0.87672   10.852
 4199.00    0.91343   0.87151   10.948
 4200.00    0.87552   0.86898   11.422
 4201.00    0.85513   0.86910   11.694
 4202.00    0.87812   0.87150   11.388
 4203.00    0.91135   0.87585   10.973
 4204.00    0.92735   0.88170   10.783
 4205.00    0.94091   0.88843   10.628
 4206.00    0.95687   0.89524   10.451
 4207.00    0.94690   0.90144   10.561
 4208.00    0.91114   0.90658   10.975
 4209.00    0.89878   0.91041   11.126
 4210.00    0.92437   0.91266   10.818
 4211.00    0.94015   0.91310   10.637
 4212.00    0.92402   0.91163   10.822
 4213.00    0.90975   0.90887   10.992
 4214.00    0.92132   0.90606   10.854
 4215.00    0.94747   0.90441   10.554
 4216.00    0.96554   0.90471   10.357
 4217.00    0.95916   0.90712   10.426
 4218.00    0.94359   0.91073   10.598
 4219.00    0.95645   0.91358   10.455
 4220.00    0.99025   0.91358   10.098
 4221.00    0.99358   0.90914   10.065
 4222.00    0.95658   0.89961   10.454
 4223.00    0.91810   0.88585   10.892
 4224.00    0.89793   0.87047   11.137
 4225.00    0.88543   0.85730   11.294
 4226.00    0.86915   0.84962   11.505
 4227.00    0.84887   0.84908   11.780
 4228.00    0.84273   0.85520   11.866
 4229.00    0.87028   0.86533   11.491
 4230.00    0.90772   0.87587   11.017
 4231.00    0.91055   0.88404   10.982
 4232.00    0.88804   0.88838   11.261
 4233.00    0.88421   0.88893   11.310
 4234.00    0.90281   0.88718   11.077
 4235.00    0.91785   0.88496   10.895
 4236.00    0.92458   0.88362   10.816
 4237.00    0.93214   0.88408   10.728
 4238.00    0.93310   0.88665   10.717
 4239.00    0.91747   0.89101   10.900
 4240.00    0.90404   0.89659   11.061
 4241.00    0.91542   0.90277   10.924
 4242.00    0.93299   0.90851   10.718
 4243.00    0.92445   0.91249   10.817
 4244.00    0.89261   0.91376   11.203
 4245.00    0.86178   0.91211   11.604
 4246.00    0.85003   0.90784   11.764
 4247.00    0.86278   0.90162   11.590
 4248.00    0.88998   0.89476   11.236
 4249.00    0.91478   0.88869   10.932
 4250.00    0.92471   0.88417   10.814
 4251.00    0.92221   0.88133   10.843
 4252.00    0.93143   0.88025   10.736
 4253.00    0.96273   0.88096   10.387
 4254.00    0.98199   0.88298   10.183
 4255.00    0.96348   0.88534   10.379
 4256.00    0.93581   0.88702   10.686
 4257.00    0.92823   0.88742   10.773
 4258.00    0.92583   0.88679   10.801
 4259.00    0.91165   0.88630   10.969
 4260.00    0.89936   0.88741   11.119
 4261.00    0.90394   0.89092   11.063
 4262.00    0.92003   0.89669   10.869
 4263.00    0.93589   0.90339   10.684
 4264.00    0.94482   0.90891   10.585
 4265.00    0.95040   0.91137   10.524
 4266.00    0.96511   0.90977   10.360
 4267.00    0.98498   0.90383   10.147
 4268.00    0.98240   0.89405   10.183
 4269.00    0.94969   0.88196   10.546
 4270.00    0.91471   0.86987   10.917
 4271.00    0.89646   0.85978   11.106
 4272.00    0.88727   0.85310   11.321
 4273.00    0.87941   0.85099   11.512
 4274.00    0.87529   0.85380   11.269
 4275.00    0.87428   0.86069   11.052
 4276.00    0.87067   0.86984   12.121
 4277.00    0.86905   0.87910   14.974
 4278.00    0.88396   0.88663   17.254
 4279.00    0.91540   0.89136   -2.000
 4280.00    0.94478   0.89305   -2.000
 4281.00    0.95350   0.89217   -2.000
 4282.00    0.93336   0.88949   -2.000
 4283.00    0.89787   0.88565   -2.000
 4284.00    0.87582   0.88107   -2.000
 4285.00    0.88208   0.87571   -2.000
 4286.00    0.90867   0.86920   -2.000
 4287.00    0.92547   0.86171   -2.000
 4288.00    0.90149   0.85450   -2.000
 4289.00    0.85607   0.84928   -2.000
 4290.00    0.83942   0.84703   -2.000
 4291.00    0.85761   0.84746   -2.000
 4292.00    0.87653   0.84952   -2.000
 4293.00    0.86987   0.85189   -2.000
 4294.00    0.83776   0.85288   -2.000
 4295.00    0.82034   0.85101   16.007
 4296.00    0.85518   0.84543   16.128
 4297.00    0.89637   0.83640   16.075
 4298.00    0.87228   0.82545   16.008
 4299.00    0.80810   0.81448   16.127
 4300.00    0.77551   0.80494   16.523
 4301.00    0.78014   0.79802   16.961
 4302.00    0.78549   0.79417   17.082
 4303.00    0.77555   0.79274   16.898
 4304.00    0.75626   0.79252   16.674
 4305.00    0.74372   0.79244   16.590
 4306.00    0.74805   0.79222   16.700
 4307.00    0.75657   0.79258   16.937
 4308.00    0.75752   0.79462   17.202
 4309.00    0.76814   0.79894   17.480
 4310.00    0.80103   0.80554   17.789
 4311.00    0.82767   0.81400   18.087
 4312.00    0.82609   0.82400   18.252
 4313.00    0.82844   0.83554   18.102
 4314.00    0.86254   0.84833   17.662
 4315.00    0.89737   0.86129   17.305
 4316.00    0.89841   0.87302   17.255
 4317.00    0.87760   0.88217   17.297
 4318.00    0.86153   0.88746   17.238
 4319.00    0.86174   0.88814   17.245
 4320.00    0.87405   0.88401   17.407
 4321.00    0.88201   0.87512   17.447
 4322.00    0.87372   0.86217   17.231
 4323.00    0.85264   0.84709   17.083
 4324.00    0.83009   0.83296   17.222
 4325.00    0.81854   0.82271   17.486
 4326.00    0.82408   0.81746   17.660
 4327.00    0.84187   0.81645   17.703
 4328.00    0.85634   0.81786   17.709
 4329.00    0.84723   0.81964   17.829
 4330.00    0.81960   0.81969    0.000
 4331.00    0.80795   0.81614    0.000
 4332.00    0.82001   0.80776    0.000
 4333.00    0.82195   0.79362    0.000
 4334.00    0.79781   0.77266    0.000
 4335.00    0.76785   0.74451    0.000
 4336.00    0.75013   0.71047    0.000
 4337.00    0.74773   0.67336    0.000
 4338.00    0.76355   0.63756    0.000
 4339.00    0.80142   0.60912    0.000
 4340.00    0.84862   0.59301    0.000
 4341.00    0.87823   0.59111    0.000
 4342.00    0.87738   0.60286    0.000
 4343.00    0.85287   0.62584    0.000
 4344.00    0.81868   0.65582    0.000
 4345.00    0.78799   0.68830    0.000
 4346.00    0.76259   0.71960    0.000
 4347.00    0.73829   0.74683    0.000
 4348.00    0.72639   0.76780    0.000
 4349.00    0.74424   0.78204    0.000
 4350.00    0.77954   0.79147    0.000
 4351.00    0.80147   0.79908   15.788
 4352.00    0.80475   0.80695   12.910
 4353.00    0.80572   0.81627   11.981
 4354.00    0.81325   0.82755   12.191
 4355.00    0.82544   0.83996   12.212
 4356.00    0.83560   0.85186   11.963
 4357.00    0.84009   0.86233   12.018
 4358.00    0.84936   0.87156   11.861
 4359.00    0.87383   0.87999   11.024
 4360.00    0.89849   0.88785   10.909
 4361.00    0.90226   0.89532   13.181
 4362.00    0.89294   0.90246   17.973
 4363.00    0.88933   0.90857   20.125
 4364.00    0.88905   0.91227   18.422
 4365.00    0.88254   0.91278   17.834
 4366.00    0.87668   0.91058   18.510
 4367.00    0.88112   0.90680   18.818
 4368.00    0.88876   0.90237   18.704
 4369.00    0.88985   0.89810   18.892
 4370.00    0.88936   0.89430   19.241
 4371.00    0.89287   0.89054   19.257
 4372.00    0.89113   0.88646   18.908
 4373.00    0.87800   0.88285   18.512
 4374.00    0.86739   0.88117   18.441
 4375.00    0.87113   0.88209   18.801
 4376.00    0.87926   0.88489   19.211
 4377.00    0.87952   0.88807   19.285
 4378.00    0.87427   0.88988   19.149
 4379.00    0.87079   0.88849   19.068
 4380.00    0.87228   0.88197   19.100
 4381.00    0.87487   0.86988   19.196
 4382.00    0.86855   0.85467   19.291
 4383.00    0.85478   0.84033   19.345
 4384.00    0.85300   0.82969   19.379
 4385.00    0.86532   0.82370   19.436
 4386.00    0.86233   0.82282   19.552
 4387.00    0.83455   0.82693   19.670
 4388.00    0.81414   0.83445   19.633
 4389.00    0.82483   0.84372   19.415
 4390.00    0.85750   0.85366   19.188
 4391.00    0.89018   0.86293   19.044
 4392.00    0.90290   0.87042   18.906
 4393.00    0.89590   0.87634   18.745
 4394.00    0.89056   0.88190   18.641
 4395.00    0.89784   0.88737   18.631
 4396.00    0.90877   0.89175   18.680
 4397.00    0.91223   0.89419   18.761
 4398.00    0.90392   0.89446   18.867
 4399.00    0.89123   0.89324   18.956
 4400.00    0.88913   0.89122   18.947
 4401.00    0.90036   0.88782   18.851
 4402.00    0.91287   0.88264   18.770
 4403.00    0.91384   0.87724   18.808
 4404.00    0.89875   0.87342   19.011
 4405.00    0.88398   0.87144   19.272
 4406.00    0.89445   0.87134   19.380
 4407.00    0.92150   0.87390   19.273
 4408.00    0.93241   0.87918   19.051
 4409.00    0.92259   0.88595   18.804
 4410.00    0.91375   0.89263   18.611
 4411.00    0.91877   0.89744   18.644
 4412.00    0.93549   0.89846   19.019
 4413.00    0.95206   0.89565   19.403
 4414.00    0.95565   0.89107   19.303
 4415.00    0.94692   0.88690   19.017
 4416.00    0.93368   0.88492   19.162
 4417.00    0.91448   0.88626   19.578
 4418.00    0.88798   0.89040   19.674
 4419.00    0.87299   0.89561   19.457
 4420.00    0.88826   0.90023   19.306
 4421.00    0.91640   0.90372   19.266
 4422.00    0.92833   0.90613   19.205
 4423.00    0.92658   0.90727   19.168
 4424.00    0.92888   0.90722   19.229
 4425.00    0.93749   0.90657   19.236
 4426.00    0.94263   0.90588   19.025
 4427.00    0.93313   0.90503   18.728
 4428.00    0.90910   0.90344   18.554
 4429.00    0.89287   0.90144   18.530
 4430.00    0.89874   0.89930   18.599
 4431.00    0.90215   0.89648   18.725
 4432.00    0.88254   0.89286   18.851
 4433.00    0.86564   0.88939   18.861
 4434.00    0.87431   0.88765   18.740
 4435.00    0.88385   0.88867   18.687
 4436.00    0.87599   0.89238   18.780
 4437.00    0.88236   0.89765   18.730
 4438.00    0.91826   0.90247   18.464
 4439.00    0.93630   0.90493   18.476
 4440.00    0.91163   0.90436   18.997
 4441.00    0.89598   0.90164   19.454
 4442.00    0.91883   0.89882   19.359
 4443.00    0.93003   0.89787   19.075
 4444.00    0.90242   0.89921   19.017
 4445.00    0.88580   0.90224   19.170
 4446.00    0.90889   0.90648   19.356
 4447.00    0.93248   0.91088   19.415
 4448.00    0.93422   0.91382   19.387
 4449.00    0.94382   0.91465   19.530
 4450.00    0.96740   0.91328   19.964
 4451.00    0.96317   0.90941   20.515
 4452.00    0.92071   0.90289   20.938
 4453.00    0.88397   0.89458   21.066
 4454.00    0.87869   0.88630   20.897
 4455.00    0.88895   0.87915   20.586
 4456.00    0.89897   0.87324   20.290
 4457.00    0.90634   0.86873   20.119
 4458.00    0.90356   0.86584   20.160
 4459.00    0.87899   0.86432   20.440
 4460.00    0.84568   0.86429   20.733
 4461.00    0.83728   0.86631    0.000
 4462.00    0.86158   0.86981    0.000
 4463.00    0.89492   0.87339    0.000
 4464.00    0.91248   0.87616    0.000
 4465.00    0.90399   0.87756    0.000
 4466.00    0.88991   0.87699    0.000
 4467.00    0.90166   0.87444    0.000
 4468.00    0.92097   0.87090    0.000
 4469.00    0.90409   0.86799    0.000
 4470.00    0.87588   0.86776    0.000
 4471.00    0.89814   0.87177    0.000
 4472.00    0.95062   0.87979    0.000
 4473.00    0.96248   0.89012    0.000
 4474.00    0.93057   0.90107    0.000
 4475.00    0.90492   0.91104    0.000
 4476.00    0.91352   0.91801    0.000
 4477.00    0.94931   0.92001    0.000
 4478.00    0.97484   0.91652    0.000
 4479.00    0.95532   0.90923    0.000
 4480.00    0.90937   0.90160    0.000
 4481.00    0.88049   0.89705    0.000
 4482.00    0.88168   0.89691   21.012
 4483.00    0.89816   0.90065   20.657
 4484.00    0.90480   0.90675   20.390
 4485.00    0.89099   0.91298   20.568
 4486.00    0.88668   0.91712   20.880
 4487.00    0.91641   0.91816   20.906
 4488.00    0.94369   0.91673   20.926
 4489.00    0.92945   0.91421   21.298
 4490.00    0.90084   0.91176   21.663
 4491.00    0.89587   0.90976   21.569
 4492.00    0.90117   0.90806   21.305
 4493.00    0.89287   0.90699   21.270
 4494.00    0.88003   0.90721   21.359
 4495.00    0.87853   0.90903   21.357
 4496.00    0.88540   0.91241   21.312
 4497.00    0.89394   0.91687   21.290
 4498.00    0.90710   0.92167   21.175
 4499.00    0.92718   0.92638   20.964
 4500.00    0.94805   0.93170   20.940
 4501.00    0.96288   0.93834   21.168
 4502.00    0.96969   0.94556   21.246
 4503.00    0.96742   0.95198   21.080
 4504.00    0.95451   0.95677   21.268
 4505.00    0.93842   0.95952   21.963
 4506.00    0.93758   0.96036   22.291
 4507.00    0.95760   0.95992   21.892
 4508.00    0.98157   0.95875   21.691
 4509.00    0.99369   0.95673   22.045
 4510.00    0.99087   0.95357   22.154
 4511.00    0.97441   0.94946   21.731
 4512.00    0.94725   0.94476   21.559
 4513.00    0.92170   0.93990   21.930
 4514.00    0.91601   0.93556   22.267
 4515.00    0.92512   0.93204   22.283
 4516.00    0.92123   0.92927   22.358
 4517.00    0.90566   0.92750   22.586
 4518.00    0.91123   0.92677   22.582
 4519.00    0.93588   0.92641   22.318
 4520.00    0.93888   0.92513   22.210
 4521.00    0.91142   0.92213   22.377
 4522.00    0.88392   0.91762   22.568
 4523.00    0.87229   0.91168   22.629
 4524.00    0.86913   0.90425   22.603
 4525.00    0.86916   0.89581   22.523
 4526.00    0.87317   0.88710   22.401
 4527.00    0.87836   0.87917   22.372
 4528.00    0.87928   0.87321   22.561
 4529.00    0.87684   0.86987   22.667
 4530.00    0.87659   0.86892   22.279
 4531.00    0.87963   0.86948   21.846
 4532.00    0.88308   0.87088   22.107
 4533.00    0.88571   0.87354   22.753
 4534.00    0.88955   0.87852   22.814
 4535.00    0.90041   0.88603   22.306
 4536.00    0.92025   0.89473   21.951
 4537.00    0.93405   0.90268   21.953
 4538.00    0.92505   0.90879   22.120
 4539.00    0.90368   0.91297   22.286
 4540.00    0.89307   0.91575   22.367
 4541.00    0.89874   0.91740   22.362
 4542.00    0.91204   0.91738   22.346
 4543.00    0.92231   0.91558   22.451
 4544.00    0.92424   0.91291   22.715
 4545.00    0.92434   0.91008   22.887
 4546.00    0.92771   0.90661   22.727
 4547.00    0.92176   0.90199   22.439
 4548.00    0.89672   0.89701   22.313
 4549.00    0.86991   0.89305   22.320
 4550.00    0.86169   0.89024    0.000
 4551.00    0.86769   0.88798    0.000
 4552.00    0.87356   0.88639    0.000
 4553.00    0.87290   0.88601    0.000
 4554.00    0.86902   0.88779    0.000
 4555.00    0.87341   0.89242    0.000
 4556.00    0.89086   0.89907    0.000
 4557.00    0.90890   0.90631    0.000
 4558.00    0.91778   0.91338    0.000
 4559.00    0.92488   0.91970    0.000
 4560.00    0.93442   0.92428    0.000
 4561.00    0.93484   0.92611    0.000
 4562.00    0.92363   0.92512    0.000
 4563.00    0.92039   0.92268    0.000
 4564.00    0.93361   0.92072    0.000
 4565.00    0.94361   0.92040    0.000
 4566.00    0.93380   0.92161    0.000
 4567.00    0.90887   0.92357    0.000
 4568.00    0.88695   0.92541    0.000
 4569.00    0.88965   0.92631    0.000
 4570.00    0.91717   0.92631    0.000
 4571.00    0.94309   0.92654    0.000
 4572.00    0.95026   0.92718    0.000
 4573.00    0.94475   0.92735    0.000
 4574.00    0.93910   0.92699    0.000
 4575.00    0.94205   0.92631    0.000
 4576.00    0.94878   0.92482    0.000
 4577.00    0.94425   0.92183    0.000
 4578.00    0.93002   0.91710    0.000
 4579.00    0.92395   0.91126    0.000
 4580.00    0.92375   0.90555    0.000
 4581.00    0.90881   0.90077    0.000
 4582.00    0.88747   0.89733    0.000
 4583.00    0.89239   0.89580    0.000
 4584.00    0.92111   0.89638    0.000
 4585.00    0.93896   0.89880    0.000
 4586.00    0.93722   0.90254    0.000
 4587.00    0.93299   0.90660    0.000
 4588.00    0.92679   0.90980    0.000
 4589.00    0.90757   0.91137    0.000
 4590.00    0.89011   0.91125    0.000
 4591.00    0.89903   0.91006    0.000
 4592.00    0.91500   0.90848    0.000
 4593.00    0.89953   0.90675    0.000
 4594.00    0.86816   0.90514    0.000
 4595.00    0.86478   0.90428    0.000
 4596.00    0.88616   0.90442    0.000
 4597.00    0.90139   0.90530    0.000
 4598.00    0.91023   0.90623    0.000
 4599.00    0.92738   0.90670    0.000
 4600.00    0.94129   0.90720    0.000
 4601.00    0.93280   0.90823    0.000
 4602.00    0.91228   0.90969    0.000
 4603.00    0.90248   0.91150    0.000
 4604.00    0.90748   0.91398    0.000
 4605.00    0.91970   0.91768    0.000
 4606.00    0.93462   0.92281    0.000
 4607.00    0.94972   0.92864    0.000
 4608.00    0.96102   0.93381    0.000
 4609.00    0.96325   0.93740    0.000
 4610.00    0.95148   0.93935    0.000
 4611.00    0.93174   0.93993    0.000
 4612.00    0.92898   0.93948    0.000
 4613.00    0.95423   0.93846    0.000
 4614.00    0.97656   0.93696    0.000
 4615.00    0.96670   0.93516    0.000
 4616.00    0.93583   0.93356    0.000
 4617.00    0.90992   0.93210    0.000
 4618.00    0.90480   0.93104    0.000
 4619.00    0.92082   0.93128    0.000
 4620.00    0.94204   0.93256    0.000
 4621.00    0.95137   0.93403    0.000
 4622.00    0.94237   0.93554    0.000
 4623.00    0.92403   0.93662    0.000
 4624.00    0.91848   0.93686    0.000
 4625.00    0.92939   0.93661    0.000
 4626.00    0.93037   0.93577    0.000
 4627.00    0.91248   0.93385    0.000
 4628.00    0.90226   0.93154    0.000
 4629.00    0.90855   0.92998    0.000
 4630.00    0.90484   0.92901    0.000
 4631.00    0.88607   0.92748    0.000
 4632.00    0.88416   0.92503    0.000
 4633.00    0.90725   0.92220    0.000
 4634.00    0.92408   0.91946    0.000
 4635.00    0.91884   0.91669    0.000
 4636.00    0.90674   0.91358    0.000
 4637.00    0.90132   0.91042    0.000
 4638.00    0.90296   0.90799    0.000
 4639.00    0.90599   0.90675    0.000
 4640.00    0.90406   0.90643    0.000
 4641.00    0.89835   0.90602    0.000
 4642.00    0.89648   0.90468    0.000
 4643.00    0.90086   0.90217    0.000
 4644.00    0.90715   0.89821    0.000
 4645.00    0.91067   0.89312    0.000
 4646.00    0.90917   0.88836    0.000
 4647.00    0.90471   0.88526    0.000
 4648.00    0.90138   0.88448    0.000
 4649.00    0.89846   0.88605    0.000
 4650.00    0.89274   0.88940    0.000
 4651.00    0.88760   0.89381    0.000
 4652.00    0.88949   0.89824    0.000
 4653.00    0.89658   0.90172    0.000
 4654.00    0.90206   0.90449    0.000
 4655.00    0.90528   0.90737    0.000
 4656.00    0.90962   0.91114    0.000
 4657.00    0.91473   0.91599    0.000
 4658.00    0.91826   0.92081    0.000
 4659.00    0.92091   0.92401    0.000
 4660.00    0.92463   0.92465    0.000
 4661.00    0.92857   0.92240    0.000
 4662.00    0.92923   0.91748    0.000
 4663.00    0.92176   0.91031    0.000
 4664.00    0.90443   0.90098    0.000
 4665.00    0.88398   0.89015    0.000
 4666.00    0.87089   0.88027    0.000
 4667.00    0.87216   0.87408    0.000
 4668.00    0.88410   0.87247    0.000
 4669.00    0.88710   0.87470    0.000
 4670.00    0.87187   0.87949    0.000
 4671.00    0.86444   0.88554    0.000
 4672.00    0.88352   0.89216    0.000
 4673.00    0.90046   0.89879    0.000
 4674.00    0.89281   0.90450    0.000
 4675.00    0.89063   0.90842    0.000
 4676.00    0.91316   0.90990    0.000
 4677.00    0.91953   0.90914    0.000
 4678.00    0.88532   0.90726    0.000
 4679.00    0.85693   0.90516    0.000
 4680.00    0.87031   0.90331    0.000
 4681.00    0.89630   0.90223    0.000
 4682.00    0.90524   0.90219    0.000
 4683.00    0.90830   0.90285    0.000
 4684.00    0.91637   0.90387    0.000
 4685.00    0.91709   0.90506    0.000
 4686.00    0.90571   0.90609    0.000
 4687.00    0.89870   0.90685    0.000
 4688.00    0.90239   0.90726    0.000
 4689.00    0.90153   0.90720    0.000
 4690.00    0.89201   0.90710    0.000
 4691.00    0.89083   0.90759    0.000
 4692.00    0.90170   0.90861    0.000
 4693.00    0.90663   0.90984    0.000
 4694.00    0.90188   0.91081    0.000
 4695.00    0.90453   0.91067    0.000
 4696.00    0.91396   0.90857    0.000
 4697.00    0.90818   0.90453    0.000
 4698.00    0.88927   0.89972    0.000
 4699.00    0.88475   0.89502    0.000
 4700.00    0.89260   0.89024    0.000
 4701.00    0.88227   0.88548    0.000
 4702.00    0.85979   0.88179    0.000
 4703.00    0.86285   0.88024    0.000
 4704.00    0.88424   0.88028    0.000
 4705.00    0.87976   0.88048    0.000
 4706.00    0.85230   0.88034    0.000
 4707.00    0.84471   0.88042    0.000
 4708.00    0.86239   0.88134    0.000
 4709.00    0.87716   0.88317    0.000
 4710.00    0.88328   0.88521    0.000
 4711.00    0.89284   0.88651    0.000
 4712.00    0.89685   0.88751    0.000
 4713.00    0.87896   0.88949    0.000
 4714.00    0.85900   0.89331    0.000
 4715.00    0.86843   0.89866    0.000
 4716.00    0.88960   0.90455    0.000
 4717.00    0.88568   0.91060    0.000
 4718.00    0.87055   0.91699    0.000
 4719.00    0.88029   0.92308    0.000
 4720.00    0.90912   0.92768    0.000
 4721.00    0.92781   0.93013    0.000
 4722.00    0.92645   0.93081    0.000
 4723.00    0.91361   0.93010    0.000
 4724.00    0.90544   0.92746    0.000
 4725.00    0.91097   0.92221    0.000
 4726.00    0.91666   0.91478    0.000
 4727.00    0.90734   0.90696    0.000
 4728.00    0.89212   0.90029    0.000
 4729.00    0.88641   0.89495    0.000
 4730.00    0.88944   0.89124    0.000
 4731.00    0.89321   0.88993    0.000
 4732.00    0.89405   0.89106    0.000
 4733.00    0.89214   0.89389    0.000
 4734.00    0.88983   0.89718    0.000
 4735.00    0.88983   0.89987    0.000
 4736.00    0.89349   0.90254    0.000
 4737.00    0.89827   0.90573    0.000
 4738.00    0.89725   0.90832    0.000
 4739.00    0.89094   0.90982    0.000
 4740.00    0.89335   0.91100    0.000
 4741.00    0.90899   0.91274    0.000
 4742.00    0.92024   0.91497    0.000
 4743.00    0.91634   0.91672    0.000
 4744.00    0.90923   0.91797    0.000
 4745.00    0.90837   0.91957    0.000
 4746.00    0.90760   0.92118    0.000
 4747.00    0.90270   0.92204    0.000
 4748.00    0.89945   0.92216    0.000
 4749.00    0.90058   0.92161    0.000
 4750.00    0.90117   0.92008    0.000
 4751.00    0.90067   0.91742    0.000
 4752.00    0.90579   0.91406    0.000
 4753.00    0.91567   0.91068    0.000
 4754.00    0.91956   0.90770    0.000
 4755.00    0.91559   0.90521    0.000
 4756.00    0.91410   0.90342    0.000
 4757.00    0.91949   0.90236    0.000
 4758.00    0.92605   0.90153    0.000
 4759.00    0.92927   0.90007    0.000
 4760.00    0.92820   0.89706    0.000
 4761.00    0.91960   0.89270   29.027
 4762.00    0.89953   0.88808   29.122
 4763.00    0.87403   0.88378   29.099
 4764.00    0.85677   0.88013   29.140
 4765.00    0.85289   0.87797   29.242
 4766.00    0.85868   0.87820   29.270
 4767.00    0.87302   0.88094   29.367
 4768.00    0.89554   0.88532   29.752
 4769.00    0.91533   0.88998   29.979
 4770.00    0.91813   0.89412   29.401
 4771.00    0.90831   0.89822   28.717
 4772.00    0.90134   0.90270   29.094
 4773.00    0.89783   0.90702   30.293
 4774.00    0.89079   0.91022   31.050
 4775.00    0.88946   0.91229   31.002
 4776.00    0.90657   0.91400   30.795
 4777.00    0.92809   0.91499   30.961
 4778.00    0.93070   0.91444   31.658
 4779.00    0.91896   0.91252   32.568
 4780.00    0.91065   0.90978   33.153
 4781.00    0.90532   0.90630   33.269
 4782.00    0.89270   0.90225   33.116
 4783.00    0.87176   0.89859   32.875
 4784.00    0.85196   0.89556   32.613
 4785.00    0.85002   0.89275   32.252
 4786.00    0.87101   0.89086   31.751
 4787.00    0.88833   0.89038   31.291
 4788.00    0.87919   0.89115   31.123
 4789.00    0.86513   0.89327   31.389
 4790.00    0.87519   0.89660   31.948
 4791.00    0.90375   0.90113   32.180
 4792.00    0.93000   0.90658   31.749
 4793.00    0.94158   0.91182   31.319
 4794.00    0.93549   0.91582   31.442
 4795.00    0.91654   0.91796   31.718
 4796.00    0.89372   0.91813   31.655
 4797.00    0.87660   0.91667   31.433
 4798.00    0.87046   0.91420   31.317
 4799.00    0.87333   0.91165   31.207
 4800.00    0.88143   0.90984   31.042
 4801.00    0.89280   0.90875   31.050
 4802.00    0.90298   0.90762   31.325
 4803.00    0.90331   0.90601   31.598
 4804.00    0.89084   0.90431   31.766
 4805.00    0.87341   0.90298   32.151
 4806.00    0.86262   0.90152   32.786
 4807.00    0.86731   0.89984   33.084
 4808.00    0.88291   0.89875   32.865
 4809.00    0.89095   0.89865   32.738
 4810.00    0.88546   0.89944   32.785
 4811.00    0.88064   0.90073   32.273
 4812.00    0.88363   0.90254   31.290
 4813.00    0.88625   0.90499   30.901
 4814.00    0.88647   0.90770   31.308
 4815.00    0.89298   0.91039   31.609
 4816.00    0.90545   0.91282   31.374
 4817.00    0.91187   0.91446   31.099
 4818.00    0.90849   0.91492   31.035
 4819.00    0.90323   0.91397   30.979
 4820.00    0.90137   0.91153   30.938
 4821.00    0.90159   0.90726   31.173
 4822.00    0.89990   0.90133   31.594
 4823.00    0.89290   0.89593   31.766
 4824.00    0.88321   0.89265   31.622
 4825.00    0.87688   0.89058   31.515
 4826.00    0.87225   0.88856   31.693
 4827.00    0.86383   0.88664   32.159
 4828.00    0.85933   0.88595   32.630
 4829.00    0.87110   0.88625   32.737
 4830.00    0.88662   0.88567   32.614
 4831.00    0.88195   0.88416   32.676
 4832.00    0.86456   0.88328   32.858
 4833.00    0.86005   0.88314   32.805
 4834.00    0.86775   0.88268   32.584
 4835.00    0.86931   0.88141   32.564
 4836.00    0.86132   0.87985   32.911
 4837.00    0.85211   0.87784   33.523
 4838.00    0.84582   0.87478   33.999
 4839.00    0.84321   0.87124   33.988
 4840.00    0.84703   0.86824   33.809
 4841.00    0.85766   0.86550   33.892
 4842.00    0.86596   0.86238   33.896
 4843.00    0.86258   0.85969   33.395
 4844.00    0.85160   0.85789   32.922
 4845.00    0.84231   0.85563   32.978
 4846.00    0.83673   0.85150   32.866
 4847.00    0.83270   0.84571   32.099
 4848.00    0.82927   0.83971    0.000
 4849.00    0.82446   0.83339    0.000
 4850.00    0.81287   0.82503    0.000
 4851.00    0.79269   0.81433    0.000
 4852.00    0.77222   0.80167    0.000
 4853.00    0.75850   0.78632    0.000
 4854.00    0.74743   0.76777    0.000
 4855.00    0.73812   0.74701    0.000
 4856.00    0.74463   0.72504    0.000
 4857.00    0.78078   0.70153    0.000
 4858.00    0.84744   0.67653    0.000
 4859.00    0.93727   0.65229    0.000
 4860.00    1.03890   0.63341    0.000
 4861.00    1.13516   0.62426    0.000
 4862.00    1.20300   0.62478    0.000
 4863.00    1.22197   0.63250    0.000
 4864.00    1.18094   0.64674    0.000
 4865.00    1.08398   0.66674    0.000
 4866.00    0.95340   0.68986    0.000
 4867.00    0.82687   0.71228    0.000
 4868.00    0.74810   0.73123    0.000
 4869.00    0.72766   0.74576    0.000
 4870.00    0.73291   0.75642    0.000
 4871.00    0.73882   0.76584    0.000
 4872.00    0.74692   0.77578    0.000
 4873.00    0.75700   0.78562    0.000
 4874.00    0.75944   0.79482    0.000
 4875.00    0.75828   0.80438   33.422
 4876.00    0.77149   0.81501   33.280
 4877.00    0.79513   0.82564   32.693
 4878.00    0.80248   0.83501   32.343
 4879.00    0.79005   0.84176   32.487
 4880.00    0.78201   0.84544   32.747
 4881.00    0.78949   0.84737   32.786
 4882.00    0.80380   0.84822   32.557
 4883.00    0.81730   0.84728   32.281
 4884.00    0.82728   0.84430   32.247
 4885.00    0.82805   0.84076   32.394
 4886.00    0.81442   0.83861   32.400
 4887.00    0.79642   0.83777   32.253
 4888.00    0.79195   0.83731   32.205
 4889.00    0.80046   0.83733   32.300
 4890.00    0.80731   0.83947   32.394
 4891.00    0.80785   0.84594   32.453
 4892.00    0.80778   0.85565   32.529
 4893.00    0.81256   0.86601   32.588
 4894.00    0.82373   0.87613   32.551
 4895.00    0.83657   0.88574   32.453
 4896.00    0.84531   0.89412   32.415
 4897.00    0.85274   0.89940   32.538
 4898.00    0.86472   0.90055   32.838
 4899.00    0.87845   0.89925   33.156
 4900.00    0.88566   0.89771   33.302
 4901.00    0.88055   0.89580   33.316
 4902.00    0.86392   0.89321   33.299
 4903.00    0.84667   0.89138   33.120
 4904.00    0.84103   0.89142   32.655
 4905.00    0.84848   0.89206   32.131
 4906.00    0.86225   0.89123   31.841
 4907.00    0.87272   0.88895   31.832
 4908.00    0.87279   0.88616   32.001
 4909.00    0.86329   0.88331   32.224
 4910.00    0.85144   0.88114   32.432
 4911.00    0.84763   0.88004   32.680
 4912.00    0.85440   0.87942   32.984
 4913.00    0.85806   0.87877   33.167
 4914.00    0.85032   0.87776   33.164
 4915.00    0.84568   0.87514   33.265
 4916.00    0.85258   0.86921   33.634
 4917.00    0.85203   0.85951   33.938
 4918.00    0.83282   0.84765   34.016
 4919.00    0.81552   0.83612   34.350
 4920.00    0.81287   0.82712   35.033
 4921.00    0.80552   0.82246   35.133
 4922.00    0.78387   0.82198   34.443
 4923.00    0.77145   0.82565   34.331
 4924.00    0.78413   0.83419   35.326
 4925.00    0.80816   0.84700   36.045
 4926.00    0.82825   0.86061   35.605
 4927.00    0.84316   0.87250   35.086
 4928.00    0.85592   0.88246   35.229
 4929.00    0.86753   0.88996   35.558
 4930.00    0.87442   0.89421   35.714
 4931.00    0.87001   0.89414   35.981
 4932.00    0.85709   0.88985   36.411
 4933.00    0.84936   0.88406   36.544
 4934.00    0.85325   0.87920   36.249
 4935.00    0.86223   0.87447   35.957
 4936.00    0.86589   0.86887   35.990
 4937.00    0.85663   0.86410   36.342
 4938.00    0.83955   0.86304   36.754
 4939.00    0.83049   0.86613   36.865
 4940.00    0.83729   0.87093    0.000
 4941.00    0.85537   0.87586    0.000
 4942.00    0.87448   0.88196    0.000
 4943.00    0.88409   0.88915    0.000
 4944.00    0.88182   0.89537    0.000
 4945.00    0.87441   0.89988    0.000
 4946.00    0.87334   0.90365    0.000
 4947.00    0.88712   0.90669    0.000
 4948.00    0.90603   0.90839    0.000
 4949.00    0.91135   0.90901    0.000
 4950.00    0.90479   0.90887    0.000
 4951.00    0.90068   0.90680    0.000
 4952.00    0.89502   0.90239    0.000
 4953.00    0.87525   0.89694    0.000
 4954.00    0.85201   0.89102    0.000
 4955.00    0.84731   0.88348    0.000
 4956.00    0.86180   0.87464    0.000
 4957.00    0.88192   0.86928    0.000
 4958.00    0.90222   0.86964    0.000
 4959.00    0.92214   0.87203    0.000
 4960.00    0.93523   0.87392    0.000
 4961.00    0.93490   0.87671    0.000
 4962.00    0.92496   0.88123    0.000
 4963.00    0.91414   0.88442    0.000
 4964.00    0.90646   0.88394    0.000
 4965.00    0.89940   0.88173    0.000
 4966.00    0.88411   0.87996    0.000
 4967.00    0.85757   0.87863    0.000
 4968.00    0.83537   0.87776    0.000
 4969.00    0.83434   0.87810    0.000
 4970.00    0.85256   0.88031    0.000
 4971.00    0.87581   0.88375    0.000
 4972.00    0.88745   0.88706    0.000
 4973.00    0.88083   0.88969    0.000
 4974.00    0.86812   0.89100    0.000
 4975.00    0.86013   0.89034    0.000
 4976.00    0.85018   0.88712    0.000
 4977.00    0.83357   0.88106    0.000
 4978.00    0.82200   0.87323    0.000
 4979.00    0.82422   0.86456    0.000
 4980.00    0.83231   0.85489    0.000
 4981.00    0.83463   0.84483    0.000
 4982.00    0.82614   0.83707    0.000
 4983.00    0.81201   0.83341    0.000
 4984.00    0.80647   0.83294    0.000
 4985.00    0.81430   0.83500    0.000
 4986.00    0.82377   0.83982    0.000
 4987.00    0.83000   0.84620    0.000
 4988.00    0.84325   0.85218    0.000
 4989.00    0.86190   0.85688    0.000
 4990.00    0.86557   0.86061    0.000
 4991.00    0.85053   0.86373    0.000
 4992.00    0.83862   0.86526    0.000
 4993.00    0.83969   0.86542    0.000
 4994.00    0.84160   0.86570    0.000
 4995.00    0.83995   0.86566    0.000
 4996.00    0.84432   0.86423    0.000
 4997.00    0.85437   0.86122    0.000
 4998.00    0.85741   0.85675    0.000
 4999.00    0.85248   0.85116    0.000
 5000.00    0.85215   0.84501    0.000
 5001.00    0.86025   0.83909    0.000
 5002.00    0.86972   0.83430    0.000
 5003.00    0.87877   0.83031    0.000
 5004.00    0.89318   0.82664    0.000
 5005.00    0.91891   0.82424    0.000
 5006.00    0.95733   0.82459    0.000
 5007.00    0.99917   0.82661    0.000
 5008.00    1.02790   0.82757    0.000
 5009.00    1.03169   0.82691    0.000
 5010.00    1.00791   0.82564    0.000
 5011.00    0.96615   0.82323    0.000
 5012.00    0.92185   0.81901    0.000
 5013.00    0.88208   0.81361    0.000
 5014.00    0.84804   0.80900    0.000
 5015.00    0.82498   0.80642    0.000
 5016.00    0.81682   0.80476    0.000
 5017.00    0.81392   0.80413    0.000
 5018.00    0.80352   0.80640    0.000
 5019.00    0.78968   0.81138    0.000
 5020.00    0.78426   0.81627    0.000
 5021.00    0.78877   0.82022    0.000
 5022.00    0.79747   0.82514    0.000
 5023.00    0.80585   0.83121    0.000
 5024.00    0.81230   0.83634    0.000
 5025.00    0.81843   0.83980    0.000
 5026.00    0.82452   0.84233    0.000
 5027.00    0.82467   0.84571    0.000
 5028.00    0.81670   0.85018    0.000
 5029.00    0.81257   0.85376   39.173
 5030.00    0.82153   0.85602   39.105
 5031.00    0.83304   0.85837   38.983
 5032.00    0.83505   0.86081   38.989
 5033.00    0.83212   0.86067   39.089
 5034.00    0.83236   0.85635   39.188
 5035.00    0.83476   0.84984   39.284
 5036.00    0.83404   0.84363   39.473
 5037.00    0.82609   0.83675   39.905
 5038.00    0.81124   0.82843   40.493
 5039.00    0.79588   0.82047   40.749
 5040.00    0.78672   0.81596   40.578
 5041.00    0.78668   0.81689   40.681
 5042.00    0.79572   0.82145   41.069
 5043.00    0.81149   0.82667   40.479
 5044.00    0.82904   0.83299   39.319
 5045.00    0.84156   0.84042   40.203
 5046.00    0.84583   0.84589   42.437
 5047.00    0.84437   0.84745   40.203
 5048.00    0.84006   0.84706   37.018
 5049.00    0.83372   0.84652   44.301
 5050.00    0.82686   0.84529   57.197
 5051.00    0.82227   0.84422   30.867
 5052.00    0.82039   0.84551   15.218
 5053.00    0.81922   0.84931   11.432
 5054.00    0.82156   0.85359   11.566
 5055.00    0.83417   0.85794   12.298
 5056.00    0.85307   0.86322   11.962
 5057.00    0.86370   0.86880   11.424
 5058.00    0.86299   0.87255   11.419
 5059.00    0.86176   0.87438   11.815
 5060.00    0.86543   0.87521   11.869
 5061.00    0.86943   0.87480   11.010
 5062.00    0.86623   0.87175   10.790
 5063.00    0.85096   0.86585   14.170
 5064.00    0.83059   0.85958   28.825
 5065.00    0.81895   0.85505   59.636
 5066.00    0.81682   0.85067   47.671
 5067.00    0.81430   0.84565   38.123
 5068.00    0.80978   0.84261   40.598
 5069.00    0.80843   0.84257   43.525
 5070.00    0.80811   0.84233   41.902
 5071.00    0.80271   0.84072   40.628
 5072.00    0.79579   0.84032   41.099
 5073.00    0.79661   0.84068   41.512
 5074.00    0.80666   0.83877   41.312
 5075.00    0.81990   0.83535   41.219
 5076.00    0.82822   0.83282   41.483
 5077.00    0.82588   0.82963   41.946
 5078.00    0.81490   0.82368   42.650
 5079.00    0.80163   0.81826   43.659
 5080.00    0.79003   0.81635   44.579
 5081.00    0.78159   0.81608   44.976
 5082.00    0.77707   0.81574   45.224
 5083.00    0.77779   0.81776   45.786
 5084.00    0.78675   0.82322   46.045
 5085.00    0.80278   0.82933   45.332
 5086.00    0.81409   0.83434   44.399
 5087.00    0.81274   0.83949   44.024
 5088.00    0.81087   0.84520   43.591
 5089.00    0.82149   0.84973   42.437
 5090.00    0.83727   0.85258   41.191
 5091.00    0.84629   0.85482   40.608
 5092.00    0.84925   0.85633   40.652
 5093.00    0.85084   0.85560   40.980
 5094.00    0.85058   0.85240   41.364
 5095.00    0.84760   0.84799   41.769
 5096.00    0.84456   0.84295   42.377
 5097.00    0.84054   0.83707   43.186
 5098.00    0.82688   0.83129   43.693
 5099.00    0.80178   0.82789   43.551
 5100.00    0.77894   0.82711   43.083
 5101.00    0.77039   0.82726   42.664
 5102.00    0.77519   0.82752   42.319
 5103.00    0.78723   0.82853   42.001
 5104.00    0.80077   0.82985   41.774
 5105.00    0.81008   0.82990   41.840
 5106.00    0.81052   0.82843   42.445
 5107.00    0.80629   0.82718   43.246
 5108.00    0.81041   0.82678   43.158
 5109.00    0.82265   0.82671   42.124
 5110.00    0.82494   0.82798   41.474
 5111.00    0.81416   0.83118   41.627
 5112.00    0.81021   0.83522   41.654
 5113.00    0.82208   0.83954   41.132
 5114.00    0.83801   0.84409   40.685
 5115.00    0.84788   0.84827   40.753
 5116.00    0.85114   0.85133   41.244
 5117.00    0.85067   0.85257   41.875
 5118.00    0.84931   0.85132   42.376
 5119.00    0.84655   0.84786   42.808
 5120.00    0.83959   0.84290   43.484
 5121.00    0.82988   0.83653   44.244
 5122.00    0.82241   0.82866   44.465
 5123.00    0.81700   0.82087   44.069
 5124.00    0.80962   0.81480   43.578
 5125.00    0.80294   0.81031   43.290
 5126.00    0.80418   0.80700   43.202
 5127.00    0.81227   0.80535   43.331
 5128.00    0.81865   0.80566   43.709
 5129.00    0.81711   0.80759   44.194
 5130.00    0.80768   0.81084   44.558
 5131.00    0.79955   0.81421   44.836
 5132.00    0.80282   0.81697   45.143
 5133.00    0.81126   0.81976   45.138
 5134.00    0.81056   0.82254   44.499
 5135.00    0.80019   0.82349   43.953
 5136.00    0.78947   0.82232   44.405
 5137.00    0.78364   0.82008   45.394
 5138.00    0.78341   0.81739   45.806
 5139.00    0.78820   0.81529   45.691
 5140.00    0.79580   0.81330   45.813
 5141.00    0.80135   0.80995   46.346
 5142.00    0.80102   0.80731   46.943
 5143.00    0.79702   0.80741   47.106
 5144.00    0.79389   0.80758   46.626
 5145.00    0.79281   0.80585   46.032
 5146.00    0.79232   0.80460   45.858
 5147.00    0.79021   0.80500   45.872
 5148.00    0.78646   0.80538   45.584
 5149.00    0.78573   0.80460   44.886
 5150.00    0.79068   0.80385   44.064
 5151.00    0.79565   0.80432   43.642
 5152.00    0.79517   0.80569   43.832
 5153.00    0.79209   0.80736   44.134
 5154.00    0.79118   0.81016   44.074
 5155.00    0.79299   0.81471   43.876
 5156.00    0.79640   0.81992   43.884
 5157.00    0.80108   0.82439   44.057
 5158.00    0.80674   0.82770   44.162
 5159.00    0.81245   0.82979   43.977
 5160.00    0.81686   0.82898   43.521
 5161.00    0.81824   0.82380   43.131
 5162.00    0.81322   0.81514   43.071
 5163.00    0.79719   0.80419   43.312
 5164.00    0.77242   0.79052   43.609
 5165.00    0.75060   0.77461   43.616
 5166.00    0.73897   0.75824   43.352
 5167.00    0.73378   0.74355   43.283
 5168.00    0.72888   0.73298   43.444
 5169.00    0.72148   0.72729   43.214
 5170.00    0.71607   0.72401   42.527
 5171.00    0.72254   0.72282   42.147
 5172.00    0.73939   0.72768   42.423
 5173.00    0.75172   0.73897   42.988
 5174.00    0.75479   0.75085   43.517
 5175.00    0.75882   0.76051   44.024
 5176.00    0.76821   0.77076   44.649
 5177.00    0.77672   0.78087   45.461
 5178.00    0.78047   0.78576   46.103
 5179.00    0.78087   0.78487   45.952
 5180.00    0.77842   0.78158   45.252
 5181.00    0.77174   0.77613   44.991
 5182.00    0.76130   0.76793   45.568
 5183.00    0.75018   0.76156   46.585
 5184.00    0.74303   0.76133   47.077
 5185.00    0.74401   0.76483   46.234
 5186.00    0.75280   0.76857   45.090
 5187.00    0.76483   0.77372   45.335
 5188.00    0.77481   0.78203   46.458
 5189.00    0.77901   0.79015   46.486
 5190.00    0.77836   0.79307    0.000
 5191.00    0.77745   0.79248    0.000
 5192.00    0.78089   0.79367    0.000
 5193.00    0.79032   0.79604    0.000
 5194.00    0.80049   0.79618    0.000
 5195.00    0.80545   0.79669    0.000
 5196.00    0.81067   0.80046    0.000
 5197.00    0.82504   0.80514    0.000
 5198.00    0.84435   0.80857    0.000
 5199.00    0.85775   0.81083    0.000
 5200.00    0.86187   0.81133    0.000
 5201.00    0.85851   0.80956    0.000
 5202.00    0.84817   0.80602    0.000
 5203.00    0.83180   0.79969    0.000
 5204.00    0.81404   0.79120    0.000
 5205.00    0.79914   0.78407    0.000
 5206.00    0.78568   0.77958    0.000
 5207.00    0.77198   0.77599    0.000
 5208.00    0.76248   0.77499    0.000
 5209.00    0.76239   0.77885    0.000
 5210.00    0.77132   0.78550    0.000
 5211.00    0.78535   0.79266   47.310
 5212.00    0.79983   0.80069   47.363
 5213.00    0.81087   0.80885   47.429
 5214.00    0.81664   0.81507   47.081
 5215.00    0.81828   0.81986   46.291
 5216.00    0.82015   0.82455   45.810
 5217.00    0.82607   0.82880   45.966
 5218.00    0.83608   0.83159   45.984
 5219.00    0.84475   0.83314   45.395
 5220.00    0.84210   0.83387   44.942
 5221.00    0.82673   0.83251   45.217
 5222.00    0.81212   0.82801   45.901
 5223.00    0.80762   0.82143   46.259
 5224.00    0.80811   0.81410   45.675
 5225.00    0.80655   0.80603   44.597
 5226.00    0.80143   0.79923   44.445
 5227.00    0.79380   0.79678   45.471
 5228.00    0.78571   0.79741   46.124
 5229.00    0.78161   0.79884   45.584
 5230.00    0.78705   0.80239   44.937
 5231.00    0.79949   0.80783   44.883
 5232.00    0.80800   0.81235   45.023
 5233.00    0.81065   0.81599   44.999
 5234.00    0.81708   0.82038   44.912
 5235.00    0.82792   0.82511   44.958
 5236.00    0.83198   0.82978   45.246
 5237.00    0.82702   0.83485   45.676
 5238.00    0.82296   0.83993   45.980
 5239.00    0.82565   0.84476   46.031
 5240.00    0.83254   0.84894   45.910
 5241.00    0.83785   0.85103   45.703
 5242.00    0.83649   0.85091   45.468
 5243.00    0.83009   0.85042   45.322
 5244.00    0.82511   0.84931   45.376
 5245.00    0.82288   0.84498   45.465
 5246.00    0.82040   0.83882   45.288
 5247.00    0.81928   0.83472   44.934
 5248.00    0.82397   0.83149   44.790
 5249.00    0.83240   0.82639   45.059
 5250.00    0.83728   0.82233   45.698
 5251.00    0.83394   0.82242   46.481
 5252.00    0.82361   0.82421   47.057
 5253.00    0.81616   0.82516   47.108
 5254.00    0.82150   0.82701   46.609
 5255.00    0.83303   0.83119   46.127
 5256.00    0.83665   0.83524   46.262
 5257.00    0.83128   0.83652   46.777
 5258.00    0.82491   0.83512   47.005
 5259.00    0.82258   0.83180   46.787
 5260.00    0.82386   0.82526   46.416
 5261.00    0.82242   0.81477   46.235
 5262.00    0.81247   0.80235   46.421
 5263.00    0.79731   0.78975   46.794
 5264.00    0.78387   0.77677   47.021
 5265.00    0.77438   0.76487   46.954
 5266.00    0.76819   0.75769   46.727
 5267.00    0.76501   0.75399   46.748
 5268.00    0.76456   0.75011   47.098
 5269.00    0.76576   0.74919   46.961
 5270.00    0.76813   0.75502   45.966
 5271.00    0.77292   0.76270   45.373
 5272.00    0.78008   0.76873   46.172
 5273.00    0.78588   0.77702   47.639
 5274.00    0.78900   0.78789   48.611
 5275.00    0.79492   0.79787   48.961
 5276.00    0.80538   0.80692   49.001
 5277.00    0.81149   0.81516   48.751
 5278.00    0.81033   0.82069   48.327
 5279.00    0.81491   0.82418   48.190
 5280.00    0.83109   0.82744   48.499
 5281.00    0.84399   0.82983   48.774
 5282.00    0.84189   0.83075   48.686
 5283.00    0.83065   0.83200   48.516
 5284.00    0.82200   0.83609   48.380
 5285.00    0.82448   0.84228   47.925
 5286.00    0.83702   0.84810   47.276
 5287.00    0.84833   0.85348   47.227
 5288.00    0.85229   0.85948   47.794
 5289.00    0.85378   0.86460   47.824
 5290.00    0.85727   0.86679   46.937
 5291.00    0.86165   0.86595   46.139
 5292.00    0.86269   0.86293   46.016
 5293.00    0.85624   0.85848   46.270
 5294.00    0.84600   0.85273   46.460
 5295.00    0.84243   0.84550   46.356
 5296.00    0.84672   0.83738   46.153
 5297.00    0.84892   0.83082   46.350
 5298.00    0.84338   0.82767   47.102
 5299.00    0.83296   0.82669   48.047
 5300.00    0.82377   0.82666   48.485
 5301.00    0.82153   0.82925   47.893
 5302.00    0.82642   0.83525   47.162
 5303.00    0.83391   0.84218   47.783
 5304.00    0.84137   0.84812   49.193
 5305.00    0.84858   0.85347   49.233
 5306.00    0.85386   0.85842   48.278
 5307.00    0.85519   0.86262   48.568
 5308.00    0.85503   0.86559   49.960
 5309.00    0.85810   0.86697   50.397
 5310.00    0.86381   0.86708   49.550
 5311.00    0.86804   0.86633   48.829
 5312.00    0.87026   0.86453   49.048
 5313.00    0.87170   0.86207   50.119
 5314.00    0.86911   0.85913   51.058
 5315.00    0.85879   0.85528   50.851
 5316.00    0.84570   0.85161   50.364
 5317.00    0.83872   0.84944   50.924
 5318.00    0.84023   0.84727   51.698
 5319.00    0.84678   0.84378   51.166
 5320.00    0.85285   0.84035   50.283
 5321.00    0.85350   0.83725   50.628
 5322.00    0.84727   0.83204   51.558
 5323.00    0.83631   0.82387   51.536
 5324.00    0.82563   0.81585   50.603
 5325.00    0.81817   0.80938   49.787
 5326.00    0.80945   0.80191   49.815
 5327.00    0.79615   0.79395   50.772
 5328.00    0.78567   0.79113   51.794
 5329.00    0.78508   0.79396   51.989
 5330.00    0.78926   0.79788   51.685
 5331.00    0.79220   0.80228   51.515
 5332.00    0.79813   0.80975   51.403
 5333.00    0.81073   0.81902   51.201
 5334.00    0.82341   0.82615   51.263
 5335.00    0.82915   0.82973   51.731
 5336.00    0.82911   0.83137   51.980
 5337.00    0.82755   0.83262   51.504
 5338.00    0.82727   0.83213   50.649
 5339.00    0.82856   0.82926   50.049
 5340.00    0.82912   0.82712   50.156
 5341.00    0.82716   0.82725   50.929
 5342.00    0.82339   0.82756   51.699
 5343.00    0.82016   0.82757   51.922
 5344.00    0.82034   0.82833   51.701
 5345.00    0.82450   0.82991   51.195
 5346.00    0.82992   0.83197   50.367
 5347.00    0.83400   0.83374   49.647
 5348.00    0.83591   0.83501   49.934
 5349.00    0.83550   0.83783   51.116
 5350.00    0.83315   0.84300   51.667
 5351.00    0.83227   0.84826   50.979
 5352.00    0.83855   0.85316   50.215
 5353.00    0.85196   0.85946   50.097
 5354.00    0.86563   0.86626   50.320
 5355.00    0.87518   0.87125   50.520
 5356.00    0.88074   0.87440   50.605
 5357.00    0.88066   0.87641   50.604
 5358.00    0.87218   0.87669   50.568
 5359.00    0.86176   0.87475   50.439
 5360.00    0.86184   0.87074   50.148
 5361.00    0.86989   0.86523   50.023
 5362.00    0.87017   0.85932   50.594
 5363.00    0.85832   0.85294   51.680
 5364.00    0.84290   0.84587   -2.000
 5365.00    0.82960   0.83906   -2.000
 5366.00    0.81905   0.83286   -2.000
 5367.00    0.81236   0.82716   -2.000
 5368.00    0.81084   0.82239   -2.000
 5369.00    0.81233   0.81865   -2.000
 5370.00    0.81314   0.81646   -2.000
 5371.00    0.81403   0.81748   -2.000
 5372.00    0.81870   0.82133   -2.000
 5373.00    0.82804   0.82616   -2.000
 5374.00    0.83910   0.83218   -2.000
 5375.00    0.84534   0.83909   -2.000
 5376.00    0.84235   0.84503   -2.000
 5377.00    0.83685   0.84944   -2.000
 5378.00    0.83837   0.85224   -2.000
 5379.00    0.84411   0.85284   53.704
 5380.00    0.84640   0.85233   53.150
 5381.00    0.84683   0.85175   52.134
 5382.00    0.85004   0.85034   52.004
 5383.00    0.85289   0.84882   52.664
 5384.00    0.85099   0.84819   53.295
 5385.00    0.84815   0.84718   53.480
 5386.00    0.84953   0.84537   53.276
 5387.00    0.85254   0.84361   53.033
 5388.00    0.85269   0.84112   53.090
 5389.00    0.85072   0.83719   53.492
 5390.00    0.84817   0.83310   53.863
 5391.00    0.84263   0.82898   53.403
 5392.00    0.83338   0.82391   52.038
 5393.00    0.82609   0.81904   51.127
 5394.00    0.82361   0.81583   51.542
 5395.00    0.81900   0.81256   52.496
 5396.00    0.80860   0.80879   53.004
 5397.00    0.80143   0.80753   53.187
 5398.00    0.80394   0.80814   53.433
 5399.00    0.80975   0.80701   53.642
 5400.00    0.81244   0.80519   53.624
 5401.00    0.81382   0.80480   53.424
 5402.00    0.81512   0.80330   53.223
 5403.00    0.81203   0.79942   53.230
 5404.00    0.80185   0.79544   53.485
 5405.00    0.78753   0.79258   53.791
 5406.00    0.77475   0.79086   54.012
 5407.00    0.76944   0.79059   54.210
 5408.00    0.77373   0.79165   54.399
 5409.00    0.78480   0.79445   54.456
 5410.00    0.79848   0.79986   54.326
 5411.00    0.81139   0.80659   54.116
 5412.00    0.82200   0.81297   54.057
 5413.00    0.83053   0.81912   54.393
 5414.00    0.83679   0.82557   54.974
 5415.00    0.84002   0.83161   55.289
 5416.00    0.84179   0.83600   55.347
 5417.00    0.84540   0.83872   55.684
 5418.00    0.85015   0.84054   56.105
 5419.00    0.85182   0.84107   55.727
 5420.00    0.85078   0.84026   54.781
 5421.00    0.85147   0.83935   54.450
 5422.00    0.85269   0.83796   54.936
 5423.00    0.84870   0.83550   55.418
 5424.00    0.84050   0.83343   55.319
 5425.00    0.83460   0.83183   54.739
 5426.00    0.83167   0.82979   54.388
 5427.00    0.82749   0.82692   54.985
 5428.00    0.82234   0.82276   56.027
 5429.00    0.82005   0.81897   56.307
 5430.00    0.82073   0.81668   56.097
 5431.00    0.82117   0.81363   56.503
 5432.00    0.81905   0.81031   57.047
 5433.00    0.81440   0.80997   56.506
 5434.00    0.81063   0.81226   55.605
 5435.00    0.81178   0.81529   55.891
 5436.00    0.81753   0.81996   57.243
 5437.00    0.82464   0.82661   58.386
 5438.00    0.83089   0.83349   58.464
 5439.00    0.83597   0.83953   57.469
 5440.00    0.84167   0.84410   56.111
 5441.00    0.84853   0.84648   55.159
 5442.00    0.85151   0.84613   54.828
 5443.00    0.84591   0.84345   54.923
 5444.00    0.83568   0.83933   55.024
 5445.00    0.82760   0.83402   54.848
 5446.00    0.82327   0.82904   54.663
 5447.00    0.82115   0.82622   54.823
 5448.00    0.82004   0.82478   55.235
 5449.00    0.81948   0.82374   55.546
 5450.00    0.81977   0.82361   55.440
 5451.00    0.82152   0.82396   55.021
 5452.00    0.82520   0.82382   55.011
 5453.00    0.82933   0.82298   55.743
 5454.00    0.82974   0.82134   56.384
 5455.00    0.82537   0.82021   56.228
 5456.00    0.82235   0.82072   55.871
 5457.00    0.82552   0.82163   56.012
 5458.00    0.83222   0.82207   56.536
 5459.00    0.83751   0.82312   56.976
 5460.00    0.83839   0.82498   56.935
 5461.00    0.83454   0.82569   56.459
 5462.00    0.82833   0.82493   56.136
 5463.00    0.82279   0.82512   56.344
 5464.00    0.82026   0.82619   56.862
 5465.00    0.82231   0.82602   57.016
 5466.00    0.82915   0.82581   56.187
 5467.00    0.83727   0.82714   55.794
 5468.00    0.83980   0.82753   58.730
 5469.00    0.83511   0.82568   61.414
 5470.00    0.82904   0.82401   54.011
 5471.00    0.82574   0.82203   48.423
 5472.00    0.82463   0.81727   65.989
 5473.00    0.82619   0.81219   94.034
 5474.00    0.83209   0.80896   -2.000
 5475.00    0.83579   0.80485   -2.000
 5476.00    0.82653   0.80043   -2.000
 5477.00    0.81716   0.79942   -2.000
 5478.00    0.83730   0.80056   -2.000
 5479.00    0.87678   0.80102   -2.000
 5480.00    0.88853   0.80265   -2.000
 5481.00    0.85784   0.80690   -2.000
 5482.00    0.81160   0.81098   -2.000
 5483.00    0.78060   0.81384   -2.000
 5484.00    0.78395   0.81726   -2.000
 5485.00    0.81868   0.82061   -2.000
 5486.00    0.86459   0.82208   -2.000
 5487.00    0.90293   0.82320   -2.000
 5488.00    0.92167   0.82484   -2.000
 5489.00    0.91626   0.82508   -2.000
 5490.00    0.89088   0.82492   -2.000
 5491.00    0.86017   0.82596   -2.000
 5492.00    0.84057   0.82622   -2.000
 5493.00    0.83304   0.82543   -2.000
 5494.00    0.82853   0.82587   -2.000
 5495.00    0.82414   0.82642   -2.000
 5496.00    0.82209   0.82508   -2.000
 5497.00    0.82277   0.82399   -2.000
 5498.00    0.82377   0.82415   12.235
 5499.00    0.82034   0.82300   12.216
 5500.00    0.81036   0.82060   12.194
 5501.00    0.80088   0.81897   12.441
 5502.00    0.80041   0.81742   12.890
 5503.00    0.80749   0.81532   12.473
 5504.00    0.81526   0.81345   11.295
 5505.00    0.81922   0.81155   12.042
 5506.00    0.81909   0.81018   19.584
 5507.00    0.81928   0.80975   57.119
 5508.00    0.82227   0.80870   99.128
 5509.00    0.82228   0.80749   58.639
 5510.00    0.81561   0.80737   50.889
 5511.00    0.81044   0.80726   58.836
 5512.00    0.81376   0.80701   62.276
 5513.00    0.81967   0.80806   58.777
 5514.00    0.82224   0.81041   57.032
 5515.00    0.82628   0.81321   57.429
 5516.00    0.83610   0.81677   57.900
 5517.00    0.84670   0.82125   57.975
 5518.00    0.85195   0.82552   58.025
 5519.00    0.85099   0.82878   58.422
 5520.00    0.84664   0.83111   59.246
 5521.00    0.84339   0.83228   60.143
 5522.00    0.84368   0.83186   60.572
 5523.00    0.84580   0.82982   60.158
 5524.00    0.84583   0.82661   59.385
 5525.00    0.83991   0.82327   59.468
 5526.00    0.82963   0.81993   60.137
 5527.00    0.82281   0.81639   59.296
 5528.00    0.82240   0.81415   57.938
 5529.00    0.82299   0.81382   60.088
 5530.00    0.82189   0.81377   62.522
 5531.00    0.82275   0.81397   55.170
 5532.00    0.82720   0.81574   50.329
 5533.00    0.83238   0.81764   72.230
 5534.00    0.83637   0.81856   99.128
 5535.00    0.83952   0.82032   33.748
 5536.00    0.84098   0.82276   14.585
 5537.00    0.83904   0.82441   11.016
 5538.00    0.83668   0.82603   11.436
 5539.00    0.84019   0.82814   12.185
 5540.00    0.84823   0.82983   11.859
 5541.00    0.85252   0.83067   11.824
 5542.00    0.85060   0.83106   12.017
 5543.00    0.84698   0.83164   11.218
 5544.00    0.84544   0.83232   11.006
 5545.00    0.84724   0.83261   15.098
 5546.00    0.85216   0.83339   36.486
 5547.00    0.85905   0.83519   99.128
 5548.00    0.86653   0.83672   69.448
 5549.00    0.87250   0.83762   50.255
 5550.00    0.87287   0.83857   55.628
 5551.00    0.86466   0.83908   62.423
 5552.00    0.85262   0.83848   60.245
 5553.00    0.84510   0.83716   58.542
 5554.00    0.84382   0.83580   59.752
 5555.00    0.84532   0.83442   60.329
 5556.00    0.84695   0.83262   59.810
 5557.00    0.84759   0.83085   60.081
 5558.00    0.84714   0.82941   61.201
 5559.00    0.84616   0.82772   62.007
 5560.00    0.84546   0.82584   62.090
 5561.00    0.84524   0.82374   61.719
 5562.00    0.84403   0.82128   61.118
 5563.00    0.84078   0.81913   60.486
 5564.00    0.83754   0.81707   60.160
 5565.00    0.83668   0.81448   60.316
 5566.00    0.83747   0.81276   60.647
 5567.00    0.83797   0.81229   60.891
 5568.00    0.83762   0.81096   61.396
 5569.00    0.83643   0.80999   61.914
 5570.00    0.83387   0.81134   60.579
 5571.00    0.83055   0.81198   57.895
 5572.00    0.82944   0.81173   58.570
 5573.00    0.83204   0.81390   62.653
 5574.00    0.83531   0.81623   58.389
 5575.00    0.83633   0.81684   50.115
 5576.00    0.83608   0.81875   61.205
 5577.00    0.83631   0.82106   99.128
 5578.00    0.83718   0.82138   48.015
 5579.00    0.83863   0.82156   17.334
 5580.00    0.84133   0.82146   11.388
 5581.00    0.84498   0.81925   11.048
 5582.00    0.84756   0.81589   11.967
 5583.00    0.84775   0.81183   11.964
 5584.00    0.84615   0.80640   11.838
 5585.00    0.84382   0.80024   12.135
 5586.00    0.84118   0.79447   11.608
 5587.00    0.83766   0.78949   10.954
 5588.00    0.83188   0.78560   13.373
 5589.00    0.82382   0.78352   27.067
 5590.00    0.81564   0.78321   89.176
 5591.00    0.81072   0.78451   84.412
 5592.00    0.81208   0.78734   52.708
 5593.00    0.81821   0.79024   53.244
 5594.00    0.82330   0.79285   61.360
 5595.00    0.82489   0.79598   61.511
 5596.00    0.82537   0.79805   58.725
 5597.00    0.82585   0.79811   58.630
 5598.00    0.82510   0.79826   59.671
 5599.00    0.82310   0.79866   60.218
 5600.00    0.82130   0.79843   60.365
 5601.00    0.81956   0.79893   60.653
 5602.00    0.81674   0.80128   61.380
 5603.00    0.81525   0.80500   61.994
 5604.00    0.81963   0.80957   61.581
 5605.00    0.82969   0.81495   60.815
 5606.00    0.84096   0.82067   61.138
 5607.00    0.85038   0.82574   61.910
 5608.00    0.85696   0.82938   61.301
 5609.00    0.85983   0.83152   60.129
 5610.00    0.85834   0.83166   60.514
 5611.00    0.85323   0.82932   61.867
 5612.00    0.84635   0.82601   61.962
 5613.00    0.83969   0.82198   61.043
 5614.00    0.83474   0.81636   60.800
 5615.00    0.83187   0.81132   60.984
 5616.00    0.83060   0.80823   60.472
 5617.00    0.83055   0.80552   59.858
 5618.00    0.83060   0.80364   60.298
 5619.00    0.82770   0.80359   61.327
 5620.00    0.82027   0.80376   61.732
 5621.00    0.81291   0.80376   61.469
 5622.00    0.81127   0.80436   61.107
 5623.00    0.81450   0.80446   60.618
 5624.00    0.81826   0.80447   60.067
 5625.00    0.81977   0.80583   60.482
 5626.00    0.81910   0.80750   62.288
 5627.00    0.81956   0.80926   63.347
 5628.00    0.82321   0.81239   61.888
 5629.00    0.82652   0.81575   60.257
 5630.00    0.82638   0.81804   60.725
 5631.00    0.82589   0.81986   62.286
 5632.00    0.82806   0.82092   63.056
 5633.00    0.83006   0.82030   62.882
 5634.00    0.82907   0.81872   62.518
 5635.00    0.82719   0.81680   62.457
 5636.00    0.82659   0.81409   62.786
 5637.00    0.82577   0.81116   63.200
 5638.00    0.82292   0.80919   63.491
 5639.00    0.81845   0.80763   63.846
 5640.00    0.81429   0.80613   64.351
 5641.00    0.81280   0.80592   64.652
 5642.00    0.81442   0.80661   64.396
 5643.00    0.81666   0.80725   63.588
 5644.00    0.81721   0.80849   62.766
 5645.00    0.81586   0.81024   62.773
 5646.00    0.81441   0.81175   63.493
 5647.00    0.81602   0.81319   63.524
 5648.00    0.82228   0.81449   62.422
 5649.00    0.83172   0.81531   61.412
 5650.00    0.84033   0.81544   61.042
 5651.00    0.84290   0.81480   60.681
 5652.00    0.83771   0.81378   60.331
 5653.00    0.82780   0.81162   60.890
 5654.00    0.81781   0.80774   62.211
 5655.00    0.81169   0.80418   62.757
 5656.00    0.80982   0.80093   61.940
 5657.00    0.80930   0.79619   60.789
 5658.00    0.80895   0.79227   60.377
 5659.00    0.81002   0.79098   61.200
 5660.00    0.81313   0.78997   62.754
 5661.00    0.81732   0.78926   63.668
 5662.00    0.82079   0.79090   63.201
 5663.00    0.82161   0.79350   61.860
 5664.00    0.81916   0.79564   60.987
 5665.00    0.81430   0.79828   61.732
 5666.00    0.80881   0.80129   63.246
 5667.00    0.80475   0.80384   63.442
 5668.00    0.80337   0.80645   62.745
 5669.00    0.80497   0.80933   63.176
 5670.00    0.80921   0.81203   64.322
 5671.00    0.81522   0.81474   64.154
 5672.00    0.82171   0.81778   62.794
 5673.00    0.82748   0.82045   61.885
 5674.00    0.83231   0.82212   61.972
 5675.00    0.83662   0.82329   62.642
 5676.00    0.84050   0.82401   63.226
 5677.00    0.84356   0.82335   63.273
 5678.00    0.84505   0.82140   63.182
 5679.00    0.84383   0.81927   63.590
 5680.00    0.83852   0.81684   64.340
 5681.00    0.82869   0.81347   64.841
 5682.00    0.81646   0.81019   64.841
 5683.00    0.80504   0.80779   64.582
 5684.00    0.79654   0.80562   64.728
 5685.00    0.79216   0.80394   65.566
 5686.00    0.79258   0.80345   66.118
 5687.00    0.79761   0.80383   65.396
 5688.00    0.80582   0.80502   64.014
 5689.00    0.81450   0.80709   63.053
 5690.00    0.82012   0.80942   62.885
 5691.00    0.82173   0.81191   63.244
 5692.00    0.82351   0.81447   63.355
 5693.00    0.82823   0.81613   62.655
 5694.00    0.83187   0.81655   61.440
 5695.00    0.83058   0.81647   60.302
 5696.00    0.82626   0.81540   59.640
 5697.00    0.82200   0.81277   59.595
 5698.00    0.81840   0.80985   60.061
 5699.00    0.81501   0.80703   60.878
 5700.00    0.81159   0.80355   61.930
 5701.00    0.80833   0.80002   62.952
 5702.00    0.80586   0.79701   63.473
 5703.00    0.80427   0.79417   63.454
 5704.00    0.80271   0.79101   63.527
 5705.00    0.80075   0.78768   63.916
 5706.00    0.79908   0.78514   64.054
 5707.00    0.79870   0.78273   63.872
 5708.00    0.80030   0.78017   64.190
 5709.00    0.80321   0.77968   65.141
 5710.00    0.80550   0.78064   65.712
 5711.00    0.80698   0.78193   65.487
 5712.00    0.80972   0.78564   65.218
 5713.00    0.81494   0.79080   65.275
 5714.00    0.82194   0.79555   65.289
 5715.00    0.82915   0.80132   65.264
 5716.00    0.83510   0.80732   65.714
 5717.00    0.83991   0.81203   66.596
 5718.00    0.84491   0.81662   67.154
 5719.00    0.84945   0.82076   66.889
 5720.00    0.85136   0.82350   65.967
 5721.00    0.85132   0.82587   65.106
 5722.00    0.85246   0.82760   65.007
 5723.00    0.85537   0.82791   65.139
 5724.00    0.85792   0.82779   64.334
 5725.00    0.85861   0.82738   63.184
 5726.00    0.85727   0.82593   63.266
 5727.00    0.85432   0.82429   64.333
 5728.00    0.85085   0.82327   64.726
 5729.00    0.84900   0.82224   63.922
 5730.00    0.85046   0.82119   62.757
 5731.00    0.85327   0.82102   62.199
 5732.00    0.85389   0.82149   62.719
 5733.00    0.85243   0.82177   63.622
 5734.00    0.85107   0.82228   63.787
 5735.00    0.84952   0.82308   63.489
 5736.00    0.84643   0.82348   63.657
 5737.00    0.84285   0.82362   64.087
 5738.00    0.84066   0.82367   63.975
 5739.00    0.83915   0.82340   63.247
 5740.00    0.83694   0.82310    0.000
 5741.00    0.83516   0.82287    0.000
 5742.00    0.83532   0.82253    0.000
 5743.00    0.83600   0.82223    0.000
 5744.00    0.83514   0.82188    0.000
 5745.00    0.83341   0.82144    0.000
 5746.00    0.83271   0.82072    0.000
 5747.00    0.83397   0.81950    0.000
 5748.00    0.83646   0.81824    0.000
 5749.00    0.83745   0.81684    0.000
 5750.00    0.83516   0.81495    0.000
 5751.00    0.83146   0.81339    0.000
 5752.00    0.82950   0.81230    0.000
 5753.00    0.83132   0.81129    0.000
 5754.00    0.83658   0.81102    0.000
 5755.00    0.84202   0.81142    0.000
 5756.00    0.84425   0.81175    0.000
 5757.00    0.84212   0.81234    0.000
 5758.00    0.83765   0.81286    0.000
 5759.00    0.83586   0.81273    0.000
 5760.00    0.83964   0.81273    0.000
 5761.00    0.84663   0.81280    0.000
 5762.00    0.85185   0.81279    0.000
 5763.00    0.85040   0.81384    0.000
 5764.00    0.84257   0.81560    0.000
 5765.00    0.83530   0.81727    0.000
 5766.00    0.83370   0.81958    0.000
 5767.00    0.83701   0.82188    0.000
 5768.00    0.84198   0.82308    0.000
 5769.00    0.84534   0.82390    0.000
 5770.00    0.84633   0.82415    0.000
 5771.00    0.84695   0.82326    0.000
 5772.00    0.84745   0.82215    0.000
 5773.00    0.84546   0.82076    0.000
 5774.00    0.84042   0.81855    0.000
 5775.00    0.83454   0.81633    0.000
 5776.00    0.82985   0.81373    0.000
 5777.00    0.82709   0.81001    0.000
 5778.00    0.82602   0.80606    0.000
 5779.00    0.82541   0.80188    0.000
 5780.00    0.82280   0.79699    0.000
 5781.00    0.81566   0.79244    0.000
 5782.00    0.80498   0.78912    0.000
 5783.00    0.79500   0.78661    0.000
 5784.00    0.78981   0.78508    0.000
 5785.00    0.79187   0.78563    0.000
 5786.00    0.80086   0.78757    0.000
 5787.00    0.81335   0.78971   -2.000
 5788.00    0.82269   0.79302   -2.000
 5789.00    0.82207   0.79693   -2.000
 5790.00    0.81082   0.79995   -2.000
 5791.00    0.79448   0.80321   -2.000
 5792.00    0.78198   0.80652   -2.000
 5793.00    0.78049   0.80870   -2.000
 5794.00    0.78741   0.81083   -2.000
 5795.00    0.79423   0.81317   -2.000
 5796.00    0.79577   0.81472   -2.000
 5797.00    0.79153   0.81601   -2.000
 5798.00    0.78527   0.81781   -2.000
 5799.00    0.78233   0.81928   -2.000
 5800.00    0.78592   0.82001   -2.000
 5801.00    0.79573   0.82094   -2.000
 5802.00    0.80714   0.82161   -2.000
 5803.00    0.81569   0.82124   -2.000
 5804.00    0.82257   0.82078   -2.000
 5805.00    0.83000   0.82040   -2.000
 5806.00    0.83535   0.81969   -2.000
 5807.00    0.83554   0.81926    0.000
 5808.00    0.83233   0.81917    0.000
 5809.00    0.82938   0.81917    0.000
 5810.00    0.82857   0.81938    0.000
 5811.00    0.82957   0.81947    0.000
 5812.00    0.83001   0.81936    0.000
 5813.00    0.82797   0.81932    0.000
 5814.00    0.82400   0.81929    0.000
 5815.00    0.81954   0.81919    0.000
 5816.00    0.81569   0.81957    0.000
 5817.00    0.81405   0.82056    0.000
 5818.00    0.81703   0.82164    0.000
 5819.00    0.82444   0.82295    0.000
 5820.00    0.83188   0.82463    0.000
 5821.00    0.83574   0.82603    0.000
 5822.00    0.83629   0.82704    0.000
 5823.00    0.83541   0.82793    0.000
 5824.00    0.83490   0.82856    0.000
 5825.00    0.83535   0.82886    0.000
 5826.00    0.83597   0.82903    0.000
 5827.00    0.83661   0.82910    0.000
 5828.00    0.83830   0.82902    0.000
 5829.00    0.84091   0.82882    0.000
 5830.00    0.84261   0.82833    0.000
 5831.00    0.84272   0.82766    0.000
 5832.00    0.84244   0.82704    0.000
 5833.00    0.84306   0.82622    0.000
 5834.00    0.84483   0.82528    0.000
 5835.00    0.84626   0.82484    0.000
 5836.00    0.84492   0.82467    0.000
 5837.00    0.84124   0.82443    0.000
 5838.00    0.83831   0.82473    0.000
 5839.00    0.83680   0.82542    0.000
 5840.00    0.83467   0.82576    0.000
 5841.00    0.83126   0.82598    0.000
 5842.00    0.82788   0.82610    0.000
 5843.00    0.82553   0.82549    0.000
 5844.00    0.82440   0.82428    0.000
 5845.00    0.82440   0.82274    0.000
 5846.00    0.82507   0.82053    0.000
 5847.00    0.82532   0.81795    0.000
 5848.00    0.82402   0.81525    0.000
 5849.00    0.82127   0.81207    0.000
 5850.00    0.81830   0.80876    0.000
 5851.00    0.81650   0.80553    0.000
 5852.00    0.81630   0.80196    0.000
 5853.00    0.81569   0.79841    0.000
 5854.00    0.81251   0.79541    0.000
 5855.00    0.80897   0.79273    0.000
 5856.00    0.80893   0.79040    0.000
 5857.00    0.81223   0.78924    0.000
 5858.00    0.81595   0.78908    0.000
 5859.00    0.81790   0.78934    0.000
 5860.00    0.81703   0.79066    0.000
 5861.00    0.81338   0.79272    0.000
 5862.00    0.80796   0.79464    0.000
 5863.00    0.80245   0.79690    0.000
 5864.00    0.79864   0.79930    0.000
 5865.00    0.79781   0.80114    0.000
 5866.00    0.79994   0.80287    0.000
 5867.00    0.80316   0.80466    0.000
 5868.00    0.80633   0.80584    0.000
 5869.00    0.81133   0.80658    0.000
 5870.00    0.81943   0.80716    0.000
 5871.00    0.82785   0.80698    0.000
 5872.00    0.83396   0.80609    0.000
 5873.00    0.83909   0.80483    0.000
 5874.00    0.84552   0.80311    0.000
 5875.00    0.85357   0.80107    0.000
 5876.00    0.86054   0.79891    0.000
 5877.00    0.86099   0.79696    0.000
 5878.00    0.85277   0.79500    0.000
 5879.00    0.84056   0.79281    0.000
 5880.00    0.82871   0.79059    0.000
 5881.00    0.81686   0.78784    0.000
 5882.00    0.80404   0.78380    0.000
 5883.00    0.79116   0.77823    0.000
 5884.00    0.77916   0.77122    0.000
 5885.00    0.76798   0.76194    0.000
 5886.00    0.75669   0.75025    0.000
 5887.00    0.74408   0.73819    0.000
 5888.00    0.73062   0.72551    0.000
 5889.00    0.71880   0.71228    0.000
 5890.00    0.71009   0.70238    0.000
 5891.00    0.70407   0.69497    0.000
 5892.00    0.70050   0.68863    0.000
 5893.00    0.70010   0.68757    0.000
 5894.00    0.70354   0.68964    0.000
 5895.00    0.71082   0.69206    0.000
 5896.00    0.72050   0.69908    0.000
 5897.00    0.73033   0.70850    0.000
 5898.00    0.74005   0.71726    0.000
 5899.00    0.75135   0.72866    0.000
 5900.00    0.76423   0.74096    0.000
 5901.00    0.77662   0.75117   68.664
 5902.00    0.78627   0.76116   68.749
 5903.00    0.79172   0.77038   68.466
 5904.00    0.79337   0.77710   67.618
 5905.00    0.79309   0.78243   67.444
 5906.00    0.79260   0.78679   68.095
 5907.00    0.79307   0.78964   68.674
 5908.00    0.79500   0.79142   68.666
 5909.00    0.79803   0.79248   68.238
 5910.00    0.80068   0.79275   67.958
 5911.00    0.80148   0.79241   68.255
 5912.00    0.80139   0.79153   68.573
 5913.00    0.80245   0.79041   68.107
 5914.00    0.80466   0.78960   67.494
 5915.00    0.80681   0.78879   67.895
 5916.00    0.80876   0.78844   69.143
 5917.00    0.81084   0.78903   70.274
 5918.00    0.81230   0.78969   70.939
 5919.00    0.81194   0.79083   71.298
 5920.00    0.80936   0.79241   71.397
 5921.00    0.80537   0.79348   71.355
 5922.00    0.80219   0.79465   71.727
 5923.00    0.80149   0.79564   72.787
 5924.00    0.80213   0.79583   73.587
 5925.00    0.80258   0.79600   73.267
 5926.00    0.80393   0.79580   72.783
 5927.00    0.80752   0.79508   73.015
 5928.00    0.81216   0.79452   72.794
 5929.00    0.81581   0.79376   71.260
 5930.00    0.81746   0.79308   70.044
 5931.00    0.81715   0.79280   70.276
 5932.00    0.81565   0.79259   70.394
 5933.00    0.81357   0.79271   69.268
 5934.00    0.81078   0.79304   68.667
 5935.00    0.80766   0.79358   69.662
 5936.00    0.80589   0.79414   70.270
 5937.00    0.80618   0.79439   69.168
 5938.00    0.80694   0.79495   68.336
 5939.00    0.80682   0.79527   68.878
 5940.00    0.80637   0.79500   68.909
 5941.00    0.80635   0.79517   67.599
 5942.00    0.80662   0.79524   67.158
 5943.00    0.80684   0.79483   68.422
 5944.00    0.80682   0.79479   69.117
 5945.00    0.80627   0.79464   68.274
 5946.00    0.80485   0.79406   68.218
 5947.00    0.80283   0.79350   69.995
 5948.00    0.80120   0.79272   71.710
 5949.00    0.80028   0.79173   71.855
 5950.00    0.79958   0.79087   71.144
 5951.00    0.79996   0.78993   70.654
 5952.00    0.80351   0.78909   70.888
 5953.00    0.80904   0.78882   71.909
 5954.00    0.81197   0.78869   73.404
 5955.00    0.81060   0.78866   74.681
 5956.00    0.80748   0.78944   74.914
 5957.00    0.80521   0.79060   74.160
 5958.00    0.80469   0.79178   73.324
 5959.00    0.80457   0.79346   72.865
 5960.00    0.80262   0.79543   72.637
 5961.00    0.80004   0.79720   72.462
 5962.00    0.80064   0.79878   72.271
 5963.00    0.80468   0.80034   72.020
 5964.00    0.80881   0.80160   71.694
 5965.00    0.81039   0.80239   71.394
 5966.00    0.80884   0.80334   71.217
 5967.00    0.80608   0.80413   70.965
 5968.00    0.80505   0.80450   70.383
 5969.00    0.80623   0.80503   69.793
 5970.00    0.80824   0.80520   69.698
 5971.00    0.81044   0.80467   69.813
 5972.00    0.81263   0.80382   69.568
 5973.00    0.81341   0.80247   69.394
 5974.00    0.81126   0.80046   70.054
 5975.00    0.80669   0.79815   71.124
 5976.00    0.80155   0.79597   71.598
 5977.00    0.79714   0.79369   71.510
 5978.00    0.79427   0.79150   71.501
 5979.00    0.79382   0.78997   71.681
 5980.00    0.79571   0.78844   71.823
 5981.00    0.79766   0.78697   71.888
 5982.00    0.79705   0.78613   71.966
 5983.00    0.79364   0.78514   72.114
 5984.00    0.78911   0.78444   72.441
 5985.00    0.78596   0.78455   73.217
 5986.00    0.78587   0.78464   74.424
 5987.00    0.78816   0.78533   75.237
 5988.00    0.79075   0.78672   75.023
 5989.00    0.79161   0.78800   74.483
 5990.00    0.79062   0.78938   74.417
 5991.00    0.79092   0.79084   74.569
 5992.00    0.79447   0.79206   74.456
 5993.00    0.79858   0.79269   74.158
 5994.00    0.79968   0.79290   73.890
 5995.00    0.79681   0.79301   73.608
 5996.00    0.79137   0.79238   73.094
 5997.00    0.78623   0.79136   72.140
 5998.00    0.78315   0.79054   71.195
 5999.00    0.78114   0.78924   71.444
 6000.00    0.77903   0.78801   72.861
 6001.00    0.77714   0.78698   73.262
 6002.00    0.77672   0.78550   71.759
 6003.00    0.77916   0.78449   70.476
 6004.00    0.78370   0.78340   70.467
 6005.00    0.78701   0.78191   70.355
 6006.00    0.78757   0.78129   69.500
 6007.00    0.78732   0.78044   69.165
 6008.00    0.78754   0.77960   70.011
 6009.00    0.78718   0.77969   71.244
 6010.00    0.78479   0.77932   72.024
 6011.00    0.77978   0.77917   72.177
 6012.00    0.77366   0.77936   71.917
 6013.00    0.76960   0.77885   71.635
 6014.00    0.76899   0.77849   71.784
 6015.00    0.77072   0.77800   72.696
 6016.00    0.77379   0.77715   74.017
 6017.00    0.77775   0.77669   74.800
 6018.00    0.78111   0.77598   74.936
 6019.00    0.78170   0.77543   75.198
 6020.00    0.77957   0.77577   75.540
 6021.00    0.77689   0.77612   75.232
 6022.00    0.77516   0.77689   74.845
 6023.00    0.77470   0.77843   75.705
 6024.00    0.77544   0.78037   77.066
 6025.00    0.77711   0.78268   76.694
 6026.00    0.77913   0.78501   74.878
 6027.00    0.78119   0.78776   73.743
 6028.00    0.78467   0.79061   73.699
 6029.00    0.79096   0.79283   73.770
 6030.00    0.79759   0.79518   73.338
 6031.00    0.80040   0.79741   72.472
 6032.00    0.79953   0.79897   71.764
 6033.00    0.79782   0.80022   71.719
 6034.00    0.79592   0.80130   71.887
 6035.00    0.79312   0.80199   71.598
 6036.00    0.79015   0.80210   71.429
 6037.00    0.78863   0.80216   72.138
 6038.00    0.78952   0.80210   72.738
 6039.00    0.79263   0.80170   71.972
 6040.00    0.79630   0.80163   70.972
 6041.00    0.79862   0.80159   71.358
 6042.00    0.79904   0.80165   72.636
 6043.00    0.79812   0.80223   73.505
 6044.00    0.79700   0.80270   73.953
 6045.00    0.79692   0.80325   74.554
 6046.00    0.79881   0.80397   75.205
 6047.00    0.80252   0.80421   75.564
 6048.00    0.80616   0.80417   75.719
 6049.00    0.80720   0.80394   75.936
 6050.00    0.80377   0.80311   76.299
 6051.00    0.79652   0.80185   76.506
 6052.00    0.78974   0.80047   75.834
 6053.00    0.78714   0.79890   74.375
 6054.00    0.78838   0.79730   73.647
 6055.00    0.79131   0.79582   74.187
 6056.00    0.79406   0.79469   74.210
 6057.00    0.79516   0.79385   72.934
 6058.00    0.79368   0.79306   72.546
 6059.00    0.78989   0.79243   74.006
 6060.00    0.78544   0.79196   74.856
 6061.00    0.78126   0.79138   73.554
 6062.00    0.77677   0.79063   72.192
 6063.00    0.77248   0.79036   72.513
 6064.00    0.77102   0.79023   74.142
 6065.00    0.77331   0.79051   75.679
 6066.00    0.77705   0.79196   75.538
 6067.00    0.78023   0.79346   73.952
 6068.00    0.78279   0.79556   73.059
 6069.00    0.78598   0.79845   73.504
 6070.00    0.79128   0.80058   73.789
 6071.00    0.79744   0.80242   73.141
 6072.00    0.80052   0.80382   72.473
 6073.00    0.79930   0.80408   72.640
 6074.00    0.79660   0.80359   73.802
 6075.00    0.79530   0.80206   75.409
 6076.00    0.79647   0.79987   76.422
 6077.00    0.79825   0.79735   76.603
 6078.00    0.79691   0.79431   76.670
 6079.00    0.79149   0.79149   76.849
 6080.00    0.78440   0.78881   76.760
 6081.00    0.77852   0.78623   76.547
 6082.00    0.77567   0.78464   76.787
 6083.00    0.77511   0.78330   77.323
 6084.00    0.77441   0.78196   77.366
 6085.00    0.77297   0.78161   76.668
 6086.00    0.77202   0.78147   75.643
 6087.00    0.77243   0.78096   74.819
 6088.00    0.77429   0.78096   74.521
 6089.00    0.77695   0.78110   74.539
 6090.00    0.77952   0.78115   74.368
 6091.00    0.78166   0.78152   73.839
 6092.00    0.78356   0.78183   73.147
 6093.00    0.78547   0.78237   72.641
 6094.00    0.78671   0.78321   72.522
 6095.00    0.78428   0.78349   72.445
 6096.00    0.77554   0.78334   72.071
 6097.00    0.76291   0.78314   72.003
 6098.00    0.75182   0.78216   72.916
 6099.00    0.74647   0.78016   74.119
 6100.00    0.74753   0.77834   74.411
 6101.00    0.75025   0.77639   73.856
 6102.00    0.74986   0.77423   73.421
 6103.00    0.74865   0.77358   74.024
 6104.00    0.75116   0.77318   75.772
 6105.00    0.75753   0.77322   77.074
 6106.00    0.76505   0.77536   76.545
 6107.00    0.77093   0.77731   75.548
 6108.00    0.77359   0.77908   75.746
 6109.00    0.77357   0.78167   76.699
 6110.00    0.77283   0.78340   77.250
 6111.00    0.77376   0.78484   77.079
 6112.00    0.77729   0.78614   76.515
 6113.00    0.78159   0.78606   76.089
 6114.00    0.78429   0.78580   75.964
 6115.00    0.78445   0.78515   75.628
 6116.00    0.78287   0.78318   74.669
 6117.00    0.78181   0.78113   73.344
 6118.00    0.78239   0.77844   72.265
 6119.00    0.78310   0.77517   72.058
 6120.00    0.78240   0.77278   72.797
 6121.00    0.78035   0.77013   73.753
 6122.00    0.77779   0.76801   74.239
 6123.00    0.77562   0.76755   74.206
 6124.00    0.77397   0.76703   74.019
 6125.00    0.77203   0.76755   74.149
 6126.00    0.76947   0.76933   74.633
 6127.00    0.76706   0.77042   74.934
 6128.00    0.76601   0.77157   74.747
 6129.00    0.76733   0.77285   74.303
 6130.00    0.77036   0.77288   73.774
 6131.00    0.77276   0.77180   73.096
 6132.00    0.77285   0.77026   72.377
 6133.00    0.77042   0.76761   71.976
 6134.00    0.76591   0.76392   72.195
 6135.00    0.76003   0.76039   73.169
 6136.00    0.75373   0.75708   74.775
 6137.00    0.74816   0.75473   76.566
 6138.00    0.74465   0.75371   77.822
 6139.00    0.74447   0.75359   77.879
 6140.00    0.74791   0.75540   77.060
 6141.00    0.75407   0.75857   76.423
 6142.00    0.76087   0.76180   76.384
 6143.00    0.76578   0.76499   76.666
 6144.00    0.76763   0.76797   76.987
 6145.00    0.76693   0.77077   77.169
 6146.00    0.76525   0.77257   76.969
 6147.00    0.76457   0.77326   76.259
 6148.00    0.76602   0.77364   75.459
 6149.00    0.76916   0.77353   75.104
 6150.00    0.77115   0.77302   74.882
 6151.00    0.76890   0.77219   74.163
 6152.00    0.76341   0.77112   73.309
 6153.00    0.75834   0.76992   73.001
 6154.00    0.75599   0.76801   72.787
 6155.00    0.75626   0.76548   71.983
 6156.00    0.75640   0.76207   71.419
 6157.00    0.75335   0.75770   72.195
 6158.00    0.74732   0.75298   73.606
 6159.00    0.74080   0.74764   74.366
 6160.00    0.73623   0.74189   75.072
 6161.00    0.73422   0.73712   76.625
 6162.00    0.73194   0.73337   77.465
 6163.00    0.72680   0.72993   76.092
 6164.00    0.72089   0.72826   74.777
 6165.00    0.71775   0.72846   75.930
 6166.00    0.71809   0.72926   78.487
 6167.00    0.72046   0.73084   79.994
 6168.00    0.72271   0.73281   79.763
 6169.00    0.72293   0.73527   78.517
 6170.00    0.72036   0.73820   77.116
 6171.00    0.71571   0.74053   76.182
 6172.00    0.71112   0.74317   75.993
 6173.00    0.70832   0.74673   76.551
 6174.00    0.70703   0.74988   -1.000
 6175.00    0.70588   0.75260   -1.000
 6176.00    0.70334   0.75557   -1.000
 6177.00    0.69895   0.75837   -1.000
 6178.00    0.69410   0.76066   -1.000
 6179.00    0.69134   0.76242   -1.000
 6180.00    0.69344   0.76397   -1.000
 6181.00    0.70061   0.76505   -1.000
 6182.00    0.70939   0.76502   -1.000
 6183.00    0.71622   0.76456   -1.000
 6184.00    0.71977   0.76362   -1.000
 6185.00    0.72119   0.76122   72.876
 6186.00    0.72345   0.75860   74.465
 6187.00    0.72752   0.75616   76.378
 6188.00    0.73126   0.75284   77.889
 6189.00    0.73356   0.75020   78.525
 6190.00    0.73542   0.74844   78.240
 6191.00    0.73670   0.74730   -2.000
 6192.00    0.73538   0.74765   -2.000
 6193.00    0.73081   0.74802   -2.000
 6194.00    0.72482   0.74932   -2.000
 6195.00    0.72096   0.75211   -2.000
 6196.00    0.72317   0.75402   -2.000
 6197.00    0.73261   0.75570   -2.000
 6198.00    0.74670   0.75758   -2.000
 6199.00    0.75966   0.75904   -2.000
 6200.00    0.76515   0.76048   -2.000
 6201.00    0.76292   0.76152   -2.000
 6202.00    0.75830   0.76253   -2.000
 6203.00    0.75532   0.76405   71.558
 6204.00    0.75491   0.76515   72.338
 6205.00    0.75565   0.76579   73.638
 6206.00    0.75518   0.76605   74.716
 6207.00    0.75331   0.76530   75.511
 6208.00    0.75146   0.76392   76.504
 6209.00    0.74999   0.76166   77.359
 6210.00    0.74816   0.75828   77.347
 6211.00    0.74539   0.75468   76.990
 6212.00    0.74185   0.75054   77.379
 6213.00    0.73911   0.74611   78.390
 6214.00    0.73868   0.74257   79.103
 6215.00    0.73935   0.73916   79.182
 6216.00    0.73876   0.73642   78.906
 6217.00    0.73651   0.73505   78.684
 6218.00    0.73384   0.73398   78.705
 6219.00    0.73222   0.73398   78.598
 6220.00    0.73231   0.73473   77.962
 6221.00    0.73304   0.73507   77.115
 6222.00    0.73292   0.73597   76.542
 6223.00    0.73203   0.73688   76.169
 6224.00    0.73132   0.73715   75.719
 6225.00    0.73159   0.73733   75.186
 6226.00    0.73261   0.73669   74.714
 6227.00    0.73263   0.73546   74.435
 6228.00    0.73081   0.73440   74.545
 6229.00    0.72933   0.73295   75.378
 6230.00    0.72977   0.73172   76.970
 6231.00    0.72982   0.73136   78.604
 6232.00    0.72744   0.73092   79.344
 6233.00    0.72449   0.73125   78.803
 6234.00    0.72344   0.73242   77.514
 6235.00    0.72462   0.73309   76.777
 6236.00    0.72699   0.73364   77.173
 6237.00    0.72915   0.73352   77.824
 6238.00    0.72988   0.73279   78.060
 6239.00    0.72862   0.73142   78.497
 6240.00    0.72563   0.72934   79.443
 6241.00    0.72194   0.72768   79.981
 6242.00    0.71862   0.72581   79.592
 6243.00    0.71620   0.72460   79.018
 6244.00    0.71410   0.72440   78.758
 6245.00    0.71089   0.72376   78.463
 6246.00    0.70706   0.72404   78.159
 6247.00    0.70562   0.72507   78.543
 6248.00    0.70771   0.72515   79.318
 6249.00    0.71129   0.72516   78.908
 6250.00    0.71466   0.72505   77.305
 6251.00    0.71761   0.72379   76.443
 6252.00    0.71934   0.72212   76.998
 6253.00    0.71812   0.72022   77.807
 6254.00    0.71345   0.71787   77.841
 6255.00    0.70686   0.71594   76.832
 6256.00    0.70174   0.71492   74.485
 6257.00    0.70184   0.71492   70.819
 6258.00    0.70673   0.71546   67.583
 6259.00    0.71209   0.71712   66.928
 6260.00    0.71519   0.71969   68.631
 6261.00    0.71615   0.72274   70.598
 6262.00    0.71641   0.72646   72.176
 6263.00    0.71781   0.72962   74.477
 6264.00    0.72122   0.73254   77.314
 6265.00    0.72620   0.73557   78.964
 6266.00    0.73111   0.73769   79.022
 6267.00    0.73408   0.73903   78.710
 6268.00    0.73505   0.74043   79.003
 6269.00    0.73529   0.74192   80.047
 6270.00    0.73539   0.74293   80.864
 6271.00    0.73540   0.74362   80.310
 6272.00    0.73583   0.74445   79.245
 6273.00    0.73738   0.74516   79.352
 6274.00    0.74003   0.74547   80.682
 6275.00    0.74293   0.74568   81.931
 6276.00    0.74465   0.74545   81.538
 6277.00    0.74421   0.74492   79.029
 6278.00    0.74246   0.74466   76.191
 6279.00    0.74097   0.74410   74.955
 6280.00    0.74009   0.74389    0.000
 6281.00    0.73876   0.74436    0.000
 6282.00    0.73477   0.74458    0.000
 6283.00    0.72704   0.74576    0.000
 6284.00    0.71819   0.74736    0.000
 6285.00    0.71246   0.74878    0.000
 6286.00    0.71282   0.75069    0.000
 6287.00    0.71931   0.75171    0.000
 6288.00    0.72798   0.75248    0.000
 6289.00    0.73435   0.75304    0.000
 6290.00    0.73704   0.75245    0.000
 6291.00    0.73727   0.75168    0.000
 6292.00    0.73793   0.75019    0.000
 6293.00    0.74111   0.74804    0.000
 6294.00    0.74635   0.74604    0.000
 6295.00    0.75256   0.74360    0.000
 6296.00    0.75964   0.74151    0.000
 6297.00    0.76795   0.73979    0.000
 6298.00    0.77768   0.73782    0.000
 6299.00    0.78779   0.73640    0.000
 6300.00    0.79559   0.73585    0.000
 6301.00    0.79891   0.73610    0.000
 6302.00    0.79736   0.73673    0.000
 6303.00    0.79161   0.73763    0.000
 6304.00    0.78283   0.73914    0.000
 6305.00    0.77265   0.74116    0.000
 6306.00    0.76288   0.74322    0.000
 6307.00    0.75502   0.74465    0.000
 6308.00    0.74973   0.74547    0.000
 6309.00    0.74618   0.74602    0.000
 6310.00    0.74237   0.74594    0.000
 6311.00    0.73804   0.74478    0.000
 6312.00    0.73491   0.74284    0.000
 6313.00    0.73289   0.74089    0.000
 6314.00    0.72954   0.73872    0.000
 6315.00    0.72386   0.73675    0.000
 6316.00    0.71735   0.73519    0.000
 6317.00    0.71315   0.73380    0.000
 6318.00    0.71451   0.73388    0.000
 6319.00    0.72126   0.73475    0.000
 6320.00    0.72991   0.73563    0.000
 6321.00    0.73693   0.73776   80.008
 6322.00    0.74039   0.74054   81.158
 6323.00    0.74144   0.74336   82.126
 6324.00    0.74289   0.74574   81.423
 6325.00    0.74493   0.74805   79.822
 6326.00    0.74555   0.75036   79.362
 6327.00    0.74428   0.75163   80.100
 6328.00    0.74230   0.75255   80.604
 6329.00    0.74099   0.75258   80.279
 6330.00    0.74132   0.75217   79.631
 6331.00    0.74317   0.75165   79.516
 6332.00    0.74554   0.74981   80.306
 6333.00    0.74696   0.74783   80.710
 6334.00    0.74640   0.74621   79.314
 6335.00    0.74445   0.74453   77.641
 6336.00    0.74217   0.74291   77.836
 6337.00    0.73879   0.74139   79.188
 6338.00    0.73360   0.74025   79.675
 6339.00    0.72886   0.74013   79.101
 6340.00    0.72726   0.74019   78.559
 6341.00    0.72786   0.73972   78.770
 6342.00    0.72793   0.73998   79.780
 6343.00    0.72613   0.74028   80.797
 6344.00    0.72307   0.74041   81.014
 6345.00    0.72143   0.74083   80.722
 6346.00    0.72321   0.74126   80.596
 6347.00    0.72694   0.74234   80.766
 6348.00    0.73009   0.74346   81.070
 6349.00    0.73173   0.74420   81.375
 6350.00    0.73210   0.74498   81.469
 6351.00    0.73179   0.74529   81.004
 6352.00    0.73117   0.74464   80.123
 6353.00    0.72996   0.74353   79.780
 6354.00    0.72792   0.74177   80.128
 6355.00    0.72530   0.73916   79.590
 6356.00    0.72208   0.73605   77.613
 6357.00    0.71760   0.73279   76.169
 6358.00    0.71192   0.72994   76.312
 6359.00    0.70665   0.72743   76.639
 6360.00    0.70356   0.72505   76.075
 6361.00    0.70374   0.72361   75.477
 6362.00    0.70779   0.72354   75.582
 6363.00    0.71583   0.72423   75.998
 6364.00    0.72601   0.72560   76.318
 6365.00    0.73443   0.72797   76.691
 6366.00    0.73895   0.73098   77.270
 6367.00    0.74056   0.73417   77.956
 6368.00    0.74063   0.73738   78.680
 6369.00    0.73955   0.74054   79.512
 6370.00    0.73689   0.74367   80.487
 6371.00    0.73206   0.74629   81.471
 6372.00    0.72679   0.74816   81.991
 6373.00    0.72495   0.74979   81.535
 6374.00    0.72830   0.75121   80.897
 6375.00    0.73527   0.75202   81.672
 6376.00    0.74256   0.75220   83.111
 6377.00    0.74654   0.75185   82.383
 6378.00    0.74594   0.75137   80.031
 6379.00    0.74222   0.75097   79.372
 6380.00    0.73817   0.75025   80.579
 6381.00    0.73645   0.74959   80.959
 6382.00    0.73693   0.74933   79.779
 6383.00    0.73721   0.74920   78.667
 6384.00    0.73608   0.74939   78.481
 6385.00    0.73412   0.74951   78.927
 6386.00    0.73274   0.74934   79.248
 6387.00    0.73341   0.74907   78.755
 6388.00    0.73617   0.74873   77.721
 6389.00    0.73983   0.74798   76.885
 6390.00    0.74281   0.74647   76.199
 6391.00    0.74401   0.74503   75.341
 6392.00    0.74407   0.74374   74.961
 6393.00    0.74410   0.74249   75.921
 6394.00    0.74323   0.74141   77.710
 6395.00    0.73966   0.74024   79.060
 6396.00    0.73338   0.73958   79.735
 6397.00    0.72608   0.73944   80.212
 6398.00    0.72059   0.73983   80.467
 6399.00    0.71935   0.74032   80.362
 6400.00    0.72257   0.74088   80.453
 6401.00    0.72855   0.74162   81.188
 6402.00    0.73459   0.74185   81.762
 6403.00    0.73812   0.74307   81.234
 6404.00    0.73800   0.74428   80.132
 6405.00    0.73477   0.74427   79.464
 6406.00    0.73063   0.74455   79.495
 6407.00    0.72774   0.74428   79.808
 6408.00    0.72646   0.74349   79.526
 6409.00    0.72553   0.74292   78.573
 6410.00    0.72275   0.74194   78.528
 6411.00    0.71763   0.74157   79.924
 6412.00    0.71332   0.74147   80.155
 6413.00    0.71298   0.74068   77.879
 6414.00    0.71668   0.74034   76.310
 6415.00    0.72232   0.74051   77.588
 6416.00    0.72689   0.74039   79.797
 6417.00    0.72851   0.74028   80.655
 6418.00    0.72768   0.74026   80.676
 6419.00    0.72566   0.74055   81.032
 6420.00    0.72336   0.74153   81.802
 6421.00    0.72102   0.74249   82.482
 6422.00    0.71836   0.74351   82.442
 6423.00    0.71581   0.74487   81.417
 6424.00    0.71492   0.74654   79.770
 6425.00    0.71626   0.74819   78.350
 6426.00    0.71864   0.74891   78.134
 6427.00    0.72072   0.74869   79.161
 6428.00    0.72178   0.74809   80.295
 6429.00    0.72115   0.74752   80.658
 6430.00    0.71828   0.74657   80.318
 6431.00    0.71451   0.74549   79.609
 6432.00    0.71284   0.74428   78.756
 6433.00    0.71465   0.74329   77.776
 6434.00    0.71868   0.74336   76.639
 6435.00    0.72242   0.74335   75.867
 6436.00    0.72338   0.74333   76.262
 6437.00    0.72164   0.74399   77.460
 6438.00    0.71977   0.74479   78.057
 6439.00    0.72031   0.74596   77.919
 6440.00    0.72447   0.74707   78.223
 6441.00    0.73110   0.74780   79.094
 6442.00    0.73730   0.74930   79.528
 6443.00    0.74109   0.75051   79.187
 6444.00    0.74185   0.75070   78.621
 6445.00    0.73954   0.75022   78.390
 6446.00    0.73459   0.74838   78.860
 6447.00    0.72797   0.74608   80.265
 6448.00    0.72089   0.74402   82.535
 6449.00    0.71431   0.74155   84.795
 6450.00    0.70912   0.73945   85.767
 6451.00    0.70668   0.73744   85.301
 6452.00    0.70802   0.73576   84.298
 6453.00    0.71208   0.73586   83.618
 6454.00    0.71639   0.73659   83.623
 6455.00    0.71878   0.73756   83.815
 6456.00    0.71852   0.73869   83.328
 6457.00    0.71761   0.73930   81.867
 6458.00    0.71846   0.74001   79.885
 6459.00    0.72046   0.74044   78.412
 6460.00    0.72161   0.74071   78.061
 6461.00    0.72152   0.74109   78.040
 6462.00    0.72115   0.74101   77.505
 6463.00    0.72204   0.74111   77.256
 6464.00    0.72513   0.74103   78.095
 6465.00    0.72952   0.74148   78.901
 6466.00    0.73324   0.74274   78.449
 6467.00    0.73439   0.74378   77.708
 6468.00    0.73266   0.74455   78.043
 6469.00    0.73053   0.74513   79.385
 6470.00    0.73073   0.74587   80.900
 6471.00    0.73377   0.74625   81.771
 6472.00    0.73816   0.74644   81.912
 6473.00    0.74106   0.74637   82.345
 6474.00    0.74051   0.74627   83.279
 6475.00    0.73708   0.74636   82.909
 6476.00    0.73241   0.74600   81.010
 6477.00    0.72798   0.74534   80.715
 6478.00    0.72482   0.74441   83.051
 6479.00    0.72337   0.74337   84.133
 6480.00    0.72349   0.74229   81.617
 6481.00    0.72451   0.74121   78.869
 6482.00    0.72514   0.74023   78.235
 6483.00    0.72390   0.73913   78.682
 6484.00    0.72133   0.73804   78.932
 6485.00    0.72039   0.73714   78.891
 6486.00    0.72221   0.73596   78.741
 6487.00    0.72452   0.73410   78.512
 6488.00    0.72514   0.73121   78.536
 6489.00    0.72354   0.72739   79.405
 6490.00    0.72018   0.72264   80.783
 6491.00    0.71583   0.71656   81.287
 6492.00    0.71047   0.71030   80.819
 6493.00    0.70350   0.70424   80.929
 6494.00    0.69616   0.69902   82.197
 6495.00    0.69151   0.69542   83.694
 6496.00    0.69094   0.69255   84.517
 6497.00    0.69346   0.69231   84.431
 6498.00    0.69736   0.69438   83.735
 6499.00    0.70128   0.69788   82.977
 6500.00    0.70582   0.70316   82.450
 6501.00    0.71250   0.70840   82.088
 6502.00    0.71978   0.71429   81.560
 6503.00    0.72397   0.72021   80.619
 6504.00    0.72454   0.72523   79.830
 6505.00    0.72448   0.72957   79.922
 6506.00    0.72792   0.73286   80.054
 6507.00    0.73723   0.73544   78.751
 6508.00    0.74835   0.73727   76.840
 6509.00    0.75407   0.73826   76.139
 6510.00    0.75285   0.73853   76.379
 6511.00    0.74805   0.73837   76.277
 6512.00    0.74291   0.73784   76.319
 6513.00    0.73940   0.73697   77.669
 6514.00    0.73787   0.73598   79.373
 6515.00    0.73766   0.73481   79.732
 6516.00    0.73811   0.73388   79.894
 6517.00    0.73850   0.73334   81.825
 6518.00    0.73761   0.73296   84.243
 6519.00    0.73449   0.73313   84.753
 6520.00    0.72941   0.73343   84.671
 6521.00    0.72403   0.73400   86.133
 6522.00    0.72129   0.73493   87.352
 6523.00    0.72342   0.73538   85.739
 6524.00    0.72969   0.73561   82.876
 6525.00    0.73727   0.73564   81.313
 6526.00    0.74265   0.73545   81.249
 6527.00    0.74360   0.73525   81.654
 6528.00    0.74087   0.73453    0.000
 6529.00    0.73687   0.73361    0.000
 6530.00    0.73404   0.73296    0.000
 6531.00    0.73348   0.73254    0.000
 6532.00    0.73411   0.73237    0.000
 6533.00    0.73460   0.73212    0.000
 6534.00    0.73495   0.73174    0.000
 6535.00    0.73582   0.73159    0.000
 6536.00    0.73780   0.73165    0.000
 6537.00    0.74086   0.73160    0.000
 6538.00    0.74401   0.73103    0.000
 6539.00    0.74612   0.72989    0.000
 6540.00    0.74669   0.72833    0.000
 6541.00    0.74749   0.72649    0.000
 6542.00    0.75297   0.72408    0.000
 6543.00    0.76742   0.72087    0.000
 6544.00    0.79346   0.71765    0.000
 6545.00    0.83342   0.71436    0.000
 6546.00    0.88912   0.71106    0.000
 6547.00    0.95657   0.70766    0.000
 6548.00    1.02402   0.70379    0.000
 6549.00    1.07511   0.70019    0.000
 6550.00    1.09281   0.69636    0.000
 6551.00    1.06950   0.69178    0.000
 6552.00    1.01054   0.68639    0.000
 6553.00    0.93139   0.67988    0.000
 6554.00    0.85351   0.67236    0.000
 6555.00    0.79484   0.66374    0.000
 6556.00    0.76836   0.65398    0.000
 6557.00    0.78924   0.64328    0.000
 6558.00    0.87891   0.63184    0.000
 6559.00    1.06953   0.61962    0.000
 6560.00    1.39275   0.60835    0.000
 6561.00    1.84445   0.60043    0.000
 6562.00    2.37150   0.59520    0.000
 6563.00    2.86571   0.59281    0.000
 6564.00    3.19055   0.59336    0.000
 6565.00    3.24975   0.59731    0.000
 6566.00    3.01660   0.60570    0.000
 6567.00    2.55895   0.61628    0.000
 6568.00    2.01111   0.62735    0.000
 6569.00    1.50284   0.63818    0.000
 6570.00    1.12554   0.64808    0.000
 6571.00    0.89801   0.65705    0.000
 6572.00    0.78484   0.66510    0.000
 6573.00    0.74185   0.67223    0.000
 6574.00    0.73161   0.67827    0.000
 6575.00    0.73492   0.68357    0.000
 6576.00    0.74683   0.68826    0.000
 6577.00    0.76774   0.69259    0.000
 6578.00    0.80407   0.69666    0.000
 6579.00    0.87096   0.70044    0.000
 6580.00    0.98566   0.70389    0.000
 6581.00    1.15756   0.70664    0.000
 6582.00    1.37794   0.70911    0.000
 6583.00    1.60978   0.71083    0.000
 6584.00    1.80011   0.71251    0.000
 6585.00    1.89727   0.71395    0.000
 6586.00    1.87072   0.71466    0.000
 6587.00    1.72944   0.71522    0.000
 6588.00    1.51273   0.71486    0.000
 6589.00    1.27687   0.71409    0.000
 6590.00    1.07180   0.71283    0.000
 6591.00    0.92107   0.71173    0.000
 6592.00    0.82619   0.71104    0.000
 6593.00    0.77343   0.71023    0.000
 6594.00    0.74560   0.70969    0.000
 6595.00    0.73119   0.70945    0.000
 6596.00    0.72395   0.71028    0.000
 6597.00    0.72164   0.71202    0.000
 6598.00    0.72302   0.71385    0.000
 6599.00    0.72593   0.71560    0.000
 6600.00    0.72884   0.71703    0.000
 6601.00    0.73153   0.71814    0.000
 6602.00    0.73325   0.71905    0.000
 6603.00    0.73211   0.71948    0.000
 6604.00    0.72764   0.71934    0.000
 6605.00    0.72197   0.71879    0.000
 6606.00    0.71829   0.71788    0.000
 6607.00    0.71933   0.71742    0.000
 6608.00    0.72422   0.71744    0.000
 6609.00    0.72840   0.71762   79.349
 6610.00    0.72977   0.71814   78.989
 6611.00    0.73025   0.71892   79.546
 6612.00    0.73120   0.72058   80.946
 6613.00    0.73199   0.72247   82.287
 6614.00    0.73230   0.72415   83.033
 6615.00    0.73273   0.72569   83.358
 6616.00    0.73398   0.72696   83.318
 6617.00    0.73635   0.72820   82.714
 6618.00    0.73934   0.72895   81.719
 6619.00    0.74169   0.72915   80.812
 6620.00    0.74222   0.72886   80.084
 6621.00    0.74041   0.72809   79.346
 6622.00    0.73714   0.72703   78.835
 6623.00    0.73417   0.72600   78.903
 6624.00    0.73207   0.72466   78.867
 6625.00    0.73052   0.72315   77.721
 6626.00    0.73010   0.72161   76.399
 6627.00    0.73158   0.72004   76.680
 6628.00    0.73363   0.71886   78.355
 6629.00    0.73372   0.71758   79.617
 6630.00    0.73113   0.71627   79.226
 6631.00    0.72704   0.71515   77.528
 6632.00    0.72346   0.71439   76.659
 6633.00    0.72207   0.71401   78.367
 6634.00    0.72266   0.71386   80.887
 6635.00    0.72394   0.71389   80.982
 6636.00    0.72515   0.71414   79.665
 6637.00    0.72607   0.71478   79.780
 6638.00    0.72645   0.71564   81.108
 6639.00    0.72642   0.71634   81.997
 6640.00    0.72692   0.71658   82.472
 6641.00    0.72830   0.71673   83.163
 6642.00    0.72875   0.71699   83.239
 6643.00    0.72634   0.71727   81.915
 6644.00    0.72176   0.71741   80.458
 6645.00    0.71728   0.71741   80.242
 6646.00    0.71510   0.71770   80.872
 6647.00    0.71644   0.71823   81.136
 6648.00    0.72074   0.71875   80.198
 6649.00    0.72619   0.71921   78.402
 6650.00    0.73041   0.71965   77.421
 6651.00    0.73188   0.71998   78.125
 6652.00    0.73092   0.72020   79.215
 6653.00    0.72849   0.72016   79.323
 6654.00    0.72511   0.71987   78.924
 6655.00    0.72182   0.71947   78.937
 6656.00    0.72057   0.71868   79.557
 6657.00    0.72144   0.71774   80.631
 6658.00    0.72138   0.71644   81.918
 6659.00    0.71886   0.71500   82.828
 6660.00    0.71639   0.71329   82.480
 6661.00    0.71613   0.71173   81.204
 6662.00    0.71734   0.71047   80.810
 6663.00    0.71791   0.70926   81.808
 6664.00    0.71588   0.70854   82.489
 6665.00    0.71210   0.70808   81.838
 6666.00    0.71054   0.70839   80.874
 6667.00    0.71287   0.70918   80.370
 6668.00    0.71672   0.71006   79.997
 6669.00    0.72006   0.71100   79.301
 6670.00    0.72275   0.71176   78.248
 6671.00    0.72442   0.71229   77.571
 6672.00    0.72413   0.71232   78.323
 6673.00    0.72241   0.71178   79.847
 6674.00    0.72143   0.71036   79.825
 6675.00    0.72273   0.70863   78.321
 6676.00    0.72627   0.70708   77.836
 6677.00    0.73014   0.70589   78.760
 6678.00    0.73156   0.70491   79.263
 6679.00    0.73005   0.70422   78.977
 6680.00    0.72753   0.70428   79.257
 6681.00    0.72597   0.70525   80.279
 6682.00    0.72622   0.70695   80.927
 6683.00    0.72700   0.70879   80.819
 6684.00    0.72613   0.71076   80.547
 6685.00    0.72405   0.71250   80.665
 6686.00    0.72295   0.71405   81.244
 6687.00    0.72298   0.71526   81.457
 6688.00    0.72254   0.71608   80.440
 6689.00    0.72096   0.71653   79.249
 6690.00    0.71894   0.71650   79.410
 6691.00    0.71834   0.71623   79.931
 6692.00    0.72060   0.71563   78.871
 6693.00    0.72412   0.71473   77.163
 6694.00    0.72581   0.71383   76.926
 6695.00    0.72448   0.71296   78.239
 6696.00    0.72092   0.71215    0.000
 6697.00    0.71705   0.71157    0.000
 6698.00    0.71466   0.71096    0.000
 6699.00    0.71380   0.71067    0.000
 6700.00    0.71360   0.71048    0.000
 6701.00    0.71371   0.71035    0.000
 6702.00    0.71420   0.71051    0.000
 6703.00    0.71513   0.71051    0.000
 6704.00    0.71619   0.71047    0.000
 6705.00    0.71636   0.71016    0.000
 6706.00    0.71529   0.70979    0.000
 6707.00    0.71456   0.70925    0.000
 6708.00    0.71587   0.70857    0.000
 6709.00    0.71926   0.70776    0.000
 6710.00    0.72494   0.70651    0.000
 6711.00    0.73510   0.70516    0.000
 6712.00    0.75375   0.70341    0.000
 6713.00    0.78600   0.70168    0.000
 6714.00    0.83463   0.69998    0.000
 6715.00    0.89736   0.69842    0.000
 6716.00    0.96630   0.69755    0.000
 6717.00    1.02823   0.69687    0.000
 6718.00    1.06773   0.69671    0.000
 6719.00    1.07076   0.69698    0.000
 6720.00    1.03325   0.69783    0.000
 6721.00    0.96554   0.69925    0.000
 6722.00    0.88624   0.70062    0.000
 6723.00    0.81653   0.70203    0.000
 6724.00    0.76926   0.70338    0.000
 6725.00    0.74491   0.70467    0.000
 6726.00    0.74037   0.70575    0.000
 6727.00    0.75363   0.70666    0.000
 6728.00    0.78361   0.70733    0.000
 6729.00    0.82894   0.70785    0.000
 6730.00    0.88357   0.70813    0.000
 6731.00    0.93580   0.70832    0.000
 6732.00    0.97238   0.70835    0.000
 6733.00    0.98205   0.70815    0.000
 6734.00    0.96199   0.70766    0.000
 6735.00    0.91871   0.70691    0.000
 6736.00    0.86274   0.70608    0.000
 6737.00    0.80592   0.70520    0.000
 6738.00    0.75898   0.70432    0.000
 6739.00    0.72898   0.70329    0.000
 6740.00    0.71426   0.70216    0.000
 6741.00    0.70665   0.70121    0.000
 6742.00    0.70134   0.70036    0.000
 6743.00    0.69802   0.69954    0.000
 6744.00    0.69681   0.69883    0.000
 6745.00    0.69701   0.69803    0.000
 6746.00    0.69658   0.69749    0.000
 6747.00    0.69307   0.69691    0.000
 6748.00    0.68569   0.69656    0.000
 6749.00    0.67589   0.69650    0.000
 6750.00    0.66736   0.69635    0.000
 6751.00    0.66385   0.69686    0.000
 6752.00    0.66527   0.69740    0.000
 6753.00    0.66935   0.69847   66.532
 6754.00    0.67578   0.69981   67.852
 6755.00    0.68605   0.70119   68.499
 6756.00    0.70190   0.70296   67.197
 6757.00    0.72245   0.70441   64.090
 6758.00    0.74065   0.70590   61.878
 6759.00    0.74966   0.70701   62.552
 6760.00    0.75191   0.70781   64.641
 6761.00    0.75374   0.70818   -1.000
 6762.00    0.75703   0.70800   -1.000
 6763.00    0.75942   0.70747   -1.000
 6764.00    0.75607   0.70647   -1.000
 6765.00    0.74477   0.70545   67.398
 6766.00    0.73073   0.70440   70.271
 6767.00    0.72056   0.70344   71.760
 6768.00    0.71565   0.70265   71.468
 6769.00    0.71326   0.70224   70.539
 6770.00    0.70887   0.70235   70.839
 6771.00    0.70270   0.70296   72.874
 6772.00    0.70374   0.70388   74.217
 6773.00    0.71673   0.70505   72.790
 6774.00    0.73267   0.70631   70.194
 6775.00    0.74133   0.70748   68.602
 6776.00    0.74095   0.70853   68.693
 6777.00    0.73512   0.70912   69.936
 6778.00    0.72953   0.70924   70.754
 6779.00    0.72770   0.70869   70.458
 6780.00    0.72872   0.70768   70.342
 6781.00    0.73059   0.70629   70.925
 6782.00    0.73232   0.70477   70.773
 6783.00    0.73389   0.70321   69.544
 6784.00    0.73574   0.70174   69.039
 6785.00    0.73601   0.70053   69.793
 6786.00    0.73092   0.69958   70.101
 6787.00    0.72339   0.69909   69.208
 6788.00    0.72334   0.69891   68.430
 6789.00    0.73068   0.69906   68.515
 6790.00    0.73301   0.69928   68.956
 6791.00    0.72839   0.69950   69.522
 6792.00    0.72849   0.69978   70.598
 6793.00    0.73424   0.69998   71.885
 6794.00    0.73276   0.70023   72.283
 6795.00    0.71994   0.70044   71.767
 6796.00    0.70473   0.70072   71.454
 6797.00    0.69597   0.70109   71.392
 6798.00    0.69724   0.70146   70.716
 6799.00    0.70520   0.70193   70.101
 6800.00    0.71216   0.70234   71.257
 6801.00    0.71434   0.70261   73.868
 6802.00    0.71333   0.70286   75.628
 6803.00    0.71342   0.70294   75.787
 6804.00    0.71781   0.70282   75.372
 6805.00    0.72154   0.70268   74.053
 6806.00    0.71710   0.70233   70.953
 6807.00    0.71024   0.70197   67.609
 6808.00    0.71316   0.70160   66.104
 6809.00    0.72347   0.70118   66.195
 6810.00    0.72936   0.70090   66.598
 6811.00    0.72741   0.70058   67.548
 6812.00    0.72198   0.70035   69.967
 6813.00    0.71771   0.70037   72.883
 6814.00    0.71709   0.70044   74.199
 6815.00    0.71875   0.70061   74.055
 6816.00    0.71945   0.70089   74.034
 6817.00    0.71759   0.70117   74.427
 6818.00    0.71351   0.70171   74.738
 6819.00    0.70918   0.70228   74.961
 6820.00    0.70674   0.70286   75.290
 6821.00    0.70670   0.70342   75.483
 6822.00    0.70846   0.70372   75.010
 6823.00    0.71115   0.70397   73.436
 6824.00    0.71403   0.70404   71.120
 6825.00    0.71663   0.70397   69.519
 6826.00    0.71816   0.70385   69.676
 6827.00    0.71709   0.70357   71.141
 6828.00    0.71377   0.70323   72.702
 6829.00    0.71248   0.70279   73.162
 6830.00    0.71563   0.70231   72.118
 6831.00    0.71910   0.70189   70.417
 6832.00    0.71849   0.70140   68.749
 6833.00    0.71454   0.70082   66.845
 6834.00    0.70977   0.69998   65.019
 6835.00    0.70563   0.69890   64.796
 6836.00    0.70315   0.69748   66.843
 6837.00    0.70319   0.69590   69.762
 6838.00    0.70403   0.69425   71.913
 6839.00    0.70091   0.69269   73.203
 6840.00    0.69359   0.69143   73.963
 6841.00    0.68932   0.69045   73.989
 6842.00    0.69152   0.69006   73.424
 6843.00    0.69507   0.69006   73.081
 6844.00    0.69689   0.69060   73.305
 6845.00    0.70010   0.69155   73.594
 6846.00    0.70538   0.69269   73.617
 6847.00    0.70818   0.69394   73.588
 6848.00    0.70656   0.69497   73.472
 6849.00    0.70343   0.69565   72.853
 6850.00    0.69997   0.69588   71.949
 6851.00    0.69440   0.69566   71.568
 6852.00    0.68827   0.69503   71.537
 6853.00    0.68669   0.69418   70.745
 6854.00    0.69004   0.69318   69.400
 6855.00    0.69321   0.69206   69.038
 6856.00    0.69338   0.69095   70.375
 6857.00    0.69157   0.68994   72.901
 6858.00    0.68907   0.68919   75.100
 6859.00    0.68640   0.68874   75.142
 6860.00    0.68406   0.68867   73.517
 6861.00    0.68283   0.68892   72.312
 6862.00    0.68409   0.68911   71.640
 6863.00    0.68859   0.68935   70.345
 6864.00    0.69312   0.68961   69.176
 6865.00    0.69312   0.68984   69.880
 6866.00    0.69031   0.69006   72.095
 6867.00    0.69040   0.69019   73.747
 6868.00    0.69449   0.69023   73.946
 6869.00    0.69914   0.69005   73.189
 6870.00    0.70032   0.68993   71.636
 6871.00    0.69579   0.68995   69.976
 6872.00    0.68785   0.69012   71.259
 6873.00    0.68093   0.69049   76.722
 6874.00    0.67659   0.69091   75.690
 6875.00    0.67432   0.69143   65.051
 6876.00    0.67402   0.69179   69.878
 6877.00    0.67542   0.69216   99.128
 6878.00    0.67684   0.69245   86.255
 6879.00    0.67710   0.69264   27.112
 6880.00    0.67813   0.69280   15.138
 6881.00    0.68187   0.69290   13.270
 6882.00    0.68605   0.69316   14.482
 6883.00    0.68797   0.69334   15.536
 6884.00    0.68909   0.69385   14.550
 6885.00    0.69016   0.69456   13.126
 6886.00    0.68655   0.69554   14.608
 6887.00    0.68141   0.69670   25.700
 6888.00    0.69498   0.69790   76.215
 6889.00    0.71863   0.69915   89.938
 6890.00    0.68349   0.70007   68.894
 6891.00    0.57900   0.70090   -1.000
 6892.00    0.53599   0.70150   -1.000
 6893.00    0.62915   0.70184   21.712
 6894.00    0.73722   0.70197   13.264
 6895.00    0.75097   0.70193   12.653
 6896.00    0.71922   0.70184   14.032
 6897.00    0.71007   0.70166   14.356
 6898.00    0.71558   0.70161   13.921
 6899.00    0.71302   0.70164   13.933
 6900.00    0.70545   0.70172   14.198
 6901.00    0.70173   0.70194   14.284
 6902.00    0.70371   0.70223   14.201
 6903.00    0.70954   0.70251   14.082
 6904.00    0.71620   0.70283   13.966
 6905.00    0.72104   0.70306   13.873
 6906.00    0.72232   0.70320   13.843
 6907.00    0.71848   0.70313   13.917
 6908.00    0.70895   0.70278   14.106
 6909.00    0.69915   0.70227   14.304
 6910.00    0.69897   0.70155   14.307
 6911.00    0.70790   0.70075   14.126
 6912.00    0.71391   0.69981   14.008
 6913.00    0.71275   0.69899   14.030
 6914.00    0.71137   0.69820   14.057
 6915.00    0.71360   0.69768   14.013
 6916.00    0.71693   0.69734   13.948
 6917.00    0.71916   0.69730   13.905
 6918.00    0.71992   0.69739   13.890
 6919.00    0.71890   0.69748   13.910
 6920.00    0.71597   0.69775   13.967
 6921.00    0.71333   0.69768   14.019
 6922.00    0.71360   0.69772   14.014
 6923.00    0.71355   0.69760   14.014
 6924.00    0.70701   0.69739   14.144
 6925.00    0.69536   0.69722   14.381
 6926.00    0.68594   0.69691   14.579
 6927.00    0.68281   0.69685   14.645
 6928.00    0.68538   0.69664   14.590
 6929.00    0.69003   0.69684   14.492
 6930.00    0.69311   0.69707   14.428
 6931.00    0.69571   0.69748   14.374
 6932.00    0.70079   0.69792   14.270
 6933.00    0.70674   0.69822   14.150
 6934.00    0.70969   0.69866   14.091
 6935.00    0.70915   0.69892   14.101
 6936.00    0.70704   0.69932   14.143
 6937.00    0.70476   0.69950   14.189
 6938.00    0.70287   0.69963   14.227
 6939.00    0.70130   0.69963   14.259
 6940.00    0.70011   0.69925   14.284
 6941.00    0.70030   0.69883   14.280
 6942.00    0.70230   0.69821   14.239
 6943.00    0.70415   0.69761   14.202
 6944.00    0.70373   0.69697   14.210
 6945.00    0.70144   0.69632   14.256
 6946.00    0.69871   0.69571   14.312
 6947.00    0.69620   0.69518   14.364
 6948.00    0.69440   0.69485   14.401
 6949.00    0.69424   0.69460   14.404
 6950.00    0.69539   0.69462   14.380
 6951.00    0.69507   0.69479   14.387
 6952.00    0.69193   0.69502   14.452
 6953.00    0.68884   0.69525   14.517
 6954.00    0.68938   0.69573   14.506
 6955.00    0.69480   0.69615   14.393
 6956.00    0.70317   0.69688   14.221
 6957.00    0.70966   0.69771   14.091
 6958.00    0.71136   0.69856   14.058
 6959.00    0.70999   0.69948   14.085
 6960.00    0.70825   0.70027   14.119
 6961.00    0.70759   0.70102   14.133
 6962.00    0.70859   0.70155   14.112
 6963.00    0.71120   0.70206   14.061
 6964.00    0.71372   0.70238   14.011
 6965.00    0.71302   0.70260   14.025
 6966.00    0.70789   0.70259   14.126
 6967.00    0.70045   0.70242   14.277
 6968.00    0.69452   0.70204   14.398
 6969.00    0.69396   0.70134   14.410
 6970.00    0.69871   0.70026   14.312
 6971.00    0.70443   0.69887   14.196
 6972.00    0.70756   0.69717   14.133
 6973.00    0.70727   0.69494   14.139
 6974.00    0.70501   0.69257   14.184
 6975.00    0.70305   0.69027   14.224
 6976.00    0.70048   0.68819   14.276
 6977.00    0.69412   0.68666   14.407
 6978.00    0.68577   0.68559   14.582
 6979.00    0.68142   0.68517   14.675
 6980.00    0.68262   0.68554   14.650
 6981.00    0.68595   0.68657   14.578
 6982.00    0.68819   0.68814   14.531
 6983.00    0.68815   0.69003   14.532
 6984.00    0.68758   0.69226   14.544
 6985.00    0.69003   0.69436   14.492
 6986.00    0.69782   0.69605   14.330
 6987.00    0.71004   0.69746   14.084
 6988.00    0.71990   0.69846   13.891
 6989.00    0.71933   0.69907   13.902
 6990.00    0.70861   0.69945   14.112
 6991.00    0.69512   0.69960   14.386
 6992.00    0.68717   0.69956   14.552
 6993.00    0.68856   0.69930   14.523
 6994.00    0.69180   0.69883   14.455
 6995.00    0.68809   0.69825   14.533
 6996.00    0.68386   0.69755   14.623
 6997.00    0.68959   0.69670   14.501
 6998.00    0.70045   0.69573   14.276
 6999.00    0.70510   0.69464   14.182
 7000.00    0.70097   0.69374   14.266
 7001.00    0.69301   0.69283   -2.000
 7002.00    0.68895   0.69213   -2.000
 7003.00    0.69227   0.69155   -2.000
 7004.00    0.69566   0.69118   -2.000
 7005.00    0.69201   0.69112   -2.000
 7006.00    0.68615   0.69114   -2.000
 7007.00    0.68490   0.69120   -2.000
 7008.00    0.68635   0.69115   -2.000
 7009.00    0.68608   0.69110   -2.000
 7010.00    0.68359   0.69089   -2.000
 7011.00    0.68085   0.69038   -2.000
 7012.00    0.68037   0.68985   -2.000
 7013.00    0.68281   0.68929   -2.000
 7014.00    0.68571   0.68868   -2.000
 7015.00    0.68688   0.68808   -2.000
 7016.00    0.68668   0.68763   -2.000
 7017.00    0.68559   0.68746   -2.000
 7018.00    0.68265   0.68733   -2.000
 7019.00    0.67739   0.68738   -2.000
 7020.00    0.67117   0.68750   -2.000
 7021.00    0.66734   0.68797   -2.000
 7022.00    0.66996   0.68865   -2.000
 7023.00    0.67660   0.68922   -2.000
 7024.00    0.67742   0.68971   -2.000
 7025.00    0.67079   0.69024   -2.000
 7026.00    0.66766   0.69085   -2.000
 7027.00    0.67353   0.69141   -2.000
 7028.00    0.68241   0.69216   -2.000
 7029.00    0.68859   0.69299   -2.000
 7030.00    0.69132   0.69391   -2.000
 7031.00    0.69170   0.69475   -2.000
 7032.00    0.69080   0.69538   -2.000
 7033.00    0.68806   0.69586   -2.000
 7034.00    0.68272   0.69634   -2.000
 7035.00    0.68109   0.69706   -2.000
 7036.00    0.69286   0.69778   -2.000
 7037.00    0.71193   0.69874   -2.000
 7038.00    0.71983   0.69988   -2.000
 7039.00    0.71424   0.70124   -2.000
 7040.00    0.70868   0.70276   -2.000
 7041.00    0.70798   0.70442   -2.000
 7042.00    0.70693   0.70595   -2.000
 7043.00    0.70433   0.70746   -2.000
 7044.00    0.70359   0.70891   -2.000
 7045.00    0.70537   0.70981   -2.000
 7046.00    0.70784   0.71018   -2.000
 7047.00    0.71090   0.70985   -2.000
 7048.00    0.71497   0.70894   -2.000
 7049.00    0.71696   0.70752   -2.000
 7050.00    0.71292   0.70572   -2.000
 7051.00    0.70461   0.70370   -2.000
 7052.00    0.69765   0.70134   -2.000
 7053.00    0.69611   0.69892   -2.000
 7054.00    0.70051   0.69638   -2.000
 7055.00    0.70629   0.69399   -2.000
 7056.00    0.70821   0.69187   -2.000
 7057.00    0.70707   0.68998   -2.000
 7058.00    0.70610   0.68854   -2.000
 7059.00    0.70479   0.68733   -2.000
 7060.00    0.70035   0.68640   -2.000
 7061.00    0.69089   0.68547   -2.000
 7062.00    0.67808   0.68468   -2.000
 7063.00    0.66937   0.68385   -2.000
 7064.00    0.66987   0.68320   -2.000
 7065.00    0.67396   0.68284   -2.000
 7066.00    0.67463   0.68270   -2.000
 7067.00    0.67336   0.68276   -2.000
 7068.00    0.67372   0.68307   -2.000
 7069.00    0.67469   0.68376   -2.000
 7070.00    0.67452   0.68450   -2.000
 7071.00    0.67446   0.68562   -2.000
 7072.00    0.67521   0.68677   -2.000
 7073.00    0.67453   0.68808   -2.000
 7074.00    0.67346   0.68932   -2.000
 7075.00    0.67945   0.69029   -2.000
 7076.00    0.69343   0.69082   -2.000
 7077.00    0.70291   0.69080   -2.000
 7078.00    0.69979   0.69025   -2.000
 7079.00    0.69063   0.68898   -2.000
 7080.00    0.68451   0.68723   -2.000
 7081.00    0.68492   0.68498   -2.000
 7082.00    0.68875   0.68231   -2.000
 7083.00    0.68788   0.67929   -2.000
 7084.00    0.67957   0.67613   -2.000
 7085.00    0.66971   0.67299   -2.000
 7086.00    0.66224   0.66998   -2.000
 7087.00    0.65562   0.66733   -2.000
 7088.00    0.65116   0.66499   -2.000
 7089.00    0.65444   0.66324   -2.000
 7090.00    0.66478   0.66207   -2.000
 7091.00    0.67353   0.66134   -2.000
 7092.00    0.67477   0.66105   -2.000
 7093.00    0.66908   0.66109   -2.000
 7094.00    0.66101   0.66165   -2.000
 7095.00    0.65668   0.66224   -2.000
 7096.00    0.65885   0.66334   -2.000
 7097.00    0.66575   0.66426   -2.000
 7098.00    0.67253   0.66544   -2.000
 7099.00    0.67354   0.66657   -2.000
 7100.00    0.66724   0.66755   -2.000
 7101.00    0.65662   0.66853   -2.000
 7102.00    0.64643   0.66906   -2.000
 7103.00    0.64114   0.66967   -2.000
 7104.00    0.64206   0.66978   -2.000
 7105.00    0.64692   0.66980   -2.000
 7106.00    0.65061   0.66944   -2.000
 7107.00    0.64846   0.66905   -2.000
 7108.00    0.64222   0.66858   -2.000
 7109.00    0.63718   0.66814   -2.000
 7110.00    0.63408   0.66765   -2.000
 7111.00    0.63075   0.66728   -2.000
 7112.00    0.62764   0.66703   -2.000
 7113.00    0.62720   0.66698   -2.000
 7114.00    0.63101   0.66703   -2.000
 7115.00    0.63888   0.66708   -2.000
 7116.00    0.64819   0.66729   -2.000
 7117.00    0.65437   0.66734   -2.000
 7118.00    0.65206   0.66743   -2.000
 7119.00    0.64010   0.66724   -2.000
 7120.00    0.62737   0.66690   -2.000
 7121.00    0.62375   0.66632   -2.000
 7122.00    0.62852   0.66551   -2.000
 7123.00    0.63566   0.66464   -2.000
 7124.00    0.64165   0.66350   -2.000
 7125.00    0.64523   0.66239   -2.000
 7126.00    0.64619   0.66114   -2.000
 7127.00    0.64529   0.66013   -2.000
 7128.00    0.64406   0.65927   -2.000
 7129.00    0.64297   0.65860   -2.000
 7130.00    0.64022   0.65829   -2.000
 7131.00    0.63556   0.65828   -2.000
 7132.00    0.63300   0.65873   -2.000
 7133.00    0.63492   0.65942   -2.000
 7134.00    0.63804   0.66039   -2.000
 7135.00    0.63874   0.66143   -2.000
 7136.00    0.63711   0.66269   -2.000
 7137.00    0.63520   0.66377   -2.000
 7138.00    0.63519   0.66472   -2.000
 7139.00    0.63635   0.66543   -2.000
 7140.00    0.63419   0.66575   -2.000
 7141.00    0.62650   0.66586   -2.000
 7142.00    0.61655   0.66563   -2.000
 7143.00    0.61053   0.66514   -2.000
 7144.00    0.61434   0.66458   -2.000
 7145.00    0.62564   0.66402   -2.000
 7146.00    0.63290   0.66350   -2.000
 7147.00    0.63007   0.66315   -2.000
 7148.00    0.62233   0.66305   -2.000
 7149.00    0.62018   0.66327   -2.000
 7150.00    0.63057   0.66382   -2.000
 7151.00    0.63302   0.66472   -2.000
 7152.00    0.59660   0.66581   -2.000
 7153.00    0.57536   0.66707   -2.000
 7154.00    0.66172   0.66835   -2.000
 7155.00    0.71145   0.66944   -2.000
 7156.00    0.44459   0.67035   -2.000
 7157.00    0.05528   0.67084   -2.000
 7158.00    0.08791   0.67091   -2.000
 7159.00    0.50983   0.67065   -2.000
 7160.00    0.77217   0.67008   -2.000
 7161.00    0.72533   0.66951   -2.000
 7162.00    0.64558   0.66883   -2.000
 7163.00    0.65774   0.66833   -2.000
 7164.00    0.68480   0.66804   -2.000
 7165.00    0.68235   0.66811   -2.000
 7166.00    0.66612   0.66865   -2.000
 7167.00    0.64878   0.66952   -2.000
 7168.00    0.63281   0.67070   -2.000
 7169.00    0.62482   0.67200   -2.000
 7170.00    0.63092   0.67342   -2.000
 7171.00    0.64340   0.67471   -2.000
 7172.00    0.65019   0.67579   -2.000
 7173.00    0.65480   0.67644   -2.000
 7174.00    0.66526   0.67662   -2.000
 7175.00    0.67175   0.67636   -2.000
 7176.00    0.66083   0.67577   -2.000
 7177.00    0.64071   0.67490   -2.000
 7178.00    0.62761   0.67384   -2.000
 7179.00    0.62252   0.67263   -2.000
 7180.00    0.61880   0.67129   -2.000
 7181.00    0.61583   0.67001   -2.000
 7182.00    0.61642   0.66876   -2.000
 7183.00    0.62154   0.66756   -2.000
 7184.00    0.62958   0.66645   -2.000
 7185.00    0.63629   0.66534   -2.000
 7186.00    0.63738   0.66439   -2.000
 7187.00    0.63139   0.66357   -2.000
 7188.00    0.62021   0.66305   -2.000
 7189.00    0.60919   0.66267   -2.000
 7190.00    0.60409   0.66259   -2.000
 7191.00    0.60813   0.66275   -2.000
 7192.00    0.61958   0.66315   -2.000
 7193.00    0.63075   0.66390   -2.000
 7194.00    0.63446   0.66467   -2.000
 7195.00    0.62926   0.66568   -2.000
 7196.00    0.62067   0.66651   -2.000
 7197.00    0.61989   0.66733   -2.000
 7198.00    0.63060   0.66794   -2.000
 7199.00    0.64253   0.66832   -2.000
 7200.00    0.64533   0.66845   -2.000
 7201.00    0.63722   0.66836   -2.000
 7202.00    0.62404   0.66804   -2.000
 7203.00    0.61640   0.66757   -2.000
 7204.00    0.61992   0.66699   -2.000
 7205.00    0.63081   0.66640   -2.000
 7206.00    0.64039   0.66581   -2.000
 7207.00    0.63954   0.66533   -2.000
 7208.00    0.62817   0.66516   -2.000
 7209.00    0.61624   0.66514   -2.000
 7210.00    0.61024   0.66555   -2.000
 7211.00    0.60913   0.66605   -2.000
 7212.00    0.61097   0.66683   -2.000
 7213.00    0.61511   0.66771   -2.000
 7214.00    0.62068   0.66866   -2.000
 7215.00    0.62590   0.66977   -2.000
 7216.00    0.62800   0.67064   -2.000
 7217.00    0.62507   0.67153   -2.000
 7218.00    0.62129   0.67227   -2.000
