###################################################################
## OUTPUT of StarlightChains_v04.for    [Cid@UFSC - 01/Apr/2007] ##
###################################################################

## Some input info
2001co.txt                               [arq_obs]
Base.CB07.vall.4m                        [arq_base]
Masks.EmLines.NEW.gm                     [arq_masks]
StCv04.C11.config                        [arq_config]
   66                                    [N_base]
    0                                    [N_YAV_components = # of components with extra extinction!]
    0                                    [i_FitPowerLaw (1/0 = Yes/No)]
-9.99                                    [alpha_PowerLaw]
CCM                                      [red_law_option]
 1.458241                                [q_norm = A(l_norm)/A(V)]

## (Re)Sampling Parameters
 3741.00                                 [l_ini (A)]
 7218.00                                 [l_fin (A)]
    1.00                                 [dl    (A)]     (OBS: dl_cushion =    50.00 A)

## Normalization info
 4020.00                                 [l_norm (A) - for base]
 4010.00                                 [llow_norm (A) - window for f_obs]
 4060.00                                 [lupp_norm (A) - window for f_obs]
5.589050E-17                             [fobs_norm (in input units)]

## S/N
 3691.00                                 [llow_SN (A) - window for S/N]
 7268.00                                 [lupp_SN (A) - window for S/N]
   7.686                                 [S/N in S/N window]
   7.337                                 [S/N in norm. window]
  13.656                                 [S/N_err in S/N window]
  13.035                                 [S/N_err in norm. window]
  1.0000                                 [fscale_chi2]

## etc...
    -2007254                             [idum_orig]
  2383                                   [NOl_eff]
  2331                                   [Nl_eff]
    52    NSIGMA                         [Ntot_cliped & clip_method]
  1431010                                [Nglobal_steps]
   7                                     [N_chains]
  22                                     [NEX0s_base = N_base in EX0s-fits]
 0   0   1       25   2.0   2.476E+01    [Clip-Bug, RC-Crash & Burn-In warning-flags, n_censored_weights, wei_nsig_threshold & wei_limit]
    14     14.406     13.910      0.496  [idt_all, wdt_TotTime, wdt_UsrTime & wdt_SysTime (sec)]

## Synthesis Results - Best model ##

 6.58305E-01                             [chi2/Nl_eff]
     4.65788                             [adev (%)]

   104.10233                             [sum-of-x (%)]
 1.34516E-16                             [Flux_tot (units of input spectrum!)]
 2.17685E-12                             [Mini_tot (???)]
 1.12517E-12                             [Mcor_tot (???)]

 104.41                                  [v0_min  (km/s)]
 120.09                                  [vd_min  (km/s)]
 0.6240                                  [AV_min  (mag)]
 0.0000                                  [YAV_min (mag)]

# j     x_j(%)      Mini_j(%)     Mcor_j(%)     age_j(yr)     Z_j      (L/M)_j    YAV?  Mstars   component_j        a/Fe...       SSP_chi2r SSP_adev(%)   SSP_AV   SSP_x(%)
  1      0.0000     0.0000E+00    0.0000E+00    1.000000E+06  0.00400  1.094E-02    0   1.0000   age020_m42            0.0000     1.8566E+00     8.3809   3.4893    79.8226
  2      0.0000     0.0000E+00    0.0000E+00    3.160000E+06  0.00400  4.007E-02    0   0.9999   age045_m42            0.0000     1.3919E+00     7.0966   2.7096    87.7463
  3      0.0000     0.0000E+00    0.0000E+00    5.010000E+06  0.00400  2.539E-02    0   0.9488   age055_m42            0.0000     1.5583E+00     7.5784   3.0510    84.6273
  4      0.0000     0.0000E+00    0.0000E+00    6.610000E+06  0.00400  2.620E-02    0   0.9220   age061_m42            0.0000     1.3197E+00     6.8402   2.6269    88.3439
  5      0.0000     0.0000E+00    0.0000E+00    1.000000E+07  0.00400  1.322E-02    0   0.8862   age070_m42            0.0000     1.1930E+00     6.1724   2.3053    91.9100
  6      0.0000     0.0000E+00    0.0000E+00    1.445000E+07  0.00400  7.883E-03    0   0.8571   age078_m42            0.0000     1.3297E+00     6.6098   2.6520    88.6830
  7      0.0000     0.0000E+00    0.0000E+00    2.512000E+07  0.00400  5.251E-03    0   0.8174   age090_m42            0.0000     1.1772E+00     6.0512   2.1633    92.9691
  8      0.0000     0.0000E+00    0.0000E+00    4.000000E+07  0.00400  3.649E-03    0   0.7851   age104_m42            0.0000     1.0832E+00     5.8400   1.9290    94.1087
  9      0.0000     0.0000E+00    0.0000E+00    5.500000E+07  0.00400  3.098E-03    0   0.7629   age110_m42            0.0000     1.0758E+00     5.8828   2.0938    93.6604
 10      0.0000     0.0000E+00    0.0000E+00    1.015200E+08  0.00400  2.228E-03    0   0.7207   age116_m42            0.0000     1.0915E+00     5.9503   2.1198    93.6282
 11      0.0000     0.0000E+00    0.0000E+00    2.861200E+08  0.00400  1.093E-03    0   0.6648   age125_m42            0.0000     9.2075E-01     5.3712   1.5146    98.2555
 12      0.0000     0.0000E+00    0.0000E+00    5.088000E+08  0.00400  6.597E-04    0   0.6365   age130_m42            0.0000     9.2527E-01     5.4785   1.5151    98.6399
 13      0.0000     0.0000E+00    0.0000E+00    1.434000E+09  0.00400  2.132E-04    0   0.5798   age139_m42            0.0000     7.4113E-01     4.9426   0.5284   101.4799
 14      0.0000     0.0000E+00    0.0000E+00    4.250000E+09  0.00400  5.895E-05    0   0.5377   age158_m42            0.0000     9.6411E-01     5.7596   0.1341    95.4722
 15      0.0000     0.0000E+00    0.0000E+00    7.500000E+09  0.00400  3.510E-05    0   0.5212   age171_m42            0.0000     1.0874E+00     6.1117  -0.0385    94.2163
 16      0.0000     0.0000E+00    0.0000E+00    1.300000E+10  0.00400  2.005E-05    0   0.5034   age193_m42            0.0000     1.2178E+00     6.4803  -0.1877    93.0798
 17      0.0000     0.0000E+00    0.0000E+00    1.800000E+10  0.00400  1.525E-05    0   0.4967   age213_m42            0.0000     1.2117E+00     6.4414  -0.2136    92.7657
 18      0.0000     0.0000E+00    0.0000E+00    1.000000E+06  0.00800  1.238E-02    0   1.0000   age020_m52            0.0000     1.8531E+00     8.3814   3.4856    79.9764
 19      0.0000     0.0000E+00    0.0000E+00    3.160000E+06  0.00800  3.074E-02    0   0.9966   age045_m52            0.0000     1.8110E+00     8.3039   3.4043    80.8775
 20      0.0000     0.0000E+00    0.0000E+00    5.010000E+06  0.00800  2.668E-02    0   0.9443   age055_m52            0.0000     1.5822E+00     7.6641   3.1361    83.7372
 21      0.0000     0.0000E+00    0.0000E+00    6.610000E+06  0.00800  2.136E-02    0   0.9177   age061_m52            0.0000     1.0967E+00     6.0828   1.8084    92.8393
 22      0.0000     0.0000E+00    0.0000E+00    1.000000E+07  0.00800  1.215E-02    0   0.8827   age070_m52            0.0000     1.2498E+00     6.2554   2.4803    91.8541
 23      0.0000     0.0000E+00    0.0000E+00    1.445000E+07  0.00800  8.717E-03    0   0.8552   age078_m52            0.0000     1.2614E+00     6.4036   2.6091    90.2894
 24      0.0236     2.5065E-04    3.9580E-04    2.512000E+07  0.00800  5.592E-03    0   0.8162   age090_m52            0.0000     1.1269E+00     5.8843   2.2195    94.4422
 25      3.2101     4.8909E-02    7.4194E-02    4.000000E+07  0.00800  3.896E-03    0   0.7841   age104_m52            0.0000     1.0314E+00     5.6537   2.1286    95.4018
 26      0.0000     0.0000E+00    0.0000E+00    1.015200E+08  0.00800  2.148E-03    0   0.7226   age116_m52            0.0000     9.8204E-01     5.6282   2.0732    95.0326
 27      0.0062     3.6906E-04    4.7717E-04    2.861200E+08  0.00800  9.925E-04    0   0.6683   age125_m52            0.0000     8.8247E-01     5.3310   1.5758    99.7593
 28     33.6168     6.3529E+00    7.5442E+00    9.047900E+08  0.00800  3.141E-04    0   0.6138   age135_m52            0.0000     7.9825E-01     5.1179   0.7692   104.5593
 29      0.0000     0.0000E+00    0.0000E+00    1.434000E+09  0.00800  1.719E-04    0   0.5853   age139_m52            0.0000     8.2644E-01     5.1907   0.2044   101.6879
 30      0.0000     0.0000E+00    0.0000E+00    2.500000E+09  0.00800  7.872E-05    0   0.5600   age150_m52            0.0000     1.0839E+00     6.0865  -0.0199    96.9830
 31      0.0000     0.0000E+00    0.0000E+00    4.250000E+09  0.00800  4.336E-05    0   0.5426   age158_m52            0.0000     1.1375E+00     6.2271  -0.0297    95.8214
 32      0.0000     0.0000E+00    0.0000E+00    6.250000E+09  0.00800  3.159E-05    0   0.5319   age166_m52            0.0000     1.3502E+00     6.7907  -0.2144    95.1108
 33     13.8256     6.0299E+01    5.9181E+01    1.300000E+10  0.00800  1.361E-05    0   0.5073   age193_m52            0.0000     1.6866E+00     7.6537  -0.6580    93.4945
 34      4.9610     2.9787E+01    2.8757E+01    1.800000E+10  0.00800  9.886E-06    0   0.4990   age213_m52            0.0000     1.9744E+00     8.3419  -0.7422    92.0822
 35      0.0000     0.0000E+00    0.0000E+00    1.000000E+06  0.02000  1.544E-02    0   1.0000   age020_m62            0.0000     1.8605E+00     8.4152   3.4834    80.0938
 36      0.0000     0.0000E+00    0.0000E+00    3.160000E+06  0.02000  3.762E-02    0   0.9858   age045_m62            0.0000     1.8416E+00     8.3979   3.4213    80.8489
 37      0.0000     0.0000E+00    0.0000E+00    5.010000E+06  0.02000  3.296E-02    0   0.9342   age055_m62            0.0000     1.4758E+00     7.3790   3.0042    85.9928
 38      0.0000     0.0000E+00    0.0000E+00    8.710000E+06  0.02000  1.154E-02    0   0.8861   age067_m62            0.0000     2.0056E+00     7.6787   1.8782    96.7227
 39      0.0000     0.0000E+00    0.0000E+00    1.445000E+07  0.02000  7.663E-03    0   0.8472   age078_m62            0.0000     1.3021E+00     6.2741   2.1006    95.1449
 40      2.0298     2.6586E-02    4.1657E-02    2.512000E+07  0.02000  4.532E-03    0   0.8099   age090_m62            0.0000     1.3331E+00     6.2880   2.0851    95.2659
 41      0.0000     0.0000E+00    0.0000E+00    5.500000E+07  0.02000  2.733E-03    0   0.7595   age110_m62            0.0000     1.0535E+00     5.7126   2.1153    94.5036
 42      0.0000     0.0000E+00    0.0000E+00    1.609000E+08  0.02000  1.369E-03    0   0.6985   age120_m62            0.0000     9.7489E-01     5.5265   1.9504    97.4305
 43      1.5097     9.9425E-02    1.2915E-01    2.861200E+08  0.02000  9.013E-04    0   0.6714   age125_m62            0.0000     9.4997E-01     5.4822   1.6882   100.8869
 44      0.0000     0.0000E+00    0.0000E+00    5.088000E+08  0.02000  5.028E-04    0   0.6449   age130_m62            0.0000     9.5133E-01     5.6301   1.3164   103.4537
 45      4.9845     1.2186E+00    1.4568E+00    9.047900E+08  0.02000  2.428E-04    0   0.6179   age135_m62            0.0000     9.1291E-01     5.5593   0.7422   102.3929
 46      0.0030     1.4169E-03    1.6195E-03    1.434000E+09  0.02000  1.263E-04    0   0.5908   age139_m62            0.0000     1.0220E+00     5.8729   0.3161   100.0554
 47      0.0000     0.0000E+00    0.0000E+00    2.500000E+09  0.02000  5.985E-05    0   0.5673   age150_m62            0.0000     1.3247E+00     6.7772  -0.0135    97.0675
 48      0.0000     0.0000E+00    0.0000E+00    4.250000E+09  0.02000  3.271E-05    0   0.5468   age158_m62            0.0000     1.6999E+00     7.7894  -0.2865    94.9037
 49      0.0000     0.0000E+00    0.0000E+00    1.000000E+10  0.02000  1.360E-05    0   0.5167   age181_m62            0.0000     2.2062E+00     8.9458  -0.6003    93.1489
 50      0.0000     0.0000E+00    0.0000E+00    1.800000E+10  0.02000  7.124E-06    0   0.5013   age213_m62            0.0000     2.6381E+00     9.8682  -0.7752    91.0143
 51      0.0000     0.0000E+00    0.0000E+00    1.000000E+06  0.05000  2.592E-02    0   0.9998   age020_m72            0.0000     1.8982E+00     8.5044   3.4760    80.0470
 52      0.0000     0.0000E+00    0.0000E+00    3.160000E+06  0.05000  4.845E-02    0   0.9577   age045_m72            0.0000     1.7151E+00     8.0777   3.2920    82.4685
 53      0.0000     0.0000E+00    0.0000E+00    5.010000E+06  0.05000  3.072E-02    0   0.9147   age055_m72            0.0000     1.4213E+00     6.8262   2.7370    89.3894
 54     10.4989     4.2832E-02    7.3561E-02    6.610000E+06  0.05000  1.455E-02    0   0.8877   age061_m72            0.0000     3.1911E+00     9.6913   1.9084    98.5918
 55      0.2909     1.9030E-03    3.1383E-03    1.000000E+07  0.05000  9.074E-03    0   0.8524   age070_m72            0.0000     1.6995E+00     7.4834   2.9284    88.9915
 56      0.0000     0.0000E+00    0.0000E+00    2.512000E+07  0.05000  4.250E-03    0   0.7902   age090_m72            0.0000     1.3510E+00     6.5031   2.5935    92.1156
 57      0.0000     0.0000E+00    0.0000E+00    4.000000E+07  0.05000  3.087E-03    0   0.7618   age104_m72            0.0000     1.3087E+00     6.3017   2.3451    94.5955
 58      4.8854     1.7058E-01    2.3418E-01    1.015200E+08  0.05000  1.700E-03    0   0.7096   age116_m72            0.0000     1.0067E+00     5.5133   2.0828    97.4553
 59     24.2569     1.9500E+00    2.5024E+00    2.861200E+08  0.05000  7.384E-04    0   0.6633   age125_m72            0.0000     9.2109E-01     5.4752   1.5575   102.2902
 60      0.0000     0.0000E+00    0.0000E+00    5.088000E+08  0.05000  3.819E-04    0   0.6372   age130_m72            0.0000     9.3275E-01     5.6090   1.0784   103.4196
 61      0.0000     0.0000E+00    0.0000E+00    9.047900E+08  0.05000  1.676E-04    0   0.6110   age135_m72            0.0000     1.2861E+00     6.7419   0.4321    99.3824
 62      0.0000     0.0000E+00    0.0000E+00    1.434000E+09  0.05000  8.837E-05    0   0.5874   age139_m72            0.0000     1.4162E+00     6.9716  -0.0166    98.6255
 63      0.0000     0.0000E+00    0.0000E+00    2.500000E+09  0.05000  4.233E-05    0   0.5598   age150_m72            0.0000     1.8543E+00     8.1640  -0.2786    95.3575
 64      0.0000     0.0000E+00    0.0000E+00    6.250000E+09  0.05000  1.435E-05    0   0.5249   age166_m72            0.0000     2.3682E+00     9.3467  -0.6862    92.2971
 65      0.0000     0.0000E+00    0.0000E+00    1.300000E+10  0.05000  6.513E-06    0   0.5036   age193_m72            0.0000     2.9522E+00    10.5512  -0.9191    91.2699
 66      0.0000     0.0000E+00    0.0000E+00    1.800000E+10  0.05000  4.527E-06    0   0.4945   age213_m72            0.0000     3.3570E+00    11.3688  -1.0000    87.8831


## Synthesis Results - Average & Chains ##

# j      x_j: min, <> & last-chain-values for 1 ...  7 chains
  1      0.0000      0.1404      0.0000      1.1508      0.0000      0.0384      0.6402      0.0000      0.0000
  2      0.0000      0.4449      1.1273      0.0000      1.0161      0.0821      0.0000      0.0000      0.0534
  3      0.0000      0.2120      0.0000      0.0456      0.0000      0.1283      0.0000      0.0000      0.0000
  4      0.0000      0.2231      0.0000      0.0000      0.0000      0.0000      0.7425      0.0000      0.0000
  5      0.0000      0.3400      0.0000      0.0000      0.0000      0.0000      0.0000      0.0000      0.0000
  6      0.0000      0.2344      0.0000      0.0000      0.2051      0.0000      0.2019      0.7706      0.0000
  7      0.0000      0.2811      0.0000      0.0000      0.5916      0.0000      0.0000      0.0000      0.0000
  8      0.0000      0.4307      0.0000      0.0000      0.0000      0.0000      0.0000      0.0000      0.0000
  9      0.0000      0.2893      1.6892      0.0000      0.0000      0.7429      0.0000      1.4782      0.0000
 10      0.0000      0.2706      0.0000      0.0000      0.5151      0.0000      0.2090      0.0000      0.0000
 11      0.0000      0.8162      0.0000      2.3889      0.1253      2.3175      1.4013      0.9247      0.6182
 12      0.0000      0.6089      0.0000      1.0762      0.0000      0.0000      0.0000      0.3430      0.0000
 13      0.0000      3.4968      0.0000      1.9733      0.0000      2.4043      1.3011      0.9765      0.0000
 14      0.0000      0.3883      0.0000      0.0000      0.3664      0.0000      0.0000      0.0000      0.0000
 15      0.0000      0.3657      0.1082      0.0000      0.0000      0.1146      0.0000      0.9374      0.0000
 16      0.0000      0.7587      0.0000      0.0000      0.0000      0.0000      0.0000      0.6111      0.0000
 17      0.0000      0.1172      0.1483      0.0000      0.0000      0.0000      0.0000      0.5094      0.3910
 18      0.0000      0.1689      0.3661      0.0697      0.0000      0.0000      0.0000      0.0000      1.1231
 19      0.0000      0.3682      0.0000      1.1213      0.0000      0.0000      0.6820      0.0000      0.3090
 20      0.0000      0.1734      0.0000      0.0000      0.3559      0.0000      0.0000      0.0000      0.0000
 21      0.0000      0.2978      0.0440      0.0000      0.0000      1.5236      0.0000      0.0908      0.2954
 22      0.0000      0.3712      0.0932      0.0591      0.0000      0.0000      0.0000      0.0000      0.0000
 23      0.0000      0.3390      0.0000      0.0000      0.0000      0.0000      0.1066      2.5204      1.6239
 24      0.0236      1.1474      0.5097      0.8125      1.1112      1.7413      1.1509      0.0000      0.4062
 25      3.2101      1.2448      3.6771      0.7128      0.5701      0.0000      1.9257      0.0000      0.0000
 26      0.0000      0.9757      1.3643      0.5631      3.0662      1.0144      0.0528      0.1512      0.0000
 27      0.0062      1.0802      0.8126      0.0000      0.0000      0.0000      1.0046      0.0000      5.2442
 28     33.6168     22.5731     30.3107     23.4585     24.4837     27.4644     25.7289     26.2218     27.0330
 29      0.0000      2.4496      0.0000      3.0574      2.4908      1.1887      0.0000      2.3862      1.9222
 30      0.0000      0.9108      0.8601      0.0000      0.1569      0.0000      0.7787      0.0889      1.7289
 31      0.0000      0.4330      1.8605      0.0000      0.0000      0.0000      0.0000      1.0474      0.0000
 32      0.0000      1.9953      3.4115      0.0000      1.9966      3.1804      1.9435      2.2889      1.9224
 33     13.8256      7.5800      7.8946      9.6006     10.9335      7.9685     11.0554      8.9282      9.6243
 34      4.9610      3.2603      4.4841      4.1391      3.9756      4.2684      3.8355      3.5636      3.3585
 35      0.0000      0.1637      0.0000      0.0000      0.0000      0.0703      0.0549      0.0000      1.0305
 36      0.0000      0.1462      0.0000      0.0000      1.7940      0.0000      0.0532      0.3214      0.0000
 37      0.0000      0.2924      0.0000      0.7092      0.0000      0.4622      0.0000      0.0000      0.0000
 38      0.0000      1.2412      3.2931      1.7844      0.7885      2.8582      0.3909      0.0000      1.4924
 39      0.0000      0.4044      0.8435      0.1058      0.8615      0.0000      0.6526      0.0000      0.7380
 40      2.0298      0.7710      0.5910      0.0000      0.6991      1.6425      2.6851      1.5989      1.2572
 41      0.0000      0.3808      0.0000      0.0000      0.0000      0.0000      0.0000      0.0000      0.0000
 42      0.0000      1.3942      1.8514      1.2864      4.3822      0.0000      0.0000      1.4829      0.1317
 43      1.5097      3.6113      1.4884      3.7369      1.8477      2.9257      6.8624      5.0684      4.9548
 44      0.0000      0.8909      0.0000      1.8182      1.5940      1.5900      0.0000      0.1685      0.5806
 45      4.9845      3.9377      1.4600      4.3949      2.3079      1.2199      4.5357      0.0000      3.7960
 46      0.0030      4.2399      2.9817      5.4540      5.0206      4.6143      4.2220      4.7618      5.7193
 47      0.0000      0.6038      0.3121      2.3804      0.0000      1.3747      0.0000      0.2736      0.0000
 48      0.0000      0.0934      0.0000      0.0000      0.3926      0.0000      0.0000      0.0000      0.0000
 49      0.0000      0.0699      0.0000      0.0000      0.0000      0.0000      0.0000      0.0000      0.0000
 50      0.0000      0.1186      0.0000      0.0147      0.0000      0.0000      0.0000      0.0000      0.0000
 51      0.0000      0.1227      0.6664      0.0000      0.0000      0.0000      0.0000      0.0000      0.5150
 52      0.0000      0.1705      0.0000      0.2484      0.0000      0.0000      0.0965      0.0000      0.0000
 53      0.0000      0.2230      0.0000      0.5189      0.0000      0.0000      0.0000      0.2331      0.0000
 54     10.4989      4.4266      4.5302      5.4169      4.7329      5.8976      5.0796      5.3436      4.6309
 55      0.2909      0.2767      0.0000      0.0000      0.6321      0.0000      1.7774      0.8839      0.3245
 56      0.0000      0.6623      0.0000      0.2619      1.7034      2.1526      0.0000      1.4137      0.0000
 57      0.0000      1.1640      1.8786      0.0000      1.1146      0.0000      0.0000      0.0000      1.6994
 58      4.8854      2.1720      2.0751      5.1660      2.5456      3.5197      2.4688      4.8543      2.2806
 59     24.2569     17.1793     18.9774     19.4700     18.6789     17.7399     20.6012     18.1755     17.6024
 60      0.0000      1.3521      2.0564      0.0000      0.7320      2.2921      0.0000      4.4964      0.0000
 61      0.0000      0.6663      0.7624      0.0000      0.1659      0.0000      0.7521      0.0000      0.0000
 62      0.0000      0.5482      0.0000      0.0301      0.0000      0.0000      0.0000      0.0000      0.1225
 63      0.0000      0.2092      0.0000      0.0000      0.6692      0.0000      0.0000      0.0000      0.2064
 64      0.0000      0.2590      0.0000      0.0000      0.0000      0.0000      0.0000      0.0000      0.0000
 65      0.0000      0.0318      0.0000      0.0000      0.0000      0.2758      0.0000      0.1361      0.0000
 66      0.0000      0.1578      0.3428      0.0000      0.0000      0.0000      0.0000      0.0000      0.0000

# j      m_j: min, <> & last-chain-values for 1 ...  7 chains
  1  0.0000E+00  1.8332E-03  0.0000E+00  1.4651E-02  0.0000E+00  4.8710E-04  7.7018E-03  0.0000E+00  0.0000E+00
  2  0.0000E+00  1.5862E-03  3.6970E-03  0.0000E+00  3.2688E-03  2.8464E-04  0.0000E+00  0.0000E+00  1.8739E-04
  3  0.0000E+00  1.1320E-03  0.0000E+00  2.3722E-04  0.0000E+00  6.6575E-04  0.0000E+00  0.0000E+00  0.0000E+00
  4  0.0000E+00  1.1220E-03  0.0000E+00  0.0000E+00  0.0000E+00  0.0000E+00  3.4390E-03  0.0000E+00  0.0000E+00
  5  0.0000E+00  3.2569E-03  0.0000E+00  0.0000E+00  0.0000E+00  0.0000E+00  0.0000E+00  0.0000E+00  0.0000E+00
  6  0.0000E+00  3.6412E-03  0.0000E+00  0.0000E+00  2.8754E-03  0.0000E+00  2.8896E-03  1.1300E-02  0.0000E+00
  7  0.0000E+00  6.2522E-03  0.0000E+00  0.0000E+00  1.1872E-02  0.0000E+00  0.0000E+00  0.0000E+00  0.0000E+00
  8  0.0000E+00  1.3239E-02  0.0000E+00  0.0000E+00  0.0000E+00  0.0000E+00  0.0000E+00  0.0000E+00  0.0000E+00
  9  0.0000E+00  1.0178E-02  5.4671E-02  0.0000E+00  0.0000E+00  2.5407E-02  0.0000E+00  4.9097E-02  0.0000E+00
 10  0.0000E+00  1.2506E-02  0.0000E+00  0.0000E+00  2.1480E-02  0.0000E+00  8.8989E-03  0.0000E+00  0.0000E+00
 11  0.0000E+00  7.0931E-02  0.0000E+00  2.0238E-01  9.8282E-03  1.9577E-01  1.1218E-01  7.5856E-02  5.2834E-02
 12  0.0000E+00  8.3947E-02  0.0000E+00  1.4462E-01  0.0000E+00  0.0000E+00  0.0000E+00  4.4639E-02  0.0000E+00
 13  0.0000E+00  1.3588E+00  0.0000E+00  7.4745E-01  0.0000E+00  9.0808E-01  4.6570E-01  3.5817E-01  0.0000E+00
 14  0.0000E+00  5.0604E-01  0.0000E+00  0.0000E+00  4.3086E-01  0.0000E+00  0.0000E+00  0.0000E+00  0.0000E+00
 15  0.0000E+00  7.7594E-01  2.1114E-01  0.0000E+00  0.0000E+00  2.3635E-01  0.0000E+00  1.8774E+00  0.0000E+00
 16  0.0000E+00  2.7219E+00  0.0000E+00  0.0000E+00  0.0000E+00  0.0000E+00  0.0000E+00  2.0693E+00  0.0000E+00
 17  0.0000E+00  5.4538E-01  6.3491E-01  0.0000E+00  0.0000E+00  0.0000E+00  0.0000E+00  2.2379E+00  1.7895E+00
 18  0.0000E+00  1.9499E-03  3.8870E-03  7.8400E-04  0.0000E+00  0.0000E+00  0.0000E+00  0.0000E+00  1.2746E-02
 19  0.0000E+00  1.7059E-03  0.0000E+00  5.0632E-03  0.0000E+00  0.0000E+00  2.9102E-03  0.0000E+00  1.4075E-03
 20  0.0000E+00  8.7689E-04  0.0000E+00  0.0000E+00  1.6241E-03  0.0000E+00  0.0000E+00  0.0000E+00  0.0000E+00
 21  0.0000E+00  1.8280E-03  2.4822E-04  0.0000E+00  0.0000E+00  9.0915E-03  0.0000E+00  5.2613E-04  1.7831E-03
 22  0.0000E+00  3.8537E-03  8.8995E-04  5.9840E-04  0.0000E+00  0.0000E+00  0.0000E+00  0.0000E+00  0.0000E+00
 23  0.0000E+00  4.7520E-03  0.0000E+00  0.0000E+00  0.0000E+00  0.0000E+00  1.3760E-03  3.3350E-02  2.2384E-02
 24  3.9580E-04  2.3930E-02  9.7771E-03  1.6517E-02  2.0910E-02  3.5299E-02  2.2109E-02  0.0000E+00  8.3300E-03
 25  7.4194E-02  3.5797E-02  9.7263E-02  1.9982E-02  1.4791E-02  0.0000E+00  5.1009E-02  0.0000E+00  0.0000E+00
 26  0.0000E+00  4.6899E-02  6.0321E-02  2.6383E-02  1.3298E-01  4.7395E-02  2.3375E-03  6.8625E-03  0.0000E+00
 27  4.7717E-04  1.0392E-01  7.1911E-02  0.0000E+00  0.0000E+00  0.0000E+00  8.9030E-02  0.0000E+00  4.9613E-01
 28  7.5442E+00  6.3028E+00  7.7847E+00  6.3848E+00  6.1682E+00  7.4539E+00  6.6172E+00  6.9111E+00  7.4222E+00
 29  0.0000E+00  1.1917E+00  0.0000E+00  1.4499E+00  1.0934E+00  5.6212E-01  0.0000E+00  1.0958E+00  9.1957E-01
 30  0.0000E+00  9.2575E-01  8.0411E-01  0.0000E+00  1.4388E-01  0.0000E+00  7.2902E-01  8.5255E-02  1.7281E+00
 31  0.0000E+00  7.7414E-01  3.0598E+00  0.0000E+00  0.0000E+00  0.0000E+00  0.0000E+00  1.7677E+00  0.0000E+00
 32  0.0000E+00  4.8003E+00  7.5493E+00  0.0000E+00  4.3341E+00  7.4374E+00  4.3069E+00  5.1980E+00  4.5477E+00
 33  5.9181E+01  4.0371E+01  3.8674E+01  4.9842E+01  5.2539E+01  4.1251E+01  5.4234E+01  4.4885E+01  5.0403E+01
 34  2.8757E+01  2.3514E+01  2.9747E+01  2.9099E+01  2.5871E+01  2.9922E+01  2.5480E+01  2.4261E+01  2.3818E+01
 35  0.0000E+00  1.5146E-03  0.0000E+00  0.0000E+00  0.0000E+00  6.3220E-04  4.6773E-04  0.0000E+00  9.3775E-03
 36  0.0000E+00  5.4748E-04  0.0000E+00  0.0000E+00  6.0606E-03  0.0000E+00  1.8357E-04  1.1358E-03  0.0000E+00
 37  0.0000E+00  1.1840E-03  0.0000E+00  2.7999E-03  0.0000E+00  1.8194E-03  0.0000E+00  0.0000E+00  0.0000E+00
 38  0.0000E+00  1.3618E-02  3.3233E-02  1.9084E-02  7.8056E-03  3.0481E-02  3.9503E-03  0.0000E+00  1.6100E-02
 39  0.0000E+00  6.3882E-03  1.2257E-02  1.6296E-03  1.2279E-02  0.0000E+00  9.4956E-03  0.0000E+00  1.1464E-02
 40  4.1657E-02  1.9687E-02  1.3882E-02  0.0000E+00  1.6105E-02  4.0767E-02  6.3152E-02  3.8539E-02  3.1567E-02
 41  0.0000E+00  1.5122E-02  0.0000E+00  0.0000E+00  0.0000E+00  0.0000E+00  0.0000E+00  0.0000E+00  0.0000E+00
 42  0.0000E+00  1.0164E-01  1.2415E-01  9.1417E-02  2.8826E-01  0.0000E+00  0.0000E+00  1.0205E-01  9.4422E-03
 43  1.2915E-01  3.8438E-01  1.4572E-01  3.8771E-01  1.7744E-01  3.0269E-01  6.7279E-01  5.0922E-01  5.1858E-01
 44  0.0000E+00  1.6328E-01  0.0000E+00  3.2480E-01  2.6357E-01  2.8323E-01  0.0000E+00  2.9147E-02  1.0463E-01
 45  1.4568E+00  1.4319E+00  4.8832E-01  1.5578E+00  7.5718E-01  4.3117E-01  1.5192E+00  0.0000E+00  1.3573E+00
 46  1.6195E-03  2.8339E+00  1.8331E+00  3.5534E+00  3.0277E+00  2.9978E+00  2.5992E+00  3.0042E+00  3.7589E+00
 47  0.0000E+00  8.1772E-01  3.8876E-01  3.1426E+00  0.0000E+00  1.8097E+00  0.0000E+00  3.4973E-01  0.0000E+00
 48  0.0000E+00  2.2305E-01  0.0000E+00  0.0000E+00  8.4602E-01  0.0000E+00  0.0000E+00  0.0000E+00  0.0000E+00
 49  0.0000E+00  3.7945E-01  0.0000E+00  0.0000E+00  0.0000E+00  0.0000E+00  0.0000E+00  0.0000E+00  0.0000E+00
 50  0.0000E+00  1.1921E+00  0.0000E+00  1.4414E-01  0.0000E+00  0.0000E+00  0.0000E+00  0.0000E+00  0.0000E+00
 51  0.0000E+00  6.7619E-04  3.3782E-03  0.0000E+00  0.0000E+00  0.0000E+00  0.0000E+00  0.0000E+00  2.7912E-03
 52  0.0000E+00  4.8162E-04  0.0000E+00  6.8399E-04  0.0000E+00  0.0000E+00  2.5108E-04  0.0000E+00  0.0000E+00
 53  0.0000E+00  9.4882E-04  0.0000E+00  2.1520E-03  0.0000E+00  0.0000E+00  0.0000E+00  9.3606E-04  0.0000E+00
 54  7.3561E-02  3.8589E-02  3.6325E-02  4.6031E-02  3.7226E-02  4.9973E-02  4.0787E-02  4.3970E-02  3.9696E-02
 55  3.1383E-03  3.7144E-03  0.0000E+00  0.0000E+00  7.6552E-03  0.0000E+00  2.1975E-02  1.1199E-02  4.2834E-03
 56  0.0000E+00  1.7595E-02  0.0000E+00  6.7816E-03  4.0832E-02  5.5586E-02  0.0000E+00  3.5451E-02  0.0000E+00
 57  0.0000E+00  4.1042E-02  6.0928E-02  0.0000E+00  3.5461E-02  0.0000E+00  0.0000E+00  0.0000E+00  5.8923E-02
 58  2.3418E-01  1.2954E-01  1.1384E-01  3.0034E-01  1.3698E-01  2.0404E-01  1.3563E-01  2.7329E-01  1.3375E-01
 59  2.5024E+00  2.2050E+00  2.2405E+00  2.4360E+00  2.1632E+00  2.2132E+00  2.4356E+00  2.2021E+00  2.2216E+00
 60  0.0000E+00  3.2235E-01  4.5094E-01  0.0000E+00  1.5746E-01  5.3115E-01  0.0000E+00  1.0118E+00  0.0000E+00
 61  0.0000E+00  3.4706E-01  3.6529E-01  0.0000E+00  7.7976E-02  0.0000E+00  3.6086E-01  0.0000E+00  0.0000E+00
 62  0.0000E+00  5.2062E-01  0.0000E+00  2.7866E-02  0.0000E+00  0.0000E+00  0.0000E+00  0.0000E+00  1.1443E-01
 63  0.0000E+00  3.9539E-01  0.0000E+00  0.0000E+00  1.1410E+00  0.0000E+00  0.0000E+00  0.0000E+00  3.8356E-01
 64  0.0000E+00  1.3539E+00  0.0000E+00  0.0000E+00  0.0000E+00  0.0000E+00  0.0000E+00  0.0000E+00  0.0000E+00
 65  0.0000E+00  3.5157E-01  0.0000E+00  0.0000E+00  0.0000E+00  2.9619E+00  0.0000E+00  1.4197E+00  0.0000E+00
 66  0.0000E+00  2.4636E+00  4.9215E+00  0.0000E+00  0.0000E+00  0.0000E+00  0.0000E+00  0.0000E+00  0.0000E+00

# AV, chi2 & Mass for <> & i_chain = 1 ...  7 solutions
AV       0.6240      0.7007      0.6943      0.6989      0.6893      0.6994      0.6943      0.6907      0.6979
chi2 6.5830E-01  6.6993E-01  6.6632E-01  6.6582E-01  6.6662E-01  6.6685E-01  6.6502E-01  6.6657E-01  6.6666E-01
Mass 1.1252E-12  1.0025E-12  1.0805E-12  1.0259E-12  1.0942E-12  1.0295E-12  1.0790E-12  1.0479E-12  1.0156E-12
 104.41                                  [v0_min (km/s) before EX0s...]
 120.09                                  [vd_min (km/s) before EX0s...]


## Synthetic spectrum (Best Model) ##l_obs f_obs f_syn wei
 3478    [Nl_obs]
 3741.00    0.84817   0.58736    0.000
 3742.00    0.83907   0.60958    0.000
 3743.00    0.74274   0.61128    0.000
 3744.00    0.63123   0.59685    0.000
 3745.00    0.61213   0.57269   16.336
 3746.00    0.68921   0.54351   -1.000
 3747.00    0.76942   0.51039   -1.000
 3748.00    0.80610   0.47312   -1.000
 3749.00    0.80719   0.43556   -1.000
 3750.00    0.74743   0.40766   -1.000
 3751.00    0.59566   0.40207   -1.000
 3752.00    0.43531   0.42495   22.972
 3753.00    0.41221   0.47041   24.260
 3754.00    0.55369   0.52500   18.061
 3755.00    0.77869   0.57543   -1.000
 3756.00    1.00492   0.61164   -1.000
 3757.00    1.16978   0.62763   -1.000
 3758.00    1.22652   0.62530   -1.000
 3759.00    1.15995   0.61541   -1.000
 3760.00    1.01348   0.61056   -1.000
 3761.00    0.85619   0.61560   -1.000
 3762.00    0.72198   0.62534   13.851
 3763.00    0.62132   0.63169   16.095
 3764.00    0.57270   0.63084   17.461
 3765.00    0.57410   0.62255   17.419
 3766.00    0.56045   0.60667   17.843
 3767.00    0.46530   0.58322   21.491
 3768.00    0.30644   0.55355   -1.000
 3769.00    0.15499   0.52159   -1.000
 3770.00    0.08272   0.49343   -1.000
 3771.00    0.13298   0.47620   -1.000
 3772.00    0.29507   0.47679   -1.000
 3773.00    0.50659   0.49768   19.740
 3774.00    0.66672   0.53281   14.999
 3775.00    0.72238   0.57169   13.843
 3776.00    0.73854   0.60777   13.540
 3777.00    0.78706   0.64041   12.705
 3778.00    0.84916   0.67105   11.776
 3779.00    0.88133   0.70050   11.347
 3780.00    0.87439   0.72828   11.437
 3781.00    0.83520   0.75278   11.973
 3782.00    0.77334   0.77177   12.931
 3783.00    0.73076   0.78389   13.684
 3784.00    0.78848   0.78891   12.683
 3785.00    0.96680   0.78555   10.343
 3786.00    1.17086   0.77183   -1.000
 3787.00    1.26505   0.74879   -1.000
 3788.00    1.14038   0.72212   -1.000
 3789.00    0.82129   0.69881   12.176
 3790.00    0.48721   0.68169   20.525
 3791.00    0.27881   0.66870   -1.000
 3792.00    0.21233   0.65505   -1.000
 3793.00    0.26490   0.63504   -1.000
 3794.00    0.40877   0.60465   24.464
 3795.00    0.57068   0.56468   17.523
 3796.00    0.64059   0.51978   -1.000
 3797.00    0.58154   0.47594   17.196
 3798.00    0.45525   0.44095   21.966
 3799.00    0.34518   0.42475   24.756
 3800.00    0.31834   0.43553   24.756
 3801.00    0.39996   0.47304   24.756
 3802.00    0.56073   0.52698   17.834
 3803.00    0.70595   0.58350   14.165
 3804.00    0.72636   0.63217   13.767
 3805.00    0.65318   0.66767   15.310
 3806.00    0.62628   0.68938   15.967
 3807.00    0.68196   0.70266   14.664
 3808.00    0.74856   0.71657   13.359
 3809.00    0.78595   0.73741   12.724
 3810.00    0.79726   0.76378   12.543
 3811.00    0.77172   0.78670   12.958
 3812.00    0.69743   0.79668   14.338
 3813.00    0.61734   0.79036   16.199
 3814.00    0.60674   0.77221   16.482
 3815.00    0.70352   0.75179   14.214
 3816.00    0.87522   0.73881   11.426
 3817.00    0.99065   0.73643   10.094
 3818.00    0.94098   0.73907   10.627
 3819.00    0.84454   0.73752   11.841
 3820.00    0.88069   0.72712   11.355
 3821.00    0.98151   0.71321   -1.000
 3822.00    0.97210   0.70491   -1.000
 3823.00    0.84190   0.70326   11.878
 3824.00    0.67659   0.69941   14.780
 3825.00    0.51427   0.68555   19.445
 3826.00    0.36895   0.66346   -1.000
 3827.00    0.28052   0.64078   -1.000
 3828.00    0.26916   0.62171   -1.000
 3829.00    0.28079   0.60467   -1.000
 3830.00    0.25455   0.58591   -1.000
 3831.00    0.19950   0.56150   -1.000
 3832.00    0.16413   0.52878   -1.000
 3833.00    0.19389   0.48825   -1.000
 3834.00    0.28935   0.44538   24.756
 3835.00    0.37996   0.40981   24.756
 3836.00    0.40634   0.38997   24.610
 3837.00    0.38871   0.38909   24.756
 3838.00    0.38714   0.40516   24.756
 3839.00    0.45694   0.43280   21.885
 3840.00    0.58299   0.46750   17.153
 3841.00    0.65350   0.50811   15.302
 3842.00    0.60097   0.55354   16.640
 3843.00    0.48575   0.60056   20.587
 3844.00    0.39931   0.64421   -1.000
 3845.00    0.39544   0.67968   -1.000
 3846.00    0.46946   0.70632   -1.000
 3847.00    0.56198   0.72656    0.000
 3848.00    0.63331   0.74197    0.000
 3849.00    0.69385   0.75253    0.000
 3850.00    0.75098   0.75909    0.000
 3851.00    0.78998   0.76549    0.000
 3852.00    0.81375   0.77561    0.000
 3853.00    0.85041   0.78806    0.000
 3854.00    0.90574   0.79634    0.000
 3855.00    0.95063   0.79605    0.000
 3856.00    0.95407   0.78985    0.000
 3857.00    0.89943   0.78303    0.000
 3858.00    0.79323   0.77820    0.000
 3859.00    0.66716   0.77565    0.000
 3860.00    0.57362   0.77532    0.000
 3861.00    0.56426   0.77981    0.000
 3862.00    0.63072   0.79172    0.000
 3863.00    0.71357   0.80778    0.000
 3864.00    0.77975   0.82077    0.000
 3865.00    0.82856   0.82639    0.000
 3866.00    0.84742   0.82591    0.000
 3867.00    0.82095   0.82336    0.000
 3868.00    0.78053   0.82183    0.000
 3869.00    0.78451   0.82046    0.000
 3870.00    0.84680   0.81514    0.000
 3871.00    0.93715   0.80241    0.000
 3872.00    1.01676   0.78395    0.000
 3873.00    1.06154   0.76737    0.000
 3874.00    1.09026   0.76007    0.000
 3875.00    1.13253   0.76250    0.000
 3876.00    1.16436   0.76620    0.000
 3877.00    1.13940   0.76042    0.000
 3878.00    1.05843   0.74239    0.000
 3879.00    0.96288   0.71917    0.000
 3880.00    0.90511   0.69949    0.000
 3881.00    0.90544   0.68594   -1.000
 3882.00    0.90325   0.67357   -1.000
 3883.00    0.83474   0.65687   -1.000
 3884.00    0.73774   0.63482   13.555
 3885.00    0.67647   0.60677   14.783
 3886.00    0.63929   0.57024   15.642
 3887.00    0.60391   0.52570   16.559
 3888.00    0.61705   0.48092   -1.000
 3889.00    0.71690   0.44814   -1.000
 3890.00    0.85001   0.43719   -1.000
 3891.00    0.94175   0.45217   -1.000
 3892.00    0.97084   0.48907   -1.000
 3893.00    0.95714   0.53573   -1.000
 3894.00    0.93915   0.57961   -1.000
 3895.00    0.92473   0.61515   -1.000
 3896.00    0.86417   0.64393   11.572
 3897.00    0.75147   0.66929   13.307
 3898.00    0.68467   0.69244   14.606
 3899.00    0.72289   0.71238   13.833
 3900.00    0.79761   0.72933   12.537
 3901.00    0.82510   0.74615   12.120
 3902.00    0.78358   0.76375   12.762
 3903.00    0.70377   0.77928   14.209
 3904.00    0.64976   0.78855   15.390
 3905.00    0.65936   0.79151   15.166
 3906.00    0.71761   0.79369   13.935
 3907.00    0.79526   0.80089   12.574
 3908.00    0.86880   0.81725   11.510
 3909.00    0.91536   0.84187   10.925
 3910.00    0.91394   0.86759   10.942
 3911.00    0.86258   0.88749   11.593
 3912.00    0.78469   0.89848   12.744
 3913.00    0.72252   0.90104   13.840
 3914.00    0.72074   0.89748   13.875
 3915.00    0.77691   0.89082   12.871
 3916.00    0.83974   0.88390   11.908
 3917.00    0.86871   0.87744   11.511
 3918.00    0.85315   0.86920   11.721
 3919.00    0.80346   0.85827   12.446
 3920.00    0.74297   0.84598   13.459
 3921.00    0.69320   0.83556   14.426
 3922.00    0.66932   0.83085   14.941
 3923.00    0.68007   0.83281   14.704
 3924.00    0.72171   0.83777   13.856
 3925.00    0.76375   0.83922   13.093
 3926.00    0.76906   0.83221   13.003
 3927.00    0.74773   0.81447   13.374
 3928.00    0.73672   0.78742   13.574
 3929.00    0.72939   0.75396   13.710
 3930.00    0.69235   0.71525   14.444
 3931.00    0.62931   0.67122   15.890
 3932.00    0.57009   0.62170   17.541
 3933.00    0.52657   0.57067   18.991
 3934.00    0.49417   0.52948   20.236
 3935.00    0.46896   0.51269   21.324
 3936.00    0.45399   0.52936   22.027
 3937.00    0.46392   0.57461   21.555
 3938.00    0.51203   0.63287   19.530
 3939.00    0.59031   0.68957   16.940
 3940.00    0.67295   0.73669   14.860
 3941.00    0.72618   0.77137   13.771
 3942.00    0.72720   0.79271   13.751
 3943.00    0.68575   0.80191   14.583
 3944.00    0.63489   0.80466   15.751
 3945.00    0.61550   0.80843   16.247
 3946.00    0.65515   0.81763   15.264
 3947.00    0.74756   0.83081   13.377
 3948.00    0.85762   0.84200   11.660
 3949.00    0.93275   0.84732   10.721
 3950.00    0.94461   0.84908   10.586
 3951.00    0.92209   0.85043   10.845
 3952.00    0.90444   0.85110   11.057
 3953.00    0.89930   0.84989   11.120
 3954.00    0.89220   0.84696   11.208
 3955.00    0.86145   0.84244   11.608
 3956.00    0.81496   0.83440   12.271
 3957.00    0.80606   0.82140   12.406
 3958.00    0.85848   0.80627   11.649
 3959.00    0.92340   0.79214   10.829
 3960.00    0.94256   0.77569    0.000
 3961.00    0.89223   0.75020    0.000
 3962.00    0.79387   0.71352    0.000
 3963.00    0.70601   0.67020    0.000
 3964.00    0.65417   0.62628    0.000
 3965.00    0.60598   0.58225    0.000
 3966.00    0.53895   0.53392    0.000
 3967.00    0.47020   0.47909    0.000
 3968.00    0.43070   0.42108    0.000
 3969.00    0.44654   0.36900    0.000
 3970.00    0.51484   0.33484    0.000
 3971.00    0.60011   0.32795    0.000
 3972.00    0.66025   0.35013    0.000
 3973.00    0.67079   0.39498    0.000
 3974.00    0.67190   0.45208    0.000
 3975.00    0.75043   0.51211    0.000
 3976.00    0.92459   0.56945    0.000
 3977.00    1.12345   0.62194    0.000
 3978.00    1.24817   0.66922    0.000
 3979.00    1.22724   0.71206    0.000
 3980.00    1.11282   0.74984    0.000
 3981.00    1.03735   0.77982    9.640
 3982.00    1.02873   0.80034    9.721
 3983.00    1.01932   0.81322    9.810
 3984.00    0.98902   0.82372   10.111
 3985.00    0.96839   0.83681   10.326
 3986.00    0.96500   0.85333   10.363
 3987.00    0.96268   0.87141   10.388
 3988.00    0.95571   0.88854   10.463
 3989.00    0.95428   0.90304   10.479
 3990.00    0.98001   0.91444   10.204
 3991.00    1.04814   0.92322    9.541
 3992.00    1.13847   0.93176    8.784
 3993.00    1.21178   0.94091    8.252
 3994.00    1.24520   0.94784    8.031
 3995.00    1.23738   0.94912    8.082
 3996.00    1.20625   0.94390    8.290
 3997.00    1.17369   0.93560    8.520
 3998.00    1.14477   0.93022    8.735
 3999.00    1.11394   0.93293    8.977
 4000.00    1.07710   0.94463    9.284
 4001.00    1.03604   0.96075    9.652
 4002.00    1.00218   0.97387    9.978
 4003.00    0.99925   0.97862   10.007
 4004.00    1.06171   0.97320    9.419
 4005.00    1.18610   0.95918    8.431
 4006.00    1.28899   0.94296    7.758
 4007.00    1.29745   0.93423    7.707
 4008.00    1.23444   0.93919    8.101
 4009.00    1.15799   0.95429    8.636
 4010.00    1.10051   0.97072    9.087
 4011.00    1.07744   0.98261    9.281
 4012.00    1.09639   0.98946    9.121
 4013.00    1.14122   0.99328    8.763
 4014.00    1.16586   0.99610    8.577
 4015.00    1.14310   0.99958    8.748
 4016.00    1.09283   1.00327    9.151
 4017.00    1.03361   1.00623    9.675
 4018.00    0.95733   1.00881   10.446
 4019.00    0.87940   1.01243   11.371
 4020.00    0.85596   1.01768   11.683
 4021.00    0.90125   1.02178   11.096
 4022.00    0.95725   1.02055   10.447
 4023.00    0.98446   1.01290   10.158
 4024.00    1.00000   1.00117   10.000
 4025.00    1.02466   0.98993    9.760
 4026.00    1.05774   0.98432    9.454
 4027.00    1.08528   0.98734    9.214
 4028.00    1.08791   0.99581    9.193
 4029.00    1.05603   1.00068    9.471
 4030.00    0.99820   0.99390   10.015
 4031.00    0.94865   0.97530   10.534
 4032.00    0.95260   0.95265   10.508
 4033.00    1.00692   0.93656    9.948
 4034.00    1.05820   0.93342    9.425
 4035.00    1.06419   0.94375    9.358
 4036.00    1.01642   0.96516    9.918
 4037.00    0.94470   0.99249   10.717
 4038.00    0.89857   1.01877   10.837
 4039.00    0.89444   1.03686   10.811
 4040.00    0.91130   1.04297   11.910
 4041.00    0.91835   1.03922   12.001
 4042.00    0.89422   1.03030    8.512
 4043.00    0.85343   1.01790    5.976
 4044.00    0.83088   0.99911    5.332
 4045.00    0.83543   0.97233    5.642
 4046.00    0.85818   0.94550    5.936
 4047.00    0.90863   0.93269    5.822
 4048.00    0.99156   0.94171    5.630
 4049.00    1.05340   0.96688    5.562
 4050.00    1.03102   0.99403    5.611
 4051.00    0.95008   1.01249    5.671
 4052.00    0.88973   1.01880    5.621
 4053.00    0.89919   1.01413    5.481
 4054.00    0.97895   1.00254    5.337
 4055.00    1.07584   0.98940    5.232
 4056.00    1.12856   0.97862    5.179
 4057.00    1.12966   0.97152    5.200
 4058.00    1.11294   0.96827    5.294
 4059.00    1.12417   0.96926    5.381
 4060.00    1.18103   0.97460    5.381
 4061.00    1.23507   0.98016    5.327
 4062.00    1.22843   0.97798    5.295
 4063.00    1.15900   0.96416    5.318
 4064.00    1.07007   0.94471    5.382
 4065.00    1.02726   0.93136    5.441
 4066.00    1.05826   0.93096    5.461
 4067.00    1.10736   0.94078    5.480
 4068.00    1.11779   0.95365    5.538
 4069.00    1.10041   0.96483    5.619
 4070.00    1.08088   0.97076    5.704
 4071.00    1.05671   0.96793    5.801
 4072.00    1.02580   0.95787    5.914
 4073.00    1.00644   0.94804    6.011
 4074.00    1.01217   0.94400    6.046
 4075.00    1.03576   0.94180    5.997
 4076.00    1.06468   0.93197    5.914
 4077.00    1.08974   0.91224    5.917
 4078.00    1.09428   0.89201    6.051
 4079.00    1.05438   0.88477    6.223
 4080.00    0.97595   0.89669    6.326
 4081.00    0.90637   0.92122    6.323
 4082.00    0.89041   0.94435    6.218
 4083.00    0.94302   0.95498    6.035
 4084.00    1.03108   0.95111    5.833
 4085.00    1.08445   0.93941    5.695
 4086.00    1.07628   0.92944    5.655
 4087.00    1.04336   0.92709    5.688
 4088.00    1.02782   0.93196    5.733
 4089.00    1.04998   0.93843    5.710
 4090.00    1.09837   0.93991    5.626
 4091.00    1.13709   0.93293    5.561
 4092.00    1.14160   0.91831    0.000
 4093.00    1.10760   0.89912    0.000
 4094.00    1.04003   0.87695    0.000
 4095.00    0.95367   0.85081    0.000
 4096.00    0.88454   0.81899    0.000
 4097.00    0.87471   0.78174    0.000
 4098.00    0.92418   0.74156    0.000
 4099.00    0.99167   0.69955    0.000
 4100.00    1.02868   0.65446    0.000
 4101.00    1.00283   0.60773    0.000
 4102.00    0.92953   0.56827    0.000
 4103.00    0.85735   0.54966    0.000
 4104.00    0.82243   0.56061    0.000
 4105.00    0.83450   0.59780    0.000
 4106.00    0.87012   0.64835    0.000
 4107.00    0.89661   0.69870    0.000
 4108.00    0.91586   0.74037    0.000
 4109.00    0.94741   0.77058    0.000
 4110.00    0.98827   0.79134    0.000
 4111.00    1.02168   0.80732    0.000
 4112.00    1.04062   0.82365    0.000
 4113.00    1.04757   0.84375    6.088
 4114.00    1.04854   0.86761    6.091
 4115.00    1.04523   0.89230    6.093
 4116.00    1.02700   0.91343    6.118
 4117.00    0.98716   0.92698    6.174
 4118.00    0.94291   0.93099    6.203
 4119.00    0.91907   0.92730    6.161
 4120.00    0.92672   0.92132    6.110
 4121.00    0.95837   0.91880    6.081
 4122.00    0.98758   0.92215    5.961
 4123.00    0.99335   0.93010    5.856
 4124.00    0.98168   0.94066    6.349
 4125.00    0.96312   0.95153    8.132
 4126.00    0.93391   0.95904   10.914
 4127.00    0.90269   0.95934   11.875
 4128.00    0.90735   0.95189   10.932
 4129.00    0.96160   0.94060   10.188
 4130.00    1.02026   0.92996    9.829
 4131.00    1.03736   0.92166    9.682
 4132.00    1.00790   0.91503    9.922
 4133.00    0.95611   0.91144   10.516
 4134.00    0.91973   0.91473   10.822
 4135.00    0.91333   0.92795   10.710
 4136.00    0.91408   0.94921   11.129
 4137.00    0.90770   0.97281   11.800
 4138.00    0.91085   0.99355   10.307
 4139.00    0.94716   1.00846    7.795
 4140.00    1.02849   1.01624    6.535
 4141.00    1.12951   1.01411    6.345
 4142.00    1.19046   0.99892    6.503
 4143.00    1.18264   0.97252    6.584
 4144.00    1.12794   0.94489    6.632
 4145.00    1.05633   0.92959    6.739
 4146.00    0.98681   0.93363    6.878
 4147.00    0.92539   0.95190    7.024
 4148.00    0.87256   0.97187    7.177
 4149.00    0.85045   0.98393    7.267
 4150.00    0.89029   0.98656    7.181
 4151.00    0.96254   0.98364    7.007
 4152.00    0.99112   0.97932    6.963
 4153.00    0.96277   0.97499    7.070
 4154.00    0.92867   0.96987    7.165
 4155.00    0.91683   0.96450    7.180
 4156.00    0.91930   0.96107    7.176
 4157.00    0.92396   0.96216    7.195
 4158.00    0.92797   0.96866    7.223
 4159.00    0.94861   0.97921    7.234
 4160.00    1.00680   0.99096    7.199
 4161.00    1.08679   1.00087    7.116
 4162.00    1.14893   1.00800    7.010
 4163.00    1.17286   1.01310    6.931
 4164.00    1.15926   1.01679    6.927
 4165.00    1.11632   1.01833    7.004
 4166.00    1.05607   1.01631    7.131
 4167.00    0.99250   1.01095    7.249
 4168.00    0.94134   1.00438    7.312
 4169.00    0.91979   0.99868    7.339
 4170.00    0.93949   0.99289    7.351
 4171.00    0.99615   0.98258    7.250
 4172.00    1.06579   0.96442    6.990
 4173.00    1.10410   0.94210    6.769
 4174.00    1.08313   0.92477    6.748
 4175.00    1.03452   0.91937    6.804
 4176.00    1.00748   0.92461    6.754
 4177.00    1.01408   0.93309    6.636
 4178.00    1.03899   0.93916    6.572
 4179.00    1.05862   0.94324    6.599
 4180.00    1.06098   0.94880    6.674
 4181.00    1.06121   0.95680    6.688
 4182.00    1.07401   0.96475    6.624
 4183.00    1.08895   0.97064    6.659
 4184.00    1.09299   0.97508    6.866
 4185.00    1.08961   0.97931    6.972
 4186.00    1.07972   0.98162    6.836
 4187.00    1.04949   0.97943    6.823
 4188.00    1.00504   0.97406    7.112
 4189.00    0.98978   0.97061    7.271
 4190.00    1.01886   0.97341    7.041
 4191.00    1.04413   0.98200    6.904
 4192.00    1.02663   0.99307    7.128
 4193.00    0.97967   1.00386    7.375
 4194.00    0.93854   1.01144    7.336
 4195.00    0.93622   1.01149    7.189
 4196.00    0.97780   1.00111    7.131
 4197.00    1.03434   0.98238    7.139
 4198.00    1.07998   0.96157    7.157
 4199.00    1.10730   0.94531    7.181
 4200.00    1.10932   0.93706    7.240
 4201.00    1.07664   0.93615    7.370
 4202.00    1.02251   0.93960    7.496
 4203.00    0.98312   0.94494    7.459
 4204.00    0.97556   0.95180    7.348
 4205.00    0.98926   0.96121    7.463
 4206.00    1.01686   0.97327    7.751
 4207.00    1.05954   0.98660    7.774
 4208.00    1.10555   0.99907    7.531
 4209.00    1.13146   1.00811    7.484
 4210.00    1.12881   1.01265    7.678
 4211.00    1.10692   1.01441    7.760
 4212.00    1.07649   1.01556    7.670
 4213.00    1.04711   1.01543    7.683
 4214.00    1.03332   1.01023    7.840
 4215.00    1.04683   0.99762    7.939
 4216.00    1.07398   0.98217    7.906
 4217.00    1.08692   0.97370    7.831
 4218.00    1.08098   0.97890    7.764
 4219.00    1.07095   0.99567    7.701
 4220.00    1.06535   1.01497    7.641
 4221.00    1.06238   1.02779    7.604
 4222.00    1.05336   1.02899    7.627
 4223.00    1.03207   1.01667    7.717
 4224.00    1.00954   0.99080    7.754
 4225.00    1.00143   0.95418    7.643
 4226.00    1.00341   0.91410    7.596
 4227.00    0.99873   0.88276    7.845
 4228.00    0.97662   0.87366    8.203
 4229.00    0.94203   0.89234    8.283
 4230.00    0.92364   0.93055    8.148
 4231.00    0.94574   0.97050    8.058
 4232.00    0.99133   0.99562    7.959
 4233.00    1.02390   1.00061    7.749
 4234.00    1.02078   0.99163    7.597
 4235.00    0.98492   0.97854    7.643
 4236.00    0.95075   0.96853    7.722
 4237.00    0.94583   0.96417    7.657
 4238.00    0.95339   0.96445    7.590
 4239.00    0.94776   0.96835    7.672
 4240.00    0.93088   0.97549    7.759
 4241.00    0.91758   0.98528    7.687
 4242.00    0.91839   0.99681    7.542
 4243.00    0.93204   1.00877    7.471
 4244.00    0.94381   1.01953    7.519
 4245.00    0.95323   1.02642    7.643
 4246.00    0.98884   1.02630    7.730
 4247.00    1.05802   1.01733    7.720
 4248.00    1.11858   1.00156    7.686
 4249.00    1.13742   0.98438    7.696
 4250.00    1.12581   0.97045    7.726
 4251.00    1.10732   0.96244    7.752
 4252.00    1.09694   0.96078    7.799
 4253.00    1.10310   0.96345    7.869
 4254.00    1.12774   0.96729    7.916
 4255.00    1.15719   0.97084    7.910
 4256.00    1.16405   0.97578    7.869
 4257.00    1.13924   0.98338    7.857
 4258.00    1.10073   0.98950    7.939
 4259.00    1.06238   0.98775    8.076
 4260.00    1.02297   0.97674    8.119
 4261.00    0.98089   0.96395    8.082
 4262.00    0.94375   0.96072    8.152
 4263.00    0.93973   0.97275    8.260
 4264.00    1.00201   0.99623    8.085
 4265.00    1.10109   1.02116    7.708
 4266.00    1.15367   1.03781    7.537
 4267.00    1.12817   1.04132    7.655
 4268.00    1.06235   1.03223    7.840
 4269.00    1.00927   1.01350    7.894
 4270.00    1.00558   0.98826    7.775
 4271.00    1.03256   0.95954    7.601
 4272.00    1.03638   0.93196    7.535
 4273.00    1.00591   0.91205    7.614
 4274.00    0.97256   0.90443    7.771
 4275.00    0.96161   0.91005    7.927
 4276.00    0.98127   0.92667    8.018
 4277.00    1.02538   0.95022   -2.000
 4278.00    1.08372   0.97538   -2.000
 4279.00    1.16055   0.99504   -2.000
 4280.00    1.26055   1.00342   -2.000
 4281.00    1.35691   1.00098   -2.000
 4282.00    1.41147   0.99307   -2.000
 4283.00    1.41881   0.98546   -2.000
 4284.00    1.39279   0.98087   -2.000
 4285.00    1.33371   0.97780   -2.000
 4286.00    1.24215   0.97380   -2.000
 4287.00    1.14570   0.96696   -2.000
 4288.00    1.07533   0.95563   -2.000
 4289.00    1.02926   0.93952   -2.000
 4290.00    0.99524   0.92197   -2.000
 4291.00    0.98333   0.91067   -2.000
 4292.00    1.00461   0.91221   -2.000
 4293.00    1.04302   0.92565    8.081
 4294.00    1.07608   0.94183    8.019
 4295.00    1.09971   0.95134    7.987
 4296.00    1.11471   0.95058    8.398
 4297.00    1.11138   0.94050    9.017
 4298.00    1.07826   0.92290    9.430
 4299.00    1.01282   0.89846    9.860
 4300.00    0.93136   0.87070   10.657
 4301.00    0.87251   0.84674   11.473
 4302.00    0.86099   0.83223   11.679
 4303.00    0.88188   0.82880   11.322
 4304.00    0.91003   0.83364   10.892
 4305.00    0.93319   0.84100   10.759
 4306.00    0.94877   0.84561   10.781
 4307.00    0.95985   0.84372   10.269
 4308.00    0.97096   0.83526    9.277
 4309.00    0.98518   0.82624    8.675
 4310.00    1.00342   0.82423    8.699
 4311.00    1.02335   0.83304    8.919
 4312.00    1.03633   0.85013    8.962
 4313.00    1.02965   0.86950    8.891
 4314.00    1.00635   0.88794    8.867
 4315.00    0.98827   0.90782    8.945
 4316.00    0.98383   0.93364    9.089
 4317.00    0.98010   0.96491    9.192
 4318.00    0.97455   0.99458    9.187
 4319.00    0.98184   1.01390    9.100
 4320.00    1.00494   1.01809    9.019
 4321.00    1.02867   1.00888    9.034
 4322.00    1.03930   0.99067    9.094
 4323.00    1.03233   0.96511    9.040
 4324.00    1.01266   0.93237    8.874
 4325.00    0.99179   0.89557    8.755
 4326.00    0.97930   0.86362    8.721
 4327.00    0.97996   0.84876    8.674
 4328.00    0.99360   0.85618    8.535
 4329.00    1.01557   0.87875    8.305
 4330.00    1.03815   0.90183    0.000
 4331.00    1.05380   0.91388    0.000
 4332.00    1.06177   0.91333    0.000
 4333.00    1.06593   0.90489    0.000
 4334.00    1.06590   0.89275    0.000
 4335.00    1.05668   0.87641    0.000
 4336.00    1.03250   0.85101    0.000
 4337.00    0.99309   0.81130    0.000
 4338.00    0.95372   0.75679    0.000
 4339.00    0.93377   0.69417    0.000
 4340.00    0.93338   0.63599    0.000
 4341.00    0.94071   0.59743    0.000
 4342.00    0.95091   0.58894    0.000
 4343.00    0.96221   0.61056    0.000
 4344.00    0.96555   0.65335    0.000
 4345.00    0.95460   0.70444    0.000
 4346.00    0.94130   0.75335    0.000
 4347.00    0.94093   0.79585    0.000
 4348.00    0.95074   0.83146    0.000
 4349.00    0.96267   0.85901    0.000
 4350.00    0.98161   0.87558    0.000
 4351.00    1.01498   0.87872    8.738
 4352.00    1.05881   0.87155    8.617
 4353.00    1.10052   0.86451    8.543
 4354.00    1.12438   0.86854    8.449
 4355.00    1.12238   0.88715    8.305
 4356.00    1.10317   0.91472    8.314
 4357.00    1.08150   0.94152    8.592
 4358.00    1.06734   0.96074    8.885
 4359.00    1.06142   0.97135    8.930
 4360.00    1.05457   0.97733    8.869
 4361.00    1.04647   0.98455    8.884
 4362.00    1.05608   0.99650    8.903
 4363.00    1.09015   1.01218    8.829
 4364.00    1.12425   1.02784    8.722
 4365.00    1.13274   1.03977    8.684
 4366.00    1.10986   1.04486    8.783
 4367.00    1.07037   1.04136    8.970
 4368.00    1.04383   1.03061    9.058
 4369.00    1.04425   1.01786    9.010
 4370.00    1.05762   1.00898    9.047
 4371.00    1.06778   1.00621    9.215
 4372.00    1.06904   1.00652    9.250
 4373.00    1.05871   1.00404    9.099
 4374.00    1.03553   0.99550    9.071
 4375.00    1.01056   0.98361    9.290
 4376.00    1.00522   0.97633    9.548
 4377.00    1.02331   0.98094    9.625
 4378.00    1.04688   0.99758    9.503
 4379.00    1.06542   1.01808    9.414
 4380.00    1.08113   1.03118    9.625
 4381.00    1.08724   1.02895    9.800
 4382.00    1.07031   1.00874    9.155
 4383.00    1.04246   0.97308    8.073
 4384.00    1.03428   0.93189    7.412
 4385.00    1.04203   0.90032    7.224
 4386.00    1.03220   0.89079    7.223
 4387.00    0.99829   0.90460    7.384
 4388.00    0.96354   0.93100    7.911
 4389.00    0.94649   0.95643    8.781
 4390.00    0.95201   0.97357    9.550
 4391.00    0.97260   0.98365    9.848
 4392.00    0.99593   0.99123    9.776
 4393.00    1.02045   0.99795    9.685
 4394.00    1.05171   1.00284    9.827
 4395.00    1.08837   1.00572   10.011
 4396.00    1.12380   1.00930    9.876
 4397.00    1.15445   1.01685    9.619
 4398.00    1.17810   1.02711    9.645
 4399.00    1.18842   1.03428    9.882
 4400.00    1.17809   1.03309    9.989
 4401.00    1.14536   1.02477    9.885
 4402.00    1.09580   1.01577    9.743
 4403.00    1.04323   1.00871    9.755
 4404.00    1.00744   1.00088    9.964
 4405.00    1.00980   0.99045   10.064
 4406.00    1.05425   0.98049    9.797
 4407.00    1.10632   0.97629    9.522
 4408.00    1.12602   0.98092    9.618
 4409.00    1.10876   0.99318    9.944
 4410.00    1.07586   1.01004   10.120
 4411.00    1.05709   1.02929    9.946
 4412.00    1.06895   1.04769    9.517
 4413.00    1.09650   1.05890    9.116
 4414.00    1.11586   1.05633    8.934
 4415.00    1.11678   1.04007    8.957
 4416.00    1.10110   1.01862    9.096
 4417.00    1.07868   1.00328    9.268
 4418.00    1.05917   1.00259    9.423
 4419.00    1.04632   1.01716    9.564
 4420.00    1.04377   1.03815    9.625
 4421.00    1.05812   1.05469    9.430
 4422.00    1.08848   1.06059    9.074
 4423.00    1.12075   1.05666    8.995
 4424.00    1.13880   1.04951    9.353
 4425.00    1.13333   1.04507    9.788
 4426.00    1.10953   1.04503    9.923
 4427.00    1.08733   1.04718    9.834
 4428.00    1.07915   1.04873    9.697
 4429.00    1.08054   1.04901    9.542
 4430.00    1.08570   1.04767    9.390
 4431.00    1.09302   1.04534    9.300
 4432.00    1.09278   1.04241    9.291
 4433.00    1.06896   1.03735    9.313
 4434.00    1.03163   1.02953    9.293
 4435.00    1.01841   1.01990    9.176
 4436.00    1.04411   1.01344    9.019
 4437.00    1.08835   1.01749    8.948
 4438.00    1.12592   1.03396    8.956
 4439.00    1.14024   1.05663    8.909
 4440.00    1.12901   1.07400    8.805
 4441.00    1.10320   1.07663    8.780
 4442.00    1.07823   1.06392    8.878
 4443.00    1.06686   1.04367    9.030
 4444.00    1.06731   1.02785    9.157
 4445.00    1.06835   1.02568    9.223
 4446.00    1.07125   1.03748    9.251
 4447.00    1.08619   1.05560    9.298
 4448.00    1.10885   1.07144    9.352
 4449.00    1.12344   1.07977    9.362
 4450.00    1.12310   1.08024    9.343
 4451.00    1.11417   1.07660    9.345
 4452.00    1.11456   1.07089    9.321
 4453.00    1.13626   1.06205    9.216
 4454.00    1.15390   1.04907    9.158
 4455.00    1.13379   1.03193    9.299
 4456.00    1.09536   1.01425    9.477
 4457.00    1.08273   1.00154    9.418
 4458.00    1.10012   0.99621    9.251
 4459.00    1.12443   0.99622    9.252
 4460.00    1.14139   0.99725    9.380
 4461.00    1.14620   0.99681    0.000
 4462.00    1.13658   0.99694    0.000
 4463.00    1.11521   1.00183    0.000
 4464.00    1.09357   1.01181    0.000
 4465.00    1.08286   1.02383    0.000
 4466.00    1.08284   1.03394    0.000
 4467.00    1.08936   1.03785    0.000
 4468.00    1.10337   1.03510    0.000
 4469.00    1.11946   1.02882    0.000
 4470.00    1.11572   1.02320    0.000
 4471.00    1.08548   1.02232    0.000
 4472.00    1.06437   1.02891    0.000
 4473.00    1.08131   1.04364    0.000
 4474.00    1.11614   1.06309    0.000
 4475.00    1.13748   1.08216    0.000
 4476.00    1.13712   1.09753    0.000
 4477.00    1.12533   1.10761    0.000
 4478.00    1.12205   1.11054    0.000
 4479.00    1.13366   1.10360    0.000
 4480.00    1.14079   1.08486    0.000
 4481.00    1.12702   1.05707    0.000
 4482.00    1.09743   1.03091   11.084
 4483.00    1.06973   1.01966   11.248
 4484.00    1.06467   1.02907   11.177
 4485.00    1.08657   1.05403   11.044
 4486.00    1.11716   1.08191   10.986
 4487.00    1.14068   1.09965   11.015
 4488.00    1.15555   1.10146   11.029
 4489.00    1.16430   1.09009   10.992
 4490.00    1.16817   1.07392   10.988
 4491.00    1.16621   1.06204   11.019
 4492.00    1.15592   1.05926   10.987
 4493.00    1.13669   1.06341   10.974
 4494.00    1.11276   1.06753   11.221
 4495.00    1.09808   1.06746   11.612
 4496.00    1.11098   1.06504   11.600
 4497.00    1.14925   1.06531   11.137
 4498.00    1.18932   1.07230   10.738
 4499.00    1.21251   1.08408   10.590
 4500.00    1.21286   1.09506   10.543
 4501.00    1.19380   1.10178   10.523
 4502.00    1.16591   1.10614   10.573
 4503.00    1.14397   1.11358   10.663
 4504.00    1.13839   1.12622   10.702
 4505.00    1.13629   1.14128   10.721
 4506.00    1.11365   1.15237   10.834
 4507.00    1.07507   1.15441   11.043
 4508.00    1.04754   1.14897   11.251
 4509.00    1.04594   1.14196   11.395
 4510.00    1.06687   1.13788   11.457
 4511.00    1.09274   1.13705   11.381
 4512.00    1.10604   1.13619   11.159
 4513.00    1.11321   1.13171   10.974
 4514.00    1.13154   1.12260   11.025
 4515.00    1.15884   1.11133   11.240
 4516.00    1.17912   1.10230   11.406
 4517.00    1.18023   1.09754   11.473
 4518.00    1.16039   1.09650   11.527
 4519.00    1.13265   1.09837   11.655
 4520.00    1.11269   1.10122   11.845
 4521.00    1.10154   1.10323   11.908
 4522.00    1.09196   1.10261   11.727
 4523.00    1.07963   1.09733   11.591
 4524.00    1.06640   1.08824   11.758
 4525.00    1.06133   1.07636   12.012
 4526.00    1.06765   1.06263   12.029
 4527.00    1.07008   1.04805   11.898
 4528.00    1.05538   1.03257   11.840
 4529.00    1.03267   1.01889   11.855
 4530.00    1.01338   1.01134   11.882
 4531.00    0.99270   1.01127   11.950
 4532.00    0.96963   1.01667   12.065
 4533.00    0.96282   1.02255   12.113
 4534.00    0.98395   1.02458   12.036
 4535.00    1.01800   1.02488   11.957
 4536.00    1.04496   1.02938   11.973
 4537.00    1.05731   1.04346   12.029
 4538.00    1.05860   1.06560   12.039
 4539.00    1.05934   1.08702   11.994
 4540.00    1.06122   1.09963   11.972
 4541.00    1.05138   1.10115   12.108
 4542.00    1.02840   1.09684   12.357
 4543.00    1.01280   1.09335   12.410
 4544.00    1.01771   1.09213   12.198
 4545.00    1.03554   1.09123   12.063
 4546.00    1.05470   1.08865   12.133
 4547.00    1.06808   1.08308   12.159
 4548.00    1.07034   1.07467   12.071
 4549.00    1.05782   1.06407   12.127
 4550.00    1.03443   1.05358    0.000
 4551.00    1.01220   1.04743    0.000
 4552.00    1.00347   1.04647    0.000
 4553.00    1.01522   1.04828    0.000
 4554.00    1.04081   1.04907    0.000
 4555.00    1.06239   1.04675    0.000
 4556.00    1.06938   1.04598    0.000
 4557.00    1.06471   1.05263    0.000
 4558.00    1.06352   1.06704    0.000
 4559.00    1.08351   1.08544    0.000
 4560.00    1.11918   1.10270    0.000
 4561.00    1.14602   1.11440    0.000
 4562.00    1.15167   1.11885    0.000
 4563.00    1.14177   1.11553    0.000
 4564.00    1.13271   1.10560    0.000
 4565.00    1.14067   1.09406    0.000
 4566.00    1.16194   1.08736    0.000
 4567.00    1.17885   1.09029    0.000
 4568.00    1.18182   1.10163    0.000
 4569.00    1.17061   1.11439    0.000
 4570.00    1.14733   1.12145    0.000
 4571.00    1.11768   1.11907    0.000
 4572.00    1.09532   1.11052    0.000
 4573.00    1.09324   1.10412    0.000
 4574.00    1.10851   1.10417    0.000
 4575.00    1.12944   1.10974    0.000
 4576.00    1.15020   1.11709    0.000
 4577.00    1.16628   1.12077    0.000
 4578.00    1.16559   1.11825    0.000
 4579.00    1.14132   1.11010    0.000
 4580.00    1.10921   1.09753    0.000
 4581.00    1.08898   1.08325    0.000
 4582.00    1.07984   1.07082    0.000
 4583.00    1.07333   1.06248    0.000
 4584.00    1.07073   1.05872    0.000
 4585.00    1.07659   1.05916    0.000
 4586.00    1.08991   1.06279    0.000
 4587.00    1.10498   1.06948    0.000
 4588.00    1.11407   1.07897    0.000
 4589.00    1.11784   1.08872    0.000
 4590.00    1.13180   1.09581    0.000
 4591.00    1.16064   1.09780    0.000
 4592.00    1.18015   1.09428    0.000
 4593.00    1.17057   1.08802    0.000
 4594.00    1.14136   1.08244    0.000
 4595.00    1.11342   1.07945    0.000
 4596.00    1.10315   1.07960    0.000
 4597.00    1.11114   1.08211    0.000
 4598.00    1.11920   1.08550    0.000
 4599.00    1.11524   1.08895    0.000
 4600.00    1.10568   1.09096    0.000
 4601.00    1.09635   1.09074    0.000
 4602.00    1.08354   1.09004    0.000
 4603.00    1.06714   1.09023    0.000
 4604.00    1.05582   1.09208    0.000
 4605.00    1.05621   1.09557    0.000
 4606.00    1.06874   1.10019    0.000
 4607.00    1.09339   1.10705    0.000
 4608.00    1.13027   1.11727    0.000
 4609.00    1.17074   1.12994    0.000
 4610.00    1.19831   1.14128    0.000
 4611.00    1.20587   1.14721    0.000
 4612.00    1.19880   1.14657    0.000
 4613.00    1.18160   1.14123    0.000
 4614.00    1.15669   1.13509    0.000
 4615.00    1.13603   1.13144    0.000
 4616.00    1.13565   1.12985    0.000
 4617.00    1.14780   1.12881    0.000
 4618.00    1.14672   1.12720    0.000
 4619.00    1.12774   1.12386    0.000
 4620.00    1.10970   1.12106    0.000
 4621.00    1.11187   1.12180    0.000
 4622.00    1.14219   1.12597    0.000
 4623.00    1.18495   1.13221    0.000
 4624.00    1.21294   1.13813    0.000
 4625.00    1.21980   1.14059    0.000
 4626.00    1.21585   1.13912    0.000
 4627.00    1.20494   1.13551    0.000
 4628.00    1.18550   1.13090    0.000
 4629.00    1.16159   1.12609    0.000
 4630.00    1.14267   1.12285    0.000
 4631.00    1.13926   1.12249    0.000
 4632.00    1.15411   1.12363    0.000
 4633.00    1.17030   1.12353    0.000
 4634.00    1.16963   1.12055    0.000
 4635.00    1.16143   1.11475    0.000
 4636.00    1.16319   1.10793    0.000
 4637.00    1.16898   1.10202    0.000
 4638.00    1.16401   1.09735    0.000
 4639.00    1.14804   1.09394    0.000
 4640.00    1.12831   1.09247    0.000
 4641.00    1.10784   1.09433    0.000
 4642.00    1.08708   1.09962    0.000
 4643.00    1.06736   1.10515    0.000
 4644.00    1.05260   1.10710    0.000
 4645.00    1.04982   1.10272    0.000
 4646.00    1.05974   1.09124    0.000
 4647.00    1.06946   1.07619    0.000
 4648.00    1.06770   1.06381    0.000
 4649.00    1.05788   1.05901    0.000
 4650.00    1.05117   1.06370    0.000
 4651.00    1.05882   1.07554    0.000
 4652.00    1.08253   1.08910    0.000
 4653.00    1.10999   1.09940    0.000
 4654.00    1.13097   1.10309    0.000
 4655.00    1.14708   1.10042    0.000
 4656.00    1.15983   1.09576    0.000
 4657.00    1.16429   1.09441    0.000
 4658.00    1.16038   1.10088    0.000
 4659.00    1.15748   1.11547    0.000
 4660.00    1.16177   1.13249    0.000
 4661.00    1.17005   1.14448    0.000
 4662.00    1.17570   1.14623    0.000
 4663.00    1.17198   1.13731    0.000
 4664.00    1.15232   1.12154    0.000
 4665.00    1.11267   1.10300    0.000
 4666.00    1.06055   1.08282    0.000
 4667.00    1.01523   1.06137    0.000
 4668.00    0.99223   1.04241    0.000
 4669.00    0.99645   1.03175    0.000
 4670.00    1.02076   1.03326    0.000
 4671.00    1.05055   1.04640    0.000
 4672.00    1.08024   1.06530    0.000
 4673.00    1.11281   1.08250    0.000
 4674.00    1.14063   1.09465    0.000
 4675.00    1.14827   1.10273    0.000
 4676.00    1.13834   1.10886    0.000
 4677.00    1.12901   1.11356    0.000
 4678.00    1.12708   1.11475    0.000
 4679.00    1.12677   1.11079    0.000
 4680.00    1.12533   1.10265    0.000
 4681.00    1.12367   1.09354    0.000
 4682.00    1.11874   1.08756    0.000
 4683.00    1.10654   1.08760    0.000
 4684.00    1.09159   1.09305    0.000
 4685.00    1.08287   1.10065    0.000
 4686.00    1.08179   1.10737    0.000
 4687.00    1.08471   1.11114    0.000
 4688.00    1.09161   1.11144    0.000
 4689.00    1.10394   1.10975    0.000
 4690.00    1.11858   1.10744    0.000
 4691.00    1.13008   1.10514    0.000
 4692.00    1.13580   1.10416    0.000
 4693.00    1.13556   1.10584    0.000
 4694.00    1.12996   1.11031    0.000
 4695.00    1.12002   1.11673    0.000
 4696.00    1.10712   1.12275    0.000
 4697.00    1.09610   1.12460    0.000
 4698.00    1.09785   1.11966    0.000
 4699.00    1.11569   1.10891    0.000
 4700.00    1.13122   1.09629    0.000
 4701.00    1.12662   1.08521    0.000
 4702.00    1.10838   1.07696    0.000
 4703.00    1.08970   1.07189    0.000
 4704.00    1.07185   1.07034    0.000
 4705.00    1.05254   1.07223    0.000
 4706.00    1.03478   1.07578    0.000
 4707.00    1.02452   1.07827    0.000
 4708.00    1.02722   1.07814    0.000
 4709.00    1.04215   1.07639    0.000
 4710.00    1.05998   1.07637    0.000
 4711.00    1.07676   1.08092    0.000
 4712.00    1.10097   1.08872    0.000
 4713.00    1.13213   1.09530    0.000
 4714.00    1.14989   1.09786    0.000
 4715.00    1.13931   1.09753    0.000
 4716.00    1.10551   1.09859    0.000
 4717.00    1.06464   1.10442    0.000
 4718.00    1.03655   1.11484    0.000
 4719.00    1.03658   1.12732    0.000
 4720.00    1.06909   1.13853    0.000
 4721.00    1.11727   1.14579    0.000
 4722.00    1.14713   1.14879    0.000
 4723.00    1.14687   1.14906    0.000
 4724.00    1.13617   1.14845    0.000
 4725.00    1.12965   1.14739    0.000
 4726.00    1.12444   1.14379    0.000
 4727.00    1.11363   1.13457    0.000
 4728.00    1.09369   1.11914    0.000
 4729.00    1.07096   1.10118    0.000
 4730.00    1.05780   1.08597    0.000
 4731.00    1.05311   1.07740    0.000
 4732.00    1.04549   1.07719    0.000
 4733.00    1.04193   1.08380    0.000
 4734.00    1.06159   1.09320    0.000
 4735.00    1.09454   1.10208    0.000
 4736.00    1.10905   1.10800    0.000
 4737.00    1.10029   1.11004    0.000
 4738.00    1.08993   1.11098    0.000
 4739.00    1.09450   1.11331    0.000
 4740.00    1.11829   1.11629    0.000
 4741.00    1.15524   1.11916    0.000
 4742.00    1.19264   1.12182    0.000
 4743.00    1.21778   1.12424    0.000
 4744.00    1.22259   1.12699    0.000
 4745.00    1.20974   1.13031    0.000
 4746.00    1.18940   1.13405    0.000
 4747.00    1.17160   1.13794    0.000
 4748.00    1.16300   1.14110    0.000
 4749.00    1.16390   1.14329    0.000
 4750.00    1.16888   1.14468    0.000
 4751.00    1.16886   1.14435    0.000
 4752.00    1.15818   1.14128    0.000
 4753.00    1.14326   1.13569    0.000
 4754.00    1.13200   1.12842    0.000
 4755.00    1.11965   1.12074    0.000
 4756.00    1.10153   1.11458    0.000
 4757.00    1.08896   1.11147    0.000
 4758.00    1.09409   1.11166    0.000
 4759.00    1.11194   1.11402    0.000
 4760.00    1.12994   1.11618    0.000
 4761.00    1.13954   1.11497   12.944
 4762.00    1.13555   1.10791   12.722
 4763.00    1.11537   1.09582   12.566
 4764.00    1.08659   1.08210   12.855
 4765.00    1.07107   1.06999   13.284
 4766.00    1.08190   1.06247   13.430
 4767.00    1.10696   1.06180   13.360
 4768.00    1.12969   1.06778   13.322
 4769.00    1.14469   1.07821   13.420
 4770.00    1.14986   1.09004   13.595
 4771.00    1.14155   1.09966   13.646
 4772.00    1.12368   1.10508   13.526
 4773.00    1.11110   1.10835   13.463
 4774.00    1.11372   1.11264   13.551
 4775.00    1.12853   1.11900   13.588
 4776.00    1.14999   1.12630   13.467
 4777.00    1.17521   1.13271   13.335
 4778.00    1.19975   1.13649   13.193
 4779.00    1.21603   1.13627   12.873
 4780.00    1.21666   1.13272   12.748
 4781.00    1.19815   1.12780   13.579
 4782.00    1.16942   1.12212   14.443
 4783.00    1.14943   1.11561   12.451
 4784.00    1.14347   1.10955    9.610
 4785.00    1.13938   1.10501    8.459
 4786.00    1.12976   1.10092    8.643
 4787.00    1.11758   1.09689    9.079
 4788.00    1.10626   1.09439    9.129
 4789.00    1.09688   1.09328    9.043
 4790.00    1.09070   1.09352    9.100
 4791.00    1.08972   1.09710    9.279
 4792.00    1.09566   1.10426    9.251
 4793.00    1.10964   1.11422    8.771
 4794.00    1.13197   1.12673    8.542
 4795.00    1.16094   1.13920    9.579
 4796.00    1.18982   1.14758   12.042
 4797.00    1.20946   1.14940   13.747
 4798.00    1.21570   1.14426   13.241
 4799.00    1.20860   1.13420   12.656
 4800.00    1.18718   1.12388   12.740
 4801.00    1.15388   1.11810   12.968
 4802.00    1.12488   1.11848   12.989
 4803.00    1.11656   1.12261   12.837
 4804.00    1.11850   1.12596   12.772
 4805.00    1.11133   1.12505   12.986
 4806.00    1.10372   1.11992   13.217
 4807.00    1.11538   1.11316   13.098
 4808.00    1.14153   1.10733   12.888
 4809.00    1.16177   1.10454   13.010
 4810.00    1.16116   1.10536   13.330
 4811.00    1.13955   1.10809   13.472
 4812.00    1.11823   1.11123   13.437
 4813.00    1.11560   1.11452   13.433
 4814.00    1.11811   1.11792   13.519
 4815.00    1.10590   1.12165   13.648
 4816.00    1.08492   1.12619   13.761
 4817.00    1.07302   1.13152   13.839
 4818.00    1.08100   1.13691   13.923
 4819.00    1.10773   1.14119   14.015
 4820.00    1.13855   1.14294   13.984
 4821.00    1.15797   1.14058   13.797
 4822.00    1.16135   1.13309   13.684
 4823.00    1.15421   1.12047   13.760
 4824.00    1.14899   1.10555   13.781
 4825.00    1.15063   1.09446   13.627
 4826.00    1.14832   1.09084   13.619
 4827.00    1.13789   1.09311   13.907
 4828.00    1.13432   1.09774   14.110
 4829.00    1.14257   1.10103   13.981
 4830.00    1.14264   1.10075   13.853
 4831.00    1.12347   1.09732   13.952
 4832.00    1.10084   1.09241   14.062
 4833.00    1.09490   1.08864   13.955
 4834.00    1.11506   1.08796   13.673
 4835.00    1.15305   1.08929   13.454
 4836.00    1.18484   1.09072   13.580
 4837.00    1.19644   1.09124   13.983
 4838.00    1.19283   1.08938   14.149
 4839.00    1.18018   1.08381   13.929
 4840.00    1.15895   1.07566   13.788
 4841.00    1.13044   1.06779   13.911
 4842.00    1.09939   1.06172   14.032
 4843.00    1.07320   1.05746   14.048
 4844.00    1.05996   1.05532   14.143
 4845.00    1.06336   1.05534   14.310
 4846.00    1.07970   1.05539   14.306
 4847.00    1.09475   1.05256   14.156
 4848.00    1.09099   1.04562    0.000
 4849.00    1.07178   1.03550    0.000
 4850.00    1.05774   1.02505    0.000
 4851.00    1.05584   1.01609    0.000
 4852.00    1.05555   1.00753    0.000
 4853.00    1.04201   0.99728    0.000
 4854.00    1.00613   0.98240    0.000
 4855.00    0.95924   0.96067    0.000
 4856.00    0.92582   0.93439    0.000
 4857.00    0.92000   0.90748    0.000
 4858.00    0.94478   0.87937    0.000
 4859.00    1.00155   0.84634    0.000
 4860.00    1.09080   0.80649    0.000
 4861.00    1.20948   0.76314    0.000
 4862.00    1.34444   0.72753    0.000
 4863.00    1.46265   0.71355    0.000
 4864.00    1.52254   0.72575    0.000
 4865.00    1.49579   0.75869    0.000
 4866.00    1.38364   0.80320    0.000
 4867.00    1.23386   0.84803    0.000
 4868.00    1.10692   0.88459    0.000
 4869.00    1.02634   0.91078    0.000
 4870.00    0.98581   0.92664    0.000
 4871.00    0.96782   0.93264    0.000
 4872.00    0.95649   0.93338    0.000
 4873.00    0.94944   0.93655    0.000
 4874.00    0.94908   0.94594    0.000
 4875.00    0.95225   0.96052   15.089
 4876.00    0.95796   0.97830   14.981
 4877.00    0.97510   0.99690   14.939
 4878.00    1.00938   1.01411   14.713
 4879.00    1.05139   1.02990   14.340
 4880.00    1.08663   1.04437   13.964
 4881.00    1.10608   1.05465   13.649
 4882.00    1.11072   1.05868   13.340
 4883.00    1.11292   1.05818   12.866
 4884.00    1.12221   1.05458   12.047
 4885.00    1.13521   1.04864   10.875
 4886.00    1.14160   1.04259    9.783
 4887.00    1.13044   1.03823    9.330
 4888.00    1.10084   1.03556    9.515
 4889.00    1.06638   1.03358    9.697
 4890.00    1.04133   1.03102    9.506
 4891.00    1.03176   1.02823    9.410
 4892.00    1.03374   1.02957    9.856
 4893.00    1.03612   1.04089   10.964
 4894.00    1.03824   1.06278   12.479
 4895.00    1.05333   1.09078   13.388
 4896.00    1.08187   1.11868   13.172
 4897.00    1.10498   1.13954   12.809
 4898.00    1.11216   1.14973   12.848
 4899.00    1.10886   1.14973   12.976
 4900.00    1.09684   1.14216   12.969
 4901.00    1.07097   1.13189   12.980
 4902.00    1.03726   1.12321   13.166
 4903.00    1.01504   1.11724   13.499
 4904.00    1.02073   1.11488   13.628
 4905.00    1.05915   1.11766   13.179
 4906.00    1.11494   1.12427   12.860
 4907.00    1.15985   1.13055   13.653
 4908.00    1.18131   1.13239   14.157
 4909.00    1.18404   1.12754   11.699
 4910.00    1.17152   1.11654    9.098
 4911.00    1.14548   1.10392    8.338
 4912.00    1.11715   1.09626    8.796
 4913.00    1.10276   1.09695    9.236
 4914.00    1.10668   1.10476    9.096
 4915.00    1.12155   1.11598    8.835
 4916.00    1.13699   1.12490    8.758
 4917.00    1.14348   1.12478    8.842
 4918.00    1.13591   1.11158    8.865
 4919.00    1.11380   1.08651    8.740
 4920.00    1.08033   1.05605    9.092
 4921.00    1.04150   1.02980   10.852
 4922.00    1.00491   1.01600   13.923
 4923.00    0.97816   1.01665   15.350
 4924.00    0.96654   1.02760   14.425
 4925.00    0.97177   1.04457   13.854
 4926.00    0.99078   1.06563   14.060
 4927.00    1.01853   1.08856   14.366
 4928.00    1.05178   1.11083   14.508
 4929.00    1.08610   1.13084   14.528
 4930.00    1.11197   1.14608   14.364
 4931.00    1.12193   1.15335   14.071
 4932.00    1.11889   1.15177   14.034
 4933.00    1.11158   1.14201   14.433
 4934.00    1.10831   1.12690   14.715
 4935.00    1.11104   1.11255   14.389
 4936.00    1.11119   1.10277   13.990
 4937.00    1.10011   1.09560   14.070
 4938.00    1.07870   1.08859   14.496
 4939.00    1.05504   1.08249   14.845
 4940.00    1.04066   1.08082    0.000
 4941.00    1.04226   1.08712    0.000
 4942.00    1.05630   1.10095    0.000
 4943.00    1.07613   1.11835    0.000
 4944.00    1.09752   1.13499    0.000
 4945.00    1.11838   1.14680    0.000
 4946.00    1.13795   1.15231    0.000
 4947.00    1.15380   1.15451    0.000
 4948.00    1.16072   1.15694    0.000
 4949.00    1.15541   1.16037    0.000
 4950.00    1.13895   1.16424    0.000
 4951.00    1.11582   1.16761    0.000
 4952.00    1.09283   1.16843    0.000
 4953.00    1.07723   1.16461    0.000
 4954.00    1.07458   1.15557    0.000
 4955.00    1.08350   1.14139    0.000
 4956.00    1.09619   1.12170    0.000
 4957.00    1.11050   1.09726    0.000
 4958.00    1.13200   1.07399    0.000
 4959.00    1.16210   1.06214    0.000
 4960.00    1.19498   1.06642    0.000
 4961.00    1.22330   1.08219    0.000
 4962.00    1.23980   1.10183    0.000
 4963.00    1.23513   1.11839    0.000
 4964.00    1.20268   1.12668    0.000
 4965.00    1.15482   1.12528    0.000
 4966.00    1.11722   1.11717    0.000
 4967.00    1.09952   1.10742    0.000
 4968.00    1.09364   1.09960    0.000
 4969.00    1.09148   1.09539    0.000
 4970.00    1.08950   1.09578    0.000
 4971.00    1.08782   1.10055    0.000
 4972.00    1.08882   1.10856    0.000
 4973.00    1.09443   1.11829    0.000
 4974.00    1.10391   1.12795    0.000
 4975.00    1.11074   1.13566    0.000
 4976.00    1.10673   1.13934    0.000
 4977.00    1.09086   1.13770    0.000
 4978.00    1.06941   1.13063    0.000
 4979.00    1.05266   1.11882    0.000
 4980.00    1.04707   1.10379    0.000
 4981.00    1.04406   1.08631    0.000
 4982.00    1.03052   1.06631    0.000
 4983.00    1.00699   1.04618    0.000
 4984.00    0.98479   1.03136    0.000
 4985.00    0.97775   1.02645    0.000
 4986.00    0.99377   1.03266    0.000
 4987.00    1.02607   1.04820    0.000
 4988.00    1.06169   1.06795    0.000
 4989.00    1.09271   1.08491    0.000
 4990.00    1.11412   1.09489    0.000
 4991.00    1.12067   1.09816    0.000
 4992.00    1.11316   1.09784    0.000
 4993.00    1.10403   1.09737    0.000
 4994.00    1.10333   1.09810    0.000
 4995.00    1.10585   1.10062    0.000
 4996.00    1.10045   1.10457    0.000
 4997.00    1.08013   1.10729    0.000
 4998.00    1.04981   1.10614    0.000
 4999.00    1.02931   1.09986    0.000
 5000.00    1.03253   1.08842    0.000
 5001.00    1.05338   1.07425    0.000
 5002.00    1.08034   1.06119    0.000
 5003.00    1.10800   1.05167    0.000
 5004.00    1.14098   1.04551    0.000
 5005.00    1.19334   1.04044    0.000
 5006.00    1.27272   1.03517    0.000
 5007.00    1.37106   1.03212    0.000
 5008.00    1.46748   1.03509    0.000
 5009.00    1.53253   1.04406    0.000
 5010.00    1.54011   1.05437    0.000
 5011.00    1.47722   1.06048    0.000
 5012.00    1.35994   1.05857    0.000
 5013.00    1.23274   1.04831    0.000
 5014.00    1.13262   1.03392    0.000
 5015.00    1.07393   1.02139    0.000
 5016.00    1.05249   1.01469    0.000
 5017.00    1.05208   1.01345    0.000
 5018.00    1.06072   1.01469    0.000
 5019.00    1.07344   1.01727    0.000
 5020.00    1.08074   1.02207    0.000
 5021.00    1.07021   1.02868    0.000
 5022.00    1.04459   1.03568    0.000
 5023.00    1.02106   1.04314    0.000
 5024.00    1.01232   1.05187    0.000
 5025.00    1.02048   1.06075    0.000
 5026.00    1.03648   1.06764    0.000
 5027.00    1.04631   1.07154    0.000
 5028.00    1.04625   1.07307    0.000
 5029.00    1.04299   1.07504   15.712
 5030.00    1.04466   1.07987   15.739
 5031.00    1.05642   1.08750   15.604
 5032.00    1.07567   1.09703   15.403
 5033.00    1.09444   1.10661   15.305
 5034.00    1.10612   1.11242   15.365
 5035.00    1.10783   1.11061   15.528
 5036.00    1.10221   1.10071   15.666
 5037.00    1.09261   1.08629   15.653
 5038.00    1.07502   1.07082   15.494
 5039.00    1.04378   1.05428   15.327
 5040.00    1.00271   1.03623   15.381
 5041.00    0.96534   1.01921   15.736
 5042.00    0.95176   1.00937   15.983
 5043.00    0.97449   1.01321   15.670
 5044.00    1.02105   1.03137   15.102
 5045.00    1.06789   1.05796   14.762
 5046.00    1.10046   1.08504   14.674
 5047.00    1.11496   1.10442   14.695
 5048.00    1.11696   1.11024   14.804
 5049.00    1.11422   1.10303   14.975
 5050.00    1.10956   1.08934   15.016
 5051.00    1.10325   1.07635   14.845
 5052.00    1.09623   1.06868   14.735
 5053.00    1.09047   1.06877   14.860
 5054.00    1.08888   1.07638   14.955
 5055.00    1.09214   1.08800   14.800
 5056.00    1.09681   1.09956   14.631
 5057.00    1.10050   1.10940   14.653
 5058.00    1.10566   1.11784   14.711
 5059.00    1.11535   1.12520   14.641
 5060.00    1.12975   1.13128   14.518
 5061.00    1.14394   1.13600   14.465
 5062.00    1.14838   1.13824   14.525
 5063.00    1.13994   1.13552   14.658
 5064.00    1.12638   1.12592   14.756
 5065.00    1.11199   1.11067   14.784
 5066.00    1.09199   1.09476   14.833
 5067.00    1.06873   1.08315   14.969
 5068.00    1.05694   1.07692   15.155
 5069.00    1.06594   1.07535   15.312
 5070.00    1.09171   1.07769   15.373
 5071.00    1.12223   1.08140   15.361
 5072.00    1.14209   1.08292   15.390
 5073.00    1.14037   1.08211   15.533
 5074.00    1.11519   1.08152   15.773
 5075.00    1.07796   1.08151   16.046
 5076.00    1.04935   1.08077   16.277
 5077.00    1.03928   1.07887   16.478
 5078.00    1.04281   1.07458   16.725
 5079.00    1.05044   1.06506   16.966
 5080.00    1.05417   1.05065   17.033
 5081.00    1.05435   1.03733   16.974
 5082.00    1.05745   1.03067   17.004
 5083.00    1.06412   1.03159   17.075
 5084.00    1.06936   1.03877   16.957
 5085.00    1.07175   1.05073   16.774
 5086.00    1.07402   1.06450   16.852
 5087.00    1.07819   1.07647   17.111
 5088.00    1.08380   1.08535   17.168
 5089.00    1.08666   1.09216   16.954
 5090.00    1.08347   1.09788   16.710
 5091.00    1.08153   1.10284   16.619
 5092.00    1.09106   1.10787   16.728
 5093.00    1.10758   1.11333   16.915
 5094.00    1.11776   1.11758   16.993
 5095.00    1.11562   1.11780   16.921
 5096.00    1.10345   1.11202   16.798
 5097.00    1.08825   1.10009   16.748
 5098.00    1.07517   1.08386   16.813
 5099.00    1.05922   1.06719   16.824
 5100.00    1.03534   1.05536   16.615
 5101.00    1.01353   1.05256   16.349
 5102.00    1.00808   1.05833   16.248
 5103.00    1.02130   1.06813   16.266
 5104.00    1.04589   1.07693   16.263
 5105.00    1.07059   1.08157   16.219
 5106.00    1.08556   1.08100   16.089
 5107.00    1.08759   1.07586   15.648
 5108.00    1.07962   1.06843   14.922
 5109.00    1.06940   1.06201   14.408
 5110.00    1.06756   1.05863   14.357
 5111.00    1.08459   1.05902   14.401
 5112.00    1.11902   1.06413   14.271
 5113.00    1.14976   1.07304   14.354
 5114.00    1.15779   1.08338   14.921
 5115.00    1.14359   1.09370   15.501
 5116.00    1.11937   1.10321   15.574
 5117.00    1.10067   1.11141   15.365
 5118.00    1.09462   1.11774   15.233
 5119.00    1.09398   1.12071   15.205
 5120.00    1.08906   1.11866   15.232
 5121.00    1.07607   1.11089   15.342
 5122.00    1.05845   1.09800   15.515
 5123.00    1.04530   1.08156   15.633
 5124.00    1.04048   1.06413   15.672
 5125.00    1.03843   1.04941   15.774
 5126.00    1.03454   1.04002   15.944
 5127.00    1.02987   1.03572   15.951
 5128.00    1.02730   1.03488   15.668
 5129.00    1.02918   1.03628   15.234
 5130.00    1.03624   1.03944   14.930
 5131.00    1.04747   1.04467   15.000
 5132.00    1.06204   1.05204   15.273
 5133.00    1.07865   1.06042   15.197
 5134.00    1.09078   1.06855   14.817
 5135.00    1.08864   1.07570   14.775
 5136.00    1.07205   1.08038   15.195
 5137.00    1.05145   1.07988   15.614
 5138.00    1.03680   1.07379   15.839
 5139.00    1.03323   1.06437   16.120
 5140.00    1.03931   1.05482   16.445
 5141.00    1.04842   1.04845   16.488
 5142.00    1.05360   1.04516   16.229
 5143.00    1.05054   1.04290   15.985
 5144.00    1.04150   1.04218   15.993
 5145.00    1.03318   1.04330   16.297
 5146.00    1.02960   1.04409   16.663
 5147.00    1.03085   1.04381   16.735
 5148.00    1.03418   1.04358   16.593
 5149.00    1.03551   1.04418   16.571
 5150.00    1.03195   1.04508   16.633
 5151.00    1.02193   1.04475   16.567
 5152.00    1.00470   1.04267   16.534
 5153.00    0.98368   1.03998   16.846
 5154.00    0.97187   1.03855   17.454
 5155.00    0.98148   1.04083   18.008
 5156.00    1.00695   1.04884   18.174
 5157.00    1.03365   1.06208   17.899
 5158.00    1.05412   1.07754   17.594
 5159.00    1.06824   1.09135   17.602
 5160.00    1.07978   1.10053   17.651
 5161.00    1.09066   1.10400   17.363
 5162.00    1.09477   1.10112   16.945
 5163.00    1.08501   1.09161   16.771
 5164.00    1.06187   1.07576   16.902
 5165.00    1.03067   1.05219   17.149
 5166.00    0.99717   1.01904   17.151
 5167.00    0.96382   0.97841   16.835
 5168.00    0.92725   0.93774   16.760
 5169.00    0.88666   0.90679   17.271
 5170.00    0.85077   0.89085   17.844
 5171.00    0.83068   0.88691   17.880
 5172.00    0.83267   0.88722   17.652
 5173.00    0.85411   0.88914   17.627
 5174.00    0.88242   0.89841   17.863
 5175.00    0.90807   0.92004   18.165
 5176.00    0.93294   0.95125   18.214
 5177.00    0.96112   0.98497   17.861
 5178.00    0.99187   1.01445   17.305
 5179.00    1.01679   1.03404   16.857
 5180.00    1.02142   1.03994   16.747
 5181.00    1.00314   1.03134   16.865
 5182.00    0.97756   1.00974   16.735
 5183.00    0.95667   0.97879   16.290
 5184.00    0.93930   0.94708   16.055
 5185.00    0.92357   0.92824   16.185
 5186.00    0.91265   0.93093   16.265
 5187.00    0.91115   0.95187   16.134
 5188.00    0.92210   0.98093   16.132
 5189.00    0.94169   1.00808   16.409
 5190.00    0.96003   1.02721    0.000
 5191.00    0.97248   1.03514    0.000
 5192.00    0.98179   1.03144    0.000
 5193.00    0.98956   1.02177    0.000
 5194.00    0.99464   1.01422    0.000
 5195.00    0.99837   1.01204    0.000
 5196.00    1.00606   1.01468    0.000
 5197.00    1.02599   1.02185    0.000
 5198.00    1.06458   1.03257    0.000
 5199.00    1.11408   1.04472    0.000
 5200.00    1.15561   1.05612    0.000
 5201.00    1.17587   1.06430    0.000
 5202.00    1.17107   1.06695    0.000
 5203.00    1.14524   1.06262    0.000
 5204.00    1.10804   1.05104    0.000
 5205.00    1.07066   1.03300    0.000
 5206.00    1.04179   1.01194    0.000
 5207.00    1.02159   0.99347    0.000
 5208.00    1.00599   0.98127    0.000
 5209.00    0.99702   0.97653    0.000
 5210.00    0.99971   0.98107    0.000
 5211.00    1.01310   0.99515   16.926
 5212.00    1.03108   1.01589   16.911
 5213.00    1.04649   1.03876   16.906
 5214.00    1.05490   1.05813   16.911
 5215.00    1.05898   1.06952   16.850
 5216.00    1.06343   1.07232   16.710
 5217.00    1.06747   1.07076   16.722
 5218.00    1.07068   1.07083   17.058
 5219.00    1.08105   1.07596   17.438
 5220.00    1.10380   1.08550   17.480
 5221.00    1.12778   1.09590   17.297
 5222.00    1.13786   1.10286   17.168
 5223.00    1.13028   1.10216   17.090
 5224.00    1.11031   1.09125   17.029
 5225.00    1.08755   1.07061   17.168
 5226.00    1.06892   1.04419   17.559
 5227.00    1.05307   1.01905   17.783
 5228.00    1.03665   1.00427   17.546
 5229.00    1.02024   1.00608   17.259
 5230.00    1.00756   1.02153   17.268
 5231.00    1.00379   1.04189   17.358
 5232.00    1.01104   1.05881   17.280
 5233.00    1.02570   1.06669   17.135
 5234.00    1.04403   1.06643   17.010
 5235.00    1.06532   1.06419   16.773
 5236.00    1.08539   1.06573   16.440
 5237.00    1.09427   1.07354   16.303
 5238.00    1.08819   1.08570   16.405
 5239.00    1.07546   1.09845   16.371
 5240.00    1.06798   1.10885   16.066
 5241.00    1.07425   1.11578   15.842
 5242.00    1.08974   1.11968   15.878
 5243.00    1.09715   1.12123   15.979
 5244.00    1.09056   1.12140   15.956
 5245.00    1.08235   1.12058   15.804
 5246.00    1.08175   1.11687   15.640
 5247.00    1.08705   1.10804   15.595
 5248.00    1.09361   1.09554   15.590
 5249.00    1.09748   1.08344   15.385
 5250.00    1.09596   1.07381   15.082
 5251.00    1.08830   1.06714   15.048
 5252.00    1.07732   1.06487   15.187
 5253.00    1.06861   1.06701   14.979
 5254.00    1.06616   1.07142   14.394
 5255.00    1.07073   1.07626   13.881
 5256.00    1.07951   1.08219   13.609
 5257.00    1.08850   1.09152   13.467
 5258.00    1.09908   1.10356   13.327
 5259.00    1.11503   1.11415   13.121
 5260.00    1.13095   1.11842   12.885
 5261.00    1.13483   1.11243   12.712
 5262.00    1.12086   1.09494   12.651
 5263.00    1.09199   1.06799   12.677
 5264.00    1.05842   1.03658   12.663
 5265.00    1.03101   1.00674   12.528
 5266.00    1.00931   0.98340   12.523
 5267.00    0.98711   0.96931   12.968
 5268.00    0.96689   0.96386   13.699
 5269.00    0.95631   0.96176   14.205
 5270.00    0.95799   0.95906   14.371
 5271.00    0.96994   0.95993   14.466
 5272.00    0.98917   0.96987   14.610
 5273.00    1.01091   0.98711   14.774
 5274.00    1.02727   1.00626   14.940
 5275.00    1.03367   1.02378   15.093
 5276.00    1.03711   1.03872   15.179
 5277.00    1.04662   1.05366   15.178
 5278.00    1.06032   1.07076   15.183
 5279.00    1.07075   1.08732   15.285
 5280.00    1.07294   1.09861   15.438
 5281.00    1.06630   1.10172   15.564
 5282.00    1.05523   1.09719   15.680
 5283.00    1.04366   1.08874   15.791
 5284.00    1.03031   1.08166   15.784
 5285.00    1.01517   1.08164   15.637
 5286.00    1.00542   1.09185   15.577
 5287.00    1.01037   1.10945   15.726
 5288.00    1.03583   1.12815   15.858
 5289.00    1.07748   1.14329   15.804
 5290.00    1.11790   1.15334   15.757
 5291.00    1.14083   1.15873   15.829
 5292.00    1.14172   1.15995   15.774
 5293.00    1.12569   1.15730   15.531
 5294.00    1.10424   1.15111   15.465
 5295.00    1.08671   1.14149   15.725
 5296.00    1.07562   1.12766   15.954
 5297.00    1.07109   1.10941   15.955
 5298.00    1.07299   1.08966   16.026
 5299.00    1.07781   1.07436   16.240
 5300.00    1.07848   1.06837   16.186
 5301.00    1.07226   1.07132   15.801
 5302.00    1.06372   1.07993   15.580
 5303.00    1.06016   1.09218   15.718
 5304.00    1.06792   1.10684   15.912
 5305.00    1.08604   1.12179   15.889
 5306.00    1.10570   1.13426   15.643
 5307.00    1.11807   1.14247   15.368
 5308.00    1.11873   1.14686   15.308
 5309.00    1.11174   1.14962   15.471
 5310.00    1.10749   1.15235   15.633
 5311.00    1.11103   1.15473   15.639
 5312.00    1.12022   1.15563   15.506
 5313.00    1.13250   1.15408   15.356
 5314.00    1.14573   1.14959   15.311
 5315.00    1.15461   1.14274   15.348
 5316.00    1.15257   1.13426   15.342
 5317.00    1.13949   1.12544   15.310
 5318.00    1.12134   1.11921   15.371
 5319.00    1.10427   1.11735   15.490
 5320.00    1.09226   1.11855   15.517
 5321.00    1.08500   1.12038   15.416
 5322.00    1.07981   1.12044   15.290
 5323.00    1.07624   1.11655   15.300
 5324.00    1.07457   1.10748   15.524
 5325.00    1.07103   1.09382   15.725
 5326.00    1.06134   1.07767   15.619
 5327.00    1.04803   1.05940   15.490
 5328.00    1.03801   1.03859   15.754
 5329.00    1.03628   1.01982   16.146
 5330.00    1.04498   1.01236   16.165
 5331.00    1.06351   1.02046   16.097
 5332.00    1.08759   1.03998   16.426
 5333.00    1.10824   1.06367   16.811
 5334.00    1.11763   1.08573   16.707
 5335.00    1.11653   1.10316   16.513
 5336.00    1.11124   1.11421   16.770
 5337.00    1.10824   1.11816   17.128
 5338.00    1.10868   1.11598   17.048
 5339.00    1.10390   1.10933   16.816
 5340.00    1.08722   1.09959   16.864
 5341.00    1.06566   1.08964   17.038
 5342.00    1.05007   1.08439   17.056
 5343.00    1.04472   1.08646   17.000
 5344.00    1.04906   1.09354   17.060
 5345.00    1.06041   1.10145   17.261
 5346.00    1.07600   1.10661   17.476
 5347.00    1.09410   1.10812   17.474
 5348.00    1.11043   1.10739   17.225
 5349.00    1.11675   1.10572   17.055
 5350.00    1.11032   1.10540   17.120
 5351.00    1.09947   1.10941   17.153
 5352.00    1.09493   1.11838   16.931
 5353.00    1.10291   1.13029   16.568
 5354.00    1.11919   1.14291   16.260
 5355.00    1.12958   1.15528   16.115
 5356.00    1.13077   1.16653   16.090
 5357.00    1.13727   1.17539   16.003
 5358.00    1.15652   1.18115   15.800
 5359.00    1.17804   1.18333   15.631
 5360.00    1.18558   1.18141   15.608
 5361.00    1.16627   1.17506   -2.000
 5362.00    1.12315   1.16449   -2.000
 5363.00    1.07811   1.15131   -2.000
 5364.00    1.06128   1.13818   -2.000
 5365.00    1.09989   1.12679   -2.000
 5366.00    1.19425   1.11768   -2.000
 5367.00    1.31331   1.11066   -2.000
 5368.00    1.41068   1.10405   -2.000
 5369.00    1.44117   1.09571   -2.000
 5370.00    1.39307   1.08459   -2.000
 5371.00    1.29219   1.07235   -2.000
 5372.00    1.18189   1.06428   -2.000
 5373.00    1.10598   1.06638   -2.000
 5374.00    1.07967   1.07998   -2.000
 5375.00    1.08923   1.10069   -2.000
 5376.00    1.11141   1.12213   14.754
 5377.00    1.12587   1.13893   15.059
 5378.00    1.13133   1.14879   15.253
 5379.00    1.13870   1.15241   15.559
 5380.00    1.14841   1.15116   15.884
 5381.00    1.15272   1.14644   15.938
 5382.00    1.14989   1.14030   15.849
 5383.00    1.14314   1.13466   15.978
 5384.00    1.13332   1.13094   16.368
 5385.00    1.11990   1.13047   16.798
 5386.00    1.10475   1.13286   17.064
 5387.00    1.09259   1.13573   17.093
 5388.00    1.09009   1.13675   17.011
 5389.00    1.10017   1.13445   16.994
 5390.00    1.11427   1.12850   17.055
 5391.00    1.11974   1.12016   17.156
 5392.00    1.11128   1.11145   17.377
 5393.00    1.09224   1.10359   17.715
 5394.00    1.07378   1.09670   17.788
 5395.00    1.06713   1.09018   17.375
 5396.00    1.07488   1.08322   17.011
 5397.00    1.09049   1.07558   17.132
 5398.00    1.09982   1.06953   17.370
 5399.00    1.09243   1.06898   17.284
 5400.00    1.07182   1.07422   17.163
 5401.00    1.04790   1.08169   17.354
 5402.00    1.02877   1.08753   17.638
 5403.00    1.01824   1.08851   17.653
 5404.00    1.01479   1.08210   17.358
 5405.00    1.01592   1.06909   16.939
 5406.00    1.02127   1.05427   16.634
 5407.00    1.02889   1.04364   16.557
 5408.00    1.03337   1.04060   16.639
 5409.00    1.03249   1.04391   16.744
 5410.00    1.03108   1.05035   16.745
 5411.00    1.03548   1.05874   16.613
 5412.00    1.04906   1.06991   16.431
 5413.00    1.06740   1.08337   16.266
 5414.00    1.07835   1.09690   16.118
 5415.00    1.07682   1.10855   16.060
 5416.00    1.07074   1.11810   16.240
 5417.00    1.06994   1.12627   16.514
 5418.00    1.07991   1.13274   16.397
 5419.00    1.09971   1.13642   15.911
 5420.00    1.12192   1.13683   15.672
 5421.00    1.13624   1.13451   15.895
 5422.00    1.13363   1.13080   16.250
 5423.00    1.11609   1.12677   16.497
 5424.00    1.09607   1.12242   16.683
 5425.00    1.08083   1.11852   16.777
 5426.00    1.06962   1.11716   16.646
 5427.00    1.06391   1.11836   16.486
 5428.00    1.06848   1.11898   16.704
 5429.00    1.08422   1.11509   17.189
 5430.00    1.10554   1.10571   17.362
 5431.00    1.12001   1.09489   17.205
 5432.00    1.11510   1.08675   17.242
 5433.00    1.09551   1.08130   17.496
 5434.00    1.07805   1.07744   17.561
 5435.00    1.06865   1.07550   17.450
 5436.00    1.06319   1.07718   17.525
 5437.00    1.06204   1.08440   17.847
 5438.00    1.06921   1.09771   18.177
 5439.00    1.08377   1.11546   18.297
 5440.00    1.10074   1.13422   18.164
 5441.00    1.11635   1.15021   17.996
 5442.00    1.12813   1.16061   18.043
 5443.00    1.13336   1.16386   18.209
 5444.00    1.12904   1.15923   18.228
 5445.00    1.11253   1.14661   18.066
 5446.00    1.08493   1.12772   17.861
 5447.00    1.05585   1.10706   17.687
 5448.00    1.03864   1.09143   17.543
 5449.00    1.04245   1.08606   17.370
 5450.00    1.06636   1.09047   17.159
 5451.00    1.09414   1.09969   17.050
 5452.00    1.10782   1.10780   17.116
 5453.00    1.10435   1.11041   17.130
 5454.00    1.09057   1.10588   16.923
 5455.00    1.07511   1.09565   16.767
 5456.00    1.06296   1.08419   16.930
 5457.00    1.05157   1.07791   17.247
 5458.00    1.03884   1.08052   17.403
 5459.00    1.03049   1.08997   17.285
 5460.00    1.03307   1.10075   17.001
 5461.00    1.04712   1.10773   16.784
 5462.00    1.06602   1.10864   16.720
 5463.00    1.07726   1.10441   16.609
 5464.00    1.07564   1.09857   16.283
 5465.00    1.07129   1.09535   15.828
 5466.00    1.07379   1.09642   15.449
 5467.00    1.08182   1.10049   15.322
 5468.00    1.09242   1.10579   15.390
 5469.00    1.10629   1.11062   15.307
 5470.00    1.12066   1.11317   15.060
 5471.00    1.12700   1.11252   -2.000
 5472.00    1.12343   1.10907   -2.000
 5473.00    1.11652   1.10323   -2.000
 5474.00    1.09390   1.09502   -2.000
 5475.00    1.03026   1.08515   -2.000
 5476.00    0.98246   1.07454   -2.000
 5477.00    1.11672   1.06428   -2.000
 5478.00    1.62403   1.05746   -2.000
 5479.00    2.64010   1.05719   -2.000
 5480.00    4.08539   1.06250   -2.000
 5481.00    5.68154   1.06953   -2.000
 5482.00    7.25318   1.07577   -2.000
 5483.00    8.67560   1.08180   -2.000
 5484.00    9.30788   1.08898   -2.000
 5485.00    8.29694   1.09739   -2.000
 5486.00    6.14797   1.10536   -2.000
 5487.00    4.47516   1.11033   -2.000
 5488.00    3.78220   1.11120   -2.000
 5489.00    3.32924   1.10969   -2.000
 5490.00    2.61209   1.10837   -2.000
 5491.00    1.69461   1.10838   -2.000
 5492.00    0.97124   1.10981   -2.000
 5493.00    0.83987   1.11184   -2.000
 5494.00    1.11195   1.11315   -2.000
 5495.00    1.24953   1.11337    8.000
 5496.00    1.16219   1.11283    8.603
 5497.00    1.10705   1.11140    9.036
 5498.00    1.14565   1.10925    8.730
 5499.00    1.16977   1.10772    8.543
 5500.00    1.15081   1.10720    8.686
 5501.00    1.12928   1.10603    8.871
 5502.00    1.11792   1.10284    8.954
 5503.00    1.10730   1.09842    8.984
 5504.00    1.10061   1.09437    9.066
 5505.00    1.10472   1.09132    9.189
 5506.00    1.11008   1.08887    9.052
 5507.00    1.10424   1.08675    8.681
 5508.00    1.09321   1.08591    9.048
 5509.00    1.08869   1.08697   11.339
 5510.00    1.08921   1.08860   15.467
 5511.00    1.08786   1.08889   17.097
 5512.00    1.08386   1.08693   15.897
 5513.00    1.07993   1.08318   15.688
 5514.00    1.07809   1.07991   16.295
 5515.00    1.07873   1.07973   16.383
 5516.00    1.08038   1.08398   16.237
 5517.00    1.08235   1.09237   16.535
 5518.00    1.08679   1.10342   16.924
 5519.00    1.09580   1.11522   16.889
 5520.00    1.10902   1.12555   16.686
 5521.00    1.12661   1.13263   16.678
 5522.00    1.15062   1.13598   16.797
 5523.00    1.17732   1.13602   16.839
 5524.00    1.19339   1.13318   16.719
 5525.00    1.18999   1.12747   16.565
 5526.00    1.17125   1.11877   16.685
 5527.00    1.14541   1.10774   17.094
 5528.00    1.11888   1.09631   17.319
 5529.00    1.09639   1.08759   17.253
 5530.00    1.08133   1.08479   17.511
 5531.00    1.07637   1.08859   18.096
 5532.00    1.08301   1.09605   17.988
 5533.00    1.09729   1.10312   17.670
 5534.00    1.10966   1.10724   19.230
 5535.00    1.11409   1.10815   20.805
 5536.00    1.11157   1.10758   15.742
 5537.00    1.10691   1.10820   10.453
 5538.00    1.10589   1.11138    8.578
 5539.00    1.10994   1.11667    8.651
 5540.00    1.11584   1.12301    9.220
 5541.00    1.12195   1.12896    9.190
 5542.00    1.12915   1.13277    8.542
 5543.00    1.13607   1.13320    8.336
 5544.00    1.13830   1.13054    9.942
 5545.00    1.13103   1.12674   14.727
 5546.00    1.11253   1.12406   19.757
 5547.00    1.09111   1.12392   18.590
 5548.00    1.08183   1.12687   16.898
 5549.00    1.09270   1.13233   16.938
 5550.00    1.12024   1.13847   17.052
 5551.00    1.14825   1.14319   16.645
 5552.00    1.15698   1.14515   16.413
 5553.00    1.14369   1.14387   16.536
 5554.00    1.12033   1.13988   16.694
 5555.00    1.09896   1.13472   16.737
 5556.00    1.08664   1.13029   16.724
 5557.00    1.08207   1.12765   16.704
 5558.00    1.08032   1.12657   16.677
 5559.00    1.08202   1.12633   16.622
 5560.00    1.08911   1.12619   16.533
 5561.00    1.09561   1.12529   16.484
 5562.00    1.09371   1.12303   16.573
 5563.00    1.08519   1.11928   16.848
 5564.00    1.07791   1.11454   17.232
 5565.00    1.07819   1.10975   17.425
 5566.00    1.08554   1.10550   17.232
 5567.00    1.08834   1.10202   17.009
 5568.00    1.07831   1.09963   17.122
 5569.00    1.06746   1.09839   17.364
 5570.00    1.07195   1.09793   17.355
 5571.00    1.09231   1.09814   17.102
 5572.00    1.11824   1.09899   16.830
 5573.00    1.13673   1.09987   16.705
 5574.00    1.14101   1.10083   16.768
 5575.00    1.13740   1.10310   16.904
 5576.00    1.13415   1.10683   16.966
 5577.00    1.13167   1.11104   16.900
 5578.00    1.12812   1.11526   16.770
 5579.00    1.12441   1.11915   16.735
 5580.00    1.12116   1.12215   16.829
 5581.00    1.11663   1.12390   16.835
 5582.00    1.11040   1.12393   16.568
 5583.00    1.10579   1.12172   16.075
 5584.00    1.10777   1.11712   15.443
 5585.00    1.12040   1.10965   14.704
 5586.00    1.14055   1.09854   13.979
 5587.00    1.15633   1.08407   13.473
 5588.00    1.15942   1.06854   13.202
 5589.00    1.15156   1.05577   12.982
 5590.00    1.14128   1.04909   12.714
 5591.00    1.13942   1.04955   12.474
 5592.00    1.14691   1.05561   12.346
 5593.00    1.15247   1.06413   12.361
 5594.00    1.14823   1.07245   12.522
 5595.00    1.13507   1.07950   12.805
 5596.00    1.11526   1.08546   13.152
 5597.00    1.09082   1.09026   13.482
 5598.00    1.06893   1.09222   13.843
 5599.00    1.05989   1.08988   14.384
 5600.00    1.06304   1.08419   14.958
 5601.00    1.06572   1.07757   15.102
 5602.00    1.05607   1.07217   14.900
 5603.00    1.03030   1.07004   14.954
 5604.00    1.00091   1.07318   15.399
 5605.00    0.99031   1.08249   15.868
 5606.00    1.00722   1.09654   16.130
 5607.00    1.04347   1.11201   16.263
 5608.00    1.08321   1.12564   16.363
 5609.00    1.11013   1.13554   16.473
 5610.00    1.11827   1.14129   16.624
 5611.00    1.11187   1.14342   16.848
 5612.00    1.09923   1.14240   17.163
 5613.00    1.08859   1.13794   17.526
 5614.00    1.08268   1.12912   17.739
 5615.00    1.07909   1.11581   17.622
 5616.00    1.07315   1.10021   17.392
 5617.00    1.06235   1.08714   17.408
 5618.00    1.05250   1.08101   17.698
 5619.00    1.05195   1.08208   18.020
 5620.00    1.06088   1.08736   18.067
 5621.00    1.07289   1.09366   17.717
 5622.00    1.07995   1.09867   17.292
 5623.00    1.07508   1.10075   17.162
 5624.00    1.05524   1.09908   17.334
 5625.00    1.02416   1.09445   17.600
 5626.00    0.99476   1.08980   17.736
 5627.00    0.98091   1.08861   17.639
 5628.00    0.98753   1.09225   17.450
 5629.00    1.01144   1.09960   17.315
 5630.00    1.04399   1.10870   17.159
 5631.00    1.07514   1.11748   16.895
 5632.00    1.09747   1.12404   16.624
 5633.00    1.10718   1.12726   16.491
 5634.00    1.10440   1.12688   16.556
 5635.00    1.09054   1.12334   16.762
 5636.00    1.06678   1.11762   16.918
 5637.00    1.03966   1.11087   16.892
 5638.00    1.02387   1.10421   16.770
 5639.00    1.02770   1.09873   16.693
 5640.00    1.04377   1.09505   16.717
 5641.00    1.06044   1.09295   16.776
 5642.00    1.07053   1.09199   16.696
 5643.00    1.07341   1.09236   16.494
 5644.00    1.07455   1.09447   16.461
 5645.00    1.07674   1.09800   16.719
 5646.00    1.07661   1.10233   17.038
 5647.00    1.07359   1.10683   17.223
 5648.00    1.07325   1.11087   17.324
 5649.00    1.07933   1.11399   17.342
 5650.00    1.09010   1.11612   17.142
 5651.00    1.10118   1.11758   16.867
 5652.00    1.10817   1.11880   16.934
 5653.00    1.11159   1.11957   17.421
 5654.00    1.11626   1.11882   17.934
 5655.00    1.12055   1.11529   18.141
 5656.00    1.11615   1.10850   18.061
 5657.00    1.10231   1.09914   17.899
 5658.00    1.08700   1.08829   17.870
 5659.00    1.07289   1.07729   17.964
 5660.00    1.05573   1.06885   17.977
 5661.00    1.03430   1.06566   17.799
 5662.00    1.01312   1.06738   17.500
 5663.00    1.00129   1.07162   17.235
 5664.00    1.00774   1.07702   17.107
 5665.00    1.03059   1.08336   16.919
 5666.00    1.05933   1.08979   16.346
 5667.00    1.08707   1.09475   15.449
 5668.00    1.11166   1.09742   14.546
 5669.00    1.13098   1.09844   13.826
 5670.00    1.14161   1.09955   13.336
 5671.00    1.13822   1.10233   13.039
 5672.00    1.11841   1.10734   12.915
 5673.00    1.09155   1.11419   13.101
 5674.00    1.07230   1.12174   13.737
 5675.00    1.06586   1.12835   14.558
 5676.00    1.06834   1.13280   15.040
 5677.00    1.07187   1.13495   15.214
 5678.00    1.07097   1.13531   15.464
 5679.00    1.07050   1.13394   15.733
 5680.00    1.07738   1.13070   15.776
 5681.00    1.08775   1.12590   15.765
 5682.00    1.09406   1.12000   15.951
 5683.00    1.09627   1.11348   16.113
 5684.00    1.09661   1.10724   15.969
 5685.00    1.09208   1.10255   15.772
 5686.00    1.08072   1.09975   15.801
 5687.00    1.06909   1.09807   15.804
 5688.00    1.06611   1.09694   15.439
 5689.00    1.07570   1.09694   14.792
 5690.00    1.09595   1.09934   14.155
 5691.00    1.11945   1.10473   13.769
 5692.00    1.13834   1.11227   13.713
 5693.00    1.14870   1.12023   13.879
 5694.00    1.14938   1.12687   14.169
 5695.00    1.14086   1.13089   14.643
 5696.00    1.12542   1.13191   15.335
 5697.00    1.10701   1.13031   16.081
 5698.00    1.08876   1.12653   16.634
 5699.00    1.07168   1.12087   16.869
 5700.00    1.05792   1.11400   16.921
 5701.00    1.05206   1.10713   17.134
 5702.00    1.05537   1.10115   17.480
 5703.00    1.06308   1.09670   17.350
 5704.00    1.06951   1.09423   16.723
 5705.00    1.07156   1.09301   16.445
 5706.00    1.07138   1.09109   16.744
 5707.00    1.07565   1.08671   16.909
 5708.00    1.08647   1.07967   16.586
 5709.00    1.09821   1.07146   16.274
 5710.00    1.10392   1.06418   16.210
 5711.00    1.09923   1.06011   16.119
 5712.00    1.08618   1.06095   15.920
 5713.00    1.07319   1.06676   15.848
 5714.00    1.06882   1.07674   15.920
 5715.00    1.07795   1.08939   15.882
 5716.00    1.09685   1.10201   15.692
 5717.00    1.11511   1.11258   15.564
 5718.00    1.12718   1.12058   15.569
 5719.00    1.13420   1.12633   15.590
 5720.00    1.13801   1.13090   15.565
 5721.00    1.13988   1.13538   15.537
 5722.00    1.14181   1.13989   15.586
 5723.00    1.14639   1.14392   15.767
 5724.00    1.15541   1.14666   15.979
 5725.00    1.16827   1.14720   16.049
 5726.00    1.17931   1.14519   16.046
 5727.00    1.18166   1.14114   16.179
 5728.00    1.17666   1.13617   16.402
 5729.00    1.17060   1.13182   16.514
 5730.00    1.16417   1.12938   16.550
 5731.00    1.15508   1.12872   16.664
 5732.00    1.14643   1.12889   16.746
 5733.00    1.14375   1.12968   16.624
 5734.00    1.14725   1.13174   16.531
 5735.00    1.15246   1.13501   16.756
 5736.00    1.15346   1.13837   17.001
 5737.00    1.14658   1.14069   16.803
 5738.00    1.13488   1.14142   16.394
 5739.00    1.12602   1.14076   16.239
 5740.00    1.12821   1.13939    0.000
 5741.00    1.14577   1.13792    0.000
 5742.00    1.17431   1.13680    0.000
 5743.00    1.20394   1.13635    0.000
 5744.00    1.22403   1.13669    0.000
 5745.00    1.22847   1.13777    0.000
 5746.00    1.22042   1.13922    0.000
 5747.00    1.20807   1.14008    0.000
 5748.00    1.19957   1.13941    0.000
 5749.00    1.19970   1.13719    0.000
 5750.00    1.20723   1.13447    0.000
 5751.00    1.21568   1.13212    0.000
 5752.00    1.21524   1.12959    0.000
 5753.00    1.20119   1.12583    0.000
 5754.00    1.17978   1.12115    0.000
 5755.00    1.16222   1.11758    0.000
 5756.00    1.15883   1.11743    0.000
 5757.00    1.17083   1.12144    0.000
 5758.00    1.18686   1.12766    0.000
 5759.00    1.19446   1.13271    0.000
 5760.00    1.18758   1.13393    0.000
 5761.00    1.16628   1.13055    0.000
 5762.00    1.13596   1.12403    0.000
 5763.00    1.10527   1.11739    0.000
 5764.00    1.08417   1.11373    0.000
 5765.00    1.07961   1.11507    0.000
 5766.00    1.09329   1.12121    0.000
 5767.00    1.12114   1.12956    0.000
 5768.00    1.15402   1.13713    0.000
 5769.00    1.18156   1.14219    0.000
 5770.00    1.19497   1.14424    0.000
 5771.00    1.19125   1.14372    0.000
 5772.00    1.17447   1.14155    0.000
 5773.00    1.15410   1.13864    0.000
 5774.00    1.14138   1.13574    0.000
 5775.00    1.13971   1.13348    0.000
 5776.00    1.14365   1.13195    0.000
 5777.00    1.14609   1.13084    0.000
 5778.00    1.14146   1.12930    0.000
 5779.00    1.12810   1.12585    0.000
 5780.00    1.10809   1.11922    0.000
 5781.00    1.08511   1.10929    0.000
 5782.00    1.06292   1.09740    0.000
 5783.00    1.04328   1.08610    0.000
 5784.00    1.02910   1.07808   -2.000
 5785.00    1.03234   1.07458   -2.000
 5786.00    1.06583   1.07537   -2.000
 5787.00    1.12300   1.07980   -2.000
 5788.00    1.18104   1.08722   -2.000
 5789.00    1.21558   1.09610   -2.000
 5790.00    1.21143   1.10434   -2.000
 5791.00    1.17607   1.11071   -2.000
 5792.00    1.13439   1.11515   -2.000
 5793.00    1.11519   1.11875   -2.000
 5794.00    1.13365   1.12284   -2.000
 5795.00    1.16940   1.12749   -2.000
 5796.00    1.18923   1.13172   -2.000
 5797.00    1.18347   1.13453   -2.000
 5798.00    1.16279   1.13577   -2.000
 5799.00    1.14637   1.13651   -2.000
 5800.00    1.14684   1.13859   -2.000
 5801.00    1.15514   1.14294   -2.000
 5802.00    1.15489   1.14834   -2.000
 5803.00    1.14038   1.15243   -2.000
 5804.00    1.11579   1.15346    0.000
 5805.00    1.09155   1.15116    0.000
 5806.00    1.07596   1.14680    0.000
 5807.00    1.06841   1.14262    0.000
 5808.00    1.06791   1.14031    0.000
 5809.00    1.08031   1.14027    0.000
 5810.00    1.10890   1.14186    0.000
 5811.00    1.14663   1.14399    0.000
 5812.00    1.18032   1.14565    0.000
 5813.00    1.19572   1.14603    0.000
 5814.00    1.18845   1.14464    0.000
 5815.00    1.16919   1.14163    0.000
 5816.00    1.14896   1.13788    0.000
 5817.00    1.13034   1.13483    0.000
 5818.00    1.11620   1.13400    0.000
 5819.00    1.11384   1.13621    0.000
 5820.00    1.12633   1.14087    0.000
 5821.00    1.14835   1.14625    0.000
 5822.00    1.17137   1.15069    0.000
 5823.00    1.18721   1.15342    0.000
 5824.00    1.19164   1.15451    0.000
 5825.00    1.18561   1.15461    0.000
 5826.00    1.17327   1.15455    0.000
 5827.00    1.16075   1.15484    0.000
 5828.00    1.15546   1.15550    0.000
 5829.00    1.16384   1.15639    0.000
 5830.00    1.18455   1.15733    0.000
 5831.00    1.20804   1.15807    0.000
 5832.00    1.22419   1.15824    0.000
 5833.00    1.22649   1.15760    0.000
 5834.00    1.21604   1.15618    0.000
 5835.00    1.20047   1.15429    0.000
 5836.00    1.18683   1.15234    0.000
 5837.00    1.17871   1.15081    0.000
 5838.00    1.17460   1.15013    0.000
 5839.00    1.16999   1.15031    0.000
 5840.00    1.16378   1.15125    0.000
 5841.00    1.15837   1.15299    0.000
 5842.00    1.15624   1.15540    0.000
 5843.00    1.15865   1.15773    0.000
 5844.00    1.16500   1.15893    0.000
 5845.00    1.17252   1.15822    0.000
 5846.00    1.17615   1.15532    0.000
 5847.00    1.17080   1.15063    0.000
 5848.00    1.15558   1.14498    0.000
 5849.00    1.13468   1.13926    0.000
 5850.00    1.11728   1.13398    0.000
 5851.00    1.11103   1.12900    0.000
 5852.00    1.11225   1.12367    0.000
 5853.00    1.11099   1.11749    0.000
 5854.00    1.10096   1.11061    0.000
 5855.00    1.08220   1.10377    0.000
 5856.00    1.06234   1.09777    0.000
 5857.00    1.05014   1.09296    0.000
 5858.00    1.04734   1.08928    0.000
 5859.00    1.05171   1.08699    0.000
 5860.00    1.06165   1.08711    0.000
 5861.00    1.07571   1.09022    0.000
 5862.00    1.09138   1.09551    0.000
 5863.00    1.10475   1.10123    0.000
 5864.00    1.11083   1.10599    0.000
 5865.00    1.10915   1.10937    0.000
 5866.00    1.10758   1.11173    0.000
 5867.00    1.10940   1.11357    0.000
 5868.00    1.10397   1.11537    0.000
 5869.00    1.08462   1.11774    0.000
 5870.00    1.06220   1.12105    0.000
 5871.00    1.05388   1.12485    0.000
 5872.00    1.07231   1.12798    0.000
 5873.00    1.11391   1.12952    0.000
 5874.00    1.15518   1.12924    0.000
 5875.00    1.17798   1.12753    0.000
 5876.00    1.18387   1.12500    0.000
 5877.00    1.18142   1.12203    0.000
 5878.00    1.17756   1.11866    0.000
 5879.00    1.17470   1.11495    0.000
 5880.00    1.17017   1.11115    0.000
 5881.00    1.16047   1.10760    0.000
 5882.00    1.14378   1.10460    0.000
 5883.00    1.12121   1.10227    0.000
 5884.00    1.09703   1.10017    0.000
 5885.00    1.07730   1.09695    0.000
 5886.00    1.06747   1.09047    0.000
 5887.00    1.06512   1.07842    0.000
 5888.00    1.06062   1.05879    0.000
 5889.00    1.04973   1.03128    0.000
 5890.00    1.03531   0.99898    0.000
 5891.00    1.01758   0.96843    0.000
 5892.00    0.99377   0.94697    0.000
 5893.00    0.96727   0.93907    0.000
 5894.00    0.94685   0.94261    0.000
 5895.00    0.93585   0.95016    0.000
 5896.00    0.93116   0.95573    0.000
 5897.00    0.92888   0.95919    0.000
 5898.00    0.92807   0.96465    0.000
 5899.00    0.93558   0.97702    0.000
 5900.00    0.96049   0.99770    0.000
 5901.00    0.99901   1.02248   17.480
 5902.00    1.03709   1.04598   13.208
 5903.00    1.06308   1.06515    9.829
 5904.00    1.07255   1.07893    8.897
 5905.00    1.07193   1.08763    9.227
 5906.00    1.07343   1.09260    9.470
 5907.00    1.08477   1.09540    9.247
 5908.00    1.10611   1.09729    9.003
 5909.00    1.12860   1.09911    8.859
 5910.00    1.14086   1.10102    8.741
 5911.00    1.13904   1.10242    8.765
 5912.00    1.12513   1.10243    9.008
 5913.00    1.10240   1.10051    9.108
 5914.00    1.07565   1.09673    8.918
 5915.00    1.05225   1.09177    9.416
 5916.00    1.03899   1.08705   11.939
 5917.00    1.03839   1.08428   16.430
 5918.00    1.05077   1.08449   18.017
 5919.00    1.07664   1.08732   16.355
 5920.00    1.11209   1.09150   15.636
 5921.00    1.14443   1.09569   15.862
 5922.00    1.16099   1.09902   15.942
 5923.00    1.15815   1.10137   15.787
 5924.00    1.14202   1.10297   15.735
 5925.00    1.12699   1.10421   15.843
 5926.00    1.12331   1.10528   16.001
 5927.00    1.12791   1.10578   16.066
 5928.00    1.13321   1.10510   16.016
 5929.00    1.13478   1.10305   16.025
 5930.00    1.13294   1.10015   16.148
 5931.00    1.13252   1.09751   16.161
 5932.00    1.13569   1.09615   16.060
 5933.00    1.13848   1.09644   16.266
 5934.00    1.13876   1.09794   16.880
 5935.00    1.14038   1.09978   17.282
 5936.00    1.14754   1.10142   17.111
 5937.00    1.16093   1.10308   16.876
 5938.00    1.17496   1.10513   16.965
 5939.00    1.17842   1.10733   17.255
 5940.00    1.16366   1.10874   17.502
 5941.00    1.13155   1.10866   17.563
 5942.00    1.09268   1.10728   17.502
 5943.00    1.06462   1.10557   17.540
 5944.00    1.05901   1.10468   17.733
 5945.00    1.07614   1.10525   17.884
 5946.00    1.10537   1.10680   17.776
 5947.00    1.12950   1.10798   17.348
 5948.00    1.13887   1.10762   16.874
 5949.00    1.13457   1.10544   16.742
 5950.00    1.12218   1.10210   16.900
 5951.00    1.10905   1.09872   16.917
 5952.00    1.10213   1.09624   16.669
 5953.00    1.10537   1.09493   16.405
 5954.00    1.11455   1.09435   16.309
 5955.00    1.11987   1.09395   16.377
 5956.00    1.11624   1.09359   16.379
 5957.00    1.10484   1.09354   16.092
 5958.00    1.09038   1.09411   15.823
 5959.00    1.07960   1.09569   16.045
 5960.00    1.07944   1.09878   16.518
 5961.00    1.09340   1.10346   16.551
 5962.00    1.11521   1.10895   16.165
 5963.00    1.13328   1.11389   15.893
 5964.00    1.14128   1.11720   15.893
 5965.00    1.13836   1.11850   16.052
 5966.00    1.12618   1.11828   16.308
 5967.00    1.10918   1.11758   16.682
 5968.00    1.09541   1.11747   17.229
 5969.00    1.09121   1.11861   17.920
 5970.00    1.09354   1.12098   18.426
 5971.00    1.09553   1.12391   18.450
 5972.00    1.09556   1.12633   18.334
 5973.00    1.09586   1.12728   18.448
 5974.00    1.09882   1.12616   18.403
 5975.00    1.10251   1.12277   17.840
 5976.00    1.09690   1.11750   17.358
 5977.00    1.07714   1.11135   17.490
 5978.00    1.05676   1.10573   17.868
 5979.00    1.04999   1.10191   17.881
 5980.00    1.05355   1.10054   17.502
 5981.00    1.05730   1.10110   17.096
 5982.00    1.05596   1.10212   17.024
 5983.00    1.05013   1.10202   17.260
 5984.00    1.04563   1.10001   17.166
 5985.00    1.04720   1.09667   16.531
 5986.00    1.05402   1.09357   16.180
 5987.00    1.06458   1.09233   16.538
 5988.00    1.07971   1.09369   16.983
 5989.00    1.09801   1.09717   16.924
 5990.00    1.11349   1.10151   16.687
 5991.00    1.12280   1.10556   16.678
 5992.00    1.12909   1.10907   16.868
 5993.00    1.13750   1.11227   17.020
 5994.00    1.15116   1.11534   16.888
 5995.00    1.16548   1.11803   16.566
 5996.00    1.16834   1.11977   16.485
 5997.00    1.15638   1.11986   16.767
 5998.00    1.14008   1.11811   17.055
 5999.00    1.12834   1.11515   17.151
 6000.00    1.12201   1.11203   17.259
 6001.00    1.11769   1.10951   17.423
 6002.00    1.11092   1.10773   17.385
 6003.00    1.10134   1.10635   17.131
 6004.00    1.09296   1.10492   16.942
 6005.00    1.08790   1.10316   16.831
 6006.00    1.08520   1.10092   16.543
 6007.00    1.08489   1.09825   16.112
 6008.00    1.08796   1.09546   15.830
 6009.00    1.09215   1.09326   15.720
 6010.00    1.09256   1.09251   15.586
 6011.00    1.08740   1.09360   15.448
 6012.00    1.07862   1.09596   15.516
 6013.00    1.06928   1.09837   15.812
 6014.00    1.06174   1.09969   16.151
 6015.00    1.05520   1.09960   16.341
 6016.00    1.04761   1.09861   16.315
 6017.00    1.04123   1.09739   16.274
 6018.00    1.04067   1.09628   16.466
 6019.00    1.04624   1.09513   16.695
 6020.00    1.05535   1.09373   16.570
 6021.00    1.06771   1.09220   16.267
 6022.00    1.08401   1.09107   16.239
 6023.00    1.10180   1.09087   16.531
 6024.00    1.11680   1.09202   16.887
 6025.00    1.12634   1.09466   17.075
 6026.00    1.12979   1.09858   17.025
 6027.00    1.12830   1.10329   16.942
 6028.00    1.12473   1.10830   17.050
 6029.00    1.12332   1.11326   17.242
 6030.00    1.12655   1.11795   17.298
 6031.00    1.13114   1.12212   17.238
 6032.00    1.13175   1.12569   17.216
 6033.00    1.12615   1.12869   17.314
 6034.00    1.11754   1.13112   17.428
 6035.00    1.11569   1.13299   17.209
 6036.00    1.12808   1.13429   16.614
 6037.00    1.15094   1.13497   16.292
 6038.00    1.17368   1.13496   16.604
 6039.00    1.18495   1.13427   16.962
 6040.00    1.18032   1.13311   16.724
 6041.00    1.16729   1.13181   16.212
 6042.00    1.15349   1.13085   15.947
 6043.00    1.13753   1.13074   16.035
 6044.00    1.11907   1.13180   16.307
 6045.00    1.10602   1.13396   16.410
 6046.00    1.10609   1.13676   16.168
 6047.00    1.12016   1.13957   15.814
 6048.00    1.14050   1.14186   15.560
 6049.00    1.15218   1.14330   15.385
 6050.00    1.14719   1.14381   15.277
 6051.00    1.13155   1.14337   15.322
 6052.00    1.11566   1.14193   15.490
 6053.00    1.10755   1.13944   15.566
 6054.00    1.10749   1.13603   15.499
 6055.00    1.10725   1.13209   15.519
 6056.00    1.09962   1.12827   15.701
 6057.00    1.08330   1.12533   15.856
 6058.00    1.06295   1.12386   16.037
 6059.00    1.04778   1.12405   16.619
 6060.00    1.04586   1.12548   17.520
 6061.00    1.06025   1.12716   17.937
 6062.00    1.08415   1.12784   17.635
 6063.00    1.10260   1.12654   17.319
 6064.00    1.10482   1.12310   17.259
 6065.00    1.08970   1.11846   17.161
 6066.00    1.06857   1.11447   17.013
 6067.00    1.06018   1.11315   17.113
 6068.00    1.07315   1.11564   17.413
 6069.00    1.10235   1.12169   17.518
 6070.00    1.13385   1.12972   17.304
 6071.00    1.15195   1.13774   16.998
 6072.00    1.15298   1.14424   16.796
 6073.00    1.14479   1.14854   16.754
 6074.00    1.13708   1.15063   16.742
 6075.00    1.13575   1.15073   16.588
 6076.00    1.13642   1.14896   16.428
 6077.00    1.13017   1.14533   16.508
 6078.00    1.11776   1.14001   16.725
 6079.00    1.10654   1.13357   16.768
 6080.00    1.09937   1.12687   16.614
 6081.00    1.09465   1.12080   16.479
 6082.00    1.09011   1.11598   16.531
 6083.00    1.08506   1.11259   16.809
 6084.00    1.08262   1.11057   17.145
 6085.00    1.08556   1.10981   17.304
 6086.00    1.09008   1.11012   17.285
 6087.00    1.09086   1.11118   17.253
 6088.00    1.08922   1.11251   17.346
 6089.00    1.09068   1.11349   17.568
 6090.00    1.10031   1.11364   17.681
 6091.00    1.11822   1.11297   17.534
 6092.00    1.13571   1.11204   17.429
 6093.00    1.14543   1.11180   17.605
 6094.00    1.15193   1.11301   17.717
 6095.00    1.16168   1.11583   17.385
 6096.00    1.17232   1.11972   16.840
 6097.00    1.17856   1.12372   16.504
 6098.00    1.17844   1.12677   16.611
 6099.00    1.17235   1.12796   17.088
 6100.00    1.16144   1.12654   17.420
 6101.00    1.14596   1.12204   17.272
 6102.00    1.12453   1.11467   17.052
 6103.00    1.09847   1.10583   17.134
 6104.00    1.07423   1.09809   17.360
 6105.00    1.05783   1.09411   17.473
 6106.00    1.05110   1.09521   17.423
 6107.00    1.05342   1.10061   17.235
 6108.00    1.06297   1.10801   16.935
 6109.00    1.07636   1.11507   16.719
 6110.00    1.08893   1.12044   16.936
 6111.00    1.09751   1.12400   17.518
 6112.00    1.10206   1.12628   17.759
 6113.00    1.10669   1.12794   17.440
 6114.00    1.11772   1.12941   17.249
 6115.00    1.13310   1.13069   17.439
 6116.00    1.14084   1.13142   17.523
 6117.00    1.13347   1.13106   17.359
 6118.00    1.11369   1.12911   17.425
 6119.00    1.09098   1.12516   17.917
 6120.00    1.07769   1.11908   18.524
 6121.00    1.08018   1.11121   18.928
 6122.00    1.09653   1.10274   19.009
 6123.00    1.12017   1.09563   18.671
 6124.00    1.14198   1.09184   17.960
 6125.00    1.15260   1.09221   17.502
 6126.00    1.14709   1.09594   17.642
 6127.00    1.13547   1.10114   16.232
 6128.00    1.13401   1.10599   12.256
 6129.00    1.13487   1.10975    9.350
 6130.00    1.11532   1.11277    8.594
 6131.00    1.07982   1.11557    9.118
 6132.00    1.05439   1.11803    9.639
 6133.00    1.05024   1.11896    9.571
 6134.00    1.06048   1.11661    9.375
 6135.00    1.07165   1.10961    9.317
 6136.00    1.07244   1.09806    9.343
 6137.00    1.06541   1.08411    9.390
 6138.00    1.06074   1.07150    9.423
 6139.00    1.06141   1.06394    9.421
 6140.00    1.06558   1.06327    9.380
 6141.00    1.07497   1.06876    9.299
 6142.00    1.09033   1.07783    9.191
 6143.00    1.10290   1.08789    9.074
 6144.00    1.10303   1.09739    9.011
 6145.00    1.09381   1.10574    9.126
 6146.00    1.08587   1.11237    9.376
 6147.00    1.08767   1.11641    9.227
 6148.00    1.10221   1.11715    8.634
 6149.00    1.12477   1.11477    8.839
 6150.00    1.14584   1.11060   11.091
 6151.00    1.15519   1.10649   14.949
 6152.00    1.14782   1.10391   15.727
 6153.00    1.12916   1.10324   14.492
 6154.00    1.10971   1.10377   15.084
 6155.00    1.09881   1.10419   16.763
 6156.00    1.09917   1.10335   17.221
 6157.00    1.10343   1.10055   16.810
 6158.00    1.10284   1.09537   16.771
 6159.00    1.09437   1.08736   16.733
 6160.00    1.07667   1.07601   16.304
 6161.00    1.04746   1.06141   16.153
 6162.00    1.00949   1.04494   16.732
 6163.00    0.97386   1.02945   17.571
 6164.00    0.95120   1.01833   18.041
 6165.00    0.94561   1.01390   18.121
 6166.00    0.95384   1.01613   17.986
 6167.00    0.96630   1.02261   17.655
 6168.00    0.97434   1.02981   17.264
 6169.00    0.97469   1.03503   17.120
 6170.00    0.97086   1.03758   17.339
 6171.00    0.97178   1.03873   17.741
 6172.00    0.98226   1.04050   18.152
 6173.00    0.99957   1.04418   18.544
 6174.00    1.01903   1.04966   18.907
 6175.00    1.03721   1.05576   19.160
 6176.00    1.05371   1.06126   19.084
 6177.00    1.07122   1.06564   18.437
 6178.00    1.09283   1.06915   17.371
 6179.00    1.11920   1.07234   16.314
 6180.00    1.14250   1.07563   15.518
 6181.00    1.14967   1.07905   15.090
 6182.00    1.13936   1.08234   15.258
 6183.00    1.12306   1.08505   16.292
 6184.00    1.11160   1.08659   17.718
 6185.00    1.11175   1.08636   18.135
 6186.00    1.12840   1.08393   17.753
 6187.00    1.16683   1.07923   17.875
 6188.00    1.23649   1.07258   -2.000
 6189.00    1.34273   1.06463   -2.000
 6190.00    1.46554   1.05618   -2.000
 6191.00    1.56329   1.04824   -2.000
 6192.00    1.59214   1.04212   -2.000
 6193.00    1.52079   1.03925   -2.000
 6194.00    1.35129   1.04060   -2.000
 6195.00    1.12813   1.04595   -2.000
 6196.00    0.94483   1.05381   -2.000
 6197.00    0.88665   1.06183   -2.000
 6198.00    0.93303   1.06789   -2.000
 6199.00    1.00117   1.07096   -2.000
 6200.00    1.04260   1.07138   14.621
 6201.00    1.04865   1.07059   14.799
 6202.00    1.03457   1.07032   15.236
 6203.00    1.02309   1.07173   16.474
 6204.00    1.02533   1.07497   18.136
 6205.00    1.04119   1.07927   19.108
 6206.00    1.06356   1.08359   19.177
 6207.00    1.08389   1.08709   19.039
 6208.00    1.09806   1.08929   19.184
 6209.00    1.10597   1.08996   19.559
 6210.00    1.10998   1.08880   19.401
 6211.00    1.11163   1.08549   18.366
 6212.00    1.10872   1.07979   17.399
 6213.00    1.09765   1.07181   17.111
 6214.00    1.07630   1.06228   17.056
 6215.00    1.04899   1.05252   16.875
 6216.00    1.02909   1.04413   17.045
 6217.00    1.02648   1.03832   17.669
 6218.00    1.03774   1.03546   17.550
 6219.00    1.04967   1.03495   16.247
 6220.00    1.04502   1.03579   15.167
 6221.00    1.01969   1.03719   14.896
 6222.00    0.99112   1.03892   14.736
 6223.00    0.97587   1.04107   14.397
 6224.00    0.97623   1.04361   14.632
 6225.00    0.98845   1.04623   15.857
 6226.00    1.00810   1.04828   17.375
 6227.00    1.02992   1.04904   18.157
 6228.00    1.04807   1.04781   18.109
 6229.00    1.05856   1.04416   17.813
 6230.00    1.06012   1.03834   17.800
 6231.00    1.05227   1.03155   17.958
 6232.00    1.03518   1.02590   17.627
 6233.00    1.01294   1.02358   17.089
 6234.00    0.99308   1.02578   17.492
 6235.00    0.97920   1.03187   18.921
 6236.00    0.97007   1.03958   19.798
 6237.00    0.96713   1.04605   19.237
 6238.00    0.97490   1.04906   18.333
 6239.00    0.99249   1.04798   17.825
 6240.00    1.01247   1.04370   17.668
 6241.00    1.02670   1.03791   17.629
 6242.00    1.02973   1.03216   17.486
 6243.00    1.02293   1.02730   17.240
 6244.00    1.01335   1.02356   17.043
 6245.00    1.00736   1.02103   16.872
 6246.00    1.00781   1.02001   16.570
 6247.00    1.01129   1.02101   16.119
 6248.00    1.01289   1.02426   15.701
 6249.00    1.01786   1.02924   15.700
 6250.00    1.03826   1.03454   16.303
 6251.00    1.08010   1.03828   16.484
 6252.00    1.13754   1.03896   14.963
 6253.00    1.18762   1.03617   12.862
 6254.00    1.20032   1.03078   11.500
 6255.00    1.15858   1.02437   10.922
 6256.00    1.06790   1.01840   10.905
 6257.00    0.96497   1.01377   11.464
 6258.00    0.89499   1.01095   12.757
 6259.00    0.87497   1.01033   14.763
 6260.00    0.89524   1.01242   17.061
 6261.00    0.93064   1.01752   18.990
 6262.00    0.95745   1.02525   19.997
 6263.00    0.97278   1.03446   19.966
 6264.00    0.98489   1.04350   19.331
 6265.00    0.99816   1.05094   18.750
 6266.00    1.01320   1.05606   18.585
 6267.00    1.02900   1.05897   18.662
 6268.00    1.04333   1.06034   18.622
 6269.00    1.05290   1.06090   18.290
 6270.00    1.05421   1.06125   17.759
 6271.00    1.04475   1.06177   17.326
 6272.00    1.02702   1.06277   17.191
 6273.00    1.01121   1.06435   17.286
 6274.00    1.00720   1.06631   17.430
 6275.00    1.01761   1.06819   17.445
 6276.00    1.03782   1.06943   17.227
 6277.00    1.05756   1.06954   16.811
 6278.00    1.06905   1.06829   16.457
 6279.00    1.07232   1.06575   16.599
 6280.00    1.07148   1.06237    0.000
 6281.00    1.07148   1.05896    0.000
 6282.00    1.07413   1.05653    0.000
 6283.00    1.07663   1.05596    0.000
 6284.00    1.07589   1.05761    0.000
 6285.00    1.07079   1.06123    0.000
 6286.00    1.06013   1.06617    0.000
 6287.00    1.04280   1.07166    0.000
 6288.00    1.02326   1.07696    0.000
 6289.00    1.01159   1.08137    0.000
 6290.00    1.01117   1.08428    0.000
 6291.00    1.01556   1.08527    0.000
 6292.00    1.01860   1.08433    0.000
 6293.00    1.01846   1.08191    0.000
 6294.00    1.01608   1.07862    0.000
 6295.00    1.01400   1.07491    0.000
 6296.00    1.01434   1.07095    0.000
 6297.00    1.01886   1.06676    0.000
 6298.00    1.03150   1.06249    0.000
 6299.00    1.05705   1.05848    0.000
 6300.00    1.09499   1.05508    0.000
 6301.00    1.13809   1.05252    0.000
 6302.00    1.17400   1.05099    0.000
 6303.00    1.18903   1.05080    0.000
 6304.00    1.17628   1.05234    0.000
 6305.00    1.13934   1.05587    0.000
 6306.00    1.09543   1.06119    0.000
 6307.00    1.06694   1.06758    0.000
 6308.00    1.06158   1.07398    0.000
 6309.00    1.07208   1.07930    0.000
 6310.00    1.08472   1.08270    0.000
 6311.00    1.08767   1.08378    0.000
 6312.00    1.08270   1.08266    0.000
 6313.00    1.07885   1.07979    0.000
 6314.00    1.07800   1.07574    0.000
 6315.00    1.07731   1.07096    0.000
 6316.00    1.07709   1.06585    0.000
 6317.00    1.07940   1.06089    0.000
 6318.00    1.08412   1.05667    0.000
 6319.00    1.08892   1.05395    0.000
 6320.00    1.09022   1.05336    0.000
 6321.00    1.08615   1.05519   19.456
 6322.00    1.07984   1.05926   19.254
 6323.00    1.07490   1.06492   18.901
 6324.00    1.06997   1.07131   18.670
 6325.00    1.06260   1.07763   18.748
 6326.00    1.05400   1.08322   18.954
 6327.00    1.04746   1.08768   18.999
 6328.00    1.04601   1.09088   18.810
 6329.00    1.04965   1.09288   18.559
 6330.00    1.05386   1.09398   18.578
 6331.00    1.05602   1.09446   18.967
 6332.00    1.06047   1.09441   19.299
 6333.00    1.07093   1.09358   19.258
 6334.00    1.08459   1.09144   19.198
 6335.00    1.09719   1.08761   19.381
 6336.00    1.10670   1.08236   19.471
 6337.00    1.11123   1.07690   19.242
 6338.00    1.10783   1.07289   19.023
 6339.00    1.09584   1.07166   19.024
 6340.00    1.07892   1.07339   19.018
 6341.00    1.06404   1.07698   18.885
 6342.00    1.05967   1.08062   18.829
 6343.00    1.06912   1.08265   18.829
 6344.00    1.08762   1.08234   18.501
 6345.00    1.10625   1.08017   17.888
 6346.00    1.11565   1.07744   17.562
 6347.00    1.11368   1.07571   17.719
 6348.00    1.10705   1.07605   18.008
 6349.00    1.10273   1.07865   18.065
 6350.00    1.10347   1.08282   17.791
 6351.00    1.10559   1.08730   17.330
 6352.00    1.10119   1.09069   16.915
 6353.00    1.08951   1.09197   16.568
 6354.00    1.07755   1.09070   16.139
 6355.00    1.06799   1.08713   15.646
 6356.00    1.05799   1.08193   15.292
 6357.00    1.04854   1.07585   15.317
 6358.00    1.04490   1.06946   15.864
 6359.00    1.04927   1.06309   16.543
 6360.00    1.05889   1.05700   16.568
 6361.00    1.06699   1.05158   16.214
 6362.00    1.06655   1.04738   16.486
 6363.00    1.05872   1.04502   17.483
 6364.00    1.05176   1.04499   18.412
 6365.00    1.05394   1.04749   18.752
 6366.00    1.06858   1.05234   18.672
 6367.00    1.08742   1.05889   18.506
 6368.00    1.09745   1.06616   18.473
 6369.00    1.09636   1.07310   18.551
 6370.00    1.09012   1.07901   18.627
 6371.00    1.08294   1.08377   18.807
 6372.00    1.07630   1.08776   19.211
 6373.00    1.07033   1.09157   19.532
 6374.00    1.06490   1.09549   19.358
 6375.00    1.06093   1.09928   18.914
 6376.00    1.05939   1.10227   18.691
 6377.00    1.05985   1.10374   18.843
 6378.00    1.06163   1.10330   19.192
 6379.00    1.06562   1.10114   19.254
 6380.00    1.07381   1.09796   18.788
 6381.00    1.08824   1.09471   18.398
 6382.00    1.10789   1.09223   18.567
 6383.00    1.12582   1.09093   18.808
 6384.00    1.13583   1.09078   18.419
 6385.00    1.13931   1.09145   17.503
 6386.00    1.13990   1.09262   16.497
 6387.00    1.13780   1.09404   15.628
 6388.00    1.13192   1.09544   15.048
 6389.00    1.12234   1.09645   14.960
 6390.00    1.11092   1.09650   15.430
 6391.00    1.10131   1.09499   16.228
 6392.00    1.09633   1.09168   16.969
 6393.00    1.09572   1.08706   17.336
 6394.00    1.09435   1.08236   17.340
 6395.00    1.08284   1.07912   17.386
 6396.00    1.05952   1.07836   17.748
 6397.00    1.03609   1.07980   18.278
 6398.00    1.02336   1.08200   18.645
 6399.00    1.02250   1.08327   18.589
 6400.00    1.02799   1.08286   18.269
 6401.00    1.03164   1.08164   18.217
 6402.00    1.03397   1.08144   18.509
 6403.00    1.04594   1.08378   18.554
 6404.00    1.06917   1.08868   18.146
 6405.00    1.09008   1.09462   17.823
 6406.00    1.09809   1.09946   17.935
 6407.00    1.09336   1.10166   18.376
 6408.00    1.08317   1.10095   18.782
 6409.00    1.07722   1.09821   18.709
 6410.00    1.07619   1.09471   18.257
 6411.00    1.07150   1.09146   18.006
 6412.00    1.05991   1.08894   18.158
 6413.00    1.04667   1.08732   18.485
 6414.00    1.03845   1.08662   18.819
 6415.00    1.03940   1.08674   19.157
 6416.00    1.04709   1.08738   19.438
 6417.00    1.05466   1.08793   19.475
 6418.00    1.06005   1.08768   19.016
 6419.00    1.06613   1.08614   17.973
 6420.00    1.07398   1.08350   16.710
 6421.00    1.08122   1.08072   15.720
 6422.00    1.08223   1.07925   15.281
 6423.00    1.07264   1.08038   15.495
 6424.00    1.05853   1.08450   16.235
 6425.00    1.05160   1.09087   17.160
 6426.00    1.05548   1.09786   17.935
 6427.00    1.06728   1.10364   18.323
 6428.00    1.08561   1.10672   18.242
 6429.00    1.10884   1.10636   17.818
 6430.00    1.12953   1.10273   17.344
 6431.00    1.13842   1.09700   17.053
 6432.00    1.13250   1.09107   16.901
 6433.00    1.11488   1.08694   16.795
 6434.00    1.09247   1.08585   16.897
 6435.00    1.07245   1.08764   17.429
 6436.00    1.05785   1.09089   18.337
 6437.00    1.04855   1.09368   19.191
 6438.00    1.04326   1.09472   19.180
 6439.00    1.03926   1.09408   18.028
 6440.00    1.03213   1.09316   16.698
 6441.00    1.01912   1.09383   15.943
 6442.00    1.00273   1.09728   15.680
 6443.00    0.98909   1.10335   15.721
 6444.00    0.98552   1.11060   16.205
 6445.00    0.99583   1.11701   17.174
 6446.00    1.01642   1.12071   17.999
 6447.00    1.03845   1.12043   17.883
 6448.00    1.05103   1.11574   16.888
 6449.00    1.04927   1.10723   15.645
 6450.00    1.03945   1.09665   14.702
 6451.00    1.02915   1.08657   14.276
 6452.00    1.02026   1.07948   14.349
 6453.00    1.01427   1.07667   14.862
 6454.00    1.01556   1.07771   15.747
 6455.00    1.02626   1.08088   16.757
 6456.00    1.04318   1.08449   17.335
 6457.00    1.06037   1.08776   17.286
 6458.00    1.07177   1.09082   17.192
 6459.00    1.07691   1.09394   17.462
 6460.00    1.08180   1.09667   17.913
 6461.00    1.08737   1.09793   18.119
 6462.00    1.08586   1.09683   17.740
 6463.00    1.07128   1.09369   17.027
 6464.00    1.04475   1.09019   16.633
 6465.00    1.01500   1.08850   16.676
 6466.00    0.99550   1.08999   16.741
 6467.00    0.99264   1.09440   16.832
 6468.00    1.00257   1.10014   17.483
 6469.00    1.01738   1.10512   18.604
 6470.00    1.02898   1.10790   19.154
 6471.00    1.03387   1.10812   18.901
 6472.00    1.03412   1.10641   18.821
 6473.00    1.03521   1.10387   19.184
 6474.00    1.04258   1.10148   19.404
 6475.00    1.05406   1.09988   19.204
 6476.00    1.06157   1.09927   18.873
 6477.00    1.06161   1.09951   18.728
 6478.00    1.05685   1.10011   18.897
 6479.00    1.05285   1.10030   19.143
 6480.00    1.05470   1.09921   19.052
 6481.00    1.06165   1.09624   18.691
 6482.00    1.06961   1.09154   18.441
 6483.00    1.07880   1.08613   18.380
 6484.00    1.09165   1.08153   18.351
 6485.00    1.10543   1.07911   18.275
 6486.00    1.11367   1.07937   18.207
 6487.00    1.11150   1.08170   18.318
 6488.00    1.09786   1.08462   18.671
 6489.00    1.07736   1.08635   18.830
 6490.00    1.05610   1.08532   18.361
 6491.00    1.03496   1.08044   17.752
 6492.00    1.01281   1.07122   17.650
 6493.00    0.99247   1.05782   17.985
 6494.00    0.97743   1.04123   18.396
 6495.00    0.96671   1.02345   18.855
 6496.00    0.95811   1.00726   19.419
 6497.00    0.95296   0.99561   19.758
 6498.00    0.95435   0.99063   19.575
 6499.00    0.96417   0.99301   19.223
 6500.00    0.98065   1.00180   19.121
 6501.00    0.99664   1.01499   19.183
 6502.00    1.00671   1.03024   19.192
 6503.00    1.01382   1.04546   19.167
 6504.00    1.02506   1.05913   19.158
 6505.00    1.04640   1.07038   19.062
 6506.00    1.07589   1.07886   18.853
 6507.00    1.09995   1.08463   18.747
 6508.00    1.10831   1.08810   18.903
 6509.00    1.10457   1.08986   19.235
 6510.00    1.09637   1.09058   19.540
 6511.00    1.08765   1.09079   19.635
 6512.00    1.07908   1.09065   19.534
 6513.00    1.06942   1.08993   19.488
 6514.00    1.06051   1.08820   19.575
 6515.00    1.05883   1.08515   19.542
 6516.00    1.06641   1.08093   19.299
 6517.00    1.07703   1.07621   19.115
 6518.00    1.08395   1.07209   19.052
 6519.00    1.08448   1.06967   18.828
 6520.00    1.08139   1.06964   18.427
 6521.00    1.08148   1.07201   18.213
 6522.00    1.08646   1.07608   18.283
 6523.00    1.09090   1.08072   18.357
 6524.00    1.09092   1.08478   18.298
 6525.00    1.08742   1.08745   18.258
 6526.00    1.08340   1.08845   18.300
 6527.00    1.08180   1.08806   18.331
 6528.00    1.08180   1.08689    0.000
 6529.00    1.07951   1.08559    0.000
 6530.00    1.07461   1.08454    0.000
 6531.00    1.07097   1.08374    0.000
 6532.00    1.07187   1.08304    0.000
 6533.00    1.07801   1.08234    0.000
 6534.00    1.08668   1.08180    0.000
 6535.00    1.09251   1.08175    0.000
 6536.00    1.09031   1.08244    0.000
 6537.00    1.07822   1.08383    0.000
 6538.00    1.06306   1.08557    0.000
 6539.00    1.05483   1.08719    0.000
 6540.00    1.05209   1.08816    0.000
 6541.00    1.04578   1.08795    0.000
 6542.00    1.03331   1.08606    0.000
 6543.00    1.02069   1.08213    0.000
 6544.00    1.02063   1.07613    0.000
 6545.00    1.04560   1.06848    0.000
 6546.00    1.09655   1.06008    0.000
 6547.00    1.16539   1.05207    0.000
 6548.00    1.24201   1.04544    0.000
 6549.00    1.31509   1.04060    0.000
 6550.00    1.37168   1.03722    0.000
 6551.00    1.39881   1.03436    0.000
 6552.00    1.38599   1.03090    0.000
 6553.00    1.33089   1.02601    0.000
 6554.00    1.24560   1.01937    0.000
 6555.00    1.15192   1.01117    0.000
 6556.00    1.07400   1.00181    0.000
 6557.00    1.02977   0.99146    0.000
 6558.00    1.02401   0.97948    0.000
 6559.00    1.06865   0.96431    0.000
 6560.00    1.20251   0.94402    0.000
 6561.00    1.47459   0.91761    0.000
 6562.00    1.92113   0.88641    0.000
 6563.00    2.51672   0.85507    0.000
 6564.00    3.13938   0.83080    0.000
 6565.00    3.62618   0.82026    0.000
 6566.00    3.82920   0.82673    0.000
 6567.00    3.68059   0.84836    0.000
 6568.00    3.23359   0.87916    0.000
 6569.00    2.62417   0.91168    0.000
 6570.00    2.02832   0.94007    0.000
 6571.00    1.57358   0.96143    0.000
 6572.00    1.28891   0.97571    0.000
 6573.00    1.14233   0.98459    0.000
 6574.00    1.07354   0.99039    0.000
 6575.00    1.03785   0.99528    0.000
 6576.00    1.02458   1.00084    0.000
 6577.00    1.02919   1.00779    0.000
 6578.00    1.04076   1.01592    0.000
 6579.00    1.05316   1.02431    0.000
 6580.00    1.07222   1.03187    0.000
 6581.00    1.12188   1.03790    0.000
 6582.00    1.23758   1.04234    0.000
 6583.00    1.43046   1.04567    0.000
 6584.00    1.67423   1.04850    0.000
 6585.00    1.91170   1.05127    0.000
 6586.00    2.07017   1.05412    0.000
 6587.00    2.10320   1.05701    0.000
 6588.00    2.00541   1.05973    0.000
 6589.00    1.81180   1.06180    0.000
 6590.00    1.58491   1.06248    0.000
 6591.00    1.37923   1.06102    0.000
 6592.00    1.22746   1.05707    0.000
 6593.00    1.13326   1.05113    0.000
 6594.00    1.07859   1.04470    0.000
 6595.00    1.04647   1.03970    0.000
 6596.00    1.02734   1.03761    0.000
 6597.00    1.01966   1.03888    0.000
 6598.00    1.02538   1.04286    0.000
 6599.00    1.04026   1.04835    0.000
 6600.00    1.05540   1.05422    0.000
 6601.00    1.06438   1.05970    0.000
 6602.00    1.06537   1.06426    0.000
 6603.00    1.06212   1.06744    0.000
 6604.00    1.06069   1.06883    0.000
 6605.00    1.06368   1.06821    0.000
 6606.00    1.06939   1.06576    0.000
 6607.00    1.07245   1.06211    0.000
 6608.00    1.06680   1.05821    0.000
 6609.00    1.05013   1.05505   19.665
 6610.00    1.02594   1.05345   19.841
 6611.00    1.00501   1.05388   20.189
 6612.00    0.99795   1.05626   20.298
 6613.00    1.00601   1.06001   19.992
 6614.00    1.02424   1.06436   19.386
 6615.00    1.04645   1.06866   18.751
 6616.00    1.06608   1.07253   18.317
 6617.00    1.07689   1.07586   18.169
 6618.00    1.07687   1.07867   18.278
 6619.00    1.07140   1.08093   18.506
 6620.00    1.06792   1.08250   18.656
 6621.00    1.07066   1.08315   18.561
 6622.00    1.07929   1.08259   18.340
 6623.00    1.08874   1.08070   18.468
 6624.00    1.09413   1.07757   18.911
 6625.00    1.09454   1.07368   18.659
 6626.00    1.09320   1.06980   17.970
 6627.00    1.09626   1.06665   19.035
 6628.00    1.10522   1.06463   21.211
 6629.00    1.11310   1.06361   17.365
 6630.00    1.11177   1.06298   11.352
 6631.00    1.09774   1.06200    8.647
 6632.00    1.07757   1.06018    8.361
 6633.00    1.06697   1.05752   10.132
 6634.00    1.07049   1.05459   14.857
 6635.00    1.07477   1.05230   20.810
 6636.00    1.06913   1.05147   20.803
 6637.00    1.05524   1.05249   18.844
 6638.00    1.04324   1.05508   18.793
 6639.00    1.04574   1.05845   19.218
 6640.00    1.06145   1.06153   18.865
 6641.00    1.07394   1.06351   18.262
 6642.00    1.07325   1.06401   18.040
 6643.00    1.06217   1.06312   18.333
 6644.00    1.04800   1.06138   18.865
 6645.00    1.03863   1.05960   19.074
 6646.00    1.03979   1.05851   18.932
 6647.00    1.05279   1.05851   18.959
 6648.00    1.07041   1.05948   19.249
 6649.00    1.08070   1.06092   19.421
 6650.00    1.08064   1.06219   19.354
 6651.00    1.07632   1.06284   19.256
 6652.00    1.07326   1.06271   19.217
 6653.00    1.07346   1.06198   19.190
 6654.00    1.07457   1.06101   19.225
 6655.00    1.07223   1.06013   19.412
 6656.00    1.06540   1.05952   19.626
 6657.00    1.05651   1.05914   19.654
 6658.00    1.04947   1.05878   19.614
 6659.00    1.04868   1.05813   19.699
 6660.00    1.05792   1.05683   19.551
 6661.00    1.07505   1.05463   18.821
 6662.00    1.08376   1.05154   18.173
 6663.00    1.06769   1.04788   18.346
 6664.00    1.03478   1.04424   18.999
 6665.00    1.00766   1.04142   19.223
 6666.00    1.00317   1.04007   18.792
 6667.00    1.02549   1.04052   18.159
 6668.00    1.06170   1.04268   17.822
 6669.00    1.09366   1.04617   17.977
 6670.00    1.11371   1.05046   18.281
 6671.00    1.12227   1.05496   18.289
 6672.00    1.12243   1.05909   18.118
 6673.00    1.11754   1.06226   18.119
 6674.00    1.10943   1.06383   18.436
 6675.00    1.10211   1.06324   18.966
 6676.00    1.10446   1.06017   19.313
 6677.00    1.11817   1.05483   19.218
 6678.00    1.12793   1.04801   19.006
 6679.00    1.11945   1.04106   19.063
 6680.00    1.09531   1.03554   19.390
 6681.00    1.06730   1.03261   19.727
 6682.00    1.04813   1.03265   19.682
 6683.00    1.04287   1.03517   19.209
 6684.00    1.04459   1.03915   18.801
 6685.00    1.04596   1.04346   18.738
 6686.00    1.04689   1.04724   18.772
 6687.00    1.04891   1.05006   18.672
 6688.00    1.05169   1.05189   18.535
 6689.00    1.05564   1.05294   18.444
 6690.00    1.06294   1.05351   18.320
 6691.00    1.07384   1.05381   18.203
 6692.00    1.08508   1.05388   18.327
 6693.00    1.09266   1.05356   18.694
 6694.00    1.09384   1.05267   18.944
 6695.00    1.08960   1.05109   18.929
 6696.00    1.08430   1.04895    0.000
 6697.00    1.07893   1.04668    0.000
 6698.00    1.07049   1.04489    0.000
 6699.00    1.06109   1.04410    0.000
 6700.00    1.05806   1.04451    0.000
 6701.00    1.06053   1.04583    0.000
 6702.00    1.05878   1.04745    0.000
 6703.00    1.04917   1.04873    0.000
 6704.00    1.03711   1.04929    0.000
 6705.00    1.02977   1.04921    0.000
 6706.00    1.03238   1.04886    0.000
 6707.00    1.04498   1.04865    0.000
 6708.00    1.06507   1.04879    0.000
 6709.00    1.09710   1.04914    0.000
 6710.00    1.14828   1.04935    0.000
 6711.00    1.21212   1.04894    0.000
 6712.00    1.26917   1.04755    0.000
 6713.00    1.29898   1.04492    0.000
 6714.00    1.29435   1.04093    0.000
 6715.00    1.28427   1.03566    0.000
 6716.00    1.31353   1.02958    0.000
 6717.00    1.39347   1.02350    0.000
 6718.00    1.49943   1.01840    0.000
 6719.00    1.58506   1.01524    0.000
 6720.00    1.60527   1.01460    0.000
 6721.00    1.54965   1.01641    0.000
 6722.00    1.43973   1.02000    0.000
 6723.00    1.31475   1.02433    0.000
 6724.00    1.21341   1.02843    0.000
 6725.00    1.15100   1.03170    0.000
 6726.00    1.12255   1.03399    0.000
 6727.00    1.11252   1.03551    0.000
 6728.00    1.11008   1.03667    0.000
 6729.00    1.12534   1.03784    0.000
 6730.00    1.17345   1.03918    0.000
 6731.00    1.25417   1.04060    0.000
 6732.00    1.35073   1.04191    0.000
 6733.00    1.43242   1.04291    0.000
 6734.00    1.47050   1.04347    0.000
 6735.00    1.45363   1.04356    0.000
 6736.00    1.38810   1.04317    0.000
 6737.00    1.29559   1.04230    0.000
 6738.00    1.20265   1.04096    0.000
 6739.00    1.13095   1.03924    0.000
 6740.00    1.09048   1.03728    0.000
 6741.00    1.07636   1.03533    0.000
 6742.00    1.08129   1.03370    0.000
 6743.00    1.10430   1.03253    0.000
 6744.00    1.14667   1.03180    0.000
 6745.00    1.20701   1.03134    0.000
 6746.00    1.27064   1.03088    0.000
 6747.00    1.30796   1.03011    0.000
 6748.00    1.30320   1.02885    0.000
 6749.00    1.26788   1.02712    0.000
 6750.00    1.22278   1.02517    0.000
 6751.00    1.18761   1.02338    0.000
 6752.00    1.17983   1.02226    0.000
 6753.00    1.21014   1.02217   11.440
 6754.00    1.26433   1.02329   10.931
 6755.00    1.30504   1.02559   10.740
 6756.00    1.31300   1.02890   -1.000
 6757.00    1.29900   1.03291   -1.000
 6758.00    1.28142   1.03724   -1.000
 6759.00    1.27338   1.04152   13.049
 6760.00    1.27021   1.04536   13.013
 6761.00    1.25365   1.04848   13.159
 6762.00    1.21962   1.05066   13.721
 6763.00    1.18240   1.05177   14.336
 6764.00    1.15851   1.05172   14.653
 6765.00    1.15619   1.05050   14.684
 6766.00    1.16138   1.04825   14.825
 6767.00    1.15046   1.04531   15.483
 6768.00    1.13234   1.04210   16.044
 6769.00    1.13662   1.03914   15.280
 6770.00    1.15947   1.03699   13.883
 6771.00    1.17074   1.03603   13.188
 6772.00    1.15877   1.03643   13.180
 6773.00    1.13351   1.03820   13.277
 6774.00    1.11160   1.04115   13.391
 6775.00    1.10633   1.04493   13.787
 6776.00    1.11523   1.04910   14.383
 6777.00    1.12733   1.05313   14.794
 6778.00    1.13987   1.05647   14.871
 6779.00    1.15791   1.05859   14.713
 6780.00    1.18822   1.05908   14.367
 6781.00    1.22854   1.05764   13.903
 6782.00    1.25451   1.05427   13.565
 6783.00    1.24625   1.04928   13.523
 6784.00    1.22550   1.04336   13.604
 6785.00    1.21885   1.03748   13.634
 6786.00    1.20727   1.03267   13.897
 6787.00    1.16877   1.02966   14.697
 6788.00    1.13294   1.02871   15.683
 6789.00    1.13153   1.02954   16.144
 6790.00    1.14126   1.03145   15.978
 6791.00    1.13177   1.03360   15.495
 6792.00    1.11757   1.03531   14.819
 6793.00    1.12290   1.03625   14.022
 6794.00    1.14463   1.03647   13.272
 6795.00    1.16375   1.03629   12.807
 6796.00    1.16009   1.03616   12.933
 6797.00    1.12791   1.03648   13.801
 6798.00    1.08551   1.03746   15.158
 6799.00    1.05725   1.03908   16.387
 6800.00    1.05832   1.04113   16.804
 6801.00    1.08728   1.04326   16.170
 6802.00    1.12533   1.04514   14.914
 6803.00    1.16141   1.04656   13.571
 6804.00    1.20377   1.04736   12.451
 6805.00    1.25068   1.04756   11.760
 6806.00    1.27765   1.04733   11.692
 6807.00    1.26763   1.04685   12.271
 6808.00    1.22632   1.04629   13.272
 6809.00    1.17123   1.04584   14.444
 6810.00    1.12358   1.04557   15.674
 6811.00    1.09894   1.04544   16.726
 6812.00    1.10218   1.04532   17.121
 6813.00    1.12510   1.04507   16.810
 6814.00    1.14890   1.04470   16.364
 6815.00    1.15788   1.04431   16.235
 6816.00    1.14633   1.04401   16.513
 6817.00    1.12304   1.04396   16.754
 6818.00    1.10749   1.04421   16.188
 6819.00    1.11191   1.04477   15.058
 6820.00    1.13568   1.04561   14.225
 6821.00    1.16819   1.04666   13.742
 6822.00    1.19219   1.04795   13.244
 6823.00    1.19051   1.04947   13.069
 6824.00    1.15512   1.05113   13.939
 6825.00    1.10511   1.05262   15.636
 6826.00    1.07632   1.05352   16.396
 6827.00    1.08382   1.05361   15.359
 6828.00    1.11889   1.05292   13.740
 6829.00    1.16451   1.05177   12.432
 6830.00    1.20216   1.05062   11.655
 6831.00    1.21822   1.04996   11.402
 6832.00    1.20779   1.05009   11.647
 6833.00    1.17909   1.05097   12.436
 6834.00    1.14822   1.05226   13.776
 6835.00    1.12816   1.05350   15.167
 6836.00    1.12390   1.05416   15.706
 6837.00    1.12821   1.05377   15.602
 6838.00    1.12947   1.05201   15.701
 6839.00    1.12475   1.04877   15.873
 6840.00    1.11782   1.04430   15.610
 6841.00    1.11307   1.03930   15.262
 6842.00    1.11150   1.03476   15.359
 6843.00    1.10710   1.03167   15.694
 6844.00    1.09591   1.03071   15.789
 6845.00    1.08688   1.03206   15.661
 6846.00    1.08985   1.03531   15.558
 6847.00    1.10102   1.03958   15.506
 6848.00    1.11288   1.04385   15.392
 6849.00    1.12586   1.04731   15.109
 6850.00    1.14143   1.04951   14.678
 6851.00    1.15461   1.05034   14.301
 6852.00    1.15835   1.04982   14.179
 6853.00    1.14847   1.04809   14.400
 6854.00    1.12677   1.04542   14.899
 6855.00    1.10306   1.04215   15.354
 6856.00    1.09308   1.03869   15.366
 6857.00    1.11398   1.03558   14.774
 6858.00    1.16372   1.03319   13.778
 6859.00    1.21085   1.03165   12.796
 6860.00    1.22680   1.03099   12.224
 6861.00    1.20705   1.03119   12.404
 6862.00    1.16274   1.03219   13.379
 6863.00    1.11231   1.03386   14.592
 6864.00    1.06830   1.03605   15.383
 6865.00    1.03245   1.03840   15.809
 6866.00    1.00928   1.04043   16.121
 6867.00    1.00982   1.04168   16.264
 6868.00    1.03294   1.04195   16.234
 6869.00    1.06071   1.04128   16.216
 6870.00    1.07991   1.03999   16.283
 6871.00    1.08995   1.03867   16.309
 6872.00    1.09379   1.03781   16.235
 6873.00    1.09439   1.03767   16.153
 6874.00    1.09661   1.03836   16.155
 6875.00    1.10591   1.03990   16.274
 6876.00    1.12111   1.04217   16.439
 6877.00    1.13519   1.04496   16.489
 6878.00    1.14663   1.04789   16.298
 6879.00    1.16012   1.05040   15.872
 6880.00    1.17711   1.05195   15.445
 6881.00    1.19199   1.05222   15.294
 6882.00    1.18996   1.05132   15.339
 6883.00    1.15642   1.04964   15.263
 6884.00    1.10206   1.04783   15.031
 6885.00    1.05503   1.04666   14.894
 6886.00    1.02681   1.04670   15.058
 6887.00    1.01372   1.04812   15.542
 6888.00    1.01858   1.05076   15.916
 6889.00    1.04745   1.05419   15.580
 6890.00    1.09325   1.05788   14.749
 6891.00    1.13823   1.06129   14.072
 6892.00    1.16544   1.06407   13.803
 6893.00    1.16485   1.06597   13.937
 6894.00    1.13983   1.06694   14.390
 6895.00    1.10363   1.06713   15.034
 6896.00    1.07164   1.06681   15.731
 6897.00    1.05443   1.06623   16.314
 6898.00    1.04987   1.06560   16.584
 6899.00    1.04919   1.06511   16.520
 6900.00    1.04709   1.06495   16.513
 6901.00    1.04300   1.06519   16.837
 6902.00    1.04046   1.06582   17.011
 6903.00    1.04180   1.06682   16.575
 6904.00    1.04242   1.06815   16.145
 6905.00    1.03886   1.06978   16.294
 6906.00    1.03766   1.07163   16.575
 6907.00    1.04680   1.07354   16.362
 6908.00    1.06605   1.07532   15.866
 6909.00    1.08822   1.07668   15.534
 6910.00    1.10212   1.07736   15.450
 6911.00    1.10113   1.07706   15.557
 6912.00    1.08962   1.07560   15.821
 6913.00    1.07515   1.07309   16.129
 6914.00    1.06172   1.06992   16.220
 6915.00    1.05075   1.06661   16.087
 6916.00    1.04250   1.06373   16.154
 6917.00    1.03877   1.06182   16.416
 6918.00    1.04425   1.06114   16.069
 6919.00    1.06352   1.06169   15.327
 6920.00    1.09766   1.06318   15.683
 6921.00    1.13626   1.06501   16.453
 6922.00    1.15709   1.06645   13.825
 6923.00    1.15069   1.06692   10.099
 6924.00    1.12978   1.06624    8.548
 6925.00    1.10648   1.06468    8.713
 6926.00    1.08250   1.06285    9.369
 6927.00    1.06073   1.06145    9.569
 6928.00    1.04899   1.06100    9.463
 6929.00    1.05120   1.06165    9.424
 6930.00    1.06425   1.06308    9.474
 6931.00    1.08174   1.06467    9.382
 6932.00    1.09586   1.06591    8.956
 6933.00    1.09855   1.06660    8.776
 6934.00    1.08393   1.06682    9.920
 6935.00    1.05498   1.06685   13.021
 6936.00    1.02336   1.06703   16.107
 6937.00    1.00130   1.06766   16.102
 6938.00    0.99723   1.06880   15.307
 6939.00    1.01110   1.07032   15.208
 6940.00    1.03579   1.07191   15.151
 6941.00    1.06439   1.07315   14.900
 6942.00    1.09211   1.07363   14.827
 6943.00    1.11560   1.07303   14.931
 6944.00    1.13192   1.07144   14.878
 6945.00    1.13684   1.06936   14.623
 6946.00    1.12806   1.06740   14.371
 6947.00    1.11276   1.06619   14.167
 6948.00    1.10252   1.06606   13.972
 6949.00    1.10029   1.06686   13.891
 6950.00    1.10212   1.06809   14.036
 6951.00    1.10493   1.06913   14.194
 6952.00    1.10549   1.06949   14.090
 6953.00    1.09664   1.06908   13.966
 6954.00    1.07540   1.06830   14.206
 6955.00    1.05585   1.06774   14.661
 6956.00    1.05556   1.06789   14.858
 6957.00    1.07371   1.06905   14.605
 6958.00    1.09616   1.07116   14.110
 6959.00    1.10729   1.07387   13.800
 6960.00    1.09995   1.07682   13.905
 6961.00    1.08502   1.07965   14.131
 6962.00    1.07804   1.08214   14.095
 6963.00    1.08292   1.08419   13.919
 6964.00    1.09616   1.08575   13.874
 6965.00    1.11325   1.08694   13.943
 6966.00    1.13003   1.08794   13.945
 6967.00    1.14322   1.08889   13.715
 6968.00    1.14988   1.08981   13.318
 6969.00    1.14698   1.09062   13.111
 6970.00    1.13267   1.09125   13.289
 6971.00    1.10767   1.09162   13.636
 6972.00    1.07767   1.09153   13.916
 6973.00    1.05388   1.09068   14.226
 6974.00    1.04390   1.08878   14.668
 6975.00    1.04592   1.08554   15.057
 6976.00    1.05597   1.08064   15.165
 6977.00    1.07187   1.07424   14.989
 6978.00    1.08663   1.06721   14.746
 6979.00    1.08687   1.06090   14.744
 6980.00    1.06977   1.05668   14.981
 6981.00    1.04970   1.05559   15.050
 6982.00    1.04049   1.05802   14.838
 6983.00    1.04550   1.06351   14.782
 6984.00    1.05757   1.07082   15.061
 6985.00    1.06328   1.07838   15.331
 6986.00    1.06119   1.08470   15.264
 6987.00    1.06443   1.08889   14.869
 6988.00    1.07647   1.09071   14.384
 6989.00    1.08604   1.09065   14.090
 6990.00    1.08789   1.08958   14.066
 6991.00    1.08854   1.08833   14.190
 6992.00    1.09664   1.08743   14.286
 6993.00    1.11642   1.08710   14.214
 6994.00    1.13843   1.08728   14.027
 6995.00    1.14465   1.08770   13.922
 6996.00    1.13263   1.08794   14.002
 6997.00    1.11449   1.08754   14.238
 6998.00    1.09288   1.08626   14.512
 6999.00    1.06253   1.08425   14.671
 7000.00    1.03202   1.08192   14.702
 7001.00    1.02023   1.07961   -2.000
 7002.00    1.03396   1.07754   -2.000
 7003.00    1.06496   1.07579   -2.000
 7004.00    1.09637   1.07445   -2.000
 7005.00    1.11157   1.07357   -2.000
 7006.00    1.10898   1.07320   -2.000
 7007.00    1.09903   1.07348   -2.000
 7008.00    1.09213   1.07446   -2.000
 7009.00    1.09227   1.07604   -2.000
 7010.00    1.09041   1.07800   -2.000
 7011.00    1.07429   1.08008   -2.000
 7012.00    1.04600   1.08183   -2.000
 7013.00    1.01756   1.08252   -2.000
 7014.00    0.99997   1.08152   -2.000
 7015.00    0.99927   1.07887   -2.000
 7016.00    1.01368   1.07546   -2.000
 7017.00    1.03688   1.07240   -2.000
 7018.00    1.06296   1.07067   -2.000
 7019.00    1.08731   1.07091   -2.000
 7020.00    1.10725   1.07306   -2.000
 7021.00    1.12289   1.07629   -2.000
 7022.00    1.13738   1.07936   -2.000
 7023.00    1.14818   1.08138   -2.000
 7024.00    1.13997   1.08199   -2.000
 7025.00    1.10576   1.08132   -2.000
 7026.00    1.06517   1.08001   -2.000
 7027.00    1.04049   1.07901   -2.000
 7028.00    1.03491   1.07915   -2.000
 7029.00    1.03972   1.08061   -2.000
 7030.00    1.04314   1.08304   -2.000
 7031.00    1.04094   1.08583   -2.000
 7032.00    1.04197   1.08835   -2.000
 7033.00    1.05258   1.09017   -2.000
 7034.00    1.06733   1.09117   -2.000
 7035.00    1.08248   1.09139   -2.000
 7036.00    1.10286   1.09077   -2.000
 7037.00    1.12710   1.08951   -2.000
 7038.00    1.14155   1.08836   -2.000
 7039.00    1.13762   1.08818   -2.000
 7040.00    1.12094   1.08955   -2.000
 7041.00    1.10672   1.09273   -2.000
 7042.00    1.11234   1.09749   -2.000
 7043.00    1.13542   1.10313   -2.000
 7044.00    1.15122   1.10878   -2.000
 7045.00    1.14645   1.11377   -2.000
 7046.00    1.13041   1.11773   -2.000
 7047.00    1.11760   1.12046   -2.000
 7048.00    1.11921   1.12186   -2.000
 7049.00    1.13950   1.12201   -2.000
 7050.00    1.17459   1.12069   -2.000
 7051.00    1.21316   1.11731   -2.000
 7052.00    1.24275   1.11131   -2.000
 7053.00    1.26828   1.10261   -2.000
 7054.00    1.30390   1.09176   -2.000
 7055.00    1.33236   1.08001   -2.000
 7056.00    1.31627   1.06875   -2.000
 7057.00    1.26060   1.05903   -2.000
 7058.00    1.20604   1.05133   -2.000
 7059.00    1.16963   1.04565   -2.000
 7060.00    1.14452   1.04171   -2.000
 7061.00    1.13469   1.03905   -2.000
 7062.00    1.14972   1.03728   -2.000
 7063.00    1.17661   1.03615   -2.000
 7064.00    1.18845   1.03541   -2.000
 7065.00    1.17366   1.03476   -2.000
 7066.00    1.14230   1.03404   -2.000
 7067.00    1.12534   1.03316   -2.000
 7068.00    1.14465   1.03233   -2.000
 7069.00    1.16550   1.03193   -2.000
 7070.00    1.14556   1.03236   -2.000
 7071.00    1.11930   1.03406   -2.000
 7072.00    1.11971   1.03717   -2.000
 7073.00    1.05571   1.04137   -2.000
 7074.00    0.87020   1.04612   -2.000
 7075.00    0.75771   1.05065   -2.000
 7076.00    0.90541   1.05446   -2.000
 7077.00    1.15524   1.05730   -2.000
 7078.00    1.26653   1.05915   -2.000
 7079.00    1.25288   1.06027   -2.000
 7080.00    1.22443   1.06076   -2.000
 7081.00    1.18625   1.06029   -2.000
 7082.00    1.11574   1.05832   -2.000
 7083.00    1.05322   1.05444   -2.000
 7084.00    1.03973   1.04870   -2.000
 7085.00    1.05648   1.04139   -2.000
 7086.00    1.06702   1.03283   -2.000
 7087.00    1.05741   1.02370   -2.000
 7088.00    1.03452   1.01481   -2.000
 7089.00    1.01907   1.00682   -2.000
 7090.00    1.02174   1.00028   -2.000
 7091.00    1.02924   0.99541   -2.000
 7092.00    1.02845   0.99212   -2.000
 7093.00    1.02214   0.99018   -2.000
 7094.00    1.02046   0.98925   -2.000
 7095.00    1.03266   0.98922   -2.000
 7096.00    1.05398   0.99002   -2.000
 7097.00    1.06383   0.99152   -2.000
 7098.00    1.05509   0.99368   -2.000
 7099.00    1.04447   0.99633   -2.000
 7100.00    1.04376   0.99927   -2.000
 7101.00    1.04785   1.00228   -2.000
 7102.00    1.04747   1.00515   -2.000
 7103.00    1.03691   1.00777   -2.000
 7104.00    1.02003   1.01005   -2.000
 7105.00    1.00824   1.01190   -2.000
 7106.00    1.00279   1.01332   -2.000
 7107.00    0.99614   1.01439   -2.000
 7108.00    1.00119   1.01507   -2.000
 7109.00    1.04673   1.01512   -2.000
 7110.00    1.12811   1.01444   -2.000
 7111.00    1.20821   1.01324   -2.000
 7112.00    1.27158   1.01190   -2.000
 7113.00    1.33511   1.01085   -2.000
 7114.00    1.42905   1.01058   -2.000
 7115.00    1.57436   1.01138   -2.000
 7116.00    1.74033   1.01314   -2.000
 7117.00    1.86745   1.01557   -2.000
 7118.00    1.94768   1.01831   -2.000
 7119.00    2.00530   1.02084   -2.000
 7120.00    2.01202   1.02259   -2.000
 7121.00    1.91632   1.02330   -2.000
 7122.00    1.74134   1.02316   -2.000
 7123.00    1.55384   1.02217   -2.000
 7124.00    1.36770   1.02007   -2.000
 7125.00    1.16988   1.01690   -2.000
 7126.00    0.99722   1.01295   -2.000
 7127.00    0.91095   1.00846   -2.000
 7128.00    0.93263   1.00354   -2.000
 7129.00    1.03459   0.99839   -2.000
 7130.00    1.14403   0.99351   -2.000
 7131.00    1.18989   0.98948   -2.000
 7132.00    1.16540   0.98686   -2.000
 7133.00    1.10325   0.98611   -2.000
 7134.00    1.03194   0.98716   -2.000
 7135.00    0.97008   0.98962   -2.000
 7136.00    0.92663   0.99303   -2.000
 7137.00    0.90764   0.99684   -2.000
 7138.00    0.92263   1.00048   -2.000
 7139.00    0.97254   1.00354   -2.000
 7140.00    1.03729   1.00582   -2.000
 7141.00    1.08263   1.00738   -2.000
 7142.00    1.07409   1.00846   -2.000
 7143.00    1.03588   1.00928   -2.000
 7144.00    1.07669   1.00979   -2.000
 7145.00    1.16930   1.00980   -2.000
 7146.00    1.03119   1.00897   -2.000
 7147.00    0.63388   1.00719   -2.000
 7148.00    0.49186   1.00491   -2.000
 7149.00    0.87988   1.00282   -2.000
 7150.00    1.37374   1.00162   -2.000
 7151.00    1.59123   1.00193   -2.000
 7152.00    1.63077   1.00404   -2.000
 7153.00    1.65076   1.00759   -2.000
 7154.00    1.62575   1.01204   -2.000
 7155.00    1.50681   1.01700   -2.000
 7156.00    1.31639   1.02170   -2.000
 7157.00    1.13300   1.02515   -2.000
 7158.00    1.05815   1.02706   -2.000
 7159.00    1.11030   1.02758   -2.000
 7160.00    1.20097   1.02695   -2.000
 7161.00    1.25277   1.02540   -2.000
 7162.00    1.24573   1.02293   -2.000
 7163.00    1.18595   1.01941   -2.000
 7164.00    1.09266   1.01519   -2.000
 7165.00    1.00078   1.01127   -2.000
 7166.00    0.94890   1.00855   -2.000
 7167.00    0.93554   1.00746   -2.000
 7168.00    0.92599   1.00809   -2.000
 7169.00    0.92226   1.01034   -2.000
 7170.00    0.95770   1.01406   -2.000
 7171.00    1.01523   1.01888   -2.000
 7172.00    1.03704   1.02398   -2.000
 7173.00    1.01666   1.02825   -2.000
 7174.00    0.99712   1.03099   -2.000
 7175.00    1.00200   1.03219   -2.000
 7176.00    1.02850   1.03232   -2.000
 7177.00    1.07280   1.03169   -2.000
 7178.00    1.12303   1.03019   -2.000
 7179.00    1.13266   1.02775   -2.000
 7180.00    1.06029   1.02477   -2.000
 7181.00    0.95620   1.02205   -2.000
 7182.00    0.90570   1.02024   -2.000
 7183.00    0.89703   1.01948   -2.000
 7184.00    0.87543   1.01941   -2.000
 7185.00    0.87266   1.01938   -2.000
 7186.00    0.94801   1.01886   -2.000
 7187.00    1.06534   1.01785   -2.000
 7188.00    1.15936   1.01641   -2.000
 7189.00    1.25494   1.01465   -2.000
 7190.00    1.38911   1.01287   -2.000
 7191.00    1.48909   1.01165   -2.000
 7192.00    1.45834   1.01163   -2.000
 7193.00    1.30109   1.01313   -2.000
 7194.00    1.08360   1.01595   -2.000
 7195.00    0.87122   1.01912   -2.000
 7196.00    0.71892   1.02174   -2.000
 7197.00    0.66659   1.02363   -2.000
 7198.00    0.71654   1.02488   -2.000
 7199.00    0.81691   1.02568   -2.000
 7200.00    0.91427   1.02613   -2.000
 7201.00    1.00045   1.02629   -2.000
 7202.00    1.08175   1.02643   -2.000
 7203.00    1.14886   1.02677   -2.000
 7204.00    1.17473   1.02713   -2.000
 7205.00    1.12134   1.02675   -2.000
 7206.00    0.99053   1.02507   -2.000
 7207.00    0.85349   1.02253   -2.000
 7208.00    0.79699   1.01995   -2.000
 7209.00    0.87061   1.01813   -2.000
 7210.00    0.99619   1.01746   -2.000
 7211.00    0.96992   1.01793   -2.000
 7212.00    0.79650   1.01952   -2.000
 7213.00    0.79043   1.02223   -2.000
 7214.00    1.06420   1.02575   -2.000
 7215.00    1.33841   1.02918   -2.000
 7216.00    1.40011   1.03195   -2.000
 7217.00    1.29786   1.03408   -2.000
 7218.00    1.14906   1.03568   -2.000
