###################################################################
## OUTPUT of StarlightChains_v04.for    [Cid@UFSC - 01/Apr/2007] ##
###################################################################

## Some input info
2001H.txt                                [arq_obs]
Base.CB07.vall.4m                        [arq_base]
Masks.EmLines.NEW.gm                     [arq_masks]
StCv04.C11.config                        [arq_config]
   66                                    [N_base]
    0                                    [N_YAV_components = # of components with extra extinction!]
    0                                    [i_FitPowerLaw (1/0 = Yes/No)]
-9.99                                    [alpha_PowerLaw]
CCM                                      [red_law_option]
 1.458241                                [q_norm = A(l_norm)/A(V)]

## (Re)Sampling Parameters
 3741.00                                 [l_ini (A)]
 7218.00                                 [l_fin (A)]
    1.00                                 [dl    (A)]     (OBS: dl_cushion =    50.00 A)

## Normalization info
 4020.00                                 [l_norm (A) - for base]
 4010.00                                 [llow_norm (A) - window for f_obs]
 4060.00                                 [lupp_norm (A) - window for f_obs]
1.162631E-16                             [fobs_norm (in input units)]

## S/N
 3691.00                                 [llow_SN (A) - window for S/N]
 7268.00                                 [lupp_SN (A) - window for S/N]
   9.028                                 [S/N in S/N window]
   8.874                                 [S/N in norm. window]
  17.032                                 [S/N_err in S/N window]
  16.742                                 [S/N_err in norm. window]
  1.0000                                 [fscale_chi2]

## etc...
    -2007260                             [idum_orig]
  2386                                   [NOl_eff]
  2386                                   [Nl_eff]
     0    NSIGMA                         [Ntot_cliped & clip_method]
  1926820                                [Nglobal_steps]
   7                                     [N_chains]
  34                                     [NEX0s_base = N_base in EX0s-fits]
 0   0   1        1   2.0   2.826E+01    [Clip-Bug, RC-Crash & Burn-In warning-flags, n_censored_weights, wei_nsig_threshold & wei_limit]
    16     15.530     15.035      0.496  [idt_all, wdt_TotTime, wdt_UsrTime & wdt_SysTime (sec)]

## Synthesis Results - Best model ##

 4.14091E-01                             [chi2/Nl_eff]
     3.10620                             [adev (%)]

   104.39650                             [sum-of-x (%)]
 2.33173E-16                             [Flux_tot (units of input spectrum!)]
 2.35885E-12                             [Mini_tot (???)]
 1.31099E-12                             [Mcor_tot (???)]

  37.52                                  [v0_min  (km/s)]
 157.89                                  [vd_min  (km/s)]
 0.4861                                  [AV_min  (mag)]
 0.0000                                  [YAV_min (mag)]

# j     x_j(%)      Mini_j(%)     Mcor_j(%)     age_j(yr)     Z_j      (L/M)_j    YAV?  Mstars   component_j        a/Fe...       SSP_chi2r SSP_adev(%)   SSP_AV   SSP_x(%)
  1      3.8674     3.3473E-02    6.0228E-02    1.000000E+06  0.00400  1.094E-02    0   1.0000   age020_m42            0.0000     1.7369E+00     6.1810   3.3030    84.7828
  2      0.0000     0.0000E+00    0.0000E+00    3.160000E+06  0.00400  4.007E-02    0   0.9999   age045_m42            0.0000     1.3360E+00     5.1922   2.5484    92.0750
  3      0.0000     0.0000E+00    0.0000E+00    5.010000E+06  0.00400  2.539E-02    0   0.9488   age055_m42            0.0000     1.4652E+00     5.5303   2.8781    89.3260
  4      0.0000     0.0000E+00    0.0000E+00    6.610000E+06  0.00400  2.620E-02    0   0.9220   age061_m42            0.0000     1.2929E+00     5.1251   2.4693    92.6035
  5      0.0005     3.3091E-06    5.2764E-06    1.000000E+07  0.00400  1.322E-02    0   0.8862   age070_m42            0.0000     1.1823E+00     5.0040   2.1545    96.4299
  6      0.0000     0.0000E+00    0.0000E+00    1.445000E+07  0.00400  7.883E-03    0   0.8571   age078_m42            0.0000     1.3180E+00     5.2911   2.4953    93.2784
  7      0.0000     0.0000E+00    0.0000E+00    2.512000E+07  0.00400  5.251E-03    0   0.8174   age090_m42            0.0000     1.1841E+00     5.0177   2.0139    97.5410
  8      0.0000     0.0000E+00    0.0000E+00    4.000000E+07  0.00400  3.649E-03    0   0.7851   age104_m42            0.0000     1.0708E+00     4.7871   1.7833    98.5081
  9      0.0000     0.0000E+00    0.0000E+00    5.500000E+07  0.00400  3.098E-03    0   0.7629   age110_m42            0.0000     1.0794E+00     4.7261   1.9490    97.8363
 10      0.0000     0.0000E+00    0.0000E+00    1.015200E+08  0.00400  2.228E-03    0   0.7207   age116_m42            0.0000     1.1247E+00     4.7838   1.9755    97.6730
 11      0.0000     0.0000E+00    0.0000E+00    2.861200E+08  0.00400  1.093E-03    0   0.6648   age125_m42            0.0000     1.0917E+00     4.8846   1.3909   101.7582
 12      0.0000     0.0000E+00    0.0000E+00    5.088000E+08  0.00400  6.597E-04    0   0.6365   age130_m42            0.0000     1.0648E+00     4.7884   1.3903   101.9836
 13      4.2407     1.8834E+00    1.9648E+00    1.434000E+09  0.00400  2.132E-04    0   0.5798   age139_m42            0.0000     6.2256E-01     3.7344   0.4087   104.4370
 14      0.0165     2.6547E-02    2.5684E-02    4.250000E+09  0.00400  5.895E-05    0   0.5377   age158_m42            0.0000     6.2915E-01     3.8395   0.0051    98.4148
 15      0.0000     0.0000E+00    0.0000E+00    7.500000E+09  0.00400  3.510E-05    0   0.5212   age171_m42            0.0000     7.5100E-01     4.2271  -0.1655    96.9798
 16      0.0000     0.0000E+00    0.0000E+00    1.300000E+10  0.00400  2.005E-05    0   0.5034   age193_m42            0.0000     9.1577E-01     4.6959  -0.3134    95.7021
 17      0.0104     6.4443E-02    5.7593E-02    1.800000E+10  0.00400  1.525E-05    0   0.4967   age213_m42            0.0000     8.7819E-01     4.5951  -0.3406    95.4530
 18      1.8535     1.4176E-02    2.5507E-02    1.000000E+06  0.00800  1.238E-02    0   1.0000   age020_m52            0.0000     1.7302E+00     6.1771   3.2993    84.9442
 19      0.0000     0.0000E+00    0.0000E+00    3.160000E+06  0.00800  3.074E-02    0   0.9966   age045_m52            0.0000     1.6793E+00     6.0729   3.2203    85.7844
 20      0.0000     0.0000E+00    0.0000E+00    5.010000E+06  0.00800  2.668E-02    0   0.9443   age055_m52            0.0000     1.4708E+00     5.6088   2.9622    88.4368
 21      0.0000     0.0000E+00    0.0000E+00    6.610000E+06  0.00800  2.136E-02    0   0.9177   age061_m52            0.0000     9.1304E-01     4.4874   1.6554    97.3826
 22      0.0000     0.0000E+00    0.0000E+00    1.000000E+07  0.00800  1.215E-02    0   0.8827   age070_m52            0.0000     1.2709E+00     5.2542   2.3318    96.4169
 23      0.0000     0.0000E+00    0.0000E+00    1.445000E+07  0.00800  8.717E-03    0   0.8552   age078_m52            0.0000     1.2309E+00     5.1145   2.4546    94.8701
 24      0.0000     0.0000E+00    0.0000E+00    2.512000E+07  0.00800  5.592E-03    0   0.8162   age090_m52            0.0000     1.1306E+00     4.9390   2.0746    98.9216
 25      0.0118     2.8734E-04    4.0539E-04    4.000000E+07  0.00800  3.896E-03    0   0.7841   age104_m52            0.0000     1.0521E+00     4.7602   1.9888    99.6176
 26      0.0000     0.0000E+00    0.0000E+00    1.015200E+08  0.00800  2.148E-03    0   0.7226   age116_m52            0.0000     1.0124E+00     4.6249   1.9358    98.9145
 27      0.0000     0.0000E+00    0.0000E+00    2.861200E+08  0.00800  9.925E-04    0   0.6683   age125_m52            0.0000     9.7526E-01     4.5980   1.4507   103.1404
 28      0.0000     0.0000E+00    0.0000E+00    9.047900E+08  0.00800  3.141E-04    0   0.6138   age135_m52            0.0000     7.7475E-01     4.1583   0.6608   106.9525
 29      0.0000     0.0000E+00    0.0000E+00    1.434000E+09  0.00800  1.719E-04    0   0.5853   age139_m52            0.0000     6.4214E-01     3.8290   0.0914   104.2314
 30      0.0001     1.4901E-04    1.5014E-04    2.500000E+09  0.00800  7.872E-05    0   0.5600   age150_m52            0.0000     7.9444E-01     4.3706  -0.1430    99.5975
 31      0.0000     0.0000E+00    0.0000E+00    4.250000E+09  0.00800  4.336E-05    0   0.5426   age158_m52            0.0000     8.3295E-01     4.4765  -0.1535    98.4298
 32      0.0000     0.0000E+00    0.0000E+00    6.250000E+09  0.00800  3.159E-05    0   0.5319   age166_m52            0.0000     1.0780E+00     5.1372  -0.3372    97.5560
 33      0.0000     0.0000E+00    0.0000E+00    1.300000E+10  0.00800  1.361E-05    0   0.5073   age193_m52            0.0000     1.4760E+00     6.0668  -0.7821    95.8328
 34      0.0000     0.0000E+00    0.0000E+00    1.800000E+10  0.00800  9.886E-06    0   0.4990   age213_m52            0.0000     1.8565E+00     6.8648  -0.8661    94.2873
 35      0.6397     3.9233E-03    7.0592E-03    1.000000E+06  0.02000  1.544E-02    0   1.0000   age020_m62            0.0000     1.7422E+00     6.2092   3.2956    85.1202
 36      0.0000     0.0000E+00    0.0000E+00    3.160000E+06  0.02000  3.762E-02    0   0.9858   age045_m62            0.0000     1.7294E+00     6.1876   3.2358    85.8180
 37      0.0006     1.7996E-06    3.0250E-06    5.010000E+06  0.02000  3.296E-02    0   0.9342   age055_m62            0.0000     1.3973E+00     5.3875   2.8366    90.4998
 38     17.7214     1.4541E-01    2.3183E-01    8.710000E+06  0.02000  1.154E-02    0   0.8861   age067_m62            0.0000     2.3973E+00     7.5022   1.7367   102.1332
 39      1.3287     1.6418E-02    2.5028E-02    1.445000E+07  0.02000  7.663E-03    0   0.8472   age078_m62            0.0000     1.3807E+00     5.6108   1.9609    99.7642
 40      0.0081     1.7005E-04    2.4781E-04    2.512000E+07  0.02000  4.532E-03    0   0.8099   age090_m62            0.0000     1.4774E+00     5.7800   1.9482    99.8382
 41      0.0000     0.0000E+00    0.0000E+00    5.500000E+07  0.02000  2.733E-03    0   0.7595   age110_m62            0.0000     1.0513E+00     4.7475   1.9741    98.7484
 42      0.0000     0.0000E+00    0.0000E+00    1.609000E+08  0.02000  1.369E-03    0   0.6985   age120_m62            0.0000     1.0462E+00     4.6715   1.8152   101.2899
 43      0.0000     0.0000E+00    0.0000E+00    2.861200E+08  0.02000  9.013E-04    0   0.6714   age125_m62            0.0000     1.0470E+00     4.7044   1.5594   104.4272
 44      2.1574     4.0627E-01    4.7142E-01    5.088000E+08  0.02000  5.028E-04    0   0.6449   age130_m62            0.0000     1.0133E+00     4.6569   1.1975   106.2903
 45      0.0000     0.0000E+00    0.0000E+00    9.047900E+08  0.02000  2.428E-04    0   0.6179   age135_m62            0.0000     7.5985E-01     4.1404   0.6275   104.8409
 46      4.3051     3.2276E+00    3.4310E+00    1.434000E+09  0.02000  1.263E-04    0   0.5908   age139_m62            0.0000     7.4092E-01     4.1494   0.1960   102.6364
 47      0.0068     1.0733E-02    1.0956E-02    2.500000E+09  0.02000  5.985E-05    0   0.5673   age150_m62            0.0000     1.0163E+00     4.9818  -0.1391    99.6655
 48      3.4803     1.0075E+01    9.9119E+00    4.250000E+09  0.02000  3.271E-05    0   0.5468   age158_m62            0.0000     1.4635E+00     6.1162  -0.4152    97.4337
 49      0.0000     0.0000E+00    0.0000E+00    1.000000E+10  0.02000  1.360E-05    0   0.5167   age181_m62            0.0000     2.1622E+00     7.4974  -0.7257    95.3703
 50      0.9147     1.2157E+01    1.0966E+01    1.800000E+10  0.02000  7.124E-06    0   0.5013   age213_m62            0.0000     2.7652E+00     8.5635  -0.9010    93.1223
 51      4.2108     1.5382E-02    2.7672E-02    1.000000E+06  0.05000  2.592E-02    0   0.9998   age020_m72            0.0000     1.7778E+00     6.3036   3.2883    85.0866
 52      0.0000     0.0000E+00    0.0000E+00    3.160000E+06  0.05000  4.845E-02    0   0.9577   age045_m72            0.0000     1.6196E+00     5.8955   3.1131    87.2280
 53      0.0000     0.0000E+00    0.0000E+00    5.010000E+06  0.05000  3.072E-02    0   0.9147   age055_m72            0.0000     1.5075E+00     5.8410   2.5921    93.7360
 54      0.0000     0.0000E+00    0.0000E+00    6.610000E+06  0.05000  1.455E-02    0   0.8877   age061_m72            0.0000     4.1692E+00     9.9474   1.7946   103.5664
 55      0.0000     0.0000E+00    0.0000E+00    1.000000E+07  0.05000  9.074E-03    0   0.8524   age070_m72            0.0000     1.9243E+00     6.5987   2.7982    92.8459
 56      0.0000     0.0000E+00    0.0000E+00    2.512000E+07  0.05000  4.250E-03    0   0.7902   age090_m72            0.0000     1.5591E+00     5.8755   2.4634    96.0302
 57      0.0000     0.0000E+00    0.0000E+00    4.000000E+07  0.05000  3.087E-03    0   0.7618   age104_m72            0.0000     1.5574E+00     5.8717   2.2195    98.4769
 58      0.0023     1.2593E-04    1.6078E-04    1.015200E+08  0.05000  1.700E-03    0   0.7096   age116_m72            0.0000     1.1277E+00     4.8881   1.9513   101.3090
 59      2.1340     2.7365E-01    3.2660E-01    2.861200E+08  0.05000  7.384E-04    0   0.6633   age125_m72            0.0000     9.9592E-01     4.5852   1.4347   105.4561
 60     15.8198     3.9223E+00    4.4970E+00    5.088000E+08  0.05000  3.819E-04    0   0.6372   age130_m72            0.0000     8.1414E-01     4.1546   0.9578   106.1960
 61     16.7909     9.4862E+00    1.0429E+01    9.047900E+08  0.05000  1.676E-04    0   0.6110   age135_m72            0.0000     9.8074E-01     4.8737   0.3066   102.0031
 62     15.3473     1.6444E+01    1.7380E+01    1.434000E+09  0.05000  8.837E-05    0   0.5874   age139_m72            0.0000     1.0983E+00     5.1789  -0.1405   101.1618
 63      4.8318     1.0808E+01    1.0886E+01    2.500000E+09  0.05000  4.233E-05    0   0.5598   age150_m72            0.0000     1.6319E+00     6.4962  -0.4074    97.8530
 64      4.6958     3.0985E+01    2.9264E+01    6.250000E+09  0.05000  1.435E-05    0   0.5249   age166_m72            0.0000     2.3271E+00     7.8690  -0.8132    94.5268
 65      0.0000     0.0000E+00    0.0000E+00    1.300000E+10  0.05000  6.513E-06    0   0.5036   age193_m72            0.0000     3.1764E+00     9.2524  -1.0000    91.5748
 66      0.0000     0.0000E+00    0.0000E+00    1.800000E+10  0.05000  4.527E-06    0   0.4945   age213_m72            0.0000     3.9116E+00    10.2629  -1.0000    85.2061


## Synthesis Results - Average & Chains ##

# j      x_j: min, <> & last-chain-values for 1 ...  7 chains
  1      3.8674      1.6312      1.0795      1.6467      1.8175      1.7526      2.5720      1.6812      2.9792
  2      0.0000      0.6390      0.0000      0.2108      0.8706      0.5011      0.2733      0.0020      1.0483
  3      0.0000      0.4702      0.2245      1.4073      0.0000      0.2667      0.0000      1.9241      0.4865
  4      0.0000      0.0984      0.0000      0.0000      0.1910      0.0000      0.0152      0.0000      0.0000
  5      0.0005      0.6943      0.0000      0.4505      0.6642      0.0000      0.3583      0.9115      0.2660
  6      0.0000      0.1930      0.0000      0.0000      0.0000      0.0000      0.0000      0.4115      0.0000
  7      0.0000      0.2398      0.5294      0.1232      0.0829      0.0000      0.9394      0.0000      0.0000
  8      0.0000      0.3114      1.1053      0.6334      0.0000      0.0881      0.0000      0.0000      1.7956
  9      0.0000      0.2690      0.0000      0.3753      0.0951      0.0000      0.7100      0.7265      1.0525
 10      0.0000      0.2924      0.4719      0.2036      0.0000      0.0000      0.0000      0.0000      0.1657
 11      0.0000      0.3248      0.0000      0.0000      0.0000      0.0000      0.3380      0.0719      0.0000
 12      0.0000      0.3898      0.6956      0.0422      0.0000      1.3140      0.0000      0.0000      0.0000
 13      4.2407      3.5007      3.7993      4.5974      0.7295      1.7460      3.9289      4.7922      5.2193
 14      0.0165      0.4652      0.4747      0.0000      2.3697      1.0590      0.0000      0.0000      0.4399
 15      0.0000      0.8167      0.0000      0.0000      1.3516      0.0000      0.0000      0.5861      0.0000
 16      0.0000      0.2926      1.3192      0.0000      0.0000      0.1030      0.8479      0.0000      0.0000
 17      0.0104      0.1754      0.0000      0.1100      0.4447      0.0000      0.0000      0.0000      0.0000
 18      1.8535      1.0978      0.2363      0.8647      1.1925      1.2156      2.0703      0.0000      1.3580
 19      0.0000      0.4168      0.0000      0.0000      0.2985      0.0000      0.0000      0.0000      0.2745
 20      0.0000      0.2618      1.0708      0.0000      0.5452      0.0041      0.9955      0.4364      0.1231
 21      0.0000      1.5424      2.0625      0.5266      1.8308      4.6353      1.4583      2.7187      0.0000
 22      0.0000      1.3103      1.3466      2.6535      1.8464      0.7621      1.7401      0.4740      1.4924
 23      0.0000      0.4943      1.2477      0.7982      0.4271      0.0000      0.6521      1.0016      0.0000
 24      0.0000      0.2098      0.8393      0.0000      0.0000      0.0000      0.1268      0.0000      0.0000
 25      0.0118      0.9680      2.6438      0.6650      0.6664      0.7457      0.0000      0.0000      0.1597
 26      0.0000      0.2954      0.0000      0.0000      0.0000      0.0000      1.0499      0.0000      0.5726
 27      0.0000      0.4210      0.0000      0.0000      0.0000      0.1031      0.0000      0.0000      0.0000
 28      0.0000      1.3324      0.0000      2.5445      0.4695      0.5578      0.3925      0.0000      0.0000
 29      0.0000      0.5856      0.0254      0.0000      0.0000      0.0000      0.0000      0.0000      0.0000
 30      0.0001      1.8699      0.8543      1.7162      0.4496      1.0895      1.7945      2.2220      3.0321
 31      0.0000      0.1930      1.3694      0.0000      0.0760      0.0000      1.0937      0.0000      0.0897
 32      0.0000      0.5861      0.0000      0.0000      0.6338      0.7200      0.0000      0.0000      0.0000
 33      0.0000      0.4687      0.4593      0.4788      0.0000      0.5090      0.0000      0.4557      0.3629
 34      0.0000      0.1573      0.0000      0.0000      0.0000      0.0000      0.4394      0.3258      0.0000
 35      0.6397      0.4164      0.0000      0.9237      0.6679      0.0000      0.5015      0.0838      0.7284
 36      0.0000      0.3323      0.5169      1.0229      0.0000      0.0000      0.3826      0.1949      0.0000
 37      0.0006      1.4013      0.0000      1.0473      1.4452      2.6317      1.6097      1.4127      1.9971
 38     17.7214      8.1831      9.9933      9.6487      9.6120     11.9188      8.6155      9.0246      8.6785
 39      1.3287      4.3744      4.7095      4.6128      3.7761      6.5067      4.7579      5.9735      4.2887
 40      0.0081      1.4844      1.0872      0.5674      2.8497      0.0000      1.1836      1.1718      1.4813
 41      0.0000      0.2122      0.0000      0.2121      0.0000      0.0000      0.0000      0.0000      0.0000
 42      0.0000      0.2462      1.3565      0.0000      0.0000      0.9274      0.0000      0.3756      0.0000
 43      0.0000      0.4195      0.7911      0.2896      0.0000      0.0000      0.3636      0.3403      0.0000
 44      2.1574      0.9318      0.3574      0.8424      3.5034      2.5383      0.0000      2.1032      0.0000
 45      0.0000      1.8179      0.0000      0.0000      1.1358      0.1293      0.5288      1.9473      2.3423
 46      4.3051      4.5755      6.3304      5.1279      4.8757      5.2003      2.8556      4.0370      6.6563
 47      0.0068      2.2957      1.2307      3.0554      1.9826      2.1779      1.9174      3.2949      2.2824
 48      3.4803      2.8271      2.6751      2.4624      2.5620      3.0071      2.3665      3.0218      2.0296
 49      0.0000      0.3972      0.2558      0.8361      0.2711      0.7555      0.6672      0.5493      0.6249
 50      0.9147      1.2982      1.0920      1.5283      1.3797      1.2303      0.8847      1.5090      1.3468
 51      4.2108      3.2956      3.8385      3.9916      3.9806      2.1740      3.0870      3.6412      4.2515
 52      0.0000      0.1699      0.1419      0.0000      0.0000      0.0000      0.0000      0.0000      0.0000
 53      0.0000      0.1485      0.0000      0.0000      0.0000      0.6078      0.0000      0.0000      0.0000
 54      0.0000      0.3225      0.0000      0.0000      0.3430      0.0000      0.0000      0.8585      0.0000
 55      0.0000      0.0909      0.0000      0.0000      0.0000      0.0000      0.0000      0.0000      0.0000
 56      0.0000      0.1427      0.0000      0.0000      0.0000      0.0631      0.0000      0.0000      0.0000
 57      0.0000      0.1610      0.0000      0.0000      0.0000      0.0000      0.0000      0.0000      0.0000
 58      0.0023      0.9804      0.0000      0.0000      1.1983      0.0000      0.0000      0.8021      1.2944
 59      2.1340      1.8245      1.0185      2.0320      2.1814      1.9189      3.1446      0.9778      1.1082
 60     15.8198      4.4497      7.2960      3.2776      4.9597      5.4224      4.8731      6.8105      4.7253
 61     16.7909     19.8564     19.7809     24.6700     19.6440     19.6979     24.1478     17.7581     19.5346
 62     15.3473     11.5416     12.3572     12.0500     12.4682     11.9616     12.6368     13.2144     11.9477
 63      4.8318      3.9521      4.4013      3.2852      4.3100      5.1243      4.1810      3.4914      4.2016
 64      4.6958      2.3689      2.6618      2.2409      3.3532      2.5788      2.8795      2.2976      3.0922
 65      0.0000      0.0360      0.0000      0.0000      0.0000      0.0000      0.2021      0.0000      0.0000
 66      0.0000      0.0756      0.0000      0.0000      0.1379      0.0000      0.0000      0.0000      0.0000

# j      m_j: min, <> & last-chain-values for 1 ...  7 chains
  1  6.0228E-02  2.4445E-02  1.6743E-02  2.5453E-02  2.6133E-02  2.6721E-02  3.8914E-02  2.5411E-02  4.5578E-02
  2  0.0000E+00  2.6142E-03  0.0000E+00  8.8968E-04  3.4173E-03  2.0857E-03  1.1287E-03  8.2987E-06  4.3784E-03
  3  0.0000E+00  2.8808E-03  1.4238E-03  8.8932E-03  0.0000E+00  1.6623E-03  0.0000E+00  1.1890E-02  3.0425E-03
  4  0.0000E+00  5.6777E-04  0.0000E+00  0.0000E+00  1.0574E-03  0.0000E+00  8.8341E-05  0.0000E+00  0.0000E+00
  5  5.2764E-06  7.6306E-03  0.0000E+00  5.1063E-03  7.0039E-03  0.0000E+00  3.9751E-03  1.0104E-02  2.9846E-03
  6  0.0000E+00  3.4401E-03  0.0000E+00  0.0000E+00  0.0000E+00  0.0000E+00  0.0000E+00  7.3988E-03  0.0000E+00
  7  0.0000E+00  6.1201E-03  1.3985E-02  3.2434E-03  2.0288E-03  0.0000E+00  2.4204E-02  0.0000E+00  0.0000E+00
  8  0.0000E+00  1.0985E-02  4.0354E-02  2.3045E-02  0.0000E+00  3.1612E-03  0.0000E+00  0.0000E+00  6.4659E-02
  9  0.0000E+00  1.0862E-02  0.0000E+00  1.5629E-02  3.6857E-03  0.0000E+00  2.8940E-02  2.9583E-02  4.3377E-02
 10  0.0000E+00  1.5508E-02  2.5903E-02  1.1136E-02  0.0000E+00  0.0000E+00  0.0000E+00  0.0000E+00  8.9721E-03
 11  0.0000E+00  3.2392E-02  0.0000E+00  0.0000E+00  0.0000E+00  0.0000E+00  3.4026E-02  7.2311E-03  0.0000E+00
 12  0.0000E+00  6.1652E-02  1.1387E-01  6.8879E-03  0.0000E+00  2.1146E-01  0.0000E+00  0.0000E+00  0.0000E+00
 13  1.9648E+00  1.5608E+00  1.7532E+00  2.1143E+00  3.1205E-01  7.9199E-01  1.7686E+00  2.1550E+00  2.3756E+00
 14  2.5684E-02  6.9561E-01  7.3466E-01  0.0000E+00  3.3999E+00  1.6112E+00  0.0000E+00  0.0000E+00  6.7156E-01
 15  0.0000E+00  1.9883E+00  0.0000E+00  0.0000E+00  3.1569E+00  0.0000E+00  0.0000E+00  1.4391E+00  0.0000E+00
 16  0.0000E+00  1.2043E+00  5.6201E+00  0.0000E+00  0.0000E+00  4.3146E-01  3.5239E+00  0.0000E+00  0.0000E+00
 17  5.7593E-02  9.3638E-01  0.0000E+00  6.0578E-01  2.2782E+00  0.0000E+00  0.0000E+00  0.0000E+00  0.0000E+00
 18  2.5507E-02  1.4538E-02  3.2393E-03  1.1812E-02  1.5152E-02  1.6377E-02  2.7680E-02  0.0000E+00  1.8360E-02
 19  0.0000E+00  2.2153E-03  0.0000E+00  0.0000E+00  1.5222E-03  0.0000E+00  0.0000E+00  0.0000E+00  1.4895E-03
 20  0.0000E+00  1.5191E-03  6.4307E-03  0.0000E+00  3.0355E-03  2.3996E-05  5.8321E-03  2.5540E-03  7.2947E-04
 21  0.0000E+00  1.0864E-02  1.5036E-02  3.8260E-03  1.2373E-02  3.3217E-02  1.0370E-02  1.9315E-02  0.0000E+00
 22  0.0000E+00  1.5606E-02  1.6600E-02  3.2600E-02  2.1100E-02  9.2352E-03  2.0925E-02  5.6949E-03  1.8147E-02
 23  0.0000E+00  7.9497E-03  2.0771E-02  1.3242E-02  6.5904E-03  0.0000E+00  1.0590E-02  1.6249E-02  0.0000E+00
 24  0.0000E+00  5.0194E-03  2.0787E-02  0.0000E+00  0.0000E+00  0.0000E+00  3.0631E-03  0.0000E+00  0.0000E+00
 25  4.0539E-04  3.1939E-02  9.0285E-02  2.2633E-02  2.1096E-02  2.5032E-02  0.0000E+00  0.0000E+00  5.3809E-03
 26  0.0000E+00  1.6294E-02  0.0000E+00  0.0000E+00  0.0000E+00  0.0000E+00  5.8462E-02  0.0000E+00  3.2239E-02
 27  0.0000E+00  4.6471E-02  0.0000E+00  0.0000E+00  0.0000E+00  1.1582E-02  0.0000E+00  0.0000E+00  0.0000E+00
 28  0.0000E+00  4.2687E-01  0.0000E+00  8.4086E-01  1.4431E-01  1.8180E-01  1.2697E-01  0.0000E+00  0.0000E+00
 29  0.0000E+00  3.2688E-01  1.4679E-02  0.0000E+00  0.0000E+00  0.0000E+00  0.0000E+00  0.0000E+00  0.0000E+00
 30  1.5014E-04  2.1808E+00  1.0312E+00  2.0646E+00  5.0312E-01  1.2928E+00  2.1130E+00  2.6138E+00  3.6101E+00
 31  0.0000E+00  3.9598E-01  2.9078E+00  0.0000E+00  1.4954E-01  0.0000E+00  2.2654E+00  0.0000E+00  1.8793E-01
 32  0.0000E+00  1.6178E+00  0.0000E+00  0.0000E+00  1.6787E+00  2.0221E+00  0.0000E+00  0.0000E+00  0.0000E+00
 33  0.0000E+00  2.8642E+00  2.9052E+00  3.0179E+00  0.0000E+00  3.1646E+00  0.0000E+00  2.8086E+00  2.2640E+00
 34  0.0000E+00  1.3017E+00  0.0000E+00  0.0000E+00  0.0000E+00  0.0000E+00  3.6715E+00  2.7191E+00  0.0000E+00
 35  7.0592E-03  4.4215E-03  0.0000E+00  1.0117E-02  6.8041E-03  0.0000E+00  5.3765E-03  8.9729E-04  7.8960E-03
 36  0.0000E+00  1.4277E-03  2.2985E-03  4.5326E-03  0.0000E+00  0.0000E+00  1.6596E-03  8.4458E-04  0.0000E+00
 37  3.0250E-06  6.5116E-03  0.0000E+00  5.0199E-03  6.4433E-03  1.2441E-02  7.5518E-03  6.6210E-03  9.4737E-03
 38  2.3183E-01  1.0301E-01  1.3020E-01  1.2529E-01  1.1610E-01  1.5265E-01  1.0950E-01  1.1459E-01  1.1153E-01
 39  2.5028E-02  7.9287E-02  8.8350E-02  8.6240E-02  6.5667E-02  1.1998E-01  8.7069E-02  1.0921E-01  7.9358E-02
 40  2.4781E-04  4.3491E-02  3.2967E-02  1.7147E-02  8.0106E-02  0.0000E+00  3.5012E-02  3.4627E-02  4.4307E-02
 41  0.0000E+00  9.6679E-03  0.0000E+00  9.9688E-03  0.0000E+00  0.0000E+00  0.0000E+00  0.0000E+00  0.0000E+00
 42  0.0000E+00  2.0591E-02  1.1744E-01  0.0000E+00  0.0000E+00  7.8924E-02  0.0000E+00  3.1689E-02  0.0000E+00
 43  0.0000E+00  5.1228E-02  9.9996E-02  3.6485E-02  0.0000E+00  0.0000E+00  4.4835E-02  4.1921E-02  0.0000E+00
 44  4.7142E-01  1.9593E-01  7.7774E-02  1.8272E-01  7.0682E-01  5.4302E-01  0.0000E+00  4.4608E-01  0.0000E+00
 45  0.0000E+00  7.5848E-01  0.0000E+00  0.0000E+00  4.5466E-01  5.4885E-02  2.2273E-01  8.1945E-01  9.9767E-01
 46  3.4310E+00  3.5089E+00  5.0247E+00  4.0563E+00  3.5875E+00  4.0573E+00  2.2110E+00  3.1226E+00  5.2113E+00
 47  1.0956E-02  3.5675E+00  1.9794E+00  4.8976E+00  2.9560E+00  3.4432E+00  3.0083E+00  5.1645E+00  3.6208E+00
 48  9.9119E+00  7.7478E+00  7.5882E+00  6.9608E+00  6.7368E+00  8.3842E+00  6.5480E+00  8.3530E+00  5.6786E+00
 49  0.0000E+00  2.4738E+00  1.6490E+00  5.3719E+00  1.6203E+00  4.7874E+00  4.1959E+00  3.4507E+00  3.9733E+00
 50  1.0966E+01  1.4977E+01  1.3039E+01  1.8187E+01  1.5271E+01  1.4439E+01  1.0304E+01  1.7558E+01  1.5861E+01
 51  2.7672E-02  2.0841E-02  2.5124E-02  2.6037E-02  2.4152E-02  1.3986E-02  1.9710E-02  2.3225E-02  2.7447E-02
 52  0.0000E+00  5.5046E-04  4.7608E-04  0.0000E+00  0.0000E+00  0.0000E+00  0.0000E+00  0.0000E+00  0.0000E+00
 53  0.0000E+00  7.2488E-04  0.0000E+00  0.0000E+00  0.0000E+00  3.0186E-03  0.0000E+00  0.0000E+00  0.0000E+00
 54  0.0000E+00  3.2257E-03  0.0000E+00  0.0000E+00  3.2916E-03  0.0000E+00  0.0000E+00  8.6607E-03  0.0000E+00
 55  0.0000E+00  1.3998E-03  0.0000E+00  0.0000E+00  0.0000E+00  0.0000E+00  0.0000E+00  0.0000E+00  0.0000E+00
 56  0.0000E+00  4.3498E-03  0.0000E+00  0.0000E+00  0.0000E+00  1.9560E-03  0.0000E+00  0.0000E+00  0.0000E+00
 57  0.0000E+00  6.5139E-03  0.0000E+00  0.0000E+00  0.0000E+00  0.0000E+00  0.0000E+00  0.0000E+00  0.0000E+00
 58  1.6078E-04  6.7091E-02  0.0000E+00  0.0000E+00  7.8675E-02  0.0000E+00  0.0000E+00  5.5360E-02  9.0428E-02
 59  3.2660E-01  2.6870E-01  1.5525E-01  3.0867E-01  3.0823E-01  2.8751E-01  4.6756E-01  1.4525E-01  1.6661E-01
 60  4.4970E+00  1.2172E+00  2.0656E+00  9.2479E-01  1.3017E+00  1.5090E+00  1.3458E+00  1.8790E+00  1.3196E+00
 61  1.0429E+01  1.1868E+01  1.2236E+01  1.5209E+01  1.1265E+01  1.1977E+01  1.4572E+01  1.0705E+01  1.1919E+01
 62  1.7380E+01  1.2577E+01  1.3938E+01  1.3545E+01  1.3036E+01  1.3262E+01  1.3904E+01  1.4525E+01  1.3292E+01
 63  1.0886E+01  8.5685E+00  9.8765E+00  7.3469E+00  8.9657E+00  1.1303E+01  9.1522E+00  7.6351E+00  9.2998E+00
 64  2.9264E+01  1.4206E+01  1.6521E+01  1.3861E+01  1.9293E+01  1.5733E+01  1.7434E+01  1.3897E+01  1.8931E+01
 65  0.0000E+00  4.5641E-01  0.0000E+00  0.0000E+00  0.0000E+00  0.0000E+00  2.5865E+00  0.0000E+00  0.0000E+00
 66  0.0000E+00  1.3542E+00  0.0000E+00  0.0000E+00  2.3691E+00  0.0000E+00  0.0000E+00  0.0000E+00  0.0000E+00

# AV, chi2 & Mass for <> & i_chain = 1 ...  7 solutions
AV       0.4861      0.4958      0.4946      0.4908      0.4962      0.4925      0.4915      0.4939      0.4931
chi2 4.1409E-01  4.2319E-01  4.2147E-01  4.2124E-01  4.2121E-01  4.2136E-01  4.2143E-01  4.2217E-01  4.2131E-01
Mass 1.3110E-12  1.3802E-12  1.3313E-12  1.3291E-12  1.4394E-12  1.3507E-12  1.3591E-12  1.3650E-12  1.3470E-12
  37.52                                  [v0_min (km/s) before EX0s...]
 157.89                                  [vd_min (km/s) before EX0s...]


## Synthetic spectrum (Best Model) ##l_obs f_obs f_syn wei
 3478    [Nl_obs]
 3741.00    0.63844   0.67974    0.000
 3742.00    0.70428   0.68529    0.000
 3743.00    0.73275   0.67697    0.000
 3744.00    0.68385   0.65790    0.000
 3745.00    0.58391   0.63202   17.126
 3746.00    0.51329   0.60212   19.482
 3747.00    0.51621   0.57007   19.372
 3748.00    0.58069   0.54071   17.221
 3749.00    0.65577   0.52183   15.249
 3750.00    0.68251   0.51967   14.652
 3751.00    0.65467   0.53697   15.275
 3752.00    0.61041   0.57167   16.382
 3753.00    0.58144   0.61573   17.199
 3754.00    0.58281   0.65758   17.158
 3755.00    0.61580   0.68718   16.239
 3756.00    0.66578   0.70016   15.020
 3757.00    0.69775   0.69865   14.332
 3758.00    0.68116   0.68921   14.681
 3759.00    0.63285   0.67966   15.802
 3760.00    0.59920   0.67616   16.689
 3761.00    0.61451   0.67981   16.273
 3762.00    0.68294   0.68664   14.642
 3763.00    0.76408   0.69166   13.088
 3764.00    0.81130   0.69107   12.326
 3765.00    0.82507   0.68269   12.120
 3766.00    0.82018   0.66708   12.192
 3767.00    0.77770   0.64629   12.858
 3768.00    0.68273   0.62272   14.647
 3769.00    0.57294   0.60175   17.454
 3770.00    0.50287   0.59031   19.886
 3771.00    0.49790   0.59176   20.084
 3772.00    0.54259   0.60556   18.430
 3773.00    0.57995   0.62927   17.243
 3774.00    0.57536   0.65822   17.380
 3775.00    0.56895   0.68714   17.576
 3776.00    0.60364   0.71375   16.566
 3777.00    0.66400   0.73888   15.060
 3778.00    0.72080   0.76360   13.874
 3779.00    0.76950   0.78706   12.996
 3780.00    0.82012   0.80719   12.193
 3781.00    0.88409   0.82270   11.311
 3782.00    0.94869   0.83266   10.541
 3783.00    0.96870   0.83521   10.323
 3784.00    0.92146   0.82875   10.852
 3785.00    0.83719   0.81393   11.945
 3786.00    0.76617   0.79321   13.052
 3787.00    0.74929   0.76956   13.346
 3788.00    0.77078   0.74724   12.974
 3789.00    0.75673   0.73029   13.215
 3790.00    0.69189   0.71827   14.453
 3791.00    0.65165   0.70694   15.346
 3792.00    0.67642   0.69207   14.784
 3793.00    0.72779   0.67099   13.740
 3794.00    0.75629   0.64283   13.222
 3795.00    0.73504   0.60921   13.605
 3796.00    0.67143   0.57525   14.894
 3797.00    0.60257   0.54889   16.596
 3798.00    0.56394   0.53773   17.732
 3799.00    0.57244   0.54586   17.469
 3800.00    0.61028   0.57314   16.386
 3801.00    0.63584   0.61477   15.727
 3802.00    0.63241   0.66138   15.813
 3803.00    0.61606   0.70295   16.232
 3804.00    0.61420   0.73357   16.281
 3805.00    0.65035   0.75280   15.376
 3806.00    0.72199   0.76450   13.851
 3807.00    0.80381   0.77438   12.441
 3808.00    0.86965   0.78663   11.499
 3809.00    0.90348   0.80154   11.068
 3810.00    0.91053   0.81487   10.983
 3811.00    0.90776   0.82009   11.016
 3812.00    0.89953   0.81376   11.117
 3813.00    0.88161   0.79811   11.343
 3814.00    0.85811   0.77919   11.654
 3815.00    0.83745   0.76361   11.941
 3816.00    0.81990   0.75459   12.197
 3817.00    0.79847   0.74973   12.524
 3818.00    0.76417   0.74482   13.086
 3819.00    0.71236   0.73856   14.038
 3820.00    0.65082   0.73230   15.365
 3821.00    0.59928   0.72746   16.687
 3822.00    0.58542   0.72398   17.082
 3823.00    0.61877   0.72009   16.161
 3824.00    0.66104   0.71276   15.128
 3825.00    0.66702   0.70029   14.992
 3826.00    0.63565   0.68466   15.732
 3827.00    0.59005   0.66970   16.948
 3828.00    0.54893   0.65662   18.217
 3829.00    0.52355   0.64276   19.101
 3830.00    0.51780   0.62415   19.312
 3831.00    0.53016   0.59867   18.862
 3832.00    0.55572   0.56732   17.995
 3833.00    0.58912   0.53399   16.974
 3834.00    0.62602   0.50512   15.974
 3835.00    0.65579   0.48728   15.249
 3836.00    0.65909   0.48377   15.172
 3837.00    0.63562   0.49416   15.733
 3838.00    0.61871   0.51597   16.163
 3839.00    0.63070   0.54583   15.855
 3840.00    0.65621   0.58082   15.239
 3841.00    0.67490   0.61853   14.817
 3842.00    0.68204   0.65619   14.662
 3843.00    0.67913   0.69081   14.725
 3844.00    0.66948   0.71996   14.937
 3845.00    0.66850   0.74266   14.959
 3846.00    0.70253   0.75931   14.234
 3847.00    0.77511   0.77069    0.000
 3848.00    0.85401   0.77798    0.000
 3849.00    0.89134   0.78341    0.000
 3850.00    0.84813   0.78877    0.000
 3851.00    0.75500   0.79439    0.000
 3852.00    0.70505   0.80008    0.000
 3853.00    0.72604   0.80460    0.000
 3854.00    0.76002   0.80569    0.000
 3855.00    0.77517   0.80256    0.000
 3856.00    0.78888   0.79637    0.000
 3857.00    0.80452   0.78884    0.000
 3858.00    0.80439   0.78250    0.000
 3859.00    0.79514   0.78045    0.000
 3860.00    0.80628   0.78422    0.000
 3861.00    0.84561   0.79334    0.000
 3862.00    0.89277   0.80604    0.000
 3863.00    0.91713   0.81884    0.000
 3864.00    0.89639   0.82776    0.000
 3865.00    0.84812   0.83132    0.000
 3866.00    0.81531   0.83102    0.000
 3867.00    0.81747   0.82882    0.000
 3868.00    0.84370   0.82484    0.000
 3869.00    0.86246   0.81781    0.000
 3870.00    0.84513   0.80689    0.000
 3871.00    0.80509   0.79388    0.000
 3872.00    0.77795   0.78282    0.000
 3873.00    0.77436   0.77716    0.000
 3874.00    0.79015   0.77720    0.000
 3875.00    0.83484   0.77959    0.000
 3876.00    0.90713   0.77928    0.000
 3877.00    0.95436   0.77359    0.000
 3878.00    0.92721   0.76358    0.000
 3879.00    0.85985   0.75169    0.000
 3880.00    0.81454   0.73982    0.000
 3881.00    0.79783   0.72857   12.534
 3882.00    0.78019   0.71606   12.817
 3883.00    0.73386   0.69828   13.627
 3884.00    0.66175   0.67312   15.111
 3885.00    0.61819   0.64186   16.176
 3886.00    0.63891   0.60696   15.652
 3887.00    0.67538   0.57280   14.807
 3888.00    0.67859   0.54730   14.736
 3889.00    0.67653   0.53842   14.781
 3890.00    0.70160   0.54899   14.253
 3891.00    0.72753   0.57581   13.745
 3892.00    0.72479   0.61200   13.797
 3893.00    0.70558   0.64944   14.173
 3894.00    0.69203   0.68203   14.450
 3895.00    0.69124   0.70776   14.467
 3896.00    0.70512   0.72735   14.182
 3897.00    0.73564   0.74265   13.594
 3898.00    0.76640   0.75587   13.048
 3899.00    0.76014   0.76873   13.156
 3900.00    0.71472   0.78102   13.991
 3901.00    0.68453   0.79159   14.609
 3902.00    0.71308   0.79979   14.024
 3903.00    0.79748   0.80433   12.540
 3904.00    0.90166   0.80500   11.091
 3905.00    0.97264   0.80496   10.281
 3906.00    0.97967   0.80902   10.208
 3907.00    0.93030   0.81987   10.749
 3908.00    0.86030   0.83651   11.624
 3909.00    0.81814   0.85590   12.223
 3910.00    0.82408   0.87360   12.135
 3911.00    0.86016   0.88522   11.626
 3912.00    0.89394   0.88939   11.186
 3913.00    0.89750   0.88757   11.142
 3914.00    0.87924   0.88160   11.373
 3915.00    0.87418   0.87305   11.439
 3916.00    0.88188   0.86294   11.339
 3917.00    0.87089   0.85158   11.483
 3918.00    0.84640   0.83921   11.815
 3919.00    0.84376   0.82698   11.852
 3920.00    0.86018   0.81709   11.625
 3921.00    0.86060   0.81092   11.620
 3922.00    0.83628   0.80825   11.958
 3923.00    0.80703   0.80679   12.391
 3924.00    0.79287   0.80272   12.612
 3925.00    0.79945   0.79248   12.509
 3926.00    0.80259   0.77393   12.460
 3927.00    0.77175   0.74728   12.958
 3928.00    0.71932   0.71409   13.902
 3929.00    0.67705   0.67655   14.770
 3930.00    0.63899   0.63672   15.650
 3931.00    0.58072   0.59694   17.220
 3932.00    0.50665   0.56148   19.738
 3933.00    0.44656   0.53602   22.393
 3934.00    0.43691   0.52578   22.888
 3935.00    0.49141   0.53356   20.350
 3936.00    0.56720   0.55853   17.630
 3937.00    0.61147   0.59632   16.354
 3938.00    0.62576   0.63977   15.981
 3939.00    0.63962   0.68129   15.634
 3940.00    0.66953   0.71560   14.936
 3941.00    0.71838   0.74047   13.920
 3942.00    0.77984   0.75674   12.823
 3943.00    0.83717   0.76815   11.945
 3944.00    0.86401   0.77886   11.574
 3945.00    0.85118   0.79062   11.748
 3946.00    0.82803   0.80295   12.077
 3947.00    0.82253   0.81471   12.158
 3948.00    0.82809   0.82479   12.076
 3949.00    0.83370   0.83199   11.995
 3950.00    0.84649   0.83613   11.814
 3951.00    0.85823   0.83913   11.652
 3952.00    0.82871   0.84223   12.067
 3953.00    0.75554   0.84382   13.236
 3954.00    0.70885   0.84204   14.107
 3955.00    0.73162   0.83712   13.668
 3956.00    0.78471   0.83038   12.744
 3957.00    0.81413   0.82196   12.283
 3958.00    0.79586   0.81022   12.565
 3959.00    0.74800   0.79338   13.369
 3960.00    0.72259   0.77037    0.000
 3961.00    0.73669   0.74035    0.000
 3962.00    0.75073   0.70346    0.000
 3963.00    0.73279   0.66154    0.000
 3964.00    0.68541   0.61658    0.000
 3965.00    0.62639   0.56951    0.000
 3966.00    0.57696   0.52084    0.000
 3967.00    0.55084   0.47312    0.000
 3968.00    0.55061   0.43262    0.000
 3969.00    0.57062   0.40709    0.000
 3970.00    0.59937   0.40218    0.000
 3971.00    0.62359   0.41928    0.000
 3972.00    0.63478   0.45550    0.000
 3973.00    0.64446   0.50473    0.000
 3974.00    0.67556   0.55966    0.000
 3975.00    0.72527   0.61433    0.000
 3976.00    0.76626   0.66556    0.000
 3977.00    0.77927   0.71215    0.000
 3978.00    0.76295   0.75311    0.000
 3979.00    0.73546   0.78677    0.000
 3980.00    0.72289   0.81207    0.000
 3981.00    0.73292   0.82953   13.644
 3982.00    0.75695   0.84102   13.211
 3983.00    0.78697   0.84961   12.707
 3984.00    0.81820   0.85819   12.222
 3985.00    0.84735   0.86877   11.801
 3986.00    0.87578   0.88148   11.418
 3987.00    0.91502   0.89422   10.929
 3988.00    0.96946   0.90524   10.315
 3989.00    1.00852   0.91442    9.916
 3990.00    1.00073   0.92253    9.993
 3991.00    0.96980   0.93001   10.311
 3992.00    0.95585   0.93590   10.462
 3993.00    0.95162   0.93897   10.508
 3994.00    0.93548   0.93810   10.690
 3995.00    0.92320   0.93306   10.832
 3996.00    0.93380   0.92641   10.709
 3997.00    0.94427   0.92272   10.590
 3998.00    0.93463   0.92541   10.699
 3999.00    0.93882   0.93465   10.652
 4000.00    0.98706   0.94765   10.131
 4001.00    1.04577   0.95963    9.562
 4002.00    1.06903   0.96520    9.354
 4003.00    1.05122   0.96134    9.513
 4004.00    1.00723   0.95042    9.928
 4005.00    0.95200   0.93847   10.504
 4006.00    0.90925   0.93103   10.998
 4007.00    0.91487   0.93109   10.931
 4008.00    0.97693   0.93889   10.236
 4009.00    1.05237   0.95183    9.502
 4010.00    1.10003   0.96541    9.091
 4011.00    1.11573   0.97626    8.963
 4012.00    1.10860   0.98395    9.020
 4013.00    1.08447   0.98980    9.221
 4014.00    1.04651   0.99460    9.556
 4015.00    0.99813   0.99837   10.019
 4016.00    0.95385   1.00184   10.484
 4017.00    0.93904   1.00573   10.649
 4018.00    0.95874   1.00972   10.430
 4019.00    0.98912   1.01266   10.110
 4020.00    1.01346   1.01299    9.867
 4021.00    1.03353   1.00928    9.676
 4022.00    1.04364   1.00086    9.582
 4023.00    1.02703   0.98927    9.737
 4024.00    0.98792   0.97869   10.122
 4025.00    0.95640   0.97304   10.456
 4026.00    0.95838   0.97300   10.434
 4027.00    1.00000   0.97528   10.000
 4028.00    1.05475   0.97454    9.481
 4029.00    1.07938   0.96684    9.265
 4030.00    1.07527   0.95179    9.300
 4031.00    1.08038   0.93333    9.256
 4032.00    1.09105   0.91849    9.165
 4033.00    1.07166   0.91360    9.331
 4034.00    1.04019   0.92181    9.614
 4035.00    1.05025   0.94158    9.522
 4036.00    1.09151   0.96748    9.162
 4037.00    1.10650   0.99287    9.038
 4038.00    1.08402   1.01202    9.225
 4039.00    1.05588   1.02190    9.471
 4040.00    1.04436   1.02237    9.575
 4041.00    1.05050   1.01443    9.519
 4042.00    1.05438   0.99911    9.484
 4043.00    1.03297   0.97823    9.681
 4044.00    0.99100   0.95600   10.091
 4045.00    0.95309   0.93853   10.492
 4046.00    0.94103   0.93106   10.627
 4047.00    0.95982   0.93617   10.419
 4048.00    0.98378   0.95221   10.165
 4049.00    0.98311   0.97270   10.172
 4050.00    0.96285   0.98955   10.386
 4051.00    0.94528   0.99706   10.579
 4052.00    0.93989   0.99450   10.640
 4053.00    0.94480   0.98520   10.584
 4054.00    0.95302   0.97326   10.493
 4055.00    0.95204   0.96189   10.504
 4056.00    0.92509   0.95380   10.810
 4057.00    0.87912   0.95057   11.375
 4058.00    0.86711   0.95180   11.533
 4059.00    0.91813   0.95491   10.892
 4060.00    0.97735   0.95578   10.232
 4061.00    0.99302   0.95147   10.070
 4062.00    0.99069   0.94244   10.094
 4063.00    1.00233   0.93186    9.977
 4064.00    1.00969   0.92372    9.904
 4065.00    0.99663   0.92157   10.034
 4066.00    0.98654   0.92645   10.136
 4067.00    1.00019   0.93583    9.998
 4068.00    1.02716   0.94465    9.736
 4069.00    1.04595   0.94874    9.561
 4070.00    1.04088   0.94767    9.607
 4071.00    1.01639   0.94371    9.839
 4072.00    0.99810   0.93867   10.019
 4073.00    0.99404   0.93270   10.060
 4074.00    0.98094   0.92467   10.194
 4075.00    0.94646   0.91373   10.566
 4076.00    0.90646   0.90127   11.032
 4077.00    0.88105   0.89147   11.350
 4078.00    0.88113   0.88984   11.349
 4079.00    0.90264   0.89939   11.079
 4080.00    0.92767   0.91737   10.780
 4081.00    0.93820   0.93677   10.659
 4082.00    0.92436   0.95050   10.818
 4083.00    0.89316   0.95545   11.196
 4084.00    0.86749   0.95386   11.528
 4085.00    0.87193   0.95098   11.469
 4086.00    0.92027   0.95128   10.866
 4087.00    0.99320   0.95595   10.068
 4088.00    1.04679   0.96278    9.553
 4089.00    1.05675   0.96787    9.463
 4090.00    1.02847   0.96818    9.723
 4091.00    0.98782   0.96261   10.123
 4092.00    0.96410   0.95120    0.000
 4093.00    0.95590   0.93421    0.000
 4094.00    0.93860   0.91187    0.000
 4095.00    0.90066   0.88432    0.000
 4096.00    0.84725   0.85197    0.000
 4097.00    0.78977   0.81542    0.000
 4098.00    0.74426   0.77533    0.000
 4099.00    0.73204   0.73363    0.000
 4100.00    0.76356   0.69494    0.000
 4101.00    0.81081   0.66583    0.000
 4102.00    0.83438   0.65313    0.000
 4103.00    0.83512   0.66099    0.000
 4104.00    0.83789   0.68809    0.000
 4105.00    0.85372   0.72753    0.000
 4106.00    0.87913   0.76978    0.000
 4107.00    0.90403   0.80649    0.000
 4108.00    0.92140   0.83360    0.000
 4109.00    0.93755   0.85198    0.000
 4110.00    0.95936   0.86535    0.000
 4111.00    0.97853   0.87784    0.000
 4112.00    0.98652   0.89221    0.000
 4113.00    0.99206   0.90887   10.080
 4114.00    1.00347   0.92595    9.965
 4115.00    1.01016   0.94006    9.899
 4116.00    1.00147   0.94809    9.985
 4117.00    0.98490   0.94904   10.153
 4118.00    0.97042   0.94436   10.305
 4119.00    0.95621   0.93717   10.458
 4120.00    0.93885   0.93120   10.651
 4121.00    0.92267   0.92918   10.838
 4122.00    0.91905   0.93195   10.881
 4123.00    0.94245   0.93837   10.611
 4124.00    0.99028   0.94573   10.098
 4125.00    1.03302   0.95081    9.680
 4126.00    1.04313   0.95155    9.587
 4127.00    1.01449   0.94758    9.857
 4128.00    0.96175   0.93977   10.398
 4129.00    0.91517   0.92979   10.927
 4130.00    0.89833   0.91973   11.132
 4131.00    0.91637   0.91186   10.913
 4132.00    0.96044   0.90844   10.412
 4133.00    1.01197   0.91157    9.882
 4134.00    1.05056   0.92200    9.519
 4135.00    1.06163   0.93865    9.420
 4136.00    1.05281   0.95876    9.498
 4137.00    1.05037   0.97837    9.521
 4138.00    1.05673   0.99328    9.463
 4139.00    1.04554   0.99988    9.564
 4140.00    1.00771   0.99574    9.923
 4141.00    0.96232   0.98119   10.392
 4142.00    0.93259   0.96054   10.723
 4143.00    0.93292   0.94053   10.718
 4144.00    0.95575   0.92801   10.462
 4145.00    0.97795   0.92668   10.228
 4146.00    0.99084   0.93474   10.096
 4147.00    0.99997   0.94653    9.993
 4148.00    1.00060   0.95637    9.985
 4149.00    0.98352   0.96090   10.189
 4150.00    0.96528   0.95998   10.384
 4151.00    0.97427   0.95567   10.200
 4152.00    1.00272   0.95007    9.912
 4153.00    1.01880   0.94426   10.056
 4154.00    1.01526   0.93926   10.542
 4155.00    1.00518   0.93656   10.826
 4156.00    0.99351   0.93764   10.795
 4157.00    0.97689   0.94322   10.761
 4158.00    0.95385   0.95269   10.837
 4159.00    0.93004   0.96442   10.959
 4160.00    0.92298   0.97630   11.108
 4161.00    0.94709   0.98662   11.212
 4162.00    0.99042   0.99466   10.947
 4163.00    1.02954   0.99984   10.203
 4164.00    1.05500   1.00160    9.510
 4165.00    1.06251   1.00001    9.315
 4166.00    1.03819   0.99594    9.625
 4167.00    0.98113   0.99024   10.232
 4168.00    0.92980   0.98310   10.757
 4169.00    0.91890   0.97368   10.868
 4170.00    0.93021   0.96067   10.750
 4171.00    0.92956   0.94398   10.760
 4172.00    0.91047   0.92604   10.983
 4173.00    0.88986   0.91087   11.247
 4174.00    0.89638   0.90175   11.154
 4175.00    0.93844   0.89958   10.627
 4176.00    0.98139   0.90287   10.197
 4177.00    0.99124   0.90919   10.163
 4178.00    0.97067   0.91657   10.272
 4179.00    0.94169   0.92413   10.285
 4180.00    0.92803   0.93176   10.368
 4181.00    0.93895   0.93905   10.629
 4182.00    0.96144   0.94558   10.791
 4183.00    0.97953   0.95087   10.651
 4184.00    0.98818   0.95435   10.414
 4185.00    0.99731   0.95593   10.305
 4186.00    1.02723   0.95604   10.365
 4187.00    1.07253   0.95561   10.503
 4188.00    1.09257   0.95636   10.548
 4189.00    1.06783   0.96022   10.456
 4190.00    1.02155   0.96783   10.386
 4191.00    0.97986   0.97765   10.444
 4192.00    0.95391   0.98679   10.591
 4193.00    0.94894   0.99181   10.703
 4194.00    0.96535   0.98971   10.654
 4195.00    0.98566   0.97936   10.538
 4196.00    0.98005   0.96272   10.623
 4197.00    0.94602   0.94394   10.921
 4198.00    0.91147   0.92725   11.143
 4199.00    0.89357   0.91578   11.181
 4200.00    0.88959   0.91083   11.218
 4201.00    0.89485   0.91158   11.302
 4202.00    0.90719   0.91649   11.291
 4203.00    0.92267   0.92477   11.152
 4204.00    0.93648   0.93603   11.001
 4205.00    0.94879   0.94948   10.956
 4206.00    0.96307   0.96370   11.065
 4207.00    0.97805   0.97697   11.208
 4208.00    0.99108   0.98776   11.181
 4209.00    1.01003   0.99540   10.994
 4210.00    1.04250   1.00005   10.830
 4211.00    1.06794   1.00191   10.810
 4212.00    1.05575   1.00049   10.964
 4213.00    1.01142   0.99556   11.224
 4214.00    0.96617   0.98836   11.463
 4215.00    0.94137   0.98186   11.588
 4216.00    0.94268   0.97995   11.586
 4217.00    0.96171   0.98505   11.533
 4218.00    0.98456   0.99602   11.510
 4219.00    1.00443   1.00811   11.484
 4220.00    1.01845   1.01535   11.410
 4221.00    1.02068   1.01285   11.400
 4222.00    1.00547   0.99792   11.569
 4223.00    0.97339   0.97108   11.824
 4224.00    0.93290   0.93676   11.987
 4225.00    0.90023   0.90290   12.034
 4226.00    0.88334   0.87869   12.041
 4227.00    0.86637   0.87168   12.077
 4228.00    0.84189   0.88406   12.149
 4229.00    0.84196   0.91056   12.177
 4230.00    0.88958   0.94082   12.104
 4231.00    0.95290   0.96463   12.007
 4232.00    0.98951   0.97622   11.965
 4233.00    0.98928   0.97594   11.967
 4234.00    0.96642   0.96869   11.978
 4235.00    0.94741   0.96028   12.009
 4236.00    0.95107   0.95474   12.024
 4237.00    0.97476   0.95385   11.907
 4238.00    1.00150   0.95778   11.655
 4239.00    1.00927   0.96591   11.454
 4240.00    0.99363   0.97734   11.402
 4241.00    0.97725   0.99100   11.398
 4242.00    0.97790   1.00496   11.392
 4243.00    0.99116   1.01643   11.494
 4244.00    1.00675   1.02273   11.701
 4245.00    1.01858   1.02211   11.787
 4246.00    1.02587   1.01423   11.672
 4247.00    1.03109   1.00085   11.558
 4248.00    1.02899   0.98553   11.606
 4249.00    1.00602   0.97196   11.803
 4250.00    0.96085   0.96236   12.042
 4251.00    0.90992   0.95748   12.173
 4252.00    0.87221   0.95697   12.169
 4253.00    0.86106   0.95971   12.144
 4254.00    0.87824   0.96438   12.131
 4255.00    0.91495   0.96979   12.048
 4256.00    0.96255   0.97453   11.887
 4257.00    1.01302   0.97652   11.735
 4258.00    1.04819   0.97438   11.653
 4259.00    1.04761   0.96952   11.649
 4260.00    1.02110   0.96617   11.713
 4261.00    1.00236   0.96927   11.815
 4262.00    1.00577   0.98133   11.894
 4263.00    1.02086   1.00029   11.887
 4264.00    1.02957   1.02041   11.815
 4265.00    1.02022   1.03501   11.754
 4266.00    1.00844   1.03923   11.713
 4267.00    1.01916   1.03134   11.656
 4268.00    1.03930   1.01252   11.624
 4269.00    1.03545   0.98626   11.668
 4270.00    1.00818   0.95722   11.696
 4271.00    0.98255   0.93055   11.601
 4272.00    0.97147   0.91130   11.549
 4273.00    0.97590   0.90324   11.720
 4274.00    0.99632   0.90753   11.827
 4275.00    1.02682   0.92246   11.503
 4276.00    1.04408   0.94407   -2.000
 4277.00    1.02852   0.96715   -2.000
 4278.00    0.99547   0.98639   -2.000
 4279.00    0.97119   0.99808   -2.000
 4280.00    0.95706   1.00154   -2.000
 4281.00    0.95498   0.99873   -2.000
 4282.00    0.99976   0.99272   -2.000
 4283.00    1.09836   0.98593   -2.000
 4284.00    1.16465   0.97909   -2.000
 4285.00    1.12035   0.97113   -2.000
 4286.00    1.00252   0.96046   -2.000
 4287.00    0.89334   0.94640   -2.000
 4288.00    0.84022   0.93030   -2.000
 4289.00    0.84799   0.91573   -2.000
 4290.00    0.88305   0.90704   -2.000
 4291.00    0.91469   0.90708   11.590
 4292.00    0.94558   0.91494   11.824
 4293.00    0.97735   0.92602   11.650
 4294.00    0.98707   0.93440   11.540
 4295.00    0.96380   0.93560   11.829
 4296.00    0.93039   0.92780   12.167
 4297.00    0.90464   0.91159   12.182
 4298.00    0.87782   0.88932   12.027
 4299.00    0.84893   0.86498   11.959
 4300.00    0.83950   0.84346   12.045
 4301.00    0.85379   0.82876   12.204
 4302.00    0.86400   0.82232   12.270
 4303.00    0.85466   0.82265   12.246
 4304.00    0.84006   0.82606   12.361
 4305.00    0.83256   0.82875   12.625
 4306.00    0.83038   0.82875   12.723
 4307.00    0.83407   0.82689   12.614
 4308.00    0.85094   0.82643   12.662
 4309.00    0.88137   0.83112   12.925
 4310.00    0.91503   0.84285   13.024
 4311.00    0.93832   0.86077   12.839
 4312.00    0.94273   0.88254   12.658
 4313.00    0.94238   0.90621   12.578
 4314.00    0.96541   0.93142   12.454
 4315.00    1.00767   0.95847   12.285
 4316.00    1.03567   0.98620   12.224
 4317.00    1.03984   1.01107   12.310
 4318.00    1.03810   1.02866   12.446
 4319.00    1.04155   1.03568   12.546
 4320.00    1.04813   1.03122   12.577
 4321.00    1.05150   1.01633   12.549
 4322.00    1.04535   0.99312   12.495
 4323.00    1.02752   0.96470   12.446
 4324.00    1.00056   0.93593   12.416
 4325.00    0.97058   0.91342   12.404
 4326.00    0.94725   0.90340   12.381
 4327.00    0.94384   0.90827   12.277
 4328.00    0.96746   0.92471   12.063
 4329.00    1.00211   0.94516   11.868
 4330.00    1.02364   0.96215    0.000
 4331.00    1.02963   0.97169    0.000
 4332.00    1.03134   0.97314    0.000
 4333.00    1.03311   0.96680    0.000
 4334.00    1.02889   0.95167    0.000
 4335.00    1.00318   0.92536    0.000
 4336.00    0.95021   0.88611    0.000
 4337.00    0.89757   0.83589    0.000
 4338.00    0.88115   0.78146    0.000
 4339.00    0.91000   0.73311    0.000
 4340.00    0.96328   0.70127    0.000
 4341.00    0.99527   0.69264    0.000
 4342.00    0.98023   0.70767    0.000
 4343.00    0.95390   0.74102    0.000
 4344.00    0.95184   0.78452    0.000
 4345.00    0.95071   0.83016    0.000
 4346.00    0.92722   0.87195    0.000
 4347.00    0.91065   0.90593    0.000
 4348.00    0.92866   0.92949    0.000
 4349.00    0.96266   0.94124    0.000
 4350.00    0.98651   0.94220    0.000
 4351.00    0.99757   0.93674   10.056
 4352.00    1.00168   0.93180   10.123
 4353.00    1.00146   0.93374    9.924
 4354.00    1.00144   0.94508    9.685
 4355.00    1.00980   0.96346   10.124
 4356.00    1.02574   0.98358   11.541
 4357.00    1.03492   1.00063   12.880
 4358.00    1.02948   1.01282   12.916
 4359.00    1.01773   1.02178   12.581
 4360.00    1.01365   1.03077   12.695
 4361.00    1.02711   1.04211   12.894
 4362.00    1.04513   1.05569   12.892
 4363.00    1.03581   1.06896   12.971
 4364.00    1.00432   1.07838   13.192
 4365.00    0.99877   1.08109   13.185
 4366.00    1.03011   1.07622   12.950
 4367.00    1.05665   1.06552   12.958
 4368.00    1.05340   1.05261   13.266
 4369.00    1.03150   1.04110   13.418
 4370.00    1.00990   1.03257   13.291
 4371.00    1.00329   1.02598   13.238
 4372.00    1.01710   1.01901   13.366
 4373.00    1.04471   1.01063   13.454
 4374.00    1.06444   1.00265   13.408
 4375.00    1.05303   0.99896   13.331
 4376.00    1.02383   1.00261   13.293
 4377.00    1.01476   1.01273   13.303
 4378.00    1.03202   1.02408   13.386
 4379.00    1.05235   1.02924   13.560
 4380.00    1.06210   1.02220   13.727
 4381.00    1.05871   1.00119   13.772
 4382.00    1.03379   0.96976   13.870
 4383.00    0.98146   0.93606   14.283
 4384.00    0.92147   0.90981   14.800
 4385.00    0.88791   0.89818   14.905
 4386.00    0.89985   0.90255   14.607
 4387.00    0.95167   0.91855   14.304
 4388.00    1.00760   0.93912   14.189
 4389.00    1.02745   0.95844   14.265
 4390.00    1.00789   0.97386   14.468
 4391.00    0.97603   0.98539   14.670
 4392.00    0.96915   0.99399   14.674
 4393.00    1.00465   1.00075   14.428
 4394.00    1.04713   1.00689   14.243
 4395.00    1.05445   1.01360   14.371
 4396.00    1.03785   1.02112   14.547
 4397.00    1.02905   1.02804   14.450
 4398.00    1.03508   1.03179   14.295
 4399.00    1.04828   1.03053   14.370
 4400.00    1.06201   1.02459   14.536
 4401.00    1.06688   1.01583   14.548
 4402.00    1.04756   1.00591   14.441
 4403.00    1.00294   0.99563   14.411
 4404.00    0.96138   0.98577   14.644
 4405.00    0.94992   0.97807   15.106
 4406.00    0.96820   0.97500   15.350
 4407.00    0.99915   0.97848   15.084
 4408.00    1.02146   0.98887   14.660
 4409.00    1.02775   1.00463   14.447
 4410.00    1.03373   1.02252   14.481
 4411.00    1.05382   1.03794   14.641
 4412.00    1.08520   1.04616   14.763
 4413.00    1.11445   1.04438   14.782
 4414.00    1.12495   1.03387   14.788
 4415.00    1.11223   1.02008   14.816
 4416.00    1.08943   1.01024   14.762
 4417.00    1.07028   1.00955   14.623
 4418.00    1.05996   1.01843   14.565
 4419.00    1.05614   1.03262   14.638
 4420.00    1.05113   1.04592   14.701
 4421.00    1.03842   1.05379   14.699
 4422.00    1.01764   1.05541   14.741
 4423.00    1.00286   1.05324   14.872
 4424.00    1.01628   1.05057   14.983
 4425.00    1.05231   1.04938   14.858
 4426.00    1.07687   1.04968   14.347
 4427.00    1.07337   1.05027   13.764
 4428.00    1.05252   1.04986   13.599
 4429.00    1.02994   1.04775   13.770
 4430.00    1.01737   1.04382   13.735
 4431.00    1.01951   1.03821   13.413
 4432.00    1.03339   1.03125   13.198
 4433.00    1.04906   1.02387   13.218
 4434.00    1.05672   1.01825   13.297
 4435.00    1.06320   1.01755   13.216
 4436.00    1.08147   1.02420   12.903
 4437.00    1.09700   1.03756   12.642
 4438.00    1.08400   1.05311   12.769
 4439.00    1.05670   1.06426   13.121
 4440.00    1.04937   1.06599   13.228
 4441.00    1.05516   1.05814   13.102
 4442.00    1.04445   1.04573   13.101
 4443.00    1.02063   1.03617   13.302
 4444.00    1.00921   1.03507   13.557
 4445.00    1.02142   1.04337   13.764
 4446.00    1.05246   1.05740   13.892
 4447.00    1.08879   1.07156   13.947
 4448.00    1.11335   1.08132   13.939
 4449.00    1.11200   1.08476   13.852
 4450.00    1.08400   1.08207   13.687
 4451.00    1.05315   1.07417   13.517
 4452.00    1.04251   1.06179   13.426
 4453.00    1.04290   1.04567   13.444
 4454.00    1.03518   1.02741   13.560
 4455.00    1.01968   1.00964   13.749
 4456.00    1.00577   0.99515   13.946
 4457.00    0.99742   0.98547   14.033
 4458.00    0.99486   0.98033   13.957
 4459.00    0.99762   0.97848   13.842
 4460.00    1.00352   0.97913   13.822
 4461.00    1.00833   0.98257    0.000
 4462.00    1.01373   0.98946    0.000
 4463.00    1.03140   0.99947    0.000
 4464.00    1.06096   1.01061    0.000
 4465.00    1.07721   1.01989    0.000
 4466.00    1.06715   1.02489    0.000
 4467.00    1.05217   1.02514    0.000
 4468.00    1.04930   1.02248    0.000
 4469.00    1.04876   1.02035    0.000
 4470.00    1.04509   1.02245    0.000
 4471.00    1.05237   1.03118    0.000
 4472.00    1.07475   1.04660    0.000
 4473.00    1.09428   1.06642    0.000
 4474.00    1.10026   1.08691    0.000
 4475.00    1.10133   1.10422    0.000
 4476.00    1.10542   1.11516    0.000
 4477.00    1.11087   1.11740    0.000
 4478.00    1.11258   1.10993    0.000
 4479.00    1.10599   1.09403    0.000
 4480.00    1.09075   1.07418    0.000
 4481.00    1.07191   1.05730    0.000
 4482.00    1.05859   1.04994   14.951
 4483.00    1.06071   1.05489   15.162
 4484.00    1.07994   1.06937   15.006
 4485.00    1.10768   1.08642   14.836
 4486.00    1.12922   1.09848   14.820
 4487.00    1.13019   1.10113   14.863
 4488.00    1.11101   1.09480   14.921
 4489.00    1.08435   1.08388   15.056
 4490.00    1.05617   1.07367   15.309
 4491.00    1.02692   1.06745   15.644
 4492.00    1.00790   1.06521   15.912
 4493.00    1.01311   1.06496   15.939
 4494.00    1.03089   1.06519   15.792
 4495.00    1.03645   1.06630   15.692
 4496.00    1.03325   1.07001   15.671
 4497.00    1.04463   1.07738   15.610
 4498.00    1.07876   1.08769   15.431
 4499.00    1.12543   1.09906   15.158
 4500.00    1.16420   1.11015   14.929
 4501.00    1.17850   1.12127   14.872
 4502.00    1.17625   1.13350   14.924
 4503.00    1.17564   1.14697   14.943
 4504.00    1.17751   1.15980   14.920
 4505.00    1.17219   1.16907   14.934
 4506.00    1.15622   1.17283   15.023
 4507.00    1.13612   1.17156   15.170
 4508.00    1.12903   1.16755   15.293
 4509.00    1.14475   1.16306   15.306
 4510.00    1.16496   1.15876   15.210
 4511.00    1.16810   1.15368   15.097
 4512.00    1.15944   1.14650   15.142
 4513.00    1.14967   1.13707   15.417
 4514.00    1.13025   1.12676   15.723
 4515.00    1.09569   1.11776   15.854
 4516.00    1.06566   1.11183   15.909
 4517.00    1.05940   1.10954   15.980
 4518.00    1.07175   1.11027   15.856
 4519.00    1.08787   1.11246   15.496
 4520.00    1.09807   1.11405   15.327
 4521.00    1.10103   1.11293   15.552
 4522.00    1.10373   1.10755   15.752
 4523.00    1.10734   1.09737   15.641
 4524.00    1.10005   1.08291   15.597
 4525.00    1.07897   1.06548   15.861
 4526.00    1.06045   1.04688   16.092
 4527.00    1.04930   1.02936   16.084
 4528.00    1.02663   1.01536   16.178
 4529.00    0.99407   1.00682   16.480
 4530.00    0.98812   1.00417   16.525
 4531.00    1.01727   1.00605   16.204
 4532.00    1.04136   1.01030   16.079
 4533.00    1.03946   1.01565   16.347
 4534.00    1.03406   1.02274   16.565
 4535.00    1.04410   1.03345   16.452
 4536.00    1.06615   1.04869   16.228
 4537.00    1.08950   1.06661   16.102
 4538.00    1.10451   1.08311   16.097
 4539.00    1.10878   1.09425   16.204
 4540.00    1.10706   1.09874   16.421
 4541.00    1.10317   1.09821   16.652
 4542.00    1.09817   1.09552   16.722
 4543.00    1.09414   1.09265   16.600
 4544.00    1.09255   1.08987   16.419
 4545.00    1.08580   1.08639   16.290
 4546.00    1.06362   1.08142   16.253
 4547.00    1.03753   1.07482   16.287
 4548.00    1.03221   1.06731   16.354
 4549.00    1.04675   1.06018   16.497
 4550.00    1.05903   1.05467    0.000
 4551.00    1.06039   1.05126    0.000
 4552.00    1.05596   1.04957    0.000
 4553.00    1.04714   1.04924    0.000
 4554.00    1.03272   1.05088    0.000
 4555.00    1.01887   1.05612    0.000
 4556.00    1.01587   1.06634    0.000
 4557.00    1.02814   1.08118    0.000
 4558.00    1.05458   1.09816    0.000
 4559.00    1.09221   1.11359    0.000
 4560.00    1.13242   1.12410    0.000
 4561.00    1.15502   1.12776    0.000
 4562.00    1.14553   1.12467    0.000
 4563.00    1.12056   1.11711    0.000
 4564.00    1.10669   1.10898    0.000
 4565.00    1.10711   1.10436    0.000
 4566.00    1.10953   1.10556    0.000
 4567.00    1.10247   1.11177    0.000
 4568.00    1.08655   1.11958    0.000
 4569.00    1.08306   1.12516    0.000
 4570.00    1.10654   1.12662    0.000
 4571.00    1.13691   1.12501    0.000
 4572.00    1.14994   1.12312    0.000
 4573.00    1.14864   1.12322    0.000
 4574.00    1.14126   1.12547    0.000
 4575.00    1.12078   1.12792    0.000
 4576.00    1.08835   1.12786    0.000
 4577.00    1.07045   1.12336    0.000
 4578.00    1.08058   1.11404    0.000
 4579.00    1.09343   1.10122    0.000
 4580.00    1.08848   1.08734    0.000
 4581.00    1.07922   1.07512    0.000
 4582.00    1.08203   1.06668    0.000
 4583.00    1.09510   1.06303    0.000
 4584.00    1.10771   1.06420    0.000
 4585.00    1.10861   1.06956    0.000
 4586.00    1.09484   1.07804    0.000
 4587.00    1.07517   1.08798    0.000
 4588.00    1.06139   1.09718    0.000
 4589.00    1.06192   1.10333    0.000
 4590.00    1.07414   1.10496    0.000
 4591.00    1.08479   1.10218    0.000
 4592.00    1.08823   1.09661    0.000
 4593.00    1.09133   1.09058    0.000
 4594.00    1.09825   1.08605    0.000
 4595.00    1.10551   1.08392    0.000
 4596.00    1.10851   1.08406    0.000
 4597.00    1.10438   1.08569    0.000
 4598.00    1.09230   1.08779    0.000
 4599.00    1.07417   1.08955    0.000
 4600.00    1.05602   1.09066    0.000
 4601.00    1.04573   1.09143    0.000
 4602.00    1.04450   1.09258    0.000
 4603.00    1.04790   1.09491    0.000
 4604.00    1.05582   1.09915    0.000
 4605.00    1.07122   1.10599    0.000
 4606.00    1.08941   1.11577    0.000
 4607.00    1.10161   1.12793    0.000
 4608.00    1.10962   1.14062    0.000
 4609.00    1.12199   1.15117    0.000
 4610.00    1.13787   1.15731    0.000
 4611.00    1.14953   1.15841    0.000
 4612.00    1.15468   1.15578    0.000
 4613.00    1.15679   1.15173    0.000
 4614.00    1.16065   1.14821    0.000
 4615.00    1.16793   1.14592    0.000
 4616.00    1.17125   1.14447    0.000
 4617.00    1.16247   1.14322    0.000
 4618.00    1.14679   1.14211    0.000
 4619.00    1.13401   1.14182    0.000
 4620.00    1.12281   1.14317    0.000
 4621.00    1.11035   1.14630    0.000
 4622.00    1.10750   1.15029    0.000
 4623.00    1.12406   1.15361    0.000
 4624.00    1.14845   1.15492    0.000
 4625.00    1.16287   1.15383    0.000
 4626.00    1.16350   1.15087    0.000
 4627.00    1.15593   1.14712    0.000
 4628.00    1.14743   1.14367    0.000
 4629.00    1.14269   1.14121    0.000
 4630.00    1.14081   1.13973    0.000
 4631.00    1.13867   1.13846    0.000
 4632.00    1.13475   1.13625    0.000
 4633.00    1.13128   1.13223    0.000
 4634.00    1.13452   1.12638    0.000
 4635.00    1.14285   1.11944    0.000
 4636.00    1.14015   1.11246    0.000
 4637.00    1.11830   1.10637    0.000
 4638.00    1.09116   1.10192    0.000
 4639.00    1.07322   1.09964    0.000
 4640.00    1.06517   1.09955    0.000
 4641.00    1.06024   1.10069    0.000
 4642.00    1.05084   1.10103    0.000
 4643.00    1.03986   1.09824    0.000
 4644.00    1.04200   1.09089    0.000
 4645.00    1.05612   1.07957    0.000
 4646.00    1.05831   1.06704    0.000
 4647.00    1.04304   1.05730    0.000
 4648.00    1.03513   1.05380    0.000
 4649.00    1.04909   1.05785    0.000
 4650.00    1.07433   1.06791    0.000
 4651.00    1.09472   1.08039    0.000
 4652.00    1.09948   1.09127    0.000
 4653.00    1.09129   1.09801    0.000
 4654.00    1.08399   1.10065    0.000
 4655.00    1.08362   1.10167    0.000
 4656.00    1.08598   1.10460    0.000
 4657.00    1.09143   1.11183    0.000
 4658.00    1.10567   1.12298    0.000
 4659.00    1.12674   1.13483    0.000
 4660.00    1.14411   1.14280    0.000
 4661.00    1.14783   1.14325    0.000
 4662.00    1.13253   1.13493    0.000
 4663.00    1.10058   1.11900    0.000
 4664.00    1.06183   1.09797    0.000
 4665.00    1.03061   1.07487    0.000
 4666.00    1.01805   1.05310    0.000
 4667.00    1.01740   1.03643    0.000
 4668.00    1.01359   1.02836    0.000
 4669.00    1.00888   1.03059    0.000
 4670.00    1.01563   1.04193    0.000
 4671.00    1.03307   1.05869    0.000
 4672.00    1.04979   1.07640    0.000
 4673.00    1.05626   1.09181    0.000
 4674.00    1.05120   1.10349    0.000
 4675.00    1.04748   1.11122    0.000
 4676.00    1.05784   1.11500    0.000
 4677.00    1.07325   1.11473    0.000
 4678.00    1.07690   1.11064    0.000
 4679.00    1.06758   1.10406    0.000
 4680.00    1.05682   1.09727    0.000
 4681.00    1.06031   1.09263    0.000
 4682.00    1.08607   1.09150    0.000
 4683.00    1.12272   1.09368    0.000
 4684.00    1.15162   1.09771    0.000
 4685.00    1.16187   1.10181    0.000
 4686.00    1.15414   1.10469    0.000
 4687.00    1.14158   1.10591    0.000
 4688.00    1.13598   1.10578    0.000
 4689.00    1.13544   1.10494    0.000
 4690.00    1.13192   1.10419    0.000
 4691.00    1.11933   1.10433    0.000
 4692.00    1.09873   1.10598    0.000
 4693.00    1.08048   1.10918    0.000
 4694.00    1.07203   1.11300    0.000
 4695.00    1.06999   1.11561    0.000
 4696.00    1.06911   1.11500    0.000
 4697.00    1.06807   1.10995    0.000
 4698.00    1.06484   1.10085    0.000
 4699.00    1.05484   1.08952    0.000
 4700.00    1.03880   1.07834    0.000
 4701.00    1.02607   1.06928    0.000
 4702.00    1.02617   1.06340    0.000
 4703.00    1.04261   1.06079    0.000
 4704.00    1.06534   1.06076    0.000
 4705.00    1.07348   1.06213    0.000
 4706.00    1.06396   1.06371    0.000
 4707.00    1.05693   1.06504    0.000
 4708.00    1.06240   1.06664    0.000
 4709.00    1.07128   1.06949    0.000
 4710.00    1.07760   1.07407    0.000
 4711.00    1.08454   1.07969    0.000
 4712.00    1.09330   1.08513    0.000
 4713.00    1.10096   1.08971    0.000
 4714.00    1.10700   1.09421    0.000
 4715.00    1.11437   1.10037    0.000
 4716.00    1.12554   1.10956    0.000
 4717.00    1.14031   1.12166    0.000
 4718.00    1.15311   1.13500    0.000
 4719.00    1.15689   1.14730    0.000
 4720.00    1.15496   1.15672    0.000
 4721.00    1.15630   1.16256    0.000
 4722.00    1.15733   1.16497    0.000
 4723.00    1.14724   1.16426    0.000
 4724.00    1.12951   1.16023    0.000
 4725.00    1.11642   1.15211    0.000
 4726.00    1.10830   1.13939    0.000
 4727.00    1.09704   1.12294    0.000
 4728.00    1.08084   1.10536    0.000
 4729.00    1.06401   1.09029    0.000
 4730.00    1.05150   1.08088    0.000
 4731.00    1.04796   1.07840    0.000
 4732.00    1.05748   1.08198    0.000
 4733.00    1.07967   1.08924    0.000
 4734.00    1.10431   1.09748    0.000
 4735.00    1.11913   1.10479    0.000
 4736.00    1.12137   1.11060    0.000
 4737.00    1.11394   1.11535    0.000
 4738.00    1.09866   1.11974    0.000
 4739.00    1.08002   1.12406    0.000
 4740.00    1.06962   1.12816    0.000
 4741.00    1.07455   1.13182    0.000
 4742.00    1.08520   1.13508    0.000
 4743.00    1.08790   1.13821    0.000
 4744.00    1.07914   1.14144    0.000
 4745.00    1.06607   1.14479    0.000
 4746.00    1.06368   1.14804    0.000
 4747.00    1.07584   1.15077    0.000
 4748.00    1.08271   1.15241    0.000
 4749.00    1.07257   1.15233    0.000
 4750.00    1.06398   1.14998    0.000
 4751.00    1.07096   1.14517    0.000
 4752.00    1.07996   1.13828    0.000
 4753.00    1.08067   1.13037    0.000
 4754.00    1.08442   1.12294    0.000
 4755.00    1.09866   1.11749    0.000
 4756.00    1.11286   1.11486    0.000
 4757.00    1.11701   1.11485    0.000
 4758.00    1.11188   1.11604    0.000
 4759.00    1.10193   1.11624    0.000
 4760.00    1.09088   1.11331    0.000
 4761.00    1.08027   1.10613   18.007
 4762.00    1.06997   1.09529   18.348
 4763.00    1.06316   1.08297   18.767
 4764.00    1.06585   1.07217   18.799
 4765.00    1.07514   1.06569   18.467
 4766.00    1.07886   1.06518   18.353
 4767.00    1.07380   1.07062   18.607
 4768.00    1.07008   1.08043   18.810
 4769.00    1.07989   1.09206   18.755
 4770.00    1.10928   1.10314   18.635
 4771.00    1.14527   1.11242   18.550
 4772.00    1.16352   1.12009   18.428
 4773.00    1.16448   1.12712   18.298
 4774.00    1.16970   1.13420   18.262
 4775.00    1.18000   1.14113   18.188
 4776.00    1.17713   1.14691   17.852
 4777.00    1.15992   1.15041   17.482
 4778.00    1.14241   1.15090   17.540
 4779.00    1.12612   1.14832   18.076
 4780.00    1.10376   1.14310   18.748
 4781.00    1.08229   1.13604   19.131
 4782.00    1.07648   1.12805   19.006
 4783.00    1.08513   1.12008   18.710
 4784.00    1.09527   1.11289   18.727
 4785.00    1.09970   1.10705   18.952
 4786.00    1.09731   1.10293   18.976
 4787.00    1.08799   1.10080   18.830
 4788.00    1.07420   1.10097   18.789
 4789.00    1.06487   1.10386   18.844
 4790.00    1.07037   1.10987   18.827
 4791.00    1.09387   1.11907   18.734
 4792.00    1.12834   1.13082   18.630
 4793.00    1.15524   1.14352   18.491
 4794.00    1.15858   1.15475   18.313
 4795.00    1.14267   1.16198   18.270
 4796.00    1.12407   1.16359   18.502
 4797.00    1.11858   1.15980   18.871
 4798.00    1.13116   1.15267   19.084
 4799.00    1.14793   1.14528   18.934
 4800.00    1.15180   1.14025   18.523
 4801.00    1.13922   1.13850   18.310
 4802.00    1.11914   1.13896   18.546
 4803.00    1.10842   1.13945   18.868
 4804.00    1.11278   1.13805   18.903
 4805.00    1.11389   1.13429   18.864
 4806.00    1.09955   1.12916   19.015
 4807.00    1.08536   1.12446   19.229
 4808.00    1.08591   1.12166   19.318
 4809.00    1.09452   1.12140   19.312
 4810.00    1.10232   1.12340   19.334
 4811.00    1.11100   1.12695   19.473
 4812.00    1.12290   1.13140   19.620
 4813.00    1.13469   1.13646   19.462
 4814.00    1.14113   1.14213   19.058
 4815.00    1.13850   1.14842   18.961
 4816.00    1.12977   1.15498   19.316
 4817.00    1.12470   1.16097   19.580
 4818.00    1.12601   1.16508   19.445
 4819.00    1.12539   1.16583   19.267
 4820.00    1.11755   1.16208   19.339
 4821.00    1.10544   1.15373   19.615
 4822.00    1.09353   1.14209   19.885
 4823.00    1.08440   1.12983   19.926
 4824.00    1.07726   1.11992   19.843
 4825.00    1.06962   1.11432   20.022
 4826.00    1.06453   1.11303   20.478
 4827.00    1.06951   1.11435   20.777
 4828.00    1.08385   1.11595   20.715
 4829.00    1.09837   1.11625   20.485
 4830.00    1.10848   1.11499   20.226
 4831.00    1.11503   1.11301   19.960
 4832.00    1.11523   1.11149   19.847
 4833.00    1.10470   1.11119   20.089
 4834.00    1.08947   1.11202   20.529
 4835.00    1.08265   1.11307   20.722
 4836.00    1.08845   1.11306   20.544
 4837.00    1.10056   1.11101   20.249
 4838.00    1.10777   1.10676   20.126
 4839.00    1.10072   1.10110   20.320
 4840.00    1.08283   1.09536   20.641
 4841.00    1.06652   1.09088   20.770
 4842.00    1.06141   1.08843   20.803
 4843.00    1.06858   1.08795   21.015
 4844.00    1.07510   1.08853   21.212
 4845.00    1.06543   1.08875   21.040
 4846.00    1.04118   1.08730   20.728
 4847.00    1.01653   1.08354   20.722
 4848.00    1.00586   1.07780    0.000
 4849.00    1.01380   1.07091    0.000
 4850.00    1.02499   1.06332    0.000
 4851.00    1.01959   1.05444    0.000
 4852.00    0.99483   1.04276    0.000
 4853.00    0.96238   1.02684    0.000
 4854.00    0.94086   1.00622    0.000
 4855.00    0.94071   0.98151    0.000
 4856.00    0.95043   0.95365    0.000
 4857.00    0.96051   0.92315    0.000
 4858.00    0.98677   0.89038    0.000
 4859.00    1.04390   0.85677    0.000
 4860.00    1.11953   0.82610    0.000
 4861.00    1.18800   0.80402    0.000
 4862.00    1.22561   0.79602    0.000
 4863.00    1.22053   0.80465    0.000
 4864.00    1.17879   0.82797    0.000
 4865.00    1.11549   0.86043    0.000
 4866.00    1.04746   0.89499    0.000
 4867.00    0.99126   0.92549    0.000
 4868.00    0.96043   0.94806    0.000
 4869.00    0.95459   0.96169    0.000
 4870.00    0.95612   0.96799    0.000
 4871.00    0.95140   0.97048    0.000
 4872.00    0.94211   0.97326    0.000
 4873.00    0.93596   0.97953    0.000
 4874.00    0.94029   0.99053    0.000
 4875.00    0.95792   1.00555   22.286
 4876.00    0.98557   1.02276   21.086
 4877.00    1.01619   1.04006   19.834
 4878.00    1.04139   1.05565   21.444
 4879.00    1.05677   1.06794   23.216
 4880.00    1.06345   1.07566   16.747
 4881.00    1.06447   1.07816   10.796
 4882.00    1.06270   1.07570    8.928
 4883.00    1.05852   1.06945    9.156
 4884.00    1.05030   1.06112    9.676
 4885.00    1.03893   1.05240    9.674
 4886.00    1.02835   1.04455    9.765
 4887.00    1.02244   1.03819    9.917
 4888.00    1.02320   1.03361    9.467
 4889.00    1.02894   1.03134    9.272
 4890.00    1.03563   1.03267   11.143
 4891.00    1.04216   1.03956   16.563
 4892.00    1.05037   1.05352   21.230
 4893.00    1.06180   1.07426   19.235
 4894.00    1.07733   1.09900   17.785
 4895.00    1.09821   1.12317   18.372
 4896.00    1.12289   1.14217   18.614
 4897.00    1.14034   1.15311   18.043
 4898.00    1.13849   1.15564   17.964
 4899.00    1.12233   1.15165   18.501
 4900.00    1.10623   1.14426   18.915
 4901.00    1.09423   1.13666   18.948
 4902.00    1.08312   1.13120   18.859
 4903.00    1.07339   1.12899   18.835
 4904.00    1.06957   1.12971   18.920
 4905.00    1.07760   1.13179   19.080
 4906.00    1.09761   1.13292   19.228
 4907.00    1.11515   1.13095   19.243
 4908.00    1.11480   1.12506   19.116
 4909.00    1.09887   1.11644   19.075
 4910.00    1.08204   1.10797   19.276
 4911.00    1.08088   1.10282   19.434
 4912.00    1.09947   1.10274   19.304
 4913.00    1.11693   1.10694   19.249
 4914.00    1.11235   1.11208   19.591
 4915.00    1.09032   1.11361   19.965
 4916.00    1.06414   1.10757   19.982
 4917.00    1.03811   1.09244   19.964
 4918.00    1.01452   1.07004   20.212
 4919.00    1.00024   1.04516   20.368
 4920.00    0.99882   1.02381   20.172
 4921.00    1.00474   1.01102   20.069
 4922.00    1.01367   1.00917   20.318
 4923.00    1.02931   1.01781   20.441
 4924.00    1.05471   1.03460   20.137
 4925.00    1.08595   1.05652   19.875
 4926.00    1.11315   1.08073   19.954
 4927.00    1.12340   1.10452   20.074
 4928.00    1.11275   1.12521   20.075
 4929.00    1.09136   1.14027   20.265
 4930.00    1.07181   1.14789   20.670
 4931.00    1.06151   1.14755   20.748
 4932.00    1.05865   1.14031   20.450
 4933.00    1.05346   1.12846   20.509
 4934.00    1.04319   1.11469   21.103
 4935.00    1.03555   1.10128   21.491
 4936.00    1.03251   1.08966   21.304
 4937.00    1.02743   1.08091   21.059
 4938.00    1.02172   1.07626   21.119
 4939.00    1.02705   1.07714   21.378
 4940.00    1.04783   1.08443    0.000
 4941.00    1.07649   1.09740    0.000
 4942.00    1.09974   1.11353    0.000
 4943.00    1.10596   1.12950    0.000
 4944.00    1.10038   1.14259    0.000
 4945.00    1.10004   1.15177    0.000
 4946.00    1.10598   1.15768    0.000
 4947.00    1.10573   1.16173    0.000
 4948.00    1.10170   1.16508    0.000
 4949.00    1.10811   1.16794    0.000
 4950.00    1.12498   1.16957    0.000
 4951.00    1.13827   1.16866    0.000
 4952.00    1.13545   1.16391    0.000
 4953.00    1.11286   1.15449    0.000
 4954.00    1.08300   1.14043    0.000
 4955.00    1.06402   1.12309    0.000
 4956.00    1.05701   1.10538    0.000
 4957.00    1.05197   1.09128    0.000
 4958.00    1.04621   1.08453    0.000
 4959.00    1.04475   1.08680    0.000
 4960.00    1.05507   1.09670    0.000
 4961.00    1.07886   1.11014    0.000
 4962.00    1.10175   1.12209    0.000
 4963.00    1.10770   1.12881    0.000
 4964.00    1.10081   1.12907    0.000
 4965.00    1.09461   1.12414    0.000
 4966.00    1.09429   1.11680    0.000
 4967.00    1.09846   1.11011    0.000
 4968.00    1.10407   1.10640    0.000
 4969.00    1.10770   1.10686    0.000
 4970.00    1.10628   1.11140    0.000
 4971.00    1.09711   1.11899    0.000
 4972.00    1.07827   1.12795    0.000
 4973.00    1.05522   1.13630    0.000
 4974.00    1.04503   1.14206    0.000
 4975.00    1.05714   1.14359    0.000
 4976.00    1.07806   1.13986    0.000
 4977.00    1.08934   1.13060    0.000
 4978.00    1.08373   1.11622    0.000
 4979.00    1.06626   1.09773    0.000
 4980.00    1.05188   1.07677    0.000
 4981.00    1.04823   1.05561    0.000
 4982.00    1.04608   1.03727    0.000
 4983.00    1.03600   1.02491    0.000
 4984.00    1.01960   1.02100    0.000
 4985.00    1.00780   1.02617    0.000
 4986.00    1.01568   1.03868    0.000
 4987.00    1.04156   1.05493    0.000
 4988.00    1.06202   1.07078    0.000
 4989.00    1.06607   1.08311    0.000
 4990.00    1.06744   1.09078    0.000
 4991.00    1.07826   1.09451    0.000
 4992.00    1.09772   1.09604    0.000
 4993.00    1.11985   1.09704    0.000
 4994.00    1.13717   1.09825    0.000
 4995.00    1.14107   1.09927    0.000
 4996.00    1.12470   1.09885    0.000
 4997.00    1.09317   1.09559    0.000
 4998.00    1.06263   1.08866    0.000
 4999.00    1.04433   1.07836    0.000
 5000.00    1.03939   1.06600    0.000
 5001.00    1.04071   1.05335    0.000
 5002.00    1.03904   1.04193    0.000
 5003.00    1.03835   1.03264    0.000
 5004.00    1.05182   1.02588    0.000
 5005.00    1.07943   1.02204    0.000
 5006.00    1.10728   1.02158    0.000
 5007.00    1.12148   1.02451    0.000
 5008.00    1.11447   1.02972    0.000
 5009.00    1.09110   1.03477    0.000
 5010.00    1.06472   1.03677    0.000
 5011.00    1.04608   1.03377    0.000
 5012.00    1.03930   1.02591    0.000
 5013.00    1.03888   1.01530    0.000
 5014.00    1.03511   1.00501    0.000
 5015.00    1.02464   0.99758    0.000
 5016.00    1.01088   0.99418    0.000
 5017.00    1.00120   0.99472    0.000
 5018.00    1.00065   0.99836    0.000
 5019.00    1.00359   1.00423    0.000
 5020.00    1.00202   1.01167    0.000
 5021.00    0.99876   1.02020    0.000
 5022.00    1.00031   1.02930    0.000
 5023.00    1.00544   1.03832    0.000
 5024.00    1.00971   1.04652    0.000
 5025.00    1.01274   1.05340    0.000
 5026.00    1.01712   1.05889    0.000
 5027.00    1.02598   1.06358    0.000
 5028.00    1.04017   1.06857    0.000
 5029.00    1.05589   1.07490   21.840
 5030.00    1.06860   1.08281   21.807
 5031.00    1.07680   1.09125   21.929
 5032.00    1.08082   1.09811   22.165
 5033.00    1.08109   1.10104   22.317
 5034.00    1.07583   1.09835   22.298
 5035.00    1.06049   1.08963   22.330
 5036.00    1.03792   1.07574   22.507
 5037.00    1.02323   1.05851   22.530
 5038.00    1.02211   1.04032   22.279
 5039.00    1.01910   1.02394   22.146
 5040.00    1.00446   1.01239   22.373
 5041.00    0.98904   1.00857   22.723
 5042.00    0.98352   1.01420   22.884
 5043.00    0.98709   1.02867   22.768
 5044.00    0.99758   1.04848   22.533
 5045.00    1.01607   1.06819   22.461
 5046.00    1.03981   1.08253   22.532
 5047.00    1.05978   1.08841   22.370
 5048.00    1.06800   1.08603   21.956
 5049.00    1.06172   1.07846   21.766
 5050.00    1.04640   1.07011   22.028
 5051.00    1.03393   1.06499   22.525
 5052.00    1.03121   1.06541   22.892
 5053.00    1.03719   1.07148   22.826
 5054.00    1.04980   1.08170   22.447
 5055.00    1.06749   1.09391   22.199
 5056.00    1.08556   1.10615   22.223
 5057.00    1.09759   1.11709   22.317
 5058.00    1.10379   1.12608   22.325
 5059.00    1.11066   1.13262   22.232
 5060.00    1.12189   1.13604   22.040
 5061.00    1.13499   1.13541   21.793
 5062.00    1.13995   1.13007   21.723
 5063.00    1.12554   1.12020   22.070
 5064.00    1.09525   1.10716   22.562
 5065.00    1.06352   1.09332   22.622
 5066.00    1.03814   1.08127   22.386
 5067.00    1.02041   1.07279   22.419
 5068.00    1.01418   1.06834   22.616
 5069.00    1.02178   1.06709   22.514
 5070.00    1.03279   1.06760   22.346
 5071.00    1.03450   1.06855   22.631
 5072.00    1.03378   1.06912   23.139
 5073.00    1.04477   1.06891   23.251
 5074.00    1.06228   1.06766   23.049
 5075.00    1.07085   1.06497   22.999
 5076.00    1.06561   1.06009   23.130
 5077.00    1.05236   1.05242   23.220
 5078.00    1.04260   1.04224   23.220
 5079.00    1.04268   1.03112   23.215
 5080.00    1.04185   1.02144   23.291
 5081.00    1.02937   1.01574   23.469
 5082.00    1.01599   1.01569   23.643
 5083.00    1.01625   1.02140   23.661
 5084.00    1.02685   1.03142   23.447
 5085.00    1.03890   1.04366   23.076
 5086.00    1.05247   1.05618   22.784
 5087.00    1.06875   1.06770   22.730
 5088.00    1.08169   1.07766   22.823
 5089.00    1.08621   1.08619   22.901
 5090.00    1.08562   1.09361   22.905
 5091.00    1.08727   1.09982   22.855
 5092.00    1.09744   1.10412   22.805
 5093.00    1.11372   1.10535   22.784
 5094.00    1.12160   1.10231   22.756
 5095.00    1.11013   1.09438   22.659
 5096.00    1.08241   1.08219   22.444
 5097.00    1.04923   1.06786   22.164
 5098.00    1.02335   1.05453   21.984
 5099.00    1.01325   1.04519   21.972
 5100.00    1.01979   1.04161   22.022
 5101.00    1.03809   1.04365   22.076
 5102.00    1.05949   1.04922   22.200
 5103.00    1.07548   1.05532   22.298
 5104.00    1.08042   1.05920   22.070
 5105.00    1.07480   1.05954   21.572
 5106.00    1.06469   1.05657   21.272
 5107.00    1.05311   1.05177   21.340
 5108.00    1.03856   1.04724   21.528
 5109.00    1.02478   1.04495   21.642
 5110.00    1.02129   1.04619   21.699
 5111.00    1.03031   1.05124   21.721
 5112.00    1.04502   1.05950   21.698
 5113.00    1.06111   1.06981   21.717
 5114.00    1.07873   1.08075   21.919
 5115.00    1.09582   1.09088   22.218
 5116.00    1.10751   1.09895   22.337
 5117.00    1.11099   1.10385   22.280
 5118.00    1.10703   1.10457   22.311
 5119.00    1.10020   1.10041   22.503
 5120.00    1.09586   1.09132   22.719
 5121.00    1.09286   1.07805   22.851
 5122.00    1.08559   1.06227   22.880
 5123.00    1.07281   1.04617   22.820
 5124.00    1.05730   1.03191   22.740
 5125.00    1.04078   1.02112   22.814
 5126.00    1.02348   1.01451   23.180
 5127.00    1.00565   1.01195   23.629
 5128.00    0.98943   1.01285   23.798
 5129.00    0.98125   1.01653   23.734
 5130.00    0.98713   1.02239   23.672
 5131.00    1.00409   1.02976   23.449
 5132.00    1.02310   1.03777   22.893
 5133.00    1.03610   1.04531   22.469
 5134.00    1.04014   1.05107   22.666
 5135.00    1.04136   1.05387   23.238
 5136.00    1.04668   1.05312   23.595
 5137.00    1.05252   1.04912   23.555
 5138.00    1.05151   1.04297   23.344
 5139.00    1.04245   1.03628   23.322
 5140.00    1.02890   1.03048   23.689
 5141.00    1.01607   1.02630   24.228
 5142.00    1.00748   1.02386   24.533
 5143.00    1.00206   1.02275   24.382
 5144.00    0.99664   1.02227   23.898
 5145.00    0.98906   1.02196   23.519
 5146.00    0.98164   1.02156   23.482
 5147.00    0.98279   1.02099   23.514
 5148.00    0.99557   1.02047   23.328
 5149.00    1.00954   1.01996   23.037
 5150.00    1.01291   1.01924   22.894
 5151.00    1.00278   1.01854   23.072
 5152.00    0.98671   1.01861   23.560
 5153.00    0.98084   1.02040   24.080
 5154.00    0.99271   1.02490   24.276
 5155.00    1.01266   1.03258   23.951
 5156.00    1.03043   1.04299   23.331
 5157.00    1.04463   1.05464   22.978
 5158.00    1.05647   1.06513   23.078
 5159.00    1.06593   1.07205   23.259
 5160.00    1.07215   1.07349   23.245
 5161.00    1.07385   1.06812   23.137
 5162.00    1.06954   1.05531   22.995
 5163.00    1.05750   1.03513   22.713
 5164.00    1.03498   1.00844   22.384
 5165.00    0.99969   0.97725   22.331
 5166.00    0.95719   0.94461   22.698
 5167.00    0.91982   0.91427   23.368
 5168.00    0.89160   0.88985   24.153
 5169.00    0.86675   0.87350   24.856
 5170.00    0.84493   0.86585   25.276
 5171.00    0.83352   0.86665   25.282
 5172.00    0.83758   0.87524   24.999
 5173.00    0.85686   0.89094   24.710
 5174.00    0.88693   0.91277   24.484
 5175.00    0.92049   0.93871   24.228
 5176.00    0.94996   0.96525   24.041
 5177.00    0.96969   0.98814   24.119
 5178.00    0.97948   1.00305   24.312
 5179.00    0.98189   1.00666   24.268
 5180.00    0.97414   0.99831   24.038
 5181.00    0.95154   0.98091   23.931
 5182.00    0.91874   0.95998   23.908
 5183.00    0.88874   0.94175   23.749
 5184.00    0.87599   0.93165   23.589
 5185.00    0.88974   0.93278   23.679
 5186.00    0.92500   0.94467   23.823
 5187.00    0.96680   0.96340   23.700
 5188.00    1.00041   0.98334   23.599
 5189.00    1.01704   0.99933   23.934
 5190.00    1.01964   1.00817    0.000
 5191.00    1.01567   1.00971    0.000
 5192.00    1.00604   1.00666    0.000
 5193.00    0.99141   1.00280    0.000
 5194.00    0.98213   1.00126    0.000
 5195.00    0.98887   1.00355    0.000
 5196.00    1.00987   1.00987    0.000
 5197.00    1.03538   1.01942    0.000
 5198.00    1.05495   1.03015    0.000
 5199.00    1.06417   1.03935    0.000
 5200.00    1.06965   1.04484    0.000
 5201.00    1.07542   1.04509    0.000
 5202.00    1.07089   1.03906    0.000
 5203.00    1.04810   1.02699    0.000
 5204.00    1.01661   1.01063    0.000
 5205.00    0.98782   0.99285    0.000
 5206.00    0.96209   0.97717    0.000
 5207.00    0.93958   0.96687    0.000
 5208.00    0.92824   0.96416    0.000
 5209.00    0.93450   0.96969    0.000
 5210.00    0.95649   0.98246    0.000
 5211.00    0.98574   0.99980   24.331
 5212.00    1.01022   1.01805   24.168
 5213.00    1.02363   1.03415   23.707
 5214.00    1.02948   1.04640   23.279
 5215.00    1.03191   1.05454   23.212
 5216.00    1.03163   1.05996   23.608
 5217.00    1.03296   1.06477   24.089
 5218.00    1.04446   1.07046   23.829
 5219.00    1.06416   1.07694   22.925
 5220.00    1.07672   1.08244   22.495
 5221.00    1.07315   1.08410   22.932
 5222.00    1.05762   1.07926   23.652
 5223.00    1.03791   1.06700   24.002
 5224.00    1.02049   1.04897   23.774
 5225.00    1.00756   1.02908   23.288
 5226.00    0.99723   1.01209   23.086
 5227.00    0.98809   1.00198   23.248
 5228.00    0.98054   1.00065   23.428
 5229.00    0.97602   1.00721   23.530
 5230.00    0.97658   1.01845   23.741
 5231.00    0.98447   1.03052   23.910
 5232.00    1.00068   1.04055   23.624
 5233.00    1.02167   1.04744   23.020
 5234.00    1.04086   1.05237   22.615
 5235.00    1.05495   1.05795   22.533
 5236.00    1.06478   1.06585   22.554
 5237.00    1.07368   1.07617   22.494
 5238.00    1.08399   1.08775   22.331
 5239.00    1.09093   1.09859   22.285
 5240.00    1.08869   1.10703   22.545
 5241.00    1.08448   1.11235   22.725
 5242.00    1.09017   1.11462   22.333
 5243.00    1.10224   1.11410   21.884
 5244.00    1.10850   1.11086   22.141
 5245.00    1.10542   1.10489   22.857
 5246.00    1.09513   1.09636   23.226
 5247.00    1.07641   1.08616   23.116
 5248.00    1.05019   1.07576   22.912
 5249.00    1.02874   1.06658   22.795
 5250.00    1.02345   1.05989   22.712
 5251.00    1.02750   1.05680   22.490
 5252.00    1.02738   1.05760   22.057
 5253.00    1.01984   1.06149   21.644
 5254.00    1.01258   1.06770   21.458
 5255.00    1.02104   1.07590   21.373
 5256.00    1.04941   1.08495   21.162
 5257.00    1.07391   1.09270   20.754
 5258.00    1.07469   1.09672   20.268
 5259.00    1.06582   1.09468   19.955
 5260.00    1.06417   1.08481   19.934
 5261.00    1.06082   1.06642   20.031
 5262.00    1.04289   1.04096   20.079
 5263.00    1.01312   1.01196   20.154
 5264.00    0.98363   0.98364   20.326
 5265.00    0.96806   0.95952   20.466
 5266.00    0.96825   0.94161   20.479
 5267.00    0.96854   0.93052   20.473
 5268.00    0.96029   0.92595   20.602
 5269.00    0.95493   0.92714   20.944
 5270.00    0.96006   0.93354   21.459
 5271.00    0.96729   0.94468   21.954
 5272.00    0.97037   0.95947   22.204
 5273.00    0.97382   0.97694   22.100
 5274.00    0.98169   0.99677   21.789
 5275.00    0.99259   1.01740   21.614
 5276.00    1.00618   1.03620   21.661
 5277.00    1.02465   1.05190   21.688
 5278.00    1.04485   1.06432   21.586
 5279.00    1.05781   1.07275   21.515
 5280.00    1.06133   1.07688   21.518
 5281.00    1.06250   1.07736   21.456
 5282.00    1.06713   1.07577   21.370
 5283.00    1.07598   1.07533   21.474
 5284.00    1.08645   1.07922   21.700
 5285.00    1.09512   1.08860   21.704
 5286.00    1.10392   1.10244   21.435
 5287.00    1.11816   1.11823   21.183
 5288.00    1.13500   1.13326   21.101
 5289.00    1.14430   1.14522   21.157
 5290.00    1.14047   1.15212   21.335
 5291.00    1.12643   1.15330   21.638
 5292.00    1.11461   1.14942   21.937
 5293.00    1.11728   1.14120   22.040
 5294.00    1.12392   1.12904   21.994
 5295.00    1.11164   1.11371   22.014
 5296.00    1.07862   1.09707   22.183
 5297.00    1.04220   1.08175   22.429
 5298.00    1.02041   1.07031   22.626
 5299.00    1.02220   1.06447   22.693
 5300.00    1.03752   1.06506   22.743
 5301.00    1.04924   1.07199   22.934
 5302.00    1.05605   1.08398   23.168
 5303.00    1.06505   1.09843   23.211
 5304.00    1.07433   1.11251   23.023
 5305.00    1.07900   1.12478   22.761
 5306.00    1.08342   1.13510   22.690
 5307.00    1.09331   1.14321   22.908
 5308.00    1.10347   1.14874   23.045
 5309.00    1.10840   1.15181   22.779
 5310.00    1.11645   1.15292   22.526
 5311.00    1.13537   1.15235   22.732
 5312.00    1.15504   1.14993   23.102
 5313.00    1.16065   1.14538   23.181
 5314.00    1.14861   1.13888   23.100
 5315.00    1.12424   1.13154   23.163
 5316.00    1.09736   1.12471   23.358
 5317.00    1.07872   1.11925   23.495
 5318.00    1.07632   1.11534   23.405
 5319.00    1.08907   1.11227   23.100
 5320.00    1.10351   1.10903   22.838
 5321.00    1.10824   1.10441   22.810
 5322.00    1.10431   1.09674   22.945
 5323.00    1.09644   1.08485   23.066
 5324.00    1.08618   1.06919   23.030
 5325.00    1.07216   1.05129   22.907
 5326.00    1.05175   1.03330   23.014
 5327.00    1.02770   1.01806   23.414
 5328.00    1.01018   1.00868   23.679
 5329.00    1.00530   1.00724   23.521
 5330.00    1.00964   1.01380   23.164
 5331.00    1.01768   1.02728   22.982
 5332.00    1.02603   1.04601   23.240
 5333.00    1.03411   1.06649   23.782
 5334.00    1.04359   1.08372   23.997
 5335.00    1.05492   1.09453   23.731
 5336.00    1.06626   1.09897   23.527
 5337.00    1.07570   1.09851   23.578
 5338.00    1.08227   1.09450   23.534
 5339.00    1.08621   1.08852   23.242
 5340.00    1.08930   1.08274   22.928
 5341.00    1.09567   1.07922   22.787
 5342.00    1.10945   1.07874   22.859
 5343.00    1.12614   1.08076   23.050
 5344.00    1.13482   1.08437   23.168
 5345.00    1.13279   1.08836   23.086
 5346.00    1.12598   1.09110   22.828
 5347.00    1.11790   1.09223   22.632
 5348.00    1.10859   1.09322   22.777
 5349.00    1.10028   1.09611   23.170
 5350.00    1.09759   1.10225   23.433
 5351.00    1.10463   1.11162   23.408
 5352.00    1.12196   1.12349   23.180
 5353.00    1.14182   1.13710   22.767
 5354.00    1.15329   1.15100   22.251
 5355.00    1.15428   1.16317   22.106
 5356.00    1.15075   1.17225   22.705
 5357.00    1.15055   1.17780   23.319
 5358.00    1.15818   1.17952   22.887
 5359.00    1.16820   1.17690   22.166
 5360.00    1.16978   1.17011   -2.000
 5361.00    1.15572   1.16014   -2.000
 5362.00    1.12471   1.14811   -2.000
 5363.00    1.08253   1.13515   -2.000
 5364.00    1.04120   1.12216   -2.000
 5365.00    1.01709   1.10967   -2.000
 5366.00    1.02057   1.09785   -2.000
 5367.00    1.04402   1.08653   -2.000
 5368.00    1.07079   1.07574   -2.000
 5369.00    1.08757   1.06646   -2.000
 5370.00    1.08998   1.06029   -2.000
 5371.00    1.08628   1.05877   -2.000
 5372.00    1.08864   1.06297   -2.000
 5373.00    1.10345   1.07299   -2.000
 5374.00    1.12690   1.08773   21.893
 5375.00    1.14358   1.10465   22.465
 5376.00    1.14499   1.12003   22.753
 5377.00    1.14277   1.13063   22.688
 5378.00    1.14712   1.13552   22.492
 5379.00    1.15123   1.13584   22.418
 5380.00    1.14866   1.13348   22.564
 5381.00    1.14490   1.13020   22.790
 5382.00    1.14384   1.12713   22.934
 5383.00    1.13983   1.12485   22.963
 5384.00    1.12849   1.12373   22.916
 5385.00    1.11326   1.12350   22.845
 5386.00    1.10152   1.12311   22.801
 5387.00    1.10060   1.12153   22.817
 5388.00    1.10968   1.11794   22.863
 5389.00    1.11779   1.11179   22.852
 5390.00    1.11496   1.10366   22.750
 5391.00    1.09833   1.09455   22.630
 5392.00    1.07393   1.08515   22.632
 5393.00    1.05427   1.07626   22.894
 5394.00    1.04550   1.06849   23.344
 5395.00    1.04427   1.06198   23.654
 5396.00    1.04665   1.05702   23.588
 5397.00    1.05073   1.05419   23.215
 5398.00    1.05303   1.05357   22.973
 5399.00    1.04973   1.05435   23.353
 5400.00    1.04469   1.05559   24.024
 5401.00    1.04677   1.05627   23.933
 5402.00    1.05438   1.05427   23.141
 5403.00    1.05673   1.04816   22.715
 5404.00    1.05068   1.03914   23.029
 5405.00    1.04215   1.02959   23.742
 5406.00    1.03740   1.02157   24.318
 5407.00    1.03899   1.01712   24.331
 5408.00    1.04188   1.01802   24.018
 5409.00    1.03884   1.02440   23.945
 5410.00    1.03373   1.03468   24.116
 5411.00    1.03778   1.04667   24.155
 5412.00    1.05611   1.05917   24.010
 5413.00    1.08512   1.07228   23.894
 5414.00    1.11321   1.08587   23.878
 5415.00    1.12897   1.09824   23.909
 5416.00    1.13443   1.10763   23.945
 5417.00    1.13854   1.11386   23.968
 5418.00    1.14349   1.11752   23.973
 5419.00    1.14620   1.11880   23.993
 5420.00    1.14398   1.11745   24.127
 5421.00    1.13619   1.11402   24.348
 5422.00    1.12550   1.11002   24.250
 5423.00    1.11667   1.10671   23.646
 5424.00    1.11453   1.10433   23.208
 5425.00    1.11946   1.10235   23.498
 5426.00    1.12321   1.09977   24.058
 5427.00    1.11878   1.09629   24.182
 5428.00    1.11072   1.09215   23.977
 5429.00    1.10471   1.08665   23.838
 5430.00    1.09704   1.07903   23.777
 5431.00    1.08387   1.07021   23.704
 5432.00    1.06987   1.06266   23.698
 5433.00    1.06124   1.05935   23.856
 5434.00    1.05962   1.06084   24.142
 5435.00    1.06660   1.06565   24.385
 5436.00    1.08650   1.07389   24.321
 5437.00    1.11674   1.08632   23.898
 5438.00    1.14326   1.10195   23.417
 5439.00    1.15783   1.11822   23.142
 5440.00    1.16758   1.13188   23.091
 5441.00    1.17872   1.14012   23.164
 5442.00    1.18696   1.14119   23.228
 5443.00    1.18429   1.13533   23.235
 5444.00    1.16512   1.12450   23.261
 5445.00    1.13618   1.11148   23.291
 5446.00    1.11681   1.09915   23.157
 5447.00    1.11587   1.08991   22.823
 5448.00    1.12388   1.08536   22.467
 5449.00    1.13100   1.08576   22.268
 5450.00    1.13456   1.08978   22.295
 5451.00    1.13522   1.09438   22.411
 5452.00    1.13433   1.09602   22.352
 5453.00    1.13109   1.09363   22.248
 5454.00    1.12327   1.08893   22.579
 5455.00    1.11350   1.08444   23.362
 5456.00    1.10928   1.08209   23.989
 5457.00    1.11514   1.08260   23.959
 5458.00    1.13003   1.08576   23.337
 5459.00    1.14761   1.09093   22.700
 5460.00    1.15980   1.09595   22.621
 5461.00    1.16598   1.09804   22.838
 5462.00    1.17157   1.09678   22.570
 5463.00    1.17750   1.09414   21.963
 5464.00    1.18135   1.09229   21.801
 5465.00    1.18626   1.09221   22.225
 5466.00    1.19694   1.09415   22.659
 5467.00    1.20643   1.09772   22.115
 5468.00    1.20388   1.10074   20.653
 5469.00    1.19530   1.10120   20.852
 5470.00    1.19294   1.09923   -2.000
 5471.00    1.18850   1.09481   -2.000
 5472.00    1.17142   1.08729   -2.000
 5473.00    1.16661   1.07756   -2.000
 5474.00    1.18883   1.06758   -2.000
 5475.00    1.16408   1.05839   -2.000
 5476.00    1.00482   1.05063   -2.000
 5477.00    0.73817   1.04573   -2.000
 5478.00    0.50421   1.04419   -2.000
 5479.00    0.51347   1.04568   -2.000
 5480.00    0.82771   1.05108   -2.000
 5481.00    1.12213   1.05986   -2.000
 5482.00    1.10286   1.06870   -2.000
 5483.00    0.99256   1.07564   -2.000
 5484.00    1.08932   1.08161   -2.000
 5485.00    1.26140   1.08761   -2.000
 5486.00    1.29141   1.09259   -2.000
 5487.00    1.25045   1.09552   -2.000
 5488.00    1.26647   1.09639   -2.000
 5489.00    1.29301   1.09569   -2.000
 5490.00    1.26049   1.09487   -2.000
 5491.00    1.21123   1.09547   -2.000
 5492.00    1.19823   1.09690   -2.000
 5493.00    1.20359   1.09768    8.313
 5494.00    1.19755   1.09797    8.378
 5495.00    1.18292   1.09798    8.439
 5496.00    1.16997   1.09742    8.468
 5497.00    1.15867   1.09678    8.680
 5498.00    1.14715   1.09603    8.954
 5499.00    1.13717   1.09434    8.630
 5500.00    1.13110   1.09190    8.212
 5501.00    1.12984   1.08945    9.545
 5502.00    1.13199   1.08628   15.531
 5503.00    1.13426   1.08158   27.464
 5504.00    1.13498   1.07680   26.740
 5505.00    1.13560   1.07371   21.749
 5506.00    1.13915   1.07232   21.595
 5507.00    1.14775   1.07146   22.861
 5508.00    1.15548   1.07020   22.808
 5509.00    1.15003   1.06872   22.305
 5510.00    1.13052   1.06788   22.435
 5511.00    1.10936   1.06723   23.172
 5512.00    1.09379   1.06608   23.957
 5513.00    1.08264   1.06559   24.051
 5514.00    1.07801   1.06731   23.639
 5515.00    1.08598   1.07187   23.618
 5516.00    1.10672   1.07945   23.910
 5517.00    1.13292   1.08898   23.639
 5518.00    1.15418   1.09875   22.992
 5519.00    1.16207   1.10737   22.920
 5520.00    1.15936   1.11387   23.395
 5521.00    1.15645   1.11745   23.583
 5522.00    1.15721   1.11725   23.240
 5523.00    1.15864   1.11331   22.828
 5524.00    1.15775   1.10659   22.734
 5525.00    1.15230   1.09840   22.914
 5526.00    1.13927   1.09001   22.488
 5527.00    1.11826   1.08252   21.307
 5528.00    1.09824   1.07703   22.168
 5529.00    1.09145   1.07447   27.400
 5530.00    1.10074   1.07486   25.325
 5531.00    1.12075   1.07785   14.001
 5532.00    1.14325   1.08276    9.055
 5533.00    1.16025   1.08745    8.078
 5534.00    1.16709   1.09032    8.508
 5535.00    1.16379   1.09210    8.732
 5536.00    1.15588   1.09422    8.652
 5537.00    1.15057   1.09729    8.825
 5538.00    1.15164   1.10137    8.711
 5539.00    1.15733   1.10599    8.108
 5540.00    1.15929   1.10986    8.589
 5541.00    1.15003   1.11229   12.560
 5542.00    1.13092   1.11344   23.694
 5543.00    1.10843   1.11356   28.264
 5544.00    1.08932   1.11307   23.408
 5545.00    1.07884   1.11284   22.161
 5546.00    1.07921   1.11406   23.512
 5547.00    1.08781   1.11730   23.327
 5548.00    1.09672   1.12162   22.359
 5549.00    1.10152   1.12579   22.419
 5550.00    1.10683   1.12912   23.089
 5551.00    1.11449   1.13076   23.496
 5552.00    1.11630   1.13008   23.629
 5553.00    1.10614   1.12748   23.784
 5554.00    1.08799   1.12386   24.024
 5555.00    1.07186   1.12000   24.227
 5556.00    1.06908   1.11658   24.188
 5557.00    1.08159   1.11397   23.946
 5558.00    1.09849   1.11199   23.842
 5559.00    1.11028   1.10983   23.902
 5560.00    1.11558   1.10703   23.705
 5561.00    1.11505   1.10359   23.258
 5562.00    1.10879   1.09957   23.155
 5563.00    1.09909   1.09501   23.504
 5564.00    1.09061   1.09029   23.699
 5565.00    1.08527   1.08588   23.401
 5566.00    1.08121   1.08251   22.909
 5567.00    1.07731   1.08042   22.588
 5568.00    1.07458   1.07879   22.595
 5569.00    1.07472   1.07774   22.745
 5570.00    1.07902   1.07803   22.634
 5571.00    1.08689   1.07915   22.302
 5572.00    1.09600   1.08078   22.171
 5573.00    1.10448   1.08344   22.268
 5574.00    1.11186   1.08660   22.246
 5575.00    1.11979   1.08970   22.041
 5576.00    1.12971   1.09378   21.890
 5577.00    1.13647   1.09841   21.882
 5578.00    1.13225   1.10169   21.945
 5579.00    1.11957   1.10349   22.060
 5580.00    1.10825   1.10406   22.204
 5581.00    1.10163   1.10246   22.118
 5582.00    1.09646   1.09802   21.558
 5583.00    1.08910   1.09047   20.853
 5584.00    1.07878   1.07987   20.459
 5585.00    1.07115   1.06739   20.224
 5586.00    1.07252   1.05460   19.807
 5587.00    1.07917   1.04256   19.408
 5588.00    1.08200   1.03263   19.345
 5589.00    1.07702   1.02639   19.355
 5590.00    1.06499   1.02493   19.089
 5591.00    1.04854   1.02841   18.932
 5592.00    1.03417   1.03569   19.368
 5593.00    1.03462   1.04453   20.053
 5594.00    1.05661   1.05254   20.340
 5595.00    1.08590   1.05864   20.340
 5596.00    1.10210   1.06270   20.504
 5597.00    1.09832   1.06476   20.841
 5598.00    1.07909   1.06485   21.176
 5599.00    1.05511   1.06259   21.540
 5600.00    1.03658   1.05891   21.985
 5601.00    1.02728   1.05681   22.329
 5602.00    1.02839   1.05860   22.415
 5603.00    1.04212   1.06426   22.395
 5604.00    1.06758   1.07321   22.459
 5605.00    1.09730   1.08513   22.579
 5606.00    1.12025   1.09881   22.660
 5607.00    1.12589   1.11192   22.676
 5608.00    1.11377   1.12210   22.689
 5609.00    1.09827   1.12812   22.824
 5610.00    1.09257   1.12945   23.042
 5611.00    1.09787   1.12591   23.046
 5612.00    1.10763   1.11843   22.758
 5613.00    1.11208   1.10863   22.535
 5614.00    1.10643   1.09769   22.600
 5615.00    1.09445   1.08644   22.809
 5616.00    1.08209   1.07607   22.957
 5617.00    1.07389   1.06849   22.959
 5618.00    1.07304   1.06601   22.836
 5619.00    1.08098   1.06844   22.686
 5620.00    1.09480   1.07199   22.601
 5621.00    1.10698   1.07366   22.618
 5622.00    1.10915   1.07378   22.629
 5623.00    1.09563   1.07340   22.461
 5624.00    1.07036   1.07279   22.338
 5625.00    1.04697   1.07223   22.760
 5626.00    1.03892   1.07277   23.506
 5627.00    1.05341   1.07618   23.603
 5628.00    1.08367   1.08319   23.106
 5629.00    1.11241   1.09187   23.081
 5630.00    1.12980   1.09961   23.599
 5631.00    1.13670   1.10523   23.742
 5632.00    1.13758   1.10808   23.316
 5633.00    1.13669   1.10751   22.965
 5634.00    1.13389   1.10394   22.940
 5635.00    1.12574   1.09857   23.077
 5636.00    1.11082   1.09247   23.336
 5637.00    1.09074   1.08640   23.763
 5638.00    1.06944   1.08110   24.092
 5639.00    1.05241   1.07718   23.963
 5640.00    1.04511   1.07511   23.620
 5641.00    1.04945   1.07493   23.563
 5642.00    1.05803   1.07594   23.709
 5643.00    1.06133   1.07767   23.649
 5644.00    1.06171   1.08052   23.339
 5645.00    1.06781   1.08437   23.026
 5646.00    1.08133   1.08822   22.898
 5647.00    1.09634   1.09163   23.029
 5648.00    1.10189   1.09469   23.351
 5649.00    1.09189   1.09711   23.667
 5650.00    1.07727   1.09824   23.707
 5651.00    1.07420   1.09773   23.391
 5652.00    1.08691   1.09602   23.105
 5653.00    1.10880   1.09318   23.117
 5654.00    1.12692   1.08810   23.031
 5655.00    1.12936   1.08027   22.566
 5656.00    1.11295   1.07100   22.355
 5657.00    1.08431   1.06215   22.865
 5658.00    1.05892   1.05487   23.453
 5659.00    1.04846   1.04911   23.336
 5660.00    1.04993   1.04528   22.843
 5661.00    1.05587   1.04555   22.608
 5662.00    1.06357   1.05033   22.801
 5663.00    1.07152   1.05643   23.126
 5664.00    1.07608   1.06150   22.875
 5665.00    1.07284   1.06643   21.864
 5666.00    1.05874   1.07204   20.863
 5667.00    1.03871   1.07726   20.383
 5668.00    1.02768   1.08131   20.286
 5669.00    1.03467   1.08494   20.259
 5670.00    1.05403   1.08943   20.072
 5671.00    1.07554   1.09517   19.853
 5672.00    1.09149   1.10154   20.089
 5673.00    1.10130   1.10787   20.932
 5674.00    1.11109   1.11355   21.884
 5675.00    1.12042   1.11770   22.421
 5676.00    1.11935   1.11944   22.528
 5677.00    1.10656   1.11869   22.533
 5678.00    1.09451   1.11606   22.794
 5679.00    1.09485   1.11179   23.146
 5680.00    1.11060   1.10593   22.935
 5681.00    1.13160   1.09920   22.302
 5682.00    1.13920   1.09263   22.147
 5683.00    1.12920   1.08637   22.560
 5684.00    1.11428   1.08044   22.734
 5685.00    1.10422   1.07613   22.315
 5686.00    1.10041   1.07468   21.714
 5687.00    1.10057   1.07557   21.260
 5688.00    1.10118   1.07774   20.979
 5689.00    1.09982   1.08119   20.662
 5690.00    1.09646   1.08636   20.105
 5691.00    1.09474   1.09299   19.617
 5692.00    1.09907   1.09992   19.715
 5693.00    1.10695   1.10557   20.408
 5694.00    1.11175   1.10894   21.256
 5695.00    1.11290   1.10959   21.863
 5696.00    1.11408   1.10757   22.075
 5697.00    1.11470   1.10339   22.022
 5698.00    1.11146   1.09772   21.974
 5699.00    1.10461   1.09115   22.093
 5700.00    1.09602   1.08436   22.354
 5701.00    1.08378   1.07826   22.506
 5702.00    1.06588   1.07286   22.318
 5703.00    1.04735   1.06753   22.008
 5704.00    1.03630   1.06242   21.916
 5705.00    1.03619   1.05757   22.001
 5706.00    1.04505   1.05231   22.073
 5707.00    1.05631   1.04621   22.179
 5708.00    1.06331   1.03993   22.393
 5709.00    1.06478   1.03545   22.481
 5710.00    1.06286   1.03434   22.277
 5711.00    1.06005   1.03693   22.144
 5712.00    1.05926   1.04340   22.406
 5713.00    1.06427   1.05282   22.759
 5714.00    1.07787   1.06385   22.768
 5715.00    1.09978   1.07599   22.512
 5716.00    1.12523   1.08783   22.288
 5717.00    1.14478   1.09794   22.248
 5718.00    1.15363   1.10651   22.335
 5719.00    1.15849   1.11379   22.285
 5720.00    1.16635   1.11984   21.974
 5721.00    1.17560   1.12495   21.650
 5722.00    1.18166   1.12876   21.518
 5723.00    1.18190   1.13073   21.501
 5724.00    1.17745   1.13098   21.516
 5725.00    1.17343   1.12989   21.644
 5726.00    1.17435   1.12768   21.930
 5727.00    1.18087   1.12445   22.259
 5728.00    1.18852   1.12044   22.427
 5729.00    1.18890   1.11682   22.249
 5730.00    1.17947   1.11515   21.842
 5731.00    1.16684   1.11531   21.619
 5732.00    1.15600   1.11583   21.773
 5733.00    1.14638   1.11618   22.119
 5734.00    1.13969   1.11737   22.279
 5735.00    1.14146   1.11974   21.911
 5736.00    1.15170   1.12199   21.238
 5737.00    1.16318   1.12303   20.909
 5738.00    1.17115   1.12282   21.114
 5739.00    1.17629   1.12186   21.507
 5740.00    1.18093   1.12081    0.000
 5741.00    1.18636   1.12018    0.000
 5742.00    1.18866   1.12004    0.000
 5743.00    1.18073   1.11994    0.000
 5744.00    1.16272   1.11926    0.000
 5745.00    1.14257   1.11818    0.000
 5746.00    1.12831   1.11753    0.000
 5747.00    1.12398   1.11701    0.000
 5748.00    1.12539   1.11523    0.000
 5749.00    1.12371   1.11133    0.000
 5750.00    1.11678   1.10641    0.000
 5751.00    1.10988   1.10252    0.000
 5752.00    1.11084   1.10021    0.000
 5753.00    1.12493   1.09851    0.000
 5754.00    1.14688   1.09703    0.000
 5755.00    1.16501   1.09668    0.000
 5756.00    1.17239   1.09833    0.000
 5757.00    1.16865   1.10157    0.000
 5758.00    1.15896   1.10433    0.000
 5759.00    1.14929   1.10477    0.000
 5760.00    1.13914   1.10328    0.000
 5761.00    1.12722   1.10131    0.000
 5762.00    1.12136   1.09995    0.000
 5763.00    1.12903   1.10007    0.000
 5764.00    1.14298   1.10247    0.000
 5765.00    1.15081   1.10752    0.000
 5766.00    1.14988   1.11457    0.000
 5767.00    1.14573   1.12123    0.000
 5768.00    1.14736   1.12550    0.000
 5769.00    1.16028   1.12731    0.000
 5770.00    1.17988   1.12722    0.000
 5771.00    1.19671   1.12552    0.000
 5772.00    1.20323   1.12286    0.000
 5773.00    1.19933   1.11993    0.000
 5774.00    1.19554   1.11704    0.000
 5775.00    1.19897   1.11433    0.000
 5776.00    1.20203   1.11102    0.000
 5777.00    1.19562   1.10612    0.000
 5778.00    1.17987   1.09958    0.000
 5779.00    1.15927   1.09165    0.000
 5780.00    1.13836   1.08244    0.000
 5781.00    1.12235   1.07219    0.000
 5782.00    1.11707   1.06186   -2.000
 5783.00    1.12474   1.05397   -2.000
 5784.00    1.14174   1.05082   -2.000
 5785.00    1.16179   1.05200   -2.000
 5786.00    1.17832   1.05559   -2.000
 5787.00    1.18617   1.06059   -2.000
 5788.00    1.18323   1.06748   -2.000
 5789.00    1.17336   1.07589   -2.000
 5790.00    1.16544   1.08381   -2.000
 5791.00    1.16142   1.09041   -2.000
 5792.00    1.15304   1.09565   -2.000
 5793.00    1.13180   1.09983   -2.000
 5794.00    1.09615   1.10362   -2.000
 5795.00    1.06169   1.10710   -2.000
 5796.00    1.05546   1.11041   -2.000
 5797.00    1.08108   1.11360   -2.000
 5798.00    1.11621   1.11613   -2.000
 5799.00    1.14789   1.11803   -2.000
 5800.00    1.17826   1.12021   -2.000
 5801.00    1.20396   1.12290   -2.000
 5802.00    1.21481   1.12483    0.000
 5803.00    1.20896   1.12492    0.000
 5804.00    1.19389   1.12349    0.000
 5805.00    1.17698   1.12100    0.000
 5806.00    1.16306   1.11813    0.000
 5807.00    1.15492   1.11639    0.000
 5808.00    1.15356   1.11635    0.000
 5809.00    1.15870   1.11739    0.000
 5810.00    1.16881   1.11869    0.000
 5811.00    1.18101   1.11962    0.000
 5812.00    1.19176   1.11982    0.000
 5813.00    1.19823   1.11918    0.000
 5814.00    1.19936   1.11814    0.000
 5815.00    1.19718   1.11752    0.000
 5816.00    1.19538   1.11756    0.000
 5817.00    1.19648   1.11832    0.000
 5818.00    1.20102   1.12035    0.000
 5819.00    1.20700   1.12412    0.000
 5820.00    1.21144   1.12878    0.000
 5821.00    1.21269   1.13276    0.000
 5822.00    1.21065   1.13548    0.000
 5823.00    1.20656   1.13711    0.000
 5824.00    1.20131   1.13785    0.000
 5825.00    1.19369   1.13818    0.000
 5826.00    1.18308   1.13865    0.000
 5827.00    1.17244   1.13921    0.000
 5828.00    1.16581   1.13940    0.000
 5829.00    1.16522   1.13922    0.000
 5830.00    1.16885   1.13875    0.000
 5831.00    1.17038   1.13778    0.000
 5832.00    1.16613   1.13619    0.000
 5833.00    1.16060   1.13435    0.000
 5834.00    1.15893   1.13259    0.000
 5835.00    1.16093   1.13078    0.000
 5836.00    1.16528   1.12926    0.000
 5837.00    1.17250   1.12900    0.000
 5838.00    1.18042   1.13031    0.000
 5839.00    1.18238   1.13210    0.000
 5840.00    1.17736   1.13359    0.000
 5841.00    1.17431   1.13521    0.000
 5842.00    1.17830   1.13673    0.000
 5843.00    1.18376   1.13699    0.000
 5844.00    1.18538   1.13540    0.000
 5845.00    1.18350   1.13236    0.000
 5846.00    1.17964   1.12842    0.000
 5847.00    1.17406   1.12392    0.000
 5848.00    1.16585   1.11891    0.000
 5849.00    1.15358   1.11336    0.000
 5850.00    1.13735   1.10759    0.000
 5851.00    1.11960   1.10219    0.000
 5852.00    1.10409   1.09688    0.000
 5853.00    1.09516   1.09064    0.000
 5854.00    1.09625   1.08308    0.000
 5855.00    1.10808   1.07587    0.000
 5856.00    1.12454   1.07127    0.000
 5857.00    1.13537   1.06909    0.000
 5858.00    1.13881   1.06773    0.000
 5859.00    1.14092   1.06693    0.000
 5860.00    1.14216   1.06875    0.000
 5861.00    1.13802   1.07383    0.000
 5862.00    1.13101   1.07990    0.000
 5863.00    1.12868   1.08486    0.000
 5864.00    1.13082   1.08841    0.000
 5865.00    1.13116   1.09205    0.000
 5866.00    1.12845   1.09637    0.000
 5867.00    1.12716   1.10017    0.000
 5868.00    1.13356   1.10280    0.000
 5869.00    1.14986   1.10513    0.000
 5870.00    1.16531   1.10791    0.000
 5871.00    1.16673   1.11031    0.000
 5872.00    1.15980   1.11129    0.000
 5873.00    1.15972   1.11059    0.000
 5874.00    1.16972   1.10861    0.000
 5875.00    1.18260   1.10601    0.000
 5876.00    1.18884   1.10282    0.000
 5877.00    1.18132   1.09892    0.000
 5878.00    1.16012   1.09471    0.000
 5879.00    1.13215   1.09082    0.000
 5880.00    1.10919   1.08685    0.000
 5881.00    1.09974   1.08189    0.000
 5882.00    1.09998   1.07612    0.000
 5883.00    1.10134   1.06968    0.000
 5884.00    1.09981   1.06082    0.000
 5885.00    1.09289   1.04641    0.000
 5886.00    1.07595   1.02498    0.000
 5887.00    1.04793   0.99912    0.000
 5888.00    1.01652   0.97310    0.000
 5889.00    0.99170   0.94826    0.000
 5890.00    0.97932   0.92458    0.000
 5891.00    0.97836   0.90370    0.000
 5892.00    0.98040   0.88974    0.000
 5893.00    0.97979   0.88648    0.000
 5894.00    0.98017   0.89189    0.000
 5895.00    0.98536   0.90081    0.000
 5896.00    0.99319   0.91088    0.000
 5897.00    1.00077   0.92238    0.000
 5898.00    1.00784   0.93909    0.000
 5899.00    1.01541   0.96322    0.000
 5900.00    1.02478   0.98938    0.000
 5901.00    1.03732   1.01218   21.387
 5902.00    1.05376   1.03142   21.647
 5903.00    1.07076   1.04770   21.989
 5904.00    1.08087   1.06059   22.070
 5905.00    1.08059   1.07002   21.907
 5906.00    1.07364   1.07632   21.953
 5907.00    1.06782   1.08032   22.326
 5908.00    1.07106   1.08342   22.621
 5909.00    1.08173   1.08603   22.588
 5910.00    1.08880   1.08712   22.396
 5911.00    1.08716   1.08606   22.337
 5912.00    1.08130   1.08392   22.603
 5913.00    1.07796   1.08163   22.994
 5914.00    1.08184   1.07915   23.008
 5915.00    1.09062   1.07634   22.665
 5916.00    1.09692   1.07438   22.474
 5917.00    1.09822   1.07494   22.550
 5918.00    1.09765   1.07740   22.610
 5919.00    1.09815   1.08068   22.509
 5920.00    1.10040   1.08411   22.332
 5921.00    1.10192   1.08730   22.242
 5922.00    1.09936   1.09020   22.364
 5923.00    1.09434   1.09219   22.653
 5924.00    1.09261   1.09303   22.892
 5925.00    1.09954   1.09320   22.810
 5926.00    1.11488   1.09256   22.321
 5927.00    1.12526   1.09099   21.846
 5928.00    1.11593   1.08933   21.883
 5929.00    1.09394   1.08773   22.401
 5930.00    1.07910   1.08585   22.976
 5931.00    1.08200   1.08375   23.175
 5932.00    1.10012   1.08259   22.870
 5933.00    1.11816   1.08381   22.507
 5934.00    1.12064   1.08602   22.532
 5935.00    1.10925   1.08734   22.706
 5936.00    1.09575   1.08813   22.632
 5937.00    1.08930   1.08945   22.527
 5938.00    1.09396   1.09130   22.697
 5939.00    1.10764   1.09244   22.838
 5940.00    1.12394   1.09273   22.622
 5941.00    1.13470   1.09279   22.429
 5942.00    1.13515   1.09242   22.659
 5943.00    1.12855   1.09192   23.044
 5944.00    1.12212   1.09199   23.155
 5945.00    1.12217   1.09204   23.009
 5946.00    1.12884   1.09154   22.853
 5947.00    1.13299   1.09094   22.873
 5948.00    1.12593   1.09001   23.065
 5949.00    1.10756   1.08765   23.180
 5950.00    1.08517   1.08416   23.074
 5951.00    1.07063   1.08182   22.964
 5952.00    1.07026   1.08162   23.029
 5953.00    1.07918   1.08141   23.176
 5954.00    1.09066   1.07986   23.266
 5955.00    1.10205   1.07902   23.274
 5956.00    1.11144   1.08070   23.269
 5957.00    1.11615   1.08338   23.365
 5958.00    1.11662   1.08547   23.531
 5959.00    1.11763   1.08794   23.543
 5960.00    1.12285   1.09175   23.312
 5961.00    1.13199   1.09627   23.026
 5962.00    1.14102   1.10008   22.953
 5963.00    1.14387   1.10272   23.281
 5964.00    1.13899   1.10468   23.721
 5965.00    1.13069   1.10622   23.559
 5966.00    1.12306   1.10739   22.957
 5967.00    1.11805   1.10821   22.902
 5968.00    1.11810   1.10934   23.497
 5969.00    1.12489   1.11118   23.833
 5970.00    1.13191   1.11273   23.650
 5971.00    1.12797   1.11321   23.603
 5972.00    1.11583   1.11238   23.755
 5973.00    1.10965   1.10996   23.552
 5974.00    1.11010   1.10616   23.132
 5975.00    1.10560   1.10159   23.170
 5976.00    1.09541   1.09677   23.597
 5977.00    1.08937   1.09219   23.729
 5978.00    1.09145   1.08844   23.468
 5979.00    1.09765   1.08587   23.285
 5980.00    1.10089   1.08385   23.336
 5981.00    1.09563   1.08174   23.482
 5982.00    1.08457   1.07993   23.690
 5983.00    1.07476   1.07822   23.976
 5984.00    1.06728   1.07609   24.106
 5985.00    1.05948   1.07384   23.847
 5986.00    1.05270   1.07300   23.494
 5987.00    1.05044   1.07490   23.479
 5988.00    1.05311   1.07815   23.675
 5989.00    1.05878   1.08110   23.706
 5990.00    1.06571   1.08451   23.574
 5991.00    1.07303   1.08847   23.499
 5992.00    1.08098   1.09149   23.531
 5993.00    1.08802   1.09272   23.612
 5994.00    1.08754   1.09313   23.700
 5995.00    1.07556   1.09343   23.758
 5996.00    1.05999   1.09277   23.718
 5997.00    1.05261   1.09085   23.559
 5998.00    1.05852   1.08827   23.368
 5999.00    1.07399   1.08541   23.243
 6000.00    1.08642   1.08298   23.182
 6001.00    1.08619   1.08169   23.071
 6002.00    1.07724   1.08092   22.716
 6003.00    1.06769   1.07946   22.180
 6004.00    1.06087   1.07664   21.929
 6005.00    1.05737   1.07342   22.143
 6006.00    1.05743   1.07162   22.310
 6007.00    1.06013   1.07076   22.095
 6008.00    1.06317   1.06964   21.968
 6009.00    1.06672   1.06808   22.252
 6010.00    1.07493   1.06704   22.568
 6011.00    1.08783   1.06821   22.585
 6012.00    1.09738   1.07039   22.539
 6013.00    1.09674   1.07057   22.704
 6014.00    1.08586   1.06870   23.079
 6015.00    1.06920   1.06698   23.497
 6016.00    1.05338   1.06634   23.723
 6017.00    1.04224   1.06527   23.651
 6018.00    1.03530   1.06312   23.408
 6019.00    1.03256   1.06166   23.235
 6020.00    1.03562   1.06166   23.356
 6021.00    1.04180   1.06179   23.705
 6022.00    1.04443   1.06242   23.915
 6023.00    1.04406   1.06490   23.909
 6024.00    1.04968   1.06865   23.991
 6025.00    1.06598   1.07295   24.143
 6026.00    1.08938   1.07786   23.958
 6027.00    1.11142   1.08353   23.403
 6028.00    1.12337   1.08883   22.872
 6029.00    1.12596   1.09338   22.591
 6030.00    1.12717   1.09820   22.552
 6031.00    1.12655   1.10271   22.709
 6032.00    1.11699   1.10595   22.969
 6033.00    1.10175   1.10835   23.007
 6034.00    1.09196   1.11064   22.526
 6035.00    1.08880   1.11237   21.968
 6036.00    1.08537   1.11292   22.031
 6037.00    1.08139   1.11261   22.588
 6038.00    1.08192   1.11204   22.951
 6039.00    1.08741   1.11125   23.005
 6040.00    1.09469   1.11044   23.107
 6041.00    1.10309   1.10986   23.183
 6042.00    1.11307   1.10974   22.961
 6043.00    1.12157   1.11030   22.736
 6044.00    1.12346   1.11160   22.934
 6045.00    1.11548   1.11366   23.281
 6046.00    1.10013   1.11560   23.229
 6047.00    1.08992   1.11690   22.942
 6048.00    1.09625   1.11778   22.872
 6049.00    1.11314   1.11791   22.978
 6050.00    1.12710   1.11664   22.993
 6051.00    1.13290   1.11433   22.880
 6052.00    1.13189   1.11165   22.773
 6053.00    1.12710   1.10827   22.801
 6054.00    1.12034   1.10424   22.966
 6055.00    1.11013   1.10070   23.046
 6056.00    1.09853   1.09854   22.943
 6057.00    1.09724   1.09738   23.025
 6058.00    1.11220   1.09663   23.512
 6059.00    1.12995   1.09652   23.893
 6060.00    1.13545   1.09677   23.615
 6061.00    1.12856   1.09647   22.881
 6062.00    1.11737   1.09481   22.197
 6063.00    1.11065   1.09257   21.908
 6064.00    1.11048   1.09125   22.046
 6065.00    1.10903   1.09125   22.292
 6066.00    1.10270   1.09219   22.454
 6067.00    1.10040   1.09447   22.753
 6068.00    1.10934   1.09962   23.183
 6069.00    1.12603   1.10674   23.160
 6070.00    1.14170   1.11304   22.645
 6071.00    1.14737   1.11755   22.534
 6072.00    1.14194   1.12073   23.122
 6073.00    1.13401   1.12248   23.574
 6074.00    1.12860   1.12211   23.412
 6075.00    1.12214   1.11925   23.244
 6076.00    1.11248   1.11463   23.422
 6077.00    1.10302   1.10939   23.595
 6078.00    1.09820   1.10367   23.609
 6079.00    1.10016   1.09718   23.749
 6080.00    1.10349   1.09089   23.949
 6081.00    1.09731   1.08654   23.719
 6082.00    1.08051   1.08388   23.200
 6083.00    1.06370   1.08126   23.117
 6084.00    1.05550   1.07923   23.502
 6085.00    1.05834   1.07916   23.659
 6086.00    1.07070   1.07976   23.361
 6087.00    1.08871   1.07940   23.040
 6088.00    1.10832   1.07892   22.958
 6089.00    1.12557   1.07926   23.089
 6090.00    1.13570   1.07958   23.380
 6091.00    1.13519   1.07926   23.740
 6092.00    1.12727   1.07951   23.858
 6093.00    1.12010   1.08123   23.402
 6094.00    1.11921   1.08327   22.620
 6095.00    1.12489   1.08487   22.049
 6096.00    1.13077   1.08669   21.913
 6097.00    1.12818   1.08826   22.174
 6098.00    1.11541   1.08753   22.692
 6099.00    1.09828   1.08355   23.255
 6100.00    1.08728   1.07792   23.642
 6101.00    1.09057   1.07307   23.730
 6102.00    1.10323   1.06934   23.646
 6103.00    1.11237   1.06532   23.621
 6104.00    1.10822   1.06158   23.743
 6105.00    1.09099   1.06187   23.933
 6106.00    1.07726   1.06741   23.971
 6107.00    1.08347   1.07400   23.729
 6108.00    1.10365   1.07871   23.442
 6109.00    1.12128   1.08250   23.409
 6110.00    1.12752   1.08688   23.633
 6111.00    1.12309   1.09138   23.851
 6112.00    1.11686   1.09391   23.631
 6113.00    1.11450   1.09398   22.921
 6114.00    1.10782   1.09356   22.412
 6115.00    1.08874   1.09351   22.624
 6116.00    1.06314   1.09217   23.298
 6117.00    1.04300   1.08815   23.889
 6118.00    1.03760   1.08217   24.094
 6119.00    1.04803   1.07577   23.920
 6120.00    1.06444   1.06968   23.608
 6121.00    1.07591   1.06426   23.391
 6122.00    1.07819   1.05981   23.319
 6123.00    1.07328   1.05659   23.125
 6124.00    1.06812   1.05568   22.269
 6125.00    1.07042   1.05833   20.766
 6126.00    1.08472   1.06266   19.307
 6127.00    1.10552   1.06629   18.354
 6128.00    1.11673   1.06952   17.984
 6129.00    1.11213   1.07261   18.132
 6130.00    1.10321   1.07464   18.645
 6131.00    1.09818   1.07511   19.263
 6132.00    1.09272   1.07353   19.661
 6133.00    1.08010   1.06857   19.921
 6134.00    1.05749   1.06011   20.610
 6135.00    1.02997   1.05075   21.754
 6136.00    1.00946   1.04292   22.435
 6137.00    1.00327   1.03645   22.356
 6138.00    1.01027   1.03085   22.407
 6139.00    1.02502   1.02890   22.896
 6140.00    1.04001   1.03404   23.232
 6141.00    1.04751   1.04363   23.280
 6142.00    1.04350   1.05192   23.573
 6143.00    1.03766   1.05800   24.098
 6144.00    1.04708   1.06476   24.172
 6145.00    1.06871   1.07189   23.594
 6146.00    1.08186   1.07590   22.768
 6147.00    1.07733   1.07628   21.867
 6148.00    1.06133   1.07543   20.872
 6149.00    1.04426   1.07447   20.017
 6150.00    1.03514   1.07303   19.630
 6151.00    1.03579   1.07115   19.803
 6152.00    1.04241   1.06940   20.427
 6153.00    1.05177   1.06820   21.208
 6154.00    1.06190   1.06681   21.718
 6155.00    1.07042   1.06387   21.721
 6156.00    1.07386   1.05890   21.327
 6157.00    1.06728   1.05251   20.941
 6158.00    1.04869   1.04404   20.960
 6159.00    1.02633   1.03262   21.455
 6160.00    1.01161   1.02037   22.255
 6161.00    1.00634   1.00976   23.058
 6162.00    1.00539   1.00032   23.549
 6163.00    1.00346   0.99208   23.659
 6164.00    0.99768   0.98839   23.509
 6165.00    0.98942   0.99057   23.209
 6166.00    0.98136   0.99470   22.880
 6167.00    0.97358   0.99787   22.713
 6168.00    0.96480   1.00190   22.835
 6169.00    0.95439   1.00779   23.162
 6170.00    0.94384   1.01233   23.543
 6171.00    0.93771   1.01478   23.925
 6172.00    0.94047   1.01925   24.271
 6173.00    0.95311   1.02658   24.453
 6174.00    0.97203   1.03298   24.273
 6175.00    0.98925   1.03763   23.556
 6176.00    1.00022   1.04294   22.412
 6177.00    1.00924   1.04844   21.269
 6178.00    1.01879   1.05250   20.465
 6179.00    1.02275   1.05605   20.114
 6180.00    1.01962   1.05979   20.228
 6181.00    1.01997   1.06237   20.769
 6182.00    1.02914   1.06346   21.600
 6183.00    1.03794   1.06381   22.419
 6184.00    1.03984   1.06258   22.871
 6185.00    1.04001   1.05912   22.711
 6186.00    1.04407   1.05447   -2.000
 6187.00    1.05146   1.04894   -2.000
 6188.00    1.05646   1.04169   -2.000
 6189.00    1.05063   1.03416   -2.000
 6190.00    1.03131   1.02940   -2.000
 6191.00    1.00471   1.02759   -2.000
 6192.00    0.98102   1.02648   -2.000
 6193.00    0.97018   1.02677   -2.000
 6194.00    0.97401   1.03132   -2.000
 6195.00    0.98521   1.03856   -2.000
 6196.00    0.99604   1.04387   -2.000
 6197.00    1.00140   1.04678   -2.000
 6198.00    0.99765   1.04984   19.209
 6199.00    0.98434   1.05318   19.365
 6200.00    0.97062   1.05480   20.133
 6201.00    0.97197   1.05512   21.457
 6202.00    0.99422   1.05666   22.905
 6203.00    1.03076   1.06011   23.786
 6204.00    1.06838   1.06365   23.994
 6205.00    1.09335   1.06587   24.057
 6206.00    1.10212   1.06714   24.042
 6207.00    1.09945   1.06762   23.633
 6208.00    1.08760   1.06650   23.036
 6209.00    1.06765   1.06318   22.715
 6210.00    1.04766   1.05770   22.622
 6211.00    1.03737   1.05024   22.413
 6212.00    1.03448   1.04161   22.086
 6213.00    1.02992   1.03294   21.895
 6214.00    1.02238   1.02485   22.009
 6215.00    1.01589   1.01769   22.377
 6216.00    1.01117   1.01212   22.545
 6217.00    1.00774   1.00864   22.012
 6218.00    1.00926   1.00756   20.936
 6219.00    1.01828   1.00857   19.868
 6220.00    1.02793   1.01025   19.269
 6221.00    1.03010   1.01174   19.392
 6222.00    1.02762   1.01394   20.247
 6223.00    1.02914   1.01724   21.582
 6224.00    1.04022   1.02005   22.705
 6225.00    1.05803   1.02108   23.053
 6226.00    1.06762   1.02056   23.286
 6227.00    1.05650   1.01861   24.129
 6228.00    1.03001   1.01504   24.917
 6229.00    1.00302   1.01096   24.800
 6230.00    0.98937   1.00741   24.450
 6231.00    0.99275   1.00443   24.614
 6232.00    1.00112   1.00320   24.837
 6233.00    1.00452   1.00511   24.558
 6234.00    1.00862   1.00903   24.077
 6235.00    1.01886   1.01285   23.728
 6236.00    1.02871   1.01594   23.315
 6237.00    1.03196   1.01735   22.750
 6238.00    1.03107   1.01634   22.371
 6239.00    1.02885   1.01343   22.383
 6240.00    1.02357   1.00895   22.605
 6241.00    1.01612   1.00347   22.743
 6242.00    1.01304   0.99902   22.587
 6243.00    1.01715   0.99631   22.085
 6244.00    1.02316   0.99408   21.363
 6245.00    1.02349   0.99313   20.699
 6246.00    1.01308   0.99495   20.409
 6247.00    0.99624   0.99794   20.561
 6248.00    0.98593   1.00040   20.940
 6249.00    0.98634   1.00239   21.310
 6250.00    0.98899   1.00328   21.507
 6251.00    0.99005   1.00210   21.330
 6252.00    0.99376   0.99898   20.659
 6253.00    0.99723   0.99424   19.938
 6254.00    0.99019   0.98836   19.890
 6255.00    0.97464   0.98301   20.629
 6256.00    0.96480   0.97953   21.655
 6257.00    0.96421   0.97829   22.628
 6258.00    0.96457   0.97898   23.628
 6259.00    0.96503   0.98156   24.601
 6260.00    0.97292   0.98695   25.215
 6261.00    0.98948   0.99491   25.281
 6262.00    1.00772   1.00278   24.937
 6263.00    1.01750   1.00918   24.523
 6264.00    1.01143   1.01570   24.344
 6265.00    0.99500   1.02173   24.359
 6266.00    0.98211   1.02480   24.278
 6267.00    0.98027   1.02596   23.904
 6268.00    0.98898   1.02798   23.283
 6269.00    1.00305   1.03034   22.779
 6270.00    1.01600   1.03155   22.739
 6271.00    1.02486   1.03249   23.032
 6272.00    1.03015   1.03420   23.234
 6273.00    1.03428   1.03620   23.100
 6274.00    1.03883   1.03758   22.661
 6275.00    1.04101   1.03805   22.161
 6276.00    1.03753   1.03774   21.898
 6277.00    1.03086   1.03672   22.097
 6278.00    1.02532   1.03496   22.799
 6279.00    1.02092   1.03312   23.648
 6280.00    1.01655   1.03186    0.000
 6281.00    1.01494   1.03126    0.000
 6282.00    1.01964   1.03161    0.000
 6283.00    1.03084   1.03350    0.000
 6284.00    1.04385   1.03689    0.000
 6285.00    1.04877   1.04107    0.000
 6286.00    1.04041   1.04515    0.000
 6287.00    1.02713   1.04842    0.000
 6288.00    1.02156   1.05082    0.000
 6289.00    1.03066   1.05222    0.000
 6290.00    1.04976   1.05214    0.000
 6291.00    1.06073   1.05039    0.000
 6292.00    1.05296   1.04753    0.000
 6293.00    1.03764   1.04395    0.000
 6294.00    1.02937   1.03951    0.000
 6295.00    1.03214   1.03480    0.000
 6296.00    1.04079   1.03074    0.000
 6297.00    1.04495   1.02686    0.000
 6298.00    1.04354   1.02243    0.000
 6299.00    1.04960   1.01846    0.000
 6300.00    1.06588   1.01652    0.000
 6301.00    1.07563   1.01651    0.000
 6302.00    1.06967   1.01697    0.000
 6303.00    1.05740   1.01792    0.000
 6304.00    1.04806   1.02117    0.000
 6305.00    1.04234   1.02665    0.000
 6306.00    1.03836   1.03180    0.000
 6307.00    1.03483   1.03545    0.000
 6308.00    1.03238   1.03848    0.000
 6309.00    1.03305   1.04076    0.000
 6310.00    1.03701   1.04112    0.000
 6311.00    1.04163   1.03905    0.000
 6312.00    1.04326   1.03480    0.000
 6313.00    1.03898   1.02976    0.000
 6314.00    1.03038   1.02533    0.000
 6315.00    1.02200   1.02044    0.000
 6316.00    1.01349   1.01458    0.000
 6317.00    1.00173   1.01086    0.000
 6318.00    0.99334   1.01056    0.000
 6319.00    1.00010   1.01098    0.000
 6320.00    1.01874   1.01207    0.000
 6321.00    1.03450   1.01652    9.849
 6322.00    1.04176   1.02334    9.628
 6323.00    1.04343   1.02942    9.645
 6324.00    1.03907   1.03470    9.726
 6325.00    1.02766   1.04034    9.343
 6326.00    1.01836   1.04570    9.482
 6327.00    1.02307   1.04927   11.976
 6328.00    1.03906   1.05078   18.700
 6329.00    1.05454   1.05137   25.490
 6330.00    1.06368   1.05174   24.726
 6331.00    1.06560   1.05078   23.592
 6332.00    1.05864   1.04752   24.417
 6333.00    1.04271   1.04300   25.229
 6334.00    1.02355   1.03893   25.421
 6335.00    1.00831   1.03526   25.593
 6336.00    0.99879   1.03081   25.699
 6337.00    0.99417   1.02651   25.408
 6338.00    0.99548   1.02501   24.936
 6339.00    1.00356   1.02587   24.590
 6340.00    1.01605   1.02621   24.254
 6341.00    1.02838   1.02592   23.864
 6342.00    1.03525   1.02676   23.840
 6343.00    1.03361   1.02801   24.346
 6344.00    1.02526   1.02791   24.610
 6345.00    1.01537   1.02746   24.088
 6346.00    1.01029   1.02890   23.588
 6347.00    1.01324   1.03178   23.664
 6348.00    1.02120   1.03430   23.577
 6349.00    1.02958   1.03692   22.660
 6350.00    1.03586   1.04022   21.361
 6351.00    1.03800   1.04231   20.313
 6352.00    1.03338   1.04180   19.783
 6353.00    1.02094   1.03990   19.736
 6354.00    1.00308   1.03726   19.889
 6355.00    0.98730   1.03242   19.995
 6356.00    0.98458   1.02526   20.022
 6357.00    0.99469   1.01832   20.061
 6358.00    1.00176   1.01248   20.247
 6359.00    0.99708   1.00593   20.709
 6360.00    0.98869   0.99927   21.515
 6361.00    0.98769   0.99541   22.494
 6362.00    0.99925   0.99451   23.181
 6363.00    1.01462   0.99493   23.490
 6364.00    1.01514   0.99719   23.918
 6365.00    1.00245   1.00250   24.447
 6366.00    1.00103   1.00972   24.352
 6367.00    1.01859   1.01683   23.795
 6368.00    1.03841   1.02351   23.824
 6369.00    1.04831   1.03045   24.454
 6370.00    1.04908   1.03722   24.564
 6371.00    1.04710   1.04248   23.917
 6372.00    1.04961   1.04625   23.398
 6373.00    1.05861   1.04987   23.327
 6374.00    1.06987   1.05336   23.401
 6375.00    1.07532   1.05516   23.482
 6376.00    1.06831   1.05502   23.662
 6377.00    1.05477   1.05442   23.874
 6378.00    1.04860   1.05353   23.920
 6379.00    1.05382   1.05163   23.803
 6380.00    1.06405   1.04955   23.662
 6381.00    1.07089   1.04825   23.432
 6382.00    1.06894   1.04738   22.925
 6383.00    1.06167   1.04726   22.115
 6384.00    1.05634   1.04837   21.155
 6385.00    1.05252   1.04961   20.274
 6386.00    1.04694   1.05031   19.702
 6387.00    1.04487   1.05114   19.627
 6388.00    1.05057   1.05181   20.150
 6389.00    1.05001   1.05105   21.110
 6390.00    1.02942   1.04839   22.110
 6391.00    1.00509   1.04476   22.699
 6392.00    1.00027   1.04164   22.661
 6393.00    1.00888   1.03884   22.316
 6394.00    1.01196   1.03545   22.180
 6395.00    1.00455   1.03308   22.565
 6396.00    0.99422   1.03300   23.390
 6397.00    0.99442   1.03285   23.897
 6398.00    1.00944   1.03184   23.512
 6399.00    1.02134   1.03264   22.987
 6400.00    1.01609   1.03434   23.039
 6401.00    1.00862   1.03448   23.248
 6402.00    1.01755   1.03554   23.048
 6403.00    1.04045   1.03925   22.688
 6404.00    1.06411   1.04210   22.600
 6405.00    1.07634   1.04219   22.842
 6406.00    1.07637   1.04204   23.228
 6407.00    1.07902   1.04248   23.446
 6408.00    1.08849   1.04096   23.357
 6409.00    1.08423   1.03736   23.186
 6410.00    1.05889   1.03534   23.140
 6411.00    1.03790   1.03539   23.184
 6412.00    1.03448   1.03444   23.262
 6413.00    1.02792   1.03311   23.414
 6414.00    1.00849   1.03381   23.607
 6415.00    0.99753   1.03489   23.641
 6416.00    1.00935   1.03466   23.206
 6417.00    1.03337   1.03413   22.098
 6418.00    1.05100   1.03349   20.746
 6419.00    1.04762   1.03280   19.909
 6420.00    1.02569   1.03327   19.779
 6421.00    1.00471   1.03482   20.019
 6422.00    0.99681   1.03667   20.379
 6423.00    0.99914   1.04005   20.864
 6424.00    1.00543   1.04519   21.479
 6425.00    1.01215   1.04970   22.096
 6426.00    1.02354   1.05227   22.439
 6427.00    1.04686   1.05338   22.227
 6428.00    1.07193   1.05272   21.624
 6429.00    1.07558   1.05026   21.115
 6430.00    1.05564   1.04730   20.921
 6431.00    1.03175   1.04410   20.993
 6432.00    1.01782   1.04088   21.258
 6433.00    1.01488   1.03926   21.695
 6434.00    1.01365   1.03980   22.396
 6435.00    1.00345   1.04057   23.345
 6436.00    0.99093   1.04031   23.685
 6437.00    0.99235   1.04047   22.415
 6438.00    1.00701   1.04226   20.462
 6439.00    1.02211   1.04406   19.215
 6440.00    1.03449   1.04507   18.837
 6441.00    1.04771   1.04787   18.999
 6442.00    1.05846   1.05280   19.567
 6443.00    1.06147   1.05666   20.477
 6444.00    1.06210   1.05850   21.332
 6445.00    1.06843   1.05947   21.599
 6446.00    1.07548   1.05813   21.341
 6447.00    1.07352   1.05292   20.970
 6448.00    1.06350   1.04622   20.601
 6449.00    1.05237   1.04027   20.212
 6450.00    1.04349   1.03401   19.952
 6451.00    1.03848   1.02835   19.963
 6452.00    1.04068   1.02625   20.166
 6453.00    1.04928   1.02684   20.425
 6454.00    1.05315   1.02820   20.755
 6455.00    1.04519   1.03108   21.186
 6456.00    1.03708   1.03475   21.573
 6457.00    1.03978   1.03744   21.788
 6458.00    1.04428   1.04002   21.950
 6459.00    1.04165   1.04213   22.064
 6460.00    1.04121   1.04174   21.725
 6461.00    1.04970   1.04056   20.843
 6462.00    1.05453   1.04059   20.063
 6463.00    1.04564   1.03971   19.843
 6464.00    1.03232   1.03839   20.072
 6465.00    1.02845   1.03982   20.449
 6466.00    1.04001   1.04296   20.717
 6467.00    1.06083   1.04515   20.887
 6468.00    1.07383   1.04716   21.317
 6469.00    1.07403   1.04933   22.103
 6470.00    1.07764   1.05060   22.687
 6471.00    1.08923   1.05134   22.602
 6472.00    1.08874   1.05136   22.078
 6473.00    1.06787   1.05083   21.638
 6474.00    1.04484   1.05135   21.707
 6475.00    1.03662   1.05246   22.196
 6476.00    1.04532   1.05200   22.434
 6477.00    1.06201   1.05111   22.181
 6478.00    1.07216   1.05093   21.955
 6479.00    1.06934   1.04915   22.003
 6480.00    1.05896   1.04544   22.067
 6481.00    1.04997   1.04254   22.031
 6482.00    1.04941   1.04057   22.069
 6483.00    1.05523   1.03802   22.229
 6484.00    1.05745   1.03617   22.357
 6485.00    1.05012   1.03634   22.348
 6486.00    1.03564   1.03692   22.206
 6487.00    1.02495   1.03593   21.924
 6488.00    1.02996   1.03311   21.480
 6489.00    1.04284   1.02857   20.944
 6490.00    1.04180   1.02141   20.494
 6491.00    1.02106   1.01038   20.429
 6492.00    0.99219   0.99631   21.008
 6493.00    0.96788   0.98228   21.983
 6494.00    0.95516   0.96963   22.661
 6495.00    0.94966   0.95833   22.765
 6496.00    0.94327   0.95077   22.612
 6497.00    0.94178   0.94889   22.588
 6498.00    0.95764   0.95238   22.845
 6499.00    0.98954   0.95999   23.013
 6500.00    1.02354   0.97049   22.664
 6501.00    1.04223   0.98286   22.257
 6502.00    1.03604   0.99595   22.447
 6503.00    1.01776   1.00822   22.986
 6504.00    1.00918   1.01855   23.172
 6505.00    1.01782   1.02693   22.911
 6506.00    1.03912   1.03317   22.608
 6507.00    1.06437   1.03764   22.639
 6508.00    1.08279   1.04085   23.074
 6509.00    1.08359   1.04242   23.393
 6510.00    1.06556   1.04263   23.074
 6511.00    1.04627   1.04271   22.448
 6512.00    1.04054   1.04220   22.059
 6513.00    1.03772   1.04006   21.990
 6514.00    1.02604   1.03743   22.035
 6515.00    1.01711   1.03532   21.888
 6516.00    1.02109   1.03266   21.467
 6517.00    1.02388   1.02993   21.113
 6518.00    1.01250   1.02921   21.013
 6519.00    0.99693   1.02986   20.837
 6520.00    0.99414   1.03061   20.452
 6521.00    1.01263   1.03241   20.336
 6522.00    1.04387   1.03548   20.742
 6523.00    1.06101   1.03789   21.213
 6524.00    1.04899   1.03873   21.395
 6525.00    1.02188   1.03907   21.639
 6526.00    0.99971   1.03932   22.186
 6527.00    0.99292   1.03857   22.654
 6528.00    1.00301   1.03686    0.000
 6529.00    1.02342   1.03547    0.000
 6530.00    1.03954   1.03461    0.000
 6531.00    1.03410   1.03367    0.000
 6532.00    1.01271   1.03298    0.000
 6533.00    1.00698   1.03314    0.000
 6534.00    1.02952   1.03362    0.000
 6535.00    1.06026   1.03411    0.000
 6536.00    1.07902   1.03518    0.000
 6537.00    1.07938   1.03663    0.000
 6538.00    1.06606   1.03728    0.000
 6539.00    1.05088   1.03685    0.000
 6540.00    1.04270   1.03580    0.000
 6541.00    1.04311   1.03376    0.000
 6542.00    1.04481   1.03020    0.000
 6543.00    1.03732   1.02514    0.000
 6544.00    1.02564   1.01923    0.000
 6545.00    1.02782   1.01386    0.000
 6546.00    1.05182   1.00902    0.000
 6547.00    1.09208   1.00397    0.000
 6548.00    1.13821   0.99946    0.000
 6549.00    1.17554   0.99608    0.000
 6550.00    1.18107   0.99271    0.000
 6551.00    1.13831   0.98820    0.000
 6552.00    1.07108   0.98240    0.000
 6553.00    1.02350   0.97535    0.000
 6554.00    1.00439   0.96705    0.000
 6555.00    0.99588   0.95701    0.000
 6556.00    0.99167   0.94405    0.000
 6557.00    1.00093   0.92863    0.000
 6558.00    1.04215   0.91234    0.000
 6559.00    1.14433   0.89396    0.000
 6560.00    1.34851   0.87173    0.000
 6561.00    1.66718   0.85118    0.000
 6562.00    2.02619   0.83852    0.000
 6563.00    2.30953   0.83020    0.000
 6564.00    2.43391   0.82620    0.000
 6565.00    2.36402   0.83401    0.000
 6566.00    2.11863   0.85116    0.000
 6567.00    1.76772   0.86875    0.000
 6568.00    1.42322   0.88740    0.000
 6569.00    1.17751   0.90833    0.000
 6570.00    1.04058   0.92557    0.000
 6571.00    0.98038   0.93756    0.000
 6572.00    0.97043   0.94745    0.000
 6573.00    0.98748   0.95544    0.000
 6574.00    1.00634   0.96174    0.000
 6575.00    1.01095   0.96790    0.000
 6576.00    1.00359   0.97428    0.000
 6577.00    0.99723   0.98069    0.000
 6578.00    1.00772   0.98686    0.000
 6579.00    1.04633   0.99223    0.000
 6580.00    1.11520   0.99695    0.000
 6581.00    1.21199   1.00108    0.000
 6582.00    1.33099   1.00407    0.000
 6583.00    1.44774   1.00637    0.000
 6584.00    1.51675   1.00836    0.000
 6585.00    1.51639   1.01019    0.000
 6586.00    1.46788   1.01156    0.000
 6587.00    1.39185   1.01196    0.000
 6588.00    1.29045   1.01175    0.000
 6589.00    1.18119   1.01087    0.000
 6590.00    1.10347   1.00789    0.000
 6591.00    1.06775   1.00320    0.000
 6592.00    1.04376   0.99960    0.000
 6593.00    1.01308   0.99676    0.000
 6594.00    0.98543   0.99348    0.000
 6595.00    0.97077   0.99227    0.000
 6596.00    0.96983   0.99414    0.000
 6597.00    0.98147   0.99709    0.000
 6598.00    1.00334   1.00062    0.000
 6599.00    1.02456   1.00527    0.000
 6600.00    1.03143   1.00986    0.000
 6601.00    1.03197   1.01336    0.000
 6602.00    1.04658   1.01546    0.000
 6603.00    1.06073   1.01576    0.000
 6604.00    1.03824   1.01478    0.000
 6605.00    0.99059   1.01313    0.000
 6606.00    0.96446   1.01051    0.000
 6607.00    0.96743   1.00746    0.000
 6608.00    0.97311   1.00583    0.000
 6609.00    0.97385   1.00584   19.968
 6610.00    0.98011   1.00631   19.652
 6611.00    0.99445   1.00785   19.622
 6612.00    1.01036   1.01139   19.534
 6613.00    1.02065   1.01581   19.195
 6614.00    1.02202   1.01931   18.701
 6615.00    1.01955   1.02244   18.432
 6616.00    1.01892   1.02613   18.689
 6617.00    1.01310   1.02915   19.227
 6618.00    0.99666   1.03042   19.544
 6619.00    0.98883   1.03080   19.589
 6620.00    1.00901   1.03109   19.564
 6621.00    1.03949   1.03027   19.396
 6622.00    1.04962   1.02777   19.028
 6623.00    1.03334   1.02494   18.819
 6624.00    1.00685   1.02260   19.035
 6625.00    0.99781   1.01968   19.312
 6626.00    1.01613   1.01646   19.213
 6627.00    1.02756   1.01418   18.968
 6628.00    1.00745   1.01212   18.886
 6629.00    0.99204   1.00950   18.768
 6630.00    1.01146   1.00691   18.473
 6631.00    1.02853   1.00433   18.391
 6632.00    1.00533   1.00167   18.809
 6633.00    0.96167   0.99997   19.409
 6634.00    0.93467   0.99902   19.677
 6635.00    0.94149   0.99875   19.423
 6636.00    0.97540   1.00004   18.864
 6637.00    1.00862   1.00211   18.455
 6638.00    1.01910   1.00390   18.410
 6639.00    1.00801   1.00612   18.551
 6640.00    0.99149   1.00795   18.661
 6641.00    0.99032   1.00797   18.695
 6642.00    1.00447   1.00793   18.704
 6643.00    1.00743   1.00867   18.752
 6644.00    0.99646   1.00824   18.760
 6645.00    1.00630   1.00739   18.525
 6646.00    1.03716   1.00836   18.226
 6647.00    1.03839   1.01001   18.401
 6648.00    1.00547   1.01064   18.933
 6649.00    0.99915   1.01140   18.863
 6650.00    1.02922   1.01298   18.171
 6651.00    1.03410   1.01399   17.969
 6652.00    1.00236   1.01408   18.449
 6653.00    0.99137   1.01419   18.690
 6654.00    1.01524   1.01408   18.363
 6655.00    1.02873   1.01338   18.111
 6656.00    1.01480   1.01256   18.132
 6657.00    0.99870   1.01121   18.070
 6658.00    0.99716   1.00895   17.935
 6659.00    1.00611   1.00654   18.099
 6660.00    1.01326   1.00373   18.477
 6661.00    1.00746   0.99965   18.585
 6662.00    0.99272   0.99604   18.433
 6663.00    0.98318   0.99373   18.459
 6664.00    0.98239   0.99125   18.691
 6665.00    0.98385   0.98962   18.774
 6666.00    0.98413   0.99036   18.504
 6667.00    0.98418   0.99229   18.003
 6668.00    0.98581   0.99452   17.669
 6669.00    0.99087   0.99763   17.818
 6670.00    1.00103   1.00121   18.162
 6671.00    1.01488   1.00400   18.160
 6672.00    1.02320   1.00546   17.930
 6673.00    1.01760   1.00574   17.907
 6674.00    1.00527   1.00484   18.028
 6675.00    0.99907   1.00172   18.006
 6676.00    0.99912   0.99722   17.918
 6677.00    0.99792   0.99392   17.986
 6678.00    0.99160   0.99122   18.158
 6679.00    0.98566   0.98820   18.257
 6680.00    0.99839   0.98773   18.252
 6681.00    1.03439   0.99023   18.164
 6682.00    1.05629   0.99293   17.915
 6683.00    1.03375   0.99587   17.566
 6684.00    0.99703   1.00018   17.498
 6685.00    0.98702   1.00422   17.910
 6686.00    1.00035   1.00675   18.346
 6687.00    1.01439   1.00881   18.256
 6688.00    1.01659   1.01044   17.761
 6689.00    1.00997   1.01100   17.280
 6690.00    1.01235   1.01083   17.081
 6691.00    1.02750   1.01031   17.233
 6692.00    1.02743   1.00922   17.587
 6693.00    0.99950   1.00722   17.883
 6694.00    0.97584   1.00464   17.861
 6695.00    0.98101   1.00238   17.556
 6696.00    0.99872   1.00026    0.000
 6697.00    1.00454   0.99812    0.000
 6698.00    0.99004   0.99703    0.000
 6699.00    0.97090   0.99690    0.000
 6700.00    0.98112   0.99704    0.000
 6701.00    1.01827   0.99736    0.000
 6702.00    1.03028   0.99785    0.000
 6703.00    1.00228   0.99833    0.000
 6704.00    0.98286   0.99860    0.000
 6705.00    0.99593   0.99835    0.000
 6706.00    1.01279   0.99801    0.000
 6707.00    1.01579   0.99788    0.000
 6708.00    1.01769   0.99706    0.000
 6709.00    1.02481   0.99583    0.000
 6710.00    1.02825   0.99458    0.000
 6711.00    1.02793   0.99224    0.000
 6712.00    1.03480   0.98898    0.000
 6713.00    1.04799   0.98564    0.000
 6714.00    1.05712   0.98186    0.000
 6715.00    1.07388   0.97757    0.000
 6716.00    1.12233   0.97436    0.000
 6717.00    1.18336   0.97303    0.000
 6718.00    1.20625   0.97242    0.000
 6719.00    1.18126   0.97278    0.000
 6720.00    1.13907   0.97515    0.000
 6721.00    1.10060   0.97874    0.000
 6722.00    1.06840   0.98209    0.000
 6723.00    1.03612   0.98502    0.000
 6724.00    1.00050   0.98803    0.000
 6725.00    0.98025   0.99081    0.000
 6726.00    0.99925   0.99262    0.000
 6727.00    1.04752   0.99374    0.000
 6728.00    1.09444   0.99513    0.000
 6729.00    1.12568   0.99652    0.000
 6730.00    1.14454   0.99725    0.000
 6731.00    1.16227   0.99768    0.000
 6732.00    1.18352   0.99817    0.000
 6733.00    1.18823   0.99821    0.000
 6734.00    1.15690   0.99763    0.000
 6735.00    1.10816   0.99662    0.000
 6736.00    1.07085   0.99515    0.000
 6737.00    1.04276   0.99335    0.000
 6738.00    1.01288   0.99156    0.000
 6739.00    0.99250   0.98978    0.000
 6740.00    0.99019   0.98769    0.000
 6741.00    0.98335   0.98574    0.000
 6742.00    0.95912   0.98460    0.000
 6743.00    0.95370   0.98343    0.000
 6744.00    0.98918   0.98179    0.000
 6745.00    1.01702   0.98071    0.000
 6746.00    0.99174   0.98005    0.000
 6747.00    0.93584   0.97875    0.000
 6748.00    0.89790   0.97735    0.000
 6749.00    0.91065   0.97705    0.000
 6750.00    0.96723   0.97678    0.000
 6751.00    1.01525   0.97623    0.000
 6752.00    1.02796   0.97734    0.000
 6753.00    1.04331   0.97931   11.068
 6754.00    1.08677   0.98110   11.322
 6755.00    1.12829   0.98402   11.725
 6756.00    1.13784   0.98788   12.091
 6757.00    1.11804   0.99129   12.376
 6758.00    1.09044   0.99454   12.591
 6759.00    1.08116   0.99774   12.740
 6760.00    1.09266   0.99987   12.897
 6761.00    1.09848   1.00104   13.195
 6762.00    1.08606   1.00136   13.579
 6763.00    1.06851   1.00052   13.768
 6764.00    1.04636   0.99873   13.832
 6765.00    1.00249   0.99616   14.250
 6766.00    0.94997   0.99340   14.896
 6767.00    0.93354   0.99109   14.798
 6768.00    0.96355   0.98889   13.839
 6769.00    1.00640   0.98713   12.952
 6770.00    1.03699   0.98706   12.599
 6771.00    1.05204   0.98825   12.752
 6772.00    1.05345   0.98985   13.156
 6773.00    1.04601   0.99248   13.424
 6774.00    1.04659   0.99610   13.498
 6775.00    1.07258   0.99930   13.667
 6776.00    1.10526   1.00193   13.991
 6777.00    1.10617   1.00432   14.209
 6778.00    1.08035   1.00531   13.996
 6779.00    1.06430   1.00463   13.298
 6780.00    1.06326   1.00291   12.635
 6781.00    1.05624   0.99983   12.526
 6782.00    1.03681   0.99570   12.833
 6783.00    1.01550   0.99168   13.086
 6784.00    1.00670   0.98783   13.269
 6785.00    1.01786   0.98466   13.695
 6786.00    1.03563   0.98312   14.321
 6787.00    1.03883   0.98256   14.791
 6788.00    1.02352   0.98265   14.895
 6789.00    0.99766   0.98399   14.650
 6790.00    0.96693   0.98548   14.142
 6791.00    0.94344   0.98605   13.491
 6792.00    0.95804   0.98666   12.841
 6793.00    1.01633   0.98731   12.387
 6794.00    1.04592   0.98703   12.413
 6795.00    0.99439   0.98678   13.077
 6796.00    0.94520   0.98720   14.041
 6797.00    0.98100   0.98761   14.685
 6798.00    1.02795   0.98822   14.864
 6799.00    1.00255   0.98939   14.671
 6800.00    0.96849   0.99070   13.902
 6801.00    1.00188   0.99160   12.660
 6802.00    1.05752   0.99223   11.550
 6803.00    1.06979   0.99302   10.936
 6804.00    1.04706   0.99311   10.830
 6805.00    1.01670   0.99241   11.203
 6806.00    0.97785   0.99222   12.078
 6807.00    0.93759   0.99180   13.353
 6808.00    0.93337   0.99053   14.469
 6809.00    0.97715   0.98989   14.930
 6810.00    1.02448   0.98965   15.146
 6811.00    1.04018   0.98890   15.558
 6812.00    1.03533   0.98836   15.933
 6813.00    1.02120   0.98829   16.031
 6814.00    0.98777   0.98848   16.041
 6815.00    0.94761   0.98886   15.951
 6816.00    0.94636   0.98934   15.356
 6817.00    0.98805   0.99014   14.320
 6818.00    1.01620   0.99122   13.412
 6819.00    1.00924   0.99236   12.868
 6820.00    1.00751   0.99362   12.590
 6821.00    1.02835   0.99495   12.580
 6822.00    1.04304   0.99610   12.979
 6823.00    1.03819   0.99700   13.640
 6824.00    1.03086   0.99772   13.943
 6825.00    1.02949   0.99780   13.426
 6826.00    1.02374   0.99712   12.307
 6827.00    1.00185   0.99639   11.193
 6828.00    0.96410   0.99571   10.533
 6829.00    0.94421   0.99475   10.322
 6830.00    0.98543   0.99396   10.373
 6831.00    1.05429   0.99373   10.762
 6832.00    1.06669   0.99371   11.788
 6833.00    1.02353   0.99348   13.335
 6834.00    0.99712   0.99269   14.501
 6835.00    1.00665   0.99133   14.824
 6836.00    1.01897   0.98919   14.911
 6837.00    1.02236   0.98581   15.072
 6838.00    1.02751   0.98175   15.153
 6839.00    1.03339   0.97755   15.111
 6840.00    1.02936   0.97347   15.048
 6841.00    1.01379   0.97032   15.002
 6842.00    0.99584   0.96871   14.950
 6843.00    0.99135   0.96864   14.909
 6844.00    1.00614   0.97008   14.869
 6845.00    1.01189   0.97290   14.675
 6846.00    0.98331   0.97649   14.225
 6847.00    0.95789   0.98007   13.722
 6848.00    0.98011   0.98325   13.403
 6849.00    1.01365   0.98559   13.248
 6850.00    1.00335   0.98671   13.218
 6851.00    0.96867   0.98692   13.522
 6852.00    0.94884   0.98578   14.251
 6853.00    0.92618   0.98330   14.741
 6854.00    0.88211   0.98098   14.249
 6855.00    0.86387   0.97842   13.240
 6856.00    0.90839   0.97501   12.435
 6857.00    0.96319   0.97276   12.004
 6858.00    0.96862   0.97166   11.921
 6859.00    0.94019   0.97013   12.175
 6860.00    0.92200   0.96961   12.713
 6861.00    0.93701   0.97075   13.341
 6862.00    0.97396   0.97160   13.885
 6863.00    0.98771   0.97223   14.409
 6864.00    0.96245   0.97376   14.943
 6865.00    0.94883   0.97489   15.214
 6866.00    0.97973   0.97482   15.089
 6867.00    1.01804   0.97488   14.904
 6868.00    1.02250   0.97506   14.898
 6869.00    0.99110   0.97428   14.944
 6870.00    0.94729   0.97341   14.959
 6871.00    0.92397   0.97356   15.093
 6872.00    0.93046   0.97385   15.336
 6873.00    0.94229   0.97387   15.370
 6874.00    0.94293   0.97464   15.144
 6875.00    0.94044   0.97613   15.030
 6876.00    0.94069   0.97725   15.144
 6877.00    0.93896   0.97797   15.185
 6878.00    0.94100   0.97893   15.026
 6879.00    0.96262   0.97960   14.874
 6880.00    0.99000   0.97927   14.783
 6881.00    0.98325   0.97873   14.572
 6882.00    0.94952   0.97889   14.213
 6883.00    0.94229   0.97899   13.886
 6884.00    0.96470   0.97900   13.759
 6885.00    0.96587   0.98057   13.894
 6886.00    0.93650   0.98318   14.091
 6887.00    0.91753   0.98530   13.959
 6888.00    0.93441   0.98809   13.423
 6889.00    0.97989   0.99164   12.785
 6890.00    1.02282   0.99397   12.410
 6891.00    1.02990   0.99553   12.534
 6892.00    1.01191   0.99727   13.008
 6893.00    1.00696   0.99790   13.422
 6894.00    1.01662   0.99747   13.748
 6895.00    1.01497   0.99734   14.283
 6896.00    0.99902   0.99719   14.888
 6897.00    0.98558   0.99652   15.081
 6898.00    0.98377   0.99615   14.926
 6899.00    0.99146   0.99648   14.856
 6900.00    0.99925   0.99688   14.912
 6901.00    0.99861   0.99716   14.903
 6902.00    0.99354   0.99790   14.870
 6903.00    0.99098   0.99885   14.949
 6904.00    0.98393   0.99960   15.061
 6905.00    0.96727   1.00041   15.041
 6906.00    0.96212   1.00105   14.909
 6907.00    0.98566   1.00143   14.786
 6908.00    1.00979   1.00154   14.738
 6909.00    1.00170   1.00080   14.771
 6910.00    0.97703   0.99966   14.859
 6911.00    0.96427   0.99819   14.969
 6912.00    0.95935   0.99572   15.088
 6913.00    0.94856   0.99352   15.195
 6914.00    0.93662   0.99189   15.215
 6915.00    0.93468   0.98995   15.089
 6916.00    0.94605   0.98911   14.843
 6917.00    0.96579   0.98961   14.537
 6918.00    0.98226   0.99006   14.220
 6919.00    0.98337   0.99089   13.978
 6920.00    0.96352   0.99222   13.946
 6921.00    0.93797   0.99287   14.055
 6922.00    0.94525   0.99269   13.904
 6923.00    0.98660   0.99212   13.392
 6924.00    0.99758   0.99111   12.988
 6925.00    0.94973   0.98987   12.912
 6926.00    0.90254   0.98880   12.873
 6927.00    0.90039   0.98812   12.736
 6928.00    0.92022   0.98804   12.792
 6929.00    0.94492   0.98854   13.195
 6930.00    0.99293   0.98920   13.690
 6931.00    1.04745   0.98979   13.987
 6932.00    1.04191   0.99069   14.046
 6933.00    0.97043   0.99171   14.008
 6934.00    0.91393   0.99224   14.071
 6935.00    0.91761   0.99299   14.248
 6936.00    0.95167   0.99423   14.341
 6937.00    0.97923   0.99508   14.260
 6938.00    0.98541   0.99574   14.126
 6939.00    0.97685   0.99640   14.041
 6940.00    0.97242   0.99626   14.015
 6941.00    0.97387   0.99557   14.035
 6942.00    0.96514   0.99451   14.072
 6943.00    0.94269   0.99254   14.078
 6944.00    0.91999   0.99077   14.013
 6945.00    0.91114   0.98951   13.953
 6946.00    0.92185   0.98785   14.029
 6947.00    0.93913   0.98710   14.229
 6948.00    0.94105   0.98733   14.414
 6949.00    0.92735   0.98690   14.523
 6950.00    0.91483   0.98683   14.576
 6951.00    0.90916   0.98740   14.534
 6952.00    0.90713   0.98716   14.397
 6953.00    0.91502   0.98706   14.463
 6954.00    0.93845   0.98795   14.880
 6955.00    0.95584   0.98875   14.628
 6956.00    0.94342   0.98984   12.861
 6957.00    0.92762   0.99182   11.032
 6958.00    0.94687   0.99380   10.218
 6959.00    0.97443   0.99571   10.206
 6960.00    0.96755   0.99766   10.455
 6961.00    0.95969   0.99914   10.437
 6962.00    0.99692   1.00053    9.991
 6963.00    1.03176   1.00165    9.688
 6964.00    1.00095   1.00210   10.005
 6965.00    0.94335   1.00280   10.602
 6966.00    0.92721   1.00340   10.779
 6967.00    0.94546   1.00339   10.577
 6968.00    0.95756   1.00361   10.445
 6969.00    0.95079   1.00342   10.518
 6970.00    0.93696   1.00237   10.672
 6971.00    0.93911   1.00112   10.648
 6972.00    0.96108   0.99864   10.405
 6973.00    0.96522   0.99469   10.360
 6974.00    0.93359   0.99046   10.711
 6975.00    0.91580   0.98557   10.919
 6976.00    0.94650   0.97966   10.565
 6977.00    0.98203   0.97458   10.183
 6978.00    0.97459   0.97153   10.261
 6979.00    0.93018   0.96956   10.751
 6980.00    0.88254   0.96939   11.331
 6981.00    0.86721   0.97243   11.531
 6982.00    0.89268   0.97696   11.202
 6983.00    0.92862   0.98171   10.769
 6984.00    0.94587   0.98716   10.572
 6985.00    0.93978   0.99233   10.641
 6986.00    0.91891   0.99608   10.882
 6987.00    0.89786   0.99865   11.138
 6988.00    0.89718   1.00045   11.146
 6989.00    0.93499   1.00148   10.695
 6990.00    0.98746   1.00184   10.127
 6991.00    0.99234   1.00203   10.077
 6992.00    0.94770   1.00217   10.552
 6993.00    0.92336   1.00210   10.830
 6994.00    0.92737   1.00172   10.783
 6995.00    0.89077   1.00086   11.226
 6996.00    0.81922   0.99966   12.207
 6997.00    0.80501   0.99796   12.422
 6998.00    0.86624   0.99560   11.544
 6999.00    0.92899   0.99325   10.764
 7000.00    0.95359   0.99104   10.487
 7001.00    0.95677   0.98867   -2.000
 7002.00    0.95290   0.98672   -2.000
 7003.00    0.94251   0.98557   -2.000
 7004.00    0.93030   0.98475   -2.000
 7005.00    0.92545   0.98424   -2.000
 7006.00    0.92994   0.98443   -2.000
 7007.00    0.93947   0.98515   -2.000
 7008.00    0.95241   0.98586   -2.000
 7009.00    0.96602   0.98646   -2.000
 7010.00    0.96453   0.98697   -2.000
 7011.00    0.93782   0.98683   -2.000
 7012.00    0.92093   0.98592   -2.000
 7013.00    0.95258   0.98459   -2.000
 7014.00    0.98875   0.98254   -2.000
 7015.00    0.96517   0.98053   -2.000
 7016.00    0.92457   0.97951   -2.000
 7017.00    0.94180   0.97858   -2.000
 7018.00    0.97877   0.97832   -2.000
 7019.00    0.96065   0.97968   -2.000
 7020.00    0.91374   0.98104   -2.000
 7021.00    0.90440   0.98178   -2.000
 7022.00    0.93340   0.98283   -2.000
 7023.00    0.95989   0.98365   -2.000
 7024.00    0.95027   0.98376   -2.000
 7025.00    0.90827   0.98395   -2.000
 7026.00    0.89554   0.98476   -2.000
 7027.00    0.94708   0.98601   -2.000
 7028.00    0.99026   0.98761   -2.000
 7029.00    0.96387   0.98958   -2.000
 7030.00    0.93034   0.99156   -2.000
 7031.00    0.95386   0.99345   -2.000
 7032.00    0.99126   0.99491   -2.000
 7033.00    0.99031   0.99546   -2.000
 7034.00    0.97242   0.99613   -2.000
 7035.00    0.96868   0.99687   -2.000
 7036.00    0.96981   0.99670   -2.000
 7037.00    0.96150   0.99750   -2.000
 7038.00    0.95021   0.99977   -2.000
 7039.00    0.94803   1.00164   -2.000
 7040.00    0.96049   1.00436   -2.000
 7041.00    0.98107   1.00877   -2.000
 7042.00    0.99276   1.01261   -2.000
 7043.00    0.99378   1.01577   -2.000
 7044.00    1.00458   1.01930   -2.000
 7045.00    1.02716   1.02184   -2.000
 7046.00    1.03436   1.02289   -2.000
 7047.00    1.02308   1.02327   -2.000
 7048.00    1.02595   1.02246   -2.000
 7049.00    1.04644   1.02024   -2.000
 7050.00    1.04580   1.01668   -2.000
 7051.00    1.01066   1.01174   -2.000
 7052.00    0.97130   1.00613   -2.000
 7053.00    0.96171   0.99991   -2.000
 7054.00    0.99556   0.99338   -2.000
 7055.00    1.03937   0.98768   -2.000
 7056.00    1.03168   0.98287   -2.000
 7057.00    0.97245   0.97868   -2.000
 7058.00    0.92386   0.97536   -2.000
 7059.00    0.92575   0.97312   -2.000
 7060.00    0.97310   0.97137   -2.000
 7061.00    1.02671   0.96951   -2.000
 7062.00    1.04094   0.96841   -2.000
 7063.00    1.02323   0.96763   -2.000
 7064.00    1.01763   0.96613   -2.000
 7065.00    1.03174   0.96512   -2.000
 7066.00    1.04129   0.96443   -2.000
 7067.00    1.03710   0.96329   -2.000
 7068.00    1.02910   0.96317   -2.000
 7069.00    1.03304   0.96393   -2.000
 7070.00    1.05392   0.96494   -2.000
 7071.00    1.06269   0.96730   -2.000
 7072.00    1.03015   0.97045   -2.000
 7073.00    0.98883   0.97331   -2.000
 7074.00    0.98641   0.97635   -2.000
 7075.00    0.99970   0.97925   -2.000
 7076.00    0.98629   0.98121   -2.000
 7077.00    0.97478   0.98225   -2.000
 7078.00    1.00728   0.98253   -2.000
 7079.00    1.04888   0.98167   -2.000
 7080.00    1.03987   0.97931   -2.000
 7081.00    0.97466   0.97583   -2.000
 7082.00    0.89715   0.97109   -2.000
 7083.00    0.87853   0.96512   -2.000
 7084.00    0.94610   0.95903   -2.000
 7085.00    1.02009   0.95251   -2.000
 7086.00    1.02333   0.94607   -2.000
 7087.00    0.98693   0.94122   -2.000
 7088.00    0.96610   0.93683   -2.000
 7089.00    0.95881   0.93314   -2.000
 7090.00    0.94678   0.93141   -2.000
 7091.00    0.93344   0.93002   -2.000
 7092.00    0.92468   0.92925   -2.000
 7093.00    0.91378   0.92986   -2.000
 7094.00    0.89861   0.93059   -2.000
 7095.00    0.89119   0.93184   -2.000
 7096.00    0.89277   0.93382   -2.000
 7097.00    0.88394   0.93588   -2.000
 7098.00    0.87010   0.93807   -2.000
 7099.00    0.89467   0.94028   -2.000
 7100.00    0.95114   0.94240   -2.000
 7101.00    0.95826   0.94407   -2.000
 7102.00    0.89823   0.94533   -2.000
 7103.00    0.85964   0.94631   -2.000
 7104.00    0.88439   0.94664   -2.000
 7105.00    0.91876   0.94639   -2.000
 7106.00    0.93721   0.94585   -2.000
 7107.00    0.97619   0.94488   -2.000
 7108.00    1.03685   0.94336   -2.000
 7109.00    1.06986   0.94172   -2.000
 7110.00    1.07480   0.94034   -2.000
 7111.00    1.10378   0.93911   -2.000
 7112.00    1.13979   0.93813   -2.000
 7113.00    1.10152   0.93785   -2.000
 7114.00    0.99833   0.93824   -2.000
 7115.00    0.93212   0.93878   -2.000
 7116.00    0.95078   0.93943   -2.000
 7117.00    1.01963   0.94020   -2.000
 7118.00    1.06927   0.94062   -2.000
 7119.00    1.04119   0.94070   -2.000
 7120.00    0.96490   0.94023   -2.000
 7121.00    0.92435   0.93940   -2.000
 7122.00    0.93524   0.93859   -2.000
 7123.00    0.95573   0.93700   -2.000
 7124.00    0.97248   0.93517   -2.000
 7125.00    0.99710   0.93361   -2.000
 7126.00    1.02157   0.93136   -2.000
 7127.00    1.02406   0.92903   -2.000
 7128.00    0.99652   0.92696   -2.000
 7129.00    0.94978   0.92500   -2.000
 7130.00    0.91239   0.92391   -2.000
 7131.00    0.90822   0.92334   -2.000
 7132.00    0.92333   0.92377   -2.000
 7133.00    0.92896   0.92571   -2.000
 7134.00    0.92201   0.92782   -2.000
 7135.00    0.91770   0.93059   -2.000
 7136.00    0.93098   0.93400   -2.000
 7137.00    0.96299   0.93639   -2.000
 7138.00    0.98951   0.93856   -2.000
 7139.00    0.99064   0.94067   -2.000
 7140.00    0.98372   0.94119   -2.000
 7141.00    0.98623   0.94126   -2.000
 7142.00    0.97665   0.94147   -2.000
 7143.00    0.94087   0.94017   -2.000
 7144.00    0.91660   0.93851   -2.000
 7145.00    0.93790   0.93732   -2.000
 7146.00    0.98310   0.93495   -2.000
 7147.00    0.99865   0.93309   -2.000
 7148.00    0.93283   0.93260   -2.000
 7149.00    0.81482   0.93170   -2.000
 7150.00    0.78779   0.93230   -2.000
 7151.00    0.90497   0.93478   -2.000
 7152.00    1.01624   0.93704   -2.000
 7153.00    1.02611   0.93990   -2.000
 7154.00    1.03559   0.94350   -2.000
 7155.00    1.10379   0.94645   -2.000
 7156.00    1.13095   0.94832   -2.000
 7157.00    1.07607   0.94962   -2.000
 7158.00    1.04624   0.95038   -2.000
 7159.00    1.08174   0.94954   -2.000
 7160.00    1.08049   0.94785   -2.000
 7161.00    1.00335   0.94619   -2.000
 7162.00    0.94080   0.94361   -2.000
 7163.00    0.94650   0.94107   -2.000
 7164.00    0.98251   0.93970   -2.000
 7165.00    1.01546   0.93879   -2.000
 7166.00    1.04497   0.93898   -2.000
 7167.00    1.05284   0.94104   -2.000
 7168.00    1.00559   0.94391   -2.000
 7169.00    0.93257   0.94736   -2.000
 7170.00    0.91582   0.95145   -2.000
 7171.00    0.96763   0.95505   -2.000
 7172.00    1.02268   0.95785   -2.000
 7173.00    1.03645   0.95996   -2.000
 7174.00    1.00808   0.96058   -2.000
 7175.00    0.95760   0.96012   -2.000
 7176.00    0.91178   0.95913   -2.000
 7177.00    0.88541   0.95692   -2.000
 7178.00    0.88194   0.95431   -2.000
 7179.00    0.90601   0.95199   -2.000
 7180.00    0.95236   0.94932   -2.000
 7181.00    0.97705   0.94702   -2.000
 7182.00    0.93538   0.94508   -2.000
 7183.00    0.86750   0.94312   -2.000
 7184.00    0.85521   0.94171   -2.000
 7185.00    0.91089   0.93977   -2.000
 7186.00    0.97701   0.93760   -2.000
 7187.00    0.96484   0.93613   -2.000
 7188.00    0.83167   0.93401   -2.000
 7189.00    0.68439   0.93238   -2.000
 7190.00    0.65665   0.93205   -2.000
 7191.00    0.71283   0.93173   -2.000
 7192.00    0.75201   0.93243   -2.000
 7193.00    0.78243   0.93424   -2.000
 7194.00    0.86006   0.93591   -2.000
 7195.00    0.98190   0.93779   -2.000
 7196.00    1.07072   0.94023   -2.000
 7197.00    0.98787   0.94219   -2.000
 7198.00    0.71849   0.94347   -2.000
 7199.00    0.53662   0.94505   -2.000
 7200.00    0.64992   0.94606   -2.000
 7201.00    0.86338   0.94617   -2.000
 7202.00    0.92228   0.94616   -2.000
 7203.00    0.84217   0.94549   -2.000
 7204.00    0.77050   0.94422   -2.000
 7205.00    0.83155   0.94249   -2.000
 7206.00    1.01956   0.94075   -2.000
 7207.00    1.15706   0.93932   -2.000
 7208.00    1.15133   0.93782   -2.000
 7209.00    1.14237   0.93763   -2.000
 7210.00    1.20749   0.93843   -2.000
 7211.00    1.19788   0.93916   -2.000
 7212.00    1.01824   0.94120   -2.000
 7213.00    0.77651   0.94357   -2.000
 7214.00    0.59412   0.94521   -2.000
 7215.00    0.50810   0.94733   -2.000
 7216.00    0.56556   0.94930   -2.000
 7217.00    0.83706   0.95041   -2.000
 7218.00    1.22401   0.95164   -2.000
