###################################################################
## OUTPUT of StarlightChains_v04.for    [Cid@UFSC - 01/Apr/2007] ##
###################################################################

## Some input info
2001ee.txt                               [arq_obs]
Base.CB07.vall.4m                        [arq_base]
Masks.EmLines.NEW.gm                     [arq_masks]
StCv04.C11.config                        [arq_config]
   66                                    [N_base]
    0                                    [N_YAV_components = # of components with extra extinction!]
    0                                    [i_FitPowerLaw (1/0 = Yes/No)]
-9.99                                    [alpha_PowerLaw]
CCM                                      [red_law_option]
 1.458241                                [q_norm = A(l_norm)/A(V)]

## (Re)Sampling Parameters
 3741.00                                 [l_ini (A)]
 7218.00                                 [l_fin (A)]
    1.00                                 [dl    (A)]     (OBS: dl_cushion =    50.00 A)

## Normalization info
 4020.00                                 [l_norm (A) - for base]
 4010.00                                 [llow_norm (A) - window for f_obs]
 4060.00                                 [lupp_norm (A) - window for f_obs]
1.757203E-16                             [fobs_norm (in input units)]

## S/N
 3691.00                                 [llow_SN (A) - window for S/N]
 7268.00                                 [lupp_SN (A) - window for S/N]
   6.107                                 [S/N in S/N window]
   7.942                                 [S/N in norm. window]
  12.391                                 [S/N_err in S/N window]
  16.113                                 [S/N_err in norm. window]
  1.0000                                 [fscale_chi2]

## etc...
    -2007256                             [idum_orig]
  2384                                   [NOl_eff]
  2384                                   [Nl_eff]
     0    NSIGMA                         [Ntot_cliped & clip_method]
  1335390                                [Nglobal_steps]
   7                                     [N_chains]
  23                                     [NEX0s_base = N_base in EX0s-fits]
 0   0   1        2   2.0   2.629E+01    [Clip-Bug, RC-Crash & Burn-In warning-flags, n_censored_weights, wei_nsig_threshold & wei_limit]
    16     15.532     15.033      0.499  [idt_all, wdt_TotTime, wdt_UsrTime & wdt_SysTime (sec)]

## Synthesis Results - Best model ##

 3.26109E-01                             [chi2/Nl_eff]
     3.63036                             [adev (%)]

   103.23259                             [sum-of-x (%)]
 2.84692E-16                             [Flux_tot (units of input spectrum!)]
 1.09855E-12                             [Mini_tot (???)]
 6.05458E-13                             [Mcor_tot (???)]

-237.75                                  [v0_min  (km/s)]
 206.51                                  [vd_min  (km/s)]
 0.3356                                  [AV_min  (mag)]
 0.0000                                  [YAV_min (mag)]

# j     x_j(%)      Mini_j(%)     Mcor_j(%)     age_j(yr)     Z_j      (L/M)_j    YAV?  Mstars   component_j        a/Fe...       SSP_chi2r SSP_adev(%)   SSP_AV   SSP_x(%)
  1      0.0000     0.0000E+00    0.0000E+00    1.000000E+06  0.00400  1.094E-02    0   1.0000   age020_m42            0.0000     6.0583E-01     5.0747   2.3163    92.6059
  2      0.0660     4.1359E-04    7.5034E-04    3.160000E+06  0.00400  4.007E-02    0   0.9999   age045_m42            0.0000     4.9207E-01     4.4752   1.6261    97.0502
  3      0.0000     0.0000E+00    0.0000E+00    5.010000E+06  0.00400  2.539E-02    0   0.9488   age055_m42            0.0000     5.1585E-01     4.5588   1.9290    95.5478
  4      0.0000     0.0000E+00    0.0000E+00    6.610000E+06  0.00400  2.620E-02    0   0.9220   age061_m42            0.0000     4.7288E-01     4.3881   1.5521    97.2416
  5      0.0000     0.0000E+00    0.0000E+00    1.000000E+07  0.00400  1.322E-02    0   0.8862   age070_m42            0.0000     4.3509E-01     4.1043   1.2534    99.7679
  6      0.0111     3.5366E-04    5.4999E-04    1.445000E+07  0.00400  7.883E-03    0   0.8571   age078_m42            0.0000     4.5593E-01     4.2114   1.5727    97.7169
  7      0.0000     0.0000E+00    0.0000E+00    2.512000E+07  0.00400  5.251E-03    0   0.8174   age090_m42            0.0000     4.5027E-01     4.1814   1.1232   100.2312
  8      0.0000     0.0000E+00    0.0000E+00    4.000000E+07  0.00400  3.649E-03    0   0.7851   age104_m42            0.0000     4.3350E-01     4.1420   0.9022   100.7340
  9      0.0000     0.0000E+00    0.0000E+00    5.500000E+07  0.00400  3.098E-03    0   0.7629   age110_m42            0.0000     4.4979E-01     4.2779   1.0702   100.1890
 10      0.0000     0.0000E+00    0.0000E+00    1.015200E+08  0.00400  2.228E-03    0   0.7207   age116_m42            0.0000     4.7657E-01     4.4686   1.1007    99.9662
 11      0.0000     0.0000E+00    0.0000E+00    2.861200E+08  0.00400  1.093E-03    0   0.6648   age125_m42            0.0000     4.8398E-01     4.5148   0.5335   102.6512
 12      2.3896     9.0933E-01    1.0502E+00    5.088000E+08  0.00400  6.597E-04    0   0.6365   age130_m42            0.0000     5.1526E-01     4.7002   0.5386   102.8890
 13      0.0005     5.9839E-04    6.2951E-04    1.434000E+09  0.00400  2.132E-04    0   0.5798   age139_m42            0.0000     5.0634E-01     4.6152  -0.4180   104.0477
 14      0.0000     0.0000E+00    0.0000E+00    4.250000E+09  0.00400  5.895E-05    0   0.5377   age158_m42            0.0000     5.7688E-01     4.7493  -0.8591   100.3367
 15      2.2988     1.6441E+01    1.5548E+01    7.500000E+09  0.00400  3.510E-05    0   0.5212   age171_m42            0.0000     7.1448E-01     5.1894  -1.0000    98.0033
 16      0.0000     0.0000E+00    0.0000E+00    1.300000E+10  0.00400  2.005E-05    0   0.5034   age193_m42            0.0000     1.1355E+00     6.5099  -1.0000    91.6724
 17      2.3987     3.9486E+01    3.5585E+01    1.800000E+10  0.00400  1.525E-05    0   0.4967   age213_m42            0.0000     1.1944E+00     6.6890  -1.0000    90.4427
 18      5.4621     1.1076E-01    2.0096E-01    1.000000E+06  0.00800  1.238E-02    0   1.0000   age020_m52            0.0000     6.0607E-01     5.0768   2.3112    92.8364
 19      1.4107     1.1520E-02    2.0831E-02    3.160000E+06  0.00800  3.074E-02    0   0.9966   age045_m52            0.0000     5.9969E-01     5.0124   2.2373    93.5270
 20      0.0000     0.0000E+00    0.0000E+00    5.010000E+06  0.00800  2.668E-02    0   0.9443   age055_m52            0.0000     5.2455E-01     4.6044   2.0052    94.9824
 21     46.1053     5.4186E-01    9.0225E-01    6.610000E+06  0.00800  2.136E-02    0   0.9177   age061_m52            0.0000     3.6183E-01     3.8605   0.7486   101.1175
 22      0.0000     0.0000E+00    0.0000E+00    1.000000E+07  0.00800  1.215E-02    0   0.8827   age070_m52            0.0000     4.5196E-01     4.1854   1.4228    99.9566
 23      0.0000     0.0000E+00    0.0000E+00    1.445000E+07  0.00800  8.717E-03    0   0.8552   age078_m52            0.0000     4.3831E-01     4.1209   1.5402    98.9212
 24      0.0000     0.0000E+00    0.0000E+00    2.512000E+07  0.00800  5.592E-03    0   0.8162   age090_m52            0.0000     4.4554E-01     4.1644   1.1885   101.2928
 25      0.0000     0.0000E+00    0.0000E+00    4.000000E+07  0.00800  3.896E-03    0   0.7841   age104_m52            0.0000     4.3705E-01     4.1658   1.1117   101.5772
 26      0.0000     0.0000E+00    0.0000E+00    1.015200E+08  0.00800  2.148E-03    0   0.7226   age116_m52            0.0000     4.3309E-01     4.2513   1.0634   100.9046
 27      0.0000     0.0000E+00    0.0000E+00    2.861200E+08  0.00800  9.925E-04    0   0.6683   age125_m52            0.0000     5.1321E-01     4.6820   0.6041   103.7691
 28      0.3013     2.4082E-01    2.6820E-01    9.047900E+08  0.00800  3.141E-04    0   0.6138   age135_m52            0.0000     6.3282E-01     5.1494  -0.1643   106.5080
 29      0.0000     0.0000E+00    0.0000E+00    1.434000E+09  0.00800  1.719E-04    0   0.5853   age139_m52            0.0000     5.8493E-01     4.8879  -0.7524   104.7622
 30      0.0000     0.0000E+00    0.0000E+00    2.500000E+09  0.00800  7.872E-05    0   0.5600   age150_m52            0.0000     7.6557E-01     5.4448  -1.0000   101.3522
 31      0.9996     5.7872E+00    5.6975E+00    4.250000E+09  0.00800  4.336E-05    0   0.5426   age158_m52            0.0000     8.0643E-01     5.5001  -1.0000    99.8777
 32      0.0000     0.0000E+00    0.0000E+00    6.250000E+09  0.00800  3.159E-05    0   0.5319   age166_m52            0.0000     1.3718E+00     7.2017  -1.0000    92.5774
 33      0.0000     0.0000E+00    0.0000E+00    1.300000E+10  0.00800  1.361E-05    0   0.5073   age193_m52            0.0000     4.4608E+00    13.1084  -1.0000    75.7789
 34      0.0000     0.0000E+00    0.0000E+00    1.800000E+10  0.00800  9.886E-06    0   0.4990   age213_m52            0.0000     5.5536E+00    14.5432  -1.0000    71.9574
 35      2.7786     4.5178E-02    8.1971E-02    1.000000E+06  0.02000  1.544E-02    0   1.0000   age020_m62            0.0000     6.1076E-01     5.0998   2.3067    93.0913
 36      0.0000     0.0000E+00    0.0000E+00    3.160000E+06  0.02000  3.762E-02    0   0.9858   age045_m62            0.0000     6.1326E-01     5.0803   2.2455    93.9246
 37      0.1076     8.1958E-04    1.3892E-03    5.010000E+06  0.02000  3.296E-02    0   0.9342   age055_m62            0.0000     5.0517E-01     4.4992   1.8951    96.4461
 38      0.0000     0.0000E+00    0.0000E+00    8.710000E+06  0.02000  1.154E-02    0   0.8861   age067_m62            0.0000     8.7221E-01     6.3410   0.8303   104.2209
 39      0.0074     2.4242E-04    3.7264E-04    1.445000E+07  0.02000  7.663E-03    0   0.8472   age078_m62            0.0000     5.0694E-01     4.5489   1.0583   102.5014
 40      0.0000     0.0000E+00    0.0000E+00    2.512000E+07  0.02000  4.532E-03    0   0.8099   age090_m62            0.0000     5.5658E-01     4.7271   1.0524   102.0791
 41      0.0000     0.0000E+00    0.0000E+00    5.500000E+07  0.02000  2.733E-03    0   0.7595   age110_m62            0.0000     4.2086E-01     4.0604   1.0894   101.0997
 42      0.0000     0.0000E+00    0.0000E+00    1.609000E+08  0.02000  1.369E-03    0   0.6985   age120_m62            0.0000     4.7900E-01     4.4926   0.9541   102.6941
 43      0.0000     0.0000E+00    0.0000E+00    2.861200E+08  0.02000  9.013E-04    0   0.6714   age125_m62            0.0000     5.6571E-01     4.8985   0.7198   104.8072
 44      0.0000     0.0000E+00    0.0000E+00    5.088000E+08  0.02000  5.028E-04    0   0.6449   age130_m62            0.0000     6.7620E-01     5.3189   0.3680   106.4037
 45      4.0908     4.2296E+00    4.7419E+00    9.047900E+08  0.02000  2.428E-04    0   0.6179   age135_m62            0.0000     6.5872E-01     5.2489  -0.2129   105.5649
 46      0.0000     0.0000E+00    0.0000E+00    1.434000E+09  0.02000  1.263E-04    0   0.5908   age139_m62            0.0000     7.3252E-01     5.3648  -0.6582   104.1173
 47      0.0000     0.0000E+00    0.0000E+00    2.500000E+09  0.02000  5.985E-05    0   0.5673   age150_m62            0.0000     9.9002E-01     6.1068  -1.0000   101.8650
 48      0.0000     0.0000E+00    0.0000E+00    4.250000E+09  0.02000  3.271E-05    0   0.5468   age158_m62            0.0000     2.0423E+00     8.7721  -1.0000    89.9349
 49      0.0000     0.0000E+00    0.0000E+00    1.000000E+10  0.02000  1.360E-05    0   0.5167   age181_m62            0.0000     4.5799E+00    13.0994  -1.0000    77.4830
 50      0.0000     0.0000E+00    0.0000E+00    1.800000E+10  0.02000  7.124E-06    0   0.5013   age213_m62            0.0000     6.6695E+00    15.7368  -1.0000    70.1201
 51      0.0000     0.0000E+00    0.0000E+00    1.000000E+06  0.05000  2.592E-02    0   0.9998   age020_m72            0.0000     6.2749E-01     5.1923   2.2934    93.3174
 52      3.2739     1.6963E-02    2.9477E-02    3.160000E+06  0.05000  4.845E-02    0   0.9577   age045_m72            0.0000     5.7867E-01     4.8392   2.1404    94.6099
 53      4.7563     3.8867E-02    6.4506E-02    5.010000E+06  0.05000  3.072E-02    0   0.9147   age055_m72            0.0000     4.9225E-01     4.4363   1.6481    98.8978
 54      0.0000     0.0000E+00    0.0000E+00    6.610000E+06  0.05000  1.455E-02    0   0.8877   age061_m72            0.0000     1.6325E+00     8.7080   0.8627   105.7988
 55      2.8084     7.7695E-02    1.2016E-01    1.000000E+07  0.05000  9.074E-03    0   0.8524   age070_m72            0.0000     6.7588E-01     5.0545   1.8353    98.5885
 56      0.0000     0.0000E+00    0.0000E+00    2.512000E+07  0.05000  4.250E-03    0   0.7902   age090_m72            0.0000     5.5599E-01     4.5859   1.5462    99.6431
 57      0.0000     0.0000E+00    0.0000E+00    4.000000E+07  0.05000  3.087E-03    0   0.7618   age104_m72            0.0000     5.8455E-01     4.7136   1.3214   100.9929
 58      0.0159     2.3419E-03    3.0152E-03    1.015200E+08  0.05000  1.700E-03    0   0.7096   age116_m72            0.0000     4.9013E-01     4.5026   1.0885   102.5809
 59      0.0000     0.0000E+00    0.0000E+00    2.861200E+08  0.05000  7.384E-04    0   0.6633   age125_m72            0.0000     6.1072E-01     5.0350   0.6013   105.5803
 60      4.5384     2.9833E+00    3.4491E+00    5.088000E+08  0.05000  3.819E-04    0   0.6372   age130_m72            0.0000     6.6262E-01     5.3261   0.1258   106.5543
 61     19.4116     2.9075E+01    3.2233E+01    9.047900E+08  0.05000  1.676E-04    0   0.6110   age135_m72            0.0000     9.1956E-01     6.1245  -0.5587   104.4021
 62      0.0000     0.0000E+00    0.0000E+00    1.434000E+09  0.05000  8.837E-05    0   0.5874   age139_m72            0.0000     1.0910E+00     6.4202  -1.0000   103.2515
 63      0.0000     0.0000E+00    0.0000E+00    2.500000E+09  0.05000  4.233E-05    0   0.5598   age150_m72            0.0000     2.1613E+00     9.0026  -1.0000    90.6883
 64      0.0000     0.0000E+00    0.0000E+00    6.250000E+09  0.05000  1.435E-05    0   0.5249   age166_m72            0.0000     5.4841E+00    14.3544  -1.0000    73.9886
 65      0.0000     0.0000E+00    0.0000E+00    1.300000E+10  0.05000  6.513E-06    0   0.5036   age193_m72            0.0000     8.5433E+00    17.8001  -1.0000    65.8569
 66      0.0000     0.0000E+00    0.0000E+00    1.800000E+10  0.05000  4.527E-06    0   0.4945   age213_m72            0.0000     1.0510E+01    19.6897  -1.0000    60.9891


## Synthesis Results - Average & Chains ##

# j      x_j: min, <> & last-chain-values for 1 ...  7 chains
  1      0.0000      1.7058      4.4084      4.1332      0.0000      0.0000      2.0424      2.1779      2.2501
  2      0.0660      0.7572      1.2867      0.0000      3.0074      2.9752      0.0000      0.0618      0.0000
  3      0.0000      0.3722      0.0000      1.1254      0.2916      0.7448      0.0000      0.0000      0.0000
  4      0.0000      0.3923      0.0000      0.0000      0.0000      2.0213      0.0000      0.0000      0.4545
  5      0.0000      0.4754      0.0000      0.0000      0.2538      0.0000      0.2974      0.0000      0.9927
  6      0.0111      0.4879      0.0000      1.0899      0.6469      0.0473      0.0000      0.0000      0.0000
  7      0.0000      0.6946      0.0000      0.0000      0.0000      0.0000      1.6405      0.0000      0.0000
  8      0.0000      0.6888      0.0000      0.0000      0.0000      0.0000      0.1191      0.0000      2.2993
  9      0.0000      0.5043      0.0000      0.0000      0.0000      0.0000      2.3921      0.0000      0.0000
 10      0.0000      0.6451      0.8892      0.0000      0.2143      0.0000      0.0000      0.7552      0.0000
 11      0.0000      0.8324      0.0000      0.0000      0.3818      0.0000      0.0000      1.0806      0.1630
 12      2.3896      0.8853      0.8124      0.0771      1.1681      0.0731      0.0000      0.0000      1.7468
 13      0.0005      0.1891      0.0000      0.0000      1.8068      0.1663      0.0000      0.0000      0.0000
 14      0.0000      0.1116      0.0000      0.6266      0.0000      0.0000      0.0000      0.0000      0.0000
 15      2.2988      0.1029      0.0000      0.0000      0.8111      0.2361      0.0000      0.0000      0.0000
 16      0.0000      0.1246      0.0000      0.0000      0.2260      0.0000      0.9785      0.0000      0.0000
 17      2.3987      0.0574      0.0000      0.0000      0.4020      0.0000      0.0000      0.0906      0.0000
 18      5.4621      1.0900      3.2389      0.0000      2.7699      0.0000      2.8515      1.7075      0.0000
 19      1.4107      2.1835      2.7522      1.9062      4.2900      1.5737      2.0740      3.3692      1.3049
 20      0.0000      0.4366      0.6402      0.7965      0.0000      0.0000      0.0000      0.0000      0.0000
 21     46.1053     42.5790     46.0044     48.0582     44.7876     46.0394     47.7849     44.2981     49.7240
 22      0.0000      0.5374      1.0725      0.0000      0.0000      0.1922      0.2423      0.0000      0.0000
 23      0.0000      0.6778      0.0000      0.0000      0.0000      0.0000      0.0000      0.0000      0.0000
 24      0.0000      0.5409      0.0000      0.0000      0.0000      1.1992      0.0000      0.1721      0.0000
 25      0.0000      0.5019      0.2909      0.0000      1.7388      0.0000      0.0000      0.1084      0.0000
 26      0.0000      0.6484      0.0000      0.0000      0.0000      0.0000      0.0000      0.0504      2.7243
 27      0.0000      0.7807      1.9185      0.0000      0.0000      0.0000      0.6413      0.1728      0.0000
 28      0.3013      4.6092      4.4778      5.9923      2.7284      4.5326      4.9390      2.6335      2.3981
 29      0.0000      0.1373      0.0000      0.0000      0.0000      0.0000      0.0000      0.4009      0.0000
 30      0.0000      0.1118      0.0000      0.0000      0.0000      0.0000      0.0000      0.0000      0.0000
 31      0.9996      0.2755      0.0000      0.4632      1.6422      0.0000      0.0000      0.0000      0.0000
 32      0.0000      0.0703      0.0000      0.0000      0.0000      0.0000      0.0171      0.0000      0.0000
 33      0.0000      0.0247      0.0000      0.0000      0.0000      0.0000      0.0000      0.0000      0.0000
 34      0.0000      0.0290      0.0000      0.0000      0.0000      0.0000      0.0000      0.0000      0.0000
 35      2.7786      1.2839      0.0000      1.9346      0.9816      0.0000      0.0000      1.1337      0.9609
 36      0.0000      0.7207      0.0000      2.4901      0.0000      1.3487      0.0669      2.0915      1.4490
 37      0.1076      1.9190      1.6483      1.9532      3.4716      1.1462      1.2226      0.7394      0.0000
 38      0.0000      0.7542      0.0000      0.0000      0.0000      0.0000      0.0000      0.0000      0.0000
 39      0.0074      0.8968      0.0000      0.0000      1.2786      0.0000      0.0000      0.6322      0.1479
 40      0.0000      0.7394      0.0000      0.0000      0.0000      3.8019      0.5116      0.0000      3.2819
 41      0.0000      0.8453      1.6287      1.0916      0.0000      0.0000      0.0000      0.2588      0.0000
 42      0.0000      0.4776      0.0000      0.0000      0.0000      0.0000      0.0000      3.4221      0.0000
 43      0.0000      0.5159      0.0000      0.0000      2.9299      0.0000      0.8340      0.0000      0.0000
 44      0.0000      0.7499      0.0000      0.0000      0.0000      0.0000      0.6040      0.6062      0.0000
 45      4.0908      2.1890      4.4982      0.4179      1.7843      2.3350      2.9347      2.5654      3.0097
 46      0.0000      0.1725      0.0000      0.0000      0.0000      0.0000      0.3929      1.9660      0.6606
 47      0.0000      0.0804      0.0000      0.0000      0.0000      0.0142      0.0000      0.8089      0.0000
 48      0.0000      0.0386      0.0000      0.0000      0.0000      0.0000      0.0000      0.0000      0.0000
 49      0.0000      0.0527      0.5984      0.0000      0.0000      0.0000      0.0000      0.0000      0.0000
 50      0.0000      0.0371      0.0450      0.0164      0.0000      0.0000      0.0000      0.4170      0.0000
 51      0.0000      2.0188      1.8597      4.4064      0.0468      3.7061      2.3722      2.7886      3.7297
 52      3.2739      1.1395      0.0368      0.0000      4.0889      1.1642      2.6456      3.4685      0.0000
 53      4.7563      0.6414      0.0000      0.0000      0.7391      3.3792      1.0683      0.0000      0.2427
 54      0.0000      0.8692      0.7722      0.0000      0.3461      0.8233      3.0959      0.0000      1.5721
 55      2.8084      0.8260      1.6062      0.6219      0.6328      1.5527      1.1058      2.9292      1.5824
 56      0.0000      0.4702      1.4109      0.0812      0.0000      0.6644      0.0000      0.5114      0.0000
 57      0.0000      0.5442      1.0668      1.0013      0.0000      0.5000      0.0000      0.6077      0.0000
 58      0.0159      0.5942      0.0000      0.9003      0.4762      0.6862      0.0000      0.0000      0.5857
 59      0.0000      0.7932      0.0000      0.8454      0.0000      0.0000      0.0000      0.0000      0.9128
 60      4.5384     11.7524     10.6514     14.3677      7.4247     10.7820     11.1235     13.6516     11.1954
 61     19.4116      6.9724      8.0524      6.4903     11.5108     11.3946      8.9664      7.2053      8.0139
 62      0.0000      0.5498      0.8802      1.8755      0.0000      0.0000      0.0000      0.0000      1.2226
 63      0.0000      0.0375      0.0000      0.0000      0.0000      0.0000      0.0000      0.0000      0.4950
 64      0.0000      0.0117      0.0000      0.2551      0.0000      0.0000      0.0000      0.0000      0.0000
 65      0.0000      0.0056      0.0000      0.0000      0.0000      0.0000      0.0000      0.0000      0.0000
 66      0.0000      0.0025      0.0582      0.0000      0.0000      0.0000      0.0000      0.0000      0.0000

# j      m_j: min, <> & last-chain-values for 1 ...  7 chains
  1  0.0000E+00  1.6071E-01  3.5974E-01  3.7853E-01  0.0000E+00  0.0000E+00  1.8497E-01  1.6844E-01  2.3964E-01
  2  7.5034E-04  1.9476E-02  2.8666E-02  0.0000E+00  5.8810E-02  8.9848E-02  0.0000E+00  1.3054E-03  0.0000E+00
  3  0.0000E+00  1.4335E-02  0.0000E+00  4.2133E-02  8.5406E-03  3.3680E-02  0.0000E+00  0.0000E+00  0.0000E+00
  4  0.0000E+00  1.4231E-02  0.0000E+00  0.0000E+00  0.0000E+00  8.6080E-02  0.0000E+00  0.0000E+00  1.8636E-02
  5  0.0000E+00  3.2849E-02  0.0000E+00  0.0000E+00  1.3330E-02  0.0000E+00  1.9751E-02  0.0000E+00  7.7530E-02
  6  5.4999E-04  5.4673E-02  0.0000E+00  1.1873E-01  5.5116E-02  6.2216E-03  0.0000E+00  0.0000E+00  0.0000E+00
  7  0.0000E+00  1.1145E-01  0.0000E+00  0.0000E+00  0.0000E+00  0.0000E+00  2.5302E-01  0.0000E+00  0.0000E+00
  8  0.0000E+00  1.5275E-01  0.0000E+00  0.0000E+00  0.0000E+00  0.0000E+00  2.5399E-02  0.0000E+00  5.7640E-01
  9  0.0000E+00  1.2799E-01  0.0000E+00  0.0000E+00  0.0000E+00  0.0000E+00  5.8364E-01  0.0000E+00  0.0000E+00
 10  0.0000E+00  2.1509E-01  2.5680E-01  0.0000E+00  5.4313E-02  0.0000E+00  0.0000E+00  2.0670E-01  0.0000E+00
 11  0.0000E+00  5.2182E-01  0.0000E+00  0.0000E+00  1.8200E-01  0.0000E+00  0.0000E+00  5.5610E-01  1.1552E-01
 12  1.0502E+00  8.8040E-01  6.9980E-01  7.4544E-02  8.8320E-01  8.5388E-02  0.0000E+00  0.0000E+00  1.9636E+00
 13  6.2951E-04  5.3013E-01  0.0000E+00  0.0000E+00  3.8507E+00  5.4746E-01  0.0000E+00  0.0000E+00  0.0000E+00
 14  0.0000E+00  1.0490E+00  0.0000E+00  5.7259E+00  0.0000E+00  0.0000E+00  0.0000E+00  0.0000E+00  0.0000E+00
 15  1.5548E+01  1.5750E+00  0.0000E+00  0.0000E+00  9.4384E+00  4.2428E+00  0.0000E+00  0.0000E+00  0.0000E+00
 16  0.0000E+00  3.2256E+00  0.0000E+00  0.0000E+00  4.4458E+00  0.0000E+00  2.4342E+01  0.0000E+00  0.0000E+00
 17  3.5585E+01  1.9261E+00  0.0000E+00  0.0000E+00  1.0261E+01  0.0000E+00  0.0000E+00  2.4963E+00  0.0000E+00
 18  2.0096E-01  9.0752E-02  2.3357E-01  0.0000E+00  1.7534E-01  0.0000E+00  2.2821E-01  1.1670E-01  0.0000E+00
 19  2.0831E-02  7.2966E-02  7.9660E-02  6.1917E-02  1.0899E-01  6.1742E-02  6.6621E-02  9.2422E-02  4.9292E-02
 20  0.0000E+00  1.5929E-02  2.0228E-02  2.8244E-02  0.0000E+00  0.0000E+00  0.0000E+00  0.0000E+00  0.0000E+00
 21  9.0225E-01  1.8855E+00  1.7645E+00  2.0687E+00  1.5079E+00  2.3937E+00  2.0341E+00  1.6103E+00  2.4891E+00
 22  0.0000E+00  4.0244E-02  6.9563E-02  0.0000E+00  0.0000E+00  1.6900E-02  1.7443E-02  0.0000E+00  0.0000E+00
 23  0.0000E+00  6.8545E-02  0.0000E+00  0.0000E+00  0.0000E+00  0.0000E+00  0.0000E+00  0.0000E+00  0.0000E+00
 24  0.0000E+00  8.1379E-02  0.0000E+00  0.0000E+00  0.0000E+00  2.1182E-01  0.0000E+00  2.1257E-02  0.0000E+00
 25  0.0000E+00  1.0411E-01  5.2262E-02  0.0000E+00  2.7424E-01  0.0000E+00  0.0000E+00  1.8457E-02  0.0000E+00
 26  0.0000E+00  2.2482E-01  0.0000E+00  0.0000E+00  0.0000E+00  0.0000E+00  0.0000E+00  1.4339E-02  1.0678E+00
 27  0.0000E+00  5.4180E-01  1.1533E+00  0.0000E+00  0.0000E+00  0.0000E+00  4.2783E-01  9.8465E-02  0.0000E+00
 28  2.6820E-01  9.2838E+00  7.8120E+00  1.1732E+01  4.1783E+00  1.0719E+01  9.5627E+00  4.3544E+00  5.4600E+00
 29  0.0000E+00  4.8168E-01  0.0000E+00  0.0000E+00  0.0000E+00  0.0000E+00  0.0000E+00  1.1550E+00  0.0000E+00
 30  0.0000E+00  8.1952E-01  0.0000E+00  0.0000E+00  0.0000E+00  0.0000E+00  0.0000E+00  0.0000E+00  0.0000E+00
 31  5.6975E+00  3.5537E+00  0.0000E+00  5.8077E+00  1.6104E+01  0.0000E+00  0.0000E+00  0.0000E+00  0.0000E+00
 32  0.0000E+00  1.2206E+00  0.0000E+00  0.0000E+00  0.0000E+00  0.0000E+00  2.8533E-01  0.0000E+00  0.0000E+00
 33  0.0000E+00  9.4965E-01  0.0000E+00  0.0000E+00  0.0000E+00  0.0000E+00  0.0000E+00  0.0000E+00  0.0000E+00
 34  0.0000E+00  1.5066E+00  0.0000E+00  0.0000E+00  0.0000E+00  0.0000E+00  0.0000E+00  0.0000E+00  0.0000E+00
 35  8.1971E-02  8.5708E-02  0.0000E+00  1.2553E-01  4.9823E-02  0.0000E+00  0.0000E+00  6.2125E-02  7.2509E-02
 36  0.0000E+00  1.9467E-02  0.0000E+00  6.5375E-02  0.0000E+00  4.2770E-02  1.7363E-03  4.6373E-02  4.4240E-02
 37  1.3892E-03  5.6061E-02  4.1708E-02  5.5464E-02  7.7108E-02  3.9316E-02  3.4334E-02  1.7733E-02  0.0000E+00
 38  0.0000E+00  5.9687E-02  0.0000E+00  0.0000E+00  0.0000E+00  0.0000E+00  0.0000E+00  0.0000E+00  0.0000E+00
 39  3.7264E-04  1.0219E-01  0.0000E+00  0.0000E+00  1.1077E-01  0.0000E+00  0.0000E+00  5.9136E-02  1.9057E-02
 40  0.0000E+00  1.3620E-01  0.0000E+00  0.0000E+00  0.0000E+00  8.2222E-01  9.0589E-02  0.0000E+00  6.8334E-01
 41  0.0000E+00  2.4214E-01  4.0407E-01  3.0393E-01  0.0000E+00  0.0000E+00  0.0000E+00  6.0846E-02  0.0000E+00
 42  0.0000E+00  2.5118E-01  0.0000E+00  0.0000E+00  0.0000E+00  0.0000E+00  0.0000E+00  1.4774E+00  0.0000E+00
 43  0.0000E+00  3.9611E-01  0.0000E+00  0.0000E+00  1.7104E+00  0.0000E+00  6.1556E-01  0.0000E+00  0.0000E+00
 44  0.0000E+00  9.9134E-01  0.0000E+00  0.0000E+00  0.0000E+00  0.0000E+00  7.6755E-01  6.5785E-01  0.0000E+00
 45  4.7419E+00  5.7420E+00  1.0220E+01  1.0654E+00  3.5585E+00  7.1914E+00  7.3996E+00  5.5240E+00  8.9240E+00
 46  0.0000E+00  8.3161E-01  0.0000E+00  0.0000E+00  0.0000E+00  0.0000E+00  1.8207E+00  7.7815E+00  3.6004E+00
 47  0.0000E+00  7.8556E-01  0.0000E+00  0.0000E+00  0.0000E+00  1.6250E-01  0.0000E+00  6.4873E+00  0.0000E+00
 48  0.0000E+00  6.6501E-01  0.0000E+00  0.0000E+00  0.0000E+00  0.0000E+00  0.0000E+00  0.0000E+00  0.0000E+00
 49  0.0000E+00  2.0637E+00  2.0296E+01  0.0000E+00  0.0000E+00  0.0000E+00  0.0000E+00  0.0000E+00  0.0000E+00
 50  0.0000E+00  2.6877E+00  2.8289E+00  1.1555E+00  0.0000E+00  0.0000E+00  0.0000E+00  2.4828E+01  0.0000E+00
 51  0.0000E+00  8.0262E-02  6.4041E-02  1.7029E-01  1.4141E-03  1.7300E-01  9.0659E-02  9.1012E-02  1.6762E-01
 52  2.9477E-02  2.3216E-02  6.4942E-04  0.0000E+00  6.3338E-02  2.7849E-02  5.1812E-02  5.8011E-02  0.0000E+00
 53  6.4506E-02  1.9686E-02  0.0000E+00  0.0000E+00  1.7246E-02  1.2176E-01  3.1515E-02  0.0000E+00  8.4189E-03
 54  0.0000E+00  5.4658E-02  4.2060E-02  0.0000E+00  1.6548E-02  6.0785E-02  1.8714E-01  0.0000E+00  1.1175E-01
 55  1.2016E-01  7.9981E-02  1.3470E-01  5.8530E-02  4.6580E-02  1.7652E-01  1.0292E-01  2.3282E-01  1.7320E-01
 56  0.0000E+00  9.0106E-02  2.3420E-01  1.5127E-02  0.0000E+00  1.4950E-01  0.0000E+00  8.0450E-02  0.0000E+00
 57  0.0000E+00  1.3843E-01  2.3504E-01  2.4758E-01  0.0000E+00  1.4932E-01  0.0000E+00  1.2689E-01  0.0000E+00
 58  3.0152E-03  2.5564E-01  0.0000E+00  3.7649E-01  1.5576E-01  3.4664E-01  0.0000E+00  0.0000E+00  2.8484E-01
 59  0.0000E+00  7.3443E-01  0.0000E+00  7.6087E-01  0.0000E+00  0.0000E+00  0.0000E+00  0.0000E+00  9.5536E-01
 60  3.4491E+00  2.0211E+01  1.5866E+01  2.4018E+01  9.7080E+00  2.1771E+01  1.8388E+01  1.9273E+01  2.1764E+01
 61  3.2233E+01  2.6199E+01  2.6208E+01  2.3706E+01  3.2885E+01  5.0271E+01  3.2386E+01  2.2225E+01  3.4039E+01
 62  0.0000E+00  3.7665E+00  5.2232E+00  1.2490E+01  0.0000E+00  0.0000E+00  0.0000E+00  0.0000E+00  9.4683E+00
 63  0.0000E+00  5.1154E-01  0.0000E+00  0.0000E+00  0.0000E+00  0.0000E+00  0.0000E+00  0.0000E+00  7.6264E+00
 64  0.0000E+00  4.4239E-01  0.0000E+00  9.3477E+00  0.0000E+00  0.0000E+00  0.0000E+00  0.0000E+00  0.0000E+00
 65  0.0000E+00  4.4251E-01  0.0000E+00  0.0000E+00  0.0000E+00  0.0000E+00  0.0000E+00  0.0000E+00  0.0000E+00
 66  0.0000E+00  2.8141E-01  5.6716E+00  0.0000E+00  0.0000E+00  0.0000E+00  0.0000E+00  0.0000E+00  0.0000E+00

# AV, chi2 & Mass for <> & i_chain = 1 ...  7 solutions
AV       0.3356      0.5716      0.5584      0.5613      0.5082      0.5600      0.5415      0.5715      0.5324
chi2 3.2611E-01  3.3946E-01  3.3642E-01  3.3548E-01  3.3446E-01  3.3515E-01  3.3535E-01  3.3610E-01  3.3547E-01
Mass 6.0546E-13  3.6737E-13  4.1666E-13  3.7273E-13  4.4374E-13  3.0804E-13  3.6704E-13  4.4746E-13  3.0830E-13
-237.75                                  [v0_min (km/s) before EX0s...]
 206.51                                  [vd_min (km/s) before EX0s...]


## Synthetic spectrum (Best Model) ##l_obs f_obs f_syn wei
 3478    [Nl_obs]
 3741.00    0.87790   0.78803    0.000
 3742.00    0.89348   0.76355    0.000
 3743.00    0.89532   0.73505    0.000
 3744.00    0.86391   0.70641    0.000
 3745.00    0.79888   0.68265    5.876
 3746.00    0.73135   0.66923    5.920
 3747.00    0.68749   0.66996    5.982
 3748.00    0.66946   0.68520    6.042
 3749.00    0.67505   0.71159    6.059
 3750.00    0.70649   0.74332    6.004
 3751.00    0.75476   0.77402    5.929
 3752.00    0.79612   0.79864    5.954
 3753.00    0.81608   0.81482    6.084
 3754.00    0.81796   0.82335    6.172
 3755.00    0.80652   0.82713    6.182
 3756.00    0.78299   0.82923    6.271
 3757.00    0.75701   0.83137    6.461
 3758.00    0.74573   0.83337    6.547
 3759.00    0.74958   0.83360    6.452
 3760.00    0.74963   0.82988    6.329
 3761.00    0.73447   0.82041    6.297
 3762.00    0.70776   0.80428    6.363
 3763.00    0.67833   0.78211    6.471
 3764.00    0.65609   0.75643    6.536
 3765.00    0.65054   0.73126    6.553
 3766.00    0.66632   0.71131    6.592
 3767.00    0.69160   0.70111    6.674
 3768.00    0.70532   0.70362    6.757
 3769.00    0.70681   0.71873    6.806
 3770.00    0.71246   0.74332    6.816
 3771.00    0.72463   0.77321    6.815
 3772.00    0.73523   0.80466    6.831
 3773.00    0.75491   0.83508    6.827
 3774.00    0.80312   0.86295    6.750
 3775.00    0.86908   0.88748    6.663
 3776.00    0.92147   0.90823    6.676
 3777.00    0.94875   0.92463    6.764
 3778.00    0.95926   0.93598    6.826
 3779.00    0.96340   0.94179    6.883
 3780.00    0.96749   0.94201    7.026
 3781.00    0.96957   0.93680    7.192
 3782.00    0.96442   0.92674    7.225
 3783.00    0.95360   0.91317    7.101
 3784.00    0.94124   0.89797    6.932
 3785.00    0.92450   0.88231    6.850
 3786.00    0.89580   0.86623    6.910
 3787.00    0.84909   0.84884    6.975
 3788.00    0.78601   0.82866    6.909
 3789.00    0.72263   0.80416    6.893
 3790.00    0.67582   0.77476    7.158
 3791.00    0.64440   0.74180    7.598
 3792.00    0.61860   0.70877    7.886
 3793.00    0.59537   0.68067    7.873
 3794.00    0.57926   0.66297    7.701
 3795.00    0.58051   0.66026    7.675
 3796.00    0.60539   0.67423    7.930
 3797.00    0.64671   0.70242    8.138
 3798.00    0.69571   0.73916    7.975
 3799.00    0.75434   0.77798    7.763
 3800.00    0.82260   0.81368    7.841
 3801.00    0.88656   0.84327    8.063
 3802.00    0.93253   0.86629    8.149
 3803.00    0.96048   0.88426    8.074
 3804.00    0.97707   0.89933    7.981
 3805.00    0.98858   0.91273    8.014
 3806.00    0.99979   0.92386    8.158
 3807.00    1.01336   0.93105    8.159
 3808.00    1.02859   0.93288    7.943
 3809.00    1.04095   0.92917    7.850
 3810.00    1.04497   0.92118    8.058
 3811.00    1.03681   0.91103    8.312
 3812.00    1.01715   0.90053    8.365
 3813.00    0.99205   0.89047    8.341
 3814.00    0.96714   0.88091    8.390
 3815.00    0.94402   0.87188    8.476
 3816.00    0.92094   0.86395    8.544
 3817.00    0.89502   0.85842    8.615
 3818.00    0.87178   0.85602    8.676
 3819.00    0.86560   0.85533    8.649
 3820.00    0.87593   0.85342    8.586
 3821.00    0.88202   0.84807    8.679
 3822.00    0.87451   0.83881    8.945
 3823.00    0.86512   0.82624    9.130
 3824.00    0.86176   0.81065    9.111
 3825.00    0.85995   0.79155    9.067
 3826.00    0.85422   0.76813    9.125
 3827.00    0.84257   0.73993    9.252
 3828.00    0.82451   0.70762    9.353
 3829.00    0.80004   0.67359    9.354
 3830.00    0.76922   0.64206    9.324
 3831.00    0.73329   0.61817    9.433
 3832.00    0.69868   0.60628    9.673
 3833.00    0.67498   0.60874    9.845
 3834.00    0.66465   0.62522    9.860
 3835.00    0.66363   0.65277    9.814
 3836.00    0.67227   0.68730    9.780
 3837.00    0.69586   0.72500    9.762
 3838.00    0.73669   0.76256    9.733
 3839.00    0.79137   0.79740    9.666
 3840.00    0.84971   0.82774    9.598
 3841.00    0.89930   0.85256    9.597
 3842.00    0.93690   0.87187    9.690
 3843.00    0.96651   0.88638    9.832
 3844.00    0.98932   0.89713    9.876
 3845.00    1.00300   0.90514    9.711
 3846.00    1.00528   0.91118    9.534
 3847.00    0.99776   0.91590    0.000
 3848.00    0.99130   0.91985    0.000
 3849.00    0.99639   0.92299    0.000
 3850.00    1.00445   0.92452    0.000
 3851.00    0.99977   0.92394    0.000
 3852.00    0.98496   0.92169    0.000
 3853.00    0.97357   0.91868    0.000
 3854.00    0.97176   0.91603    0.000
 3855.00    0.97938   0.91482    0.000
 3856.00    0.99586   0.91545    0.000
 3857.00    1.01889   0.91811    0.000
 3858.00    1.04170   0.92277    0.000
 3859.00    1.05808   0.92830    0.000
 3860.00    1.06897   0.93290    0.000
 3861.00    1.07848   0.93539    0.000
 3862.00    1.08796   0.93557    0.000
 3863.00    1.09691   0.93372    0.000
 3864.00    1.10470   0.93019    0.000
 3865.00    1.10917   0.92520    0.000
 3866.00    1.10528   0.91902    0.000
 3867.00    1.08756   0.91195    0.000
 3868.00    1.05308   0.90468    0.000
 3869.00    1.00550   0.89839    0.000
 3870.00    0.95751   0.89405    0.000
 3871.00    0.92053   0.89151    0.000
 3872.00    0.89586   0.88915    0.000
 3873.00    0.87769   0.88496    0.000
 3874.00    0.85745   0.87799    0.000
 3875.00    0.83306   0.86843    0.000
 3876.00    0.81391   0.85681    0.000
 3877.00    0.80584   0.84329    0.000
 3878.00    0.80165   0.82691    0.000
 3879.00    0.79379   0.80609    0.000
 3880.00    0.78257   0.78030    0.000
 3881.00    0.77082   0.75024   10.866
 3882.00    0.76037   0.71738   10.759
 3883.00    0.75361   0.68465   11.098
 3884.00    0.75369   0.65695   11.145
 3885.00    0.76068   0.63974   10.634
 3886.00    0.77037   0.63670   10.315
 3887.00    0.77994   0.64884   10.512
 3888.00    0.79004   0.67412   10.830
 3889.00    0.80048   0.70732   10.995
 3890.00    0.80929   0.74243   11.213
 3891.00    0.81845   0.77517   11.441
 3892.00    0.83331   0.80351   11.215
 3893.00    0.84958   0.82715   10.743
 3894.00    0.85314   0.84668   10.816
 3895.00    0.84095   0.86285   11.453
 3896.00    0.82515   0.87613   11.694
 3897.00    0.81737   0.88712   11.279
 3898.00    0.82161   0.89629   11.062
 3899.00    0.83116   0.90363   11.318
 3900.00    0.83387   0.90899   11.615
 3901.00    0.83156   0.91311   11.682
 3902.00    0.83820   0.91757   11.651
 3903.00    0.85580   0.92347   11.663
 3904.00    0.87373   0.93125   11.738
 3905.00    0.88735   0.94056   11.822
 3906.00    0.89982   0.94982   11.841
 3907.00    0.91265   0.95711   11.803
 3908.00    0.92522   0.96129   11.796
 3909.00    0.93961   0.96220   11.890
 3910.00    0.95884   0.96015   12.091
 3911.00    0.98028   0.95570   12.293
 3912.00    0.99719   0.94951   12.312
 3913.00    1.00529   0.94218   12.044
 3914.00    1.00351   0.93411   11.588
 3915.00    0.99264   0.92592   11.276
 3916.00    0.97510   0.91843   11.373
 3917.00    0.95502   0.91218   11.669
 3918.00    0.93644   0.90726   11.741
 3919.00    0.92015   0.90296   11.667
 3920.00    0.90403   0.89770   11.781
 3921.00    0.88483   0.88960   12.025
 3922.00    0.86003   0.87747   12.124
 3923.00    0.83049   0.86099   12.054
 3924.00    0.79926   0.84069   11.963
 3925.00    0.76943   0.81774   11.903
 3926.00    0.74307   0.79343   11.882
 3927.00    0.72034   0.76927   11.980
 3928.00    0.70077   0.74743   12.213
 3929.00    0.68488   0.73059   12.355
 3930.00    0.67474   0.72140   12.225
 3931.00    0.67392   0.72184   12.071
 3932.00    0.68465   0.73247   12.155
 3933.00    0.70492   0.75179   12.344
 3934.00    0.73175   0.77648   12.383
 3935.00    0.76458   0.80266   12.258
 3936.00    0.80251   0.82706   12.117
 3937.00    0.84121   0.84771   12.121
 3938.00    0.87333   0.86391   12.291
 3939.00    0.89008   0.87608   12.401
 3940.00    0.89055   0.88543   12.276
 3941.00    0.88768   0.89332   12.066
 3942.00    0.89301   0.90056   11.961
 3943.00    0.90533   0.90740   11.995
 3944.00    0.91958   0.91341   12.117
 3945.00    0.93358   0.91777   12.237
 3946.00    0.94372   0.92033   12.267
 3947.00    0.94303   0.92167   12.165
 3948.00    0.93055   0.92205   11.992
 3949.00    0.91517   0.92115   11.902
 3950.00    0.90116   0.91871   11.979
 3951.00    0.88200   0.91487   12.167
 3952.00    0.85610   0.90960   12.304
 3953.00    0.83288   0.90220   12.209
 3954.00    0.81530   0.89182   12.032
 3955.00    0.79385   0.87800   12.229
 3956.00    0.76409   0.86005   12.797
 3957.00    0.73318   0.83685   12.999
 3958.00    0.70827   0.80761   12.623
 3959.00    0.69128   0.77265   12.411
 3960.00    0.68080   0.73329    0.000
 3961.00    0.67401   0.69109    0.000
 3962.00    0.67047   0.64752    0.000
 3963.00    0.67246   0.60505    0.000
 3964.00    0.68045   0.56761    0.000
 3965.00    0.69120   0.53977    0.000
 3966.00    0.69732   0.52581    0.000
 3967.00    0.69083   0.52858    0.000
 3968.00    0.67496   0.54844    0.000
 3969.00    0.66338   0.58276    0.000
 3970.00    0.66576   0.62658    0.000
 3971.00    0.68385   0.67423    0.000
 3972.00    0.71331   0.72120    0.000
 3973.00    0.74634   0.76455    0.000
 3974.00    0.77667   0.80242    0.000
 3975.00    0.80080   0.83399    0.000
 3976.00    0.81746   0.85933    0.000
 3977.00    0.82784   0.87899    0.000
 3978.00    0.83622   0.89385    0.000
 3979.00    0.84822   0.90517    0.000
 3980.00    0.86663   0.91454    0.000
 3981.00    0.89136   0.92345   12.634
 3982.00    0.92105   0.93259   12.369
 3983.00    0.95249   0.94166   12.061
 3984.00    0.97894   0.95004   11.916
 3985.00    0.99257   0.95739   11.823
 3986.00    0.98940   0.96365   10.821
 3987.00    0.97140   0.96858    8.969
 3988.00    0.94825   0.97188    7.995
 3989.00    0.93014   0.97361    8.744
 3990.00    0.91651   0.97384   10.952
 3991.00    0.90307   0.97266   12.568
 3992.00    0.89425   0.97073   12.498
 3993.00    0.89835   0.96930   12.325
 3994.00    0.91851   0.96959   12.514
 3995.00    0.95212   0.97201   12.686
 3996.00    0.99188   0.97588   12.740
 3997.00    1.02875   0.97989   12.780
 3998.00    1.05526   0.98230   12.823
 3999.00    1.06677   0.98174   12.801
 4000.00    1.06239   0.97836   12.629
 4001.00    1.04516   0.97361   12.381
 4002.00    1.02200   0.96910   12.393
 4003.00    1.00141   0.96626   12.803
 4004.00    0.99089   0.96644   13.104
 4005.00    0.99394   0.97002   12.840
 4006.00    1.00781   0.97574   12.439
 4007.00    1.02693   0.98205   12.414
 4008.00    1.04603   0.98827   12.799
 4009.00    1.06009   0.99419   13.104
 4010.00    1.06483   0.99934   12.359
 4011.00    1.06166   1.00347   10.674
 4012.00    1.05979   1.00671    9.262
 4013.00    1.06388   1.00912    8.790
 4014.00    1.06669   1.01045    9.666
 4015.00    1.06118   1.01022   11.949
 4016.00    1.04822   1.00799   12.838
 4017.00    1.03234   1.00353   10.801
 4018.00    1.01814   0.99654    9.718
 4019.00    1.00677   0.98724   10.693
 4020.00    0.99487   0.97713   12.759
 4021.00    0.98002   0.96819   13.738
 4022.00    0.96368   0.96171   12.746
 4023.00    0.95050   0.95816   11.210
 4024.00    0.94597   0.95734   10.398
 4025.00    0.94735   0.95818   10.398
 4026.00    0.94292   0.95903   10.669
 4027.00    0.92748   0.95887   10.841
 4028.00    0.90832   0.95848   10.981
 4029.00    0.89984   0.95990   11.086
 4030.00    0.91624   0.96489   10.931
 4031.00    0.95287   0.97352   10.516
 4032.00    0.98762   0.98441   10.102
 4033.00    1.01185   0.99565    9.845
 4034.00    1.03475   1.00519    9.719
 4035.00    1.05892   1.01129    9.533
 4036.00    1.07590   1.01281    9.149
 4037.00    1.07901   1.00965    9.033
 4038.00    1.06733   1.00280    9.969
 4039.00    1.04490   0.99401   12.055
 4040.00    1.01914   0.98527   13.572
 4041.00    0.99762   0.97824   13.398
 4042.00    0.98581   0.97393   13.161
 4043.00    0.98405   0.97331   13.332
 4044.00    0.98868   0.97686   13.112
 4045.00    0.99637   0.98346   12.549
 4046.00    1.00475   0.99014   12.341
 4047.00    1.01120   0.99385   12.601
 4048.00    1.01384   0.99380   13.004
 4049.00    1.01403   0.99089   13.303
 4050.00    1.01435   0.98617   13.442
 4051.00    1.01372   0.98091   13.502
 4052.00    1.00902   0.97651   13.595
 4053.00    1.00000   0.97369   13.704
 4054.00    0.98906   0.97237   13.738
 4055.00    0.97928   0.97170   13.693
 4056.00    0.97266   0.97062   13.646
 4057.00    0.96804   0.96867   13.685
 4058.00    0.96318   0.96582   13.842
 4059.00    0.95829   0.96213   13.985
 4060.00    0.95471   0.95816   13.986
 4061.00    0.95237   0.95504   13.980
 4062.00    0.95167   0.95383   14.095
 4063.00    0.95602   0.95464   14.079
 4064.00    0.96684   0.95598   13.723
 4065.00    0.97770   0.95608   13.393
 4066.00    0.98203   0.95482   13.450
 4067.00    0.98250   0.95265   13.714
 4068.00    0.98481   0.94919   13.844
 4069.00    0.99001   0.94417   13.817
 4070.00    0.99609   0.93836   13.799
 4071.00    1.00029   0.93288   13.919
 4072.00    0.99858   0.92823   14.170
 4073.00    0.98561   0.92452   14.341
 4074.00    0.96110   0.92293   14.301
 4075.00    0.93456   0.92495   14.249
 4076.00    0.91678   0.93057   14.330
 4077.00    0.91243   0.93807   14.354
 4078.00    0.92160   0.94497   14.222
 4079.00    0.94129   0.94931   14.217
 4080.00    0.96466   0.95059   14.470
 4081.00    0.98131   0.94962   14.629
 4082.00    0.98416   0.94790   14.469
 4083.00    0.97374   0.94663   14.297
 4084.00    0.95495   0.94594   14.348
 4085.00    0.93404   0.94497   14.487
 4086.00    0.91396   0.94238   14.597
 4087.00    0.89230   0.93683   14.773
 4088.00    0.86486   0.92762   15.013
 4089.00    0.82877   0.91438   15.090
 4090.00    0.78720   0.89643   15.004
 4091.00    0.74994   0.87340   15.101
 4092.00    0.72370   0.84554    0.000
 4093.00    0.70915   0.81336    0.000
 4094.00    0.70933   0.77815    0.000
 4095.00    0.73087   0.74299    0.000
 4096.00    0.77233   0.71167    0.000
 4097.00    0.82050   0.68785    0.000
 4098.00    0.85661   0.67473    0.000
 4099.00    0.86294   0.67456    0.000
 4100.00    0.83751   0.68802    0.000
 4101.00    0.79568   0.71348    0.000
 4102.00    0.75680   0.74603    0.000
 4103.00    0.73676   0.77941    0.000
 4104.00    0.74039   0.80962    0.000
 4105.00    0.76165   0.83521    0.000
 4106.00    0.79178   0.85622    0.000
 4107.00    0.82283   0.87368    0.000
 4108.00    0.85007   0.88866    0.000
 4109.00    0.87208   0.90176    0.000
 4110.00    0.88913   0.91297    0.000
 4111.00    0.90250   0.92175    0.000
 4112.00    0.91383   0.92741    0.000
 4113.00    0.92396   0.92980   15.215
 4114.00    0.93050   0.92954   15.404
 4115.00    0.93016   0.92798   15.378
 4116.00    0.92477   0.92642   15.153
 4117.00    0.91983   0.92582   14.817
 4118.00    0.91898   0.92717   14.639
 4119.00    0.92288   0.93056   14.859
 4120.00    0.92949   0.93464   15.318
 4121.00    0.93475   0.93798   15.596
 4122.00    0.93382   0.93961   15.543
 4123.00    0.92332   0.93903   15.319
 4124.00    0.90464   0.93624   15.138
 4125.00    0.88330   0.93188   15.152
 4126.00    0.86695   0.92746   15.370
 4127.00    0.86146   0.92461   15.683
 4128.00    0.86587   0.92436   15.907
 4129.00    0.87513   0.92681   15.894
 4130.00    0.88478   0.93187   15.710
 4131.00    0.89286   0.93939   15.513
 4132.00    0.90113   0.94866   15.383
 4133.00    0.91244   0.95767   15.360
 4134.00    0.92735   0.96404   15.506
 4135.00    0.94502   0.96607   15.796
 4136.00    0.96441   0.96326   15.986
 4137.00    0.98292   0.95673   15.866
 4138.00    0.99508   0.94807   15.568
 4139.00    0.99715   0.93906   15.367
 4140.00    0.99117   0.93186   15.445
 4141.00    0.98113   0.92813   15.802
 4142.00    0.96925   0.92883   16.161
 4143.00    0.95843   0.93378   16.250
 4144.00    0.95388   0.94035   16.111
 4145.00    0.95706   0.94506   15.910
 4146.00    0.96161   0.94676   15.735
 4147.00    0.96089   0.94611   15.676
 4148.00    0.95383   0.94397   15.868
 4149.00    0.94445   0.94156   16.243
 4150.00    0.94026   0.93982   16.380
 4151.00    0.94540   0.93898   16.100
 4152.00    0.95697   0.93946   15.800
 4153.00    0.96986   0.94173   15.748
 4154.00    0.97978   0.94579   15.798
 4155.00    0.98212   0.95093   15.834
 4156.00    0.97287   0.95642   15.966
 4157.00    0.95733   0.96161   16.185
 4158.00    0.95067   0.96554   16.239
 4159.00    0.95658   0.96778   16.098
 4160.00    0.96143   0.96853   16.083
 4161.00    0.95855   0.96822   16.274
 4162.00    0.95552   0.96653   16.364
 4163.00    0.95461   0.96300   16.251
 4164.00    0.94825   0.95777   16.197
 4165.00    0.93665   0.95092   16.293
 4166.00    0.93072   0.94292   16.345
 4167.00    0.93438   0.93467   16.245
 4168.00    0.94098   0.92679   16.090
 4169.00    0.94523   0.91946   16.025
 4170.00    0.94668   0.91348   16.143
 4171.00    0.94604   0.91016   16.340
 4172.00    0.94347   0.91025   16.375
 4173.00    0.93720   0.91293   16.262
 4174.00    0.92468   0.91664   16.244
 4175.00    0.90707   0.92038   16.343
 4176.00    0.88930   0.92401   16.377
 4177.00    0.87637   0.92778   16.346
 4178.00    0.87133   0.93153   16.420
 4179.00    0.87302   0.93434   16.638
 4180.00    0.87747   0.93562   16.862
 4181.00    0.88266   0.93599   16.879
 4182.00    0.88897   0.93633   16.572
 4183.00    0.89764   0.93691   16.179
 4184.00    0.90958   0.93802   16.057
 4185.00    0.92373   0.93985   16.278
 4186.00    0.93798   0.94248   16.649
 4187.00    0.95128   0.94603   16.831
 4188.00    0.96257   0.94926   16.592
 4189.00    0.96797   0.95031   16.235
 4190.00    0.96408   0.94841   16.195
 4191.00    0.95412   0.94402   16.418
 4192.00    0.94448   0.93761   16.598
 4193.00    0.93764   0.92939   16.670
 4194.00    0.93287   0.92081   16.696
 4195.00    0.92899   0.91416   16.537
 4196.00    0.92520   0.91043   16.147
 4197.00    0.92164   0.90940   15.942
 4198.00    0.91832   0.91127   16.290
 4199.00    0.91372   0.91568   16.925
 4200.00    0.90623   0.92132   17.298
 4201.00    0.89616   0.92767   17.301
 4202.00    0.88667   0.93466   17.122
 4203.00    0.88398   0.94143   16.836
 4204.00    0.89251   0.94735   16.485
 4205.00    0.90968   0.95221   16.196
 4206.00    0.92819   0.95535   16.104
 4207.00    0.93938   0.95615   16.286
 4208.00    0.93895   0.95491   16.706
 4209.00    0.93155   0.95286   17.132
 4210.00    0.92513   0.95097   17.307
 4211.00    0.92528   0.94957   17.173
 4212.00    0.93215   0.94904   16.879
 4213.00    0.93954   0.94986   16.686
 4214.00    0.94485   0.95191   16.718
 4215.00    0.95473   0.95477   16.843
 4216.00    0.96956   0.95674   16.916
 4217.00    0.97455   0.95486   16.955
 4218.00    0.95958   0.94773   17.010
 4219.00    0.93117   0.93654   17.078
 4220.00    0.89992   0.92375   17.154
 4221.00    0.87226   0.91176   17.269
 4222.00    0.85226   0.90311   17.488
 4223.00    0.84293   0.89972   17.878
 4224.00    0.84567   0.90174   18.252
 4225.00    0.85970   0.90819   18.128
 4226.00    0.88050   0.91776   17.532
 4227.00    0.90032   0.92781   17.124
 4228.00    0.91365   0.93457   17.167
 4229.00    0.91957   0.93654   17.355
 4230.00    0.91932   0.93500   17.450
 4231.00    0.91527   0.93164   17.525
 4232.00    0.91102   0.92852   17.676
 4233.00    0.91096   0.92754   17.871
 4234.00    0.91806   0.92853   17.896
 4235.00    0.93291   0.93095   17.492
 4236.00    0.95350   0.93516   16.903
 4237.00    0.97541   0.94034   16.705
 4238.00    0.99286   0.94504   17.056
 4239.00    1.00053   0.94851   17.675
 4240.00    0.99789   0.95007   18.252
 4241.00    0.98881   0.94909   18.575
 4242.00    0.97610   0.94582   18.532
 4243.00    0.96055   0.94113   18.181
 4244.00    0.94303   0.93566   17.855
 4245.00    0.92543   0.93031   17.924
 4246.00    0.91147   0.92625   18.314
 4247.00    0.90493   0.92421   18.577
 4248.00    0.90518   0.92398   18.469
 4249.00    0.90753   0.92502   18.093
 4250.00    0.90679   0.92711   17.708
 4251.00    0.89979   0.92918   17.498
 4252.00    0.88876   0.92977   17.322
 4253.00    0.87895   0.92906   17.002
 4254.00    0.87247   0.92846   16.894
 4255.00    0.86936   0.92868   17.430
 4256.00    0.87186   0.92947   18.130
 4257.00    0.88199   0.93100   18.051
 4258.00    0.89625   0.93411   17.516
 4259.00    0.90945   0.93870   17.414
 4260.00    0.92232   0.94364   17.713
 4261.00    0.93611   0.94741   17.885
 4262.00    0.94287   0.94790   17.774
 4263.00    0.93384   0.94375   17.539
 4264.00    0.91290   0.93553   17.305
 4265.00    0.89031   0.92494   17.142
 4266.00    0.87194   0.91382   17.103
 4267.00    0.85993   0.90407   17.207
 4268.00    0.85544   0.89701   17.406
 4269.00    0.85885   0.89341   17.605
 4270.00    0.86949   0.89383   17.720
 4271.00    0.88421   0.89854   17.767
 4272.00    0.89645   0.90600   17.935
 4273.00    0.90182   0.91357   18.304
 4274.00    0.90345   0.92019   18.546
 4275.00    0.90399   0.92539   18.345
 4276.00    0.89848   0.92817   17.891
 4277.00    0.88379   0.92797   17.541
 4278.00    0.86683   0.92516   17.497
 4279.00    0.85552   0.92091   17.796
 4280.00    0.85096   0.91625   18.290
 4281.00    0.85097   0.91085   18.656
 4282.00    0.85325   0.90427   18.482
 4283.00    0.85550   0.89716   17.785
 4284.00    0.85560   0.89072   17.164
 4285.00    0.85417   0.88615   17.042
 4286.00    0.85575   0.88356   17.408
 4287.00    0.86487   0.88219   -2.000
 4288.00    0.88299   0.88199   -2.000
 4289.00    0.90616   0.88308   -2.000
 4290.00    0.92516   0.88429   -2.000
 4291.00    0.93359   0.88307   -2.000
 4292.00    0.93131   0.87730   -2.000
 4293.00    0.91753   0.86768   -2.000
 4294.00    0.88909   0.85673   -2.000
 4295.00    0.85103   0.84563   -2.000
 4296.00    0.81851   0.83508   -2.000
 4297.00    0.80094   0.82645   -2.000
 4298.00    0.79623   0.82041   -2.000
 4299.00    0.79898   0.81744   -2.000
 4300.00    0.80502   0.81684   -2.000
 4301.00    0.81418   0.81675   -2.000
 4302.00    0.82906   0.81706   -2.000
 4303.00    0.84627   0.81855   17.834
 4304.00    0.85707   0.82104   17.329
 4305.00    0.86137   0.82447   17.051
 4306.00    0.86777   0.82930   17.316
 4307.00    0.87690   0.83617   17.992
 4308.00    0.88096   0.84616   18.512
 4309.00    0.87926   0.85927   18.534
 4310.00    0.87949   0.87368   18.213
 4311.00    0.88711   0.88770   17.839
 4312.00    0.90294   0.90056   17.620
 4313.00    0.92531   0.91154   17.541
 4314.00    0.95010   0.91994   17.455
 4315.00    0.96941   0.92463   17.328
 4316.00    0.97443   0.92370   17.285
 4317.00    0.96302   0.91674   17.564
 4318.00    0.93945   0.90539   18.332
 4319.00    0.91010   0.89237   19.179
 4320.00    0.88093   0.88080   19.319
 4321.00    0.85466   0.87237   18.905
 4322.00    0.83233   0.86693   18.715
 4323.00    0.81761   0.86415   18.960
 4324.00    0.81458   0.86430   19.384
 4325.00    0.82256   0.86703   19.677
 4326.00    0.83647   0.86999   19.647
 4327.00    0.84917   0.86973   19.425
 4328.00    0.85413   0.86398   19.258
 4329.00    0.84902   0.85182   19.177
 4330.00    0.83586   0.83302    0.000
 4331.00    0.82060   0.80795    0.000
 4332.00    0.81365   0.77715    0.000
 4333.00    0.83020   0.74251    0.000
 4334.00    0.88074   0.70844    0.000
 4335.00    0.95894   0.67994    0.000
 4336.00    1.04222   0.66064    0.000
 4337.00    1.09575   0.65336    0.000
 4338.00    1.09143   0.65921    0.000
 4339.00    1.02861   0.67683    0.000
 4340.00    0.93085   0.70370    0.000
 4341.00    0.83792   0.73551    0.000
 4342.00    0.78160   0.76653    0.000
 4343.00    0.76362   0.79293    0.000
 4344.00    0.76946   0.81324    0.000
 4345.00    0.78379   0.82749    0.000
 4346.00    0.79633   0.83755    0.000
 4347.00    0.80550   0.84564    0.000
 4348.00    0.81472   0.85273    0.000
 4349.00    0.82868   0.85957    0.000
 4350.00    0.84996   0.86730    0.000
 4351.00    0.87692   0.87682   19.154
 4352.00    0.90543   0.88760   19.254
 4353.00    0.93054   0.89796   19.298
 4354.00    0.94793   0.90717   19.351
 4355.00    0.95510   0.91546   19.187
 4356.00    0.95279   0.92262   18.850
 4357.00    0.94534   0.92871   18.820
 4358.00    0.93771   0.93445   19.171
 4359.00    0.93346   0.93975   19.281
 4360.00    0.93306   0.94303   18.962
 4361.00    0.93377   0.94331   18.903
 4362.00    0.93318   0.94127   19.373
 4363.00    0.93093   0.93794   19.797
 4364.00    0.92796   0.93367   19.800
 4365.00    0.92579   0.92864   19.707
 4366.00    0.92529   0.92341   19.725
 4367.00    0.92609   0.91854   19.680
 4368.00    0.92669   0.91425   19.511
 4369.00    0.92536   0.91112   19.413
 4370.00    0.92340   0.91004   19.557
 4371.00    0.92455   0.91086   19.967
 4372.00    0.92867   0.91238   20.354
 4373.00    0.93116   0.91390   20.247
 4374.00    0.92956   0.91549   19.822
 4375.00    0.92481   0.91587   19.746
 4376.00    0.91840   0.91197   20.036
 4377.00    0.91118   0.90242   20.101
 4378.00    0.90299   0.88965   19.870
 4379.00    0.89369   0.87733   19.836
 4380.00    0.88649   0.86715   20.171
 4381.00    0.88635   0.85920   20.641
 4382.00    0.89384   0.85482   20.941
 4383.00    0.90506   0.85598   20.861
 4384.00    0.91565   0.86224   20.478
 4385.00    0.92168   0.87102   20.079
 4386.00    0.91958   0.87982   19.921
 4387.00    0.90806   0.88751   20.106
 4388.00    0.89204   0.89402   20.413
 4389.00    0.87947   0.89958   20.508
 4390.00    0.87370   0.90499   20.553
 4391.00    0.87382   0.91013   20.893
 4392.00    0.87814   0.91336   21.243
 4393.00    0.88419   0.91404   21.067
 4394.00    0.88757   0.91361   20.644
 4395.00    0.88541   0.91390   20.542
 4396.00    0.88188   0.91423   20.627
 4397.00    0.88323   0.91213   20.496
 4398.00    0.88912   0.90769   20.287
 4399.00    0.89536   0.90385   20.332
 4400.00    0.89941   0.90264   20.574
 4401.00    0.89985   0.90290   20.769
 4402.00    0.89484   0.90294   20.880
 4403.00    0.88397   0.90375   21.015
 4404.00    0.87073   0.90729   21.275
 4405.00    0.86043   0.91299   21.604
 4406.00    0.85718   0.91827   21.649
 4407.00    0.86232   0.92131   21.209
 4408.00    0.87314   0.92165   20.681
 4409.00    0.88507   0.91991   20.492
 4410.00    0.89416   0.91704   20.651
 4411.00    0.89880   0.91399   20.955
 4412.00    0.90096   0.91180   21.178
 4413.00    0.90405   0.91134   21.205
 4414.00    0.91074   0.91317   21.154
 4415.00    0.92109   0.91705   21.075
 4416.00    0.93147   0.92150   20.775
 4417.00    0.93788   0.92582   20.314
 4418.00    0.93849   0.92968   20.224
 4419.00    0.93317   0.93181   20.748
 4420.00    0.92307   0.93179   21.394
 4421.00    0.91187   0.93088   21.635
 4422.00    0.90554   0.93051   21.557
 4423.00    0.90635   0.93022   21.398
 4424.00    0.90983   0.92862   21.190
 4425.00    0.91050   0.92628   20.968
 4426.00    0.90565   0.92404   20.858
 4427.00    0.89646   0.92135   20.895
 4428.00    0.88755   0.91782   20.969
 4429.00    0.88223   0.91429   21.056
 4430.00    0.88060   0.91299   21.283
 4431.00    0.88302   0.91454   21.600
 4432.00    0.89095   0.91746   21.693
 4433.00    0.90310   0.92071   21.488
 4434.00    0.91469   0.92364   21.281
 4435.00    0.92185   0.92555   21.210
 4436.00    0.92347   0.92564   21.126
 4437.00    0.92055   0.92383   20.944
 4438.00    0.91569   0.92158   20.757
 4439.00    0.91198   0.92024   20.753
 4440.00    0.91212   0.91979   21.046
 4441.00    0.91697   0.92041   21.162
 4442.00    0.92560   0.92309   20.357
 4443.00    0.93716   0.92726   19.279
 4444.00    0.95118   0.93063   19.183
 4445.00    0.96641   0.93184   19.790
 4446.00    0.98054   0.93084   19.579
 4447.00    0.99036   0.92782   18.499
 4448.00    0.99295   0.92233   17.824
 4449.00    0.98843   0.91494   17.943
 4450.00    0.97996   0.90803   18.523
 4451.00    0.97171   0.90238   19.112
 4452.00    0.96669   0.89696   19.340
 4453.00    0.96320   0.89194   19.246
 4454.00    0.95693   0.88863   19.181
 4455.00    0.94715   0.88730   19.354
 4456.00    0.93665   0.88759   19.733
 4457.00    0.92860   0.88944   19.992
 4458.00    0.92578   0.89194   19.817
 4459.00    0.93029   0.89418   19.558
 4460.00    0.94169   0.89583   19.763
 4461.00    0.95407   0.89677    0.000
 4462.00    0.95970   0.89672    0.000
 4463.00    0.95588   0.89489    0.000
 4464.00    0.94520   0.89179    0.000
 4465.00    0.93403   0.88919    0.000
 4466.00    0.92862   0.88927    0.000
 4467.00    0.92996   0.89309    0.000
 4468.00    0.93559   0.89989    0.000
 4469.00    0.94294   0.90832    0.000
 4470.00    0.94871   0.91761    0.000
 4471.00    0.94789   0.92717    0.000
 4472.00    0.93740   0.93486    0.000
 4473.00    0.92041   0.93774    0.000
 4474.00    0.90259   0.93505    0.000
 4475.00    0.88743   0.92921    0.000
 4476.00    0.87749   0.92379    0.000
 4477.00    0.87601   0.92056    0.000
 4478.00    0.88474   0.91919    0.000
 4479.00    0.90174   0.91974    0.000
 4480.00    0.92208   0.92270    0.000
 4481.00    0.93902   0.92740    0.000
 4482.00    0.94749   0.93150   21.572
 4483.00    0.94685   0.93294   22.227
 4484.00    0.93993   0.93215   22.293
 4485.00    0.93155   0.93056   22.161
 4486.00    0.92525   0.92878   22.247
 4487.00    0.92109   0.92666   22.303
 4488.00    0.91816   0.92453   22.118
 4489.00    0.91643   0.92378   21.967
 4490.00    0.91683   0.92493   21.936
 4491.00    0.92103   0.92728   21.640
 4492.00    0.93009   0.93025   21.103
 4493.00    0.94350   0.93350   21.030
 4494.00    0.95839   0.93711   21.733
 4495.00    0.96994   0.94104   22.692
 4496.00    0.97583   0.94598   23.196
 4497.00    0.97796   0.95234   22.961
 4498.00    0.97842   0.95871   22.334
 4499.00    0.97773   0.96376   22.003
 4500.00    0.97583   0.96752   22.138
 4501.00    0.97297   0.97058   22.298
 4502.00    0.97123   0.97271   22.219
 4503.00    0.97412   0.97320   22.074
 4504.00    0.98226   0.97220   21.956
 4505.00    0.99222   0.97003   21.779
 4506.00    0.99892   0.96672   21.675
 4507.00    0.99750   0.96268   21.979
 4508.00    0.98645   0.95840   22.622
 4509.00    0.96821   0.95410   23.060
 4510.00    0.94739   0.94999   23.017
 4511.00    0.92921   0.94609   22.723
 4512.00    0.91682   0.94255   22.415
 4513.00    0.91062   0.93995   22.184
 4514.00    0.90895   0.93856   22.045
 4515.00    0.90871   0.93781   21.976
 4516.00    0.90647   0.93602   21.960
 4517.00    0.89972   0.93255   22.001
 4518.00    0.88922   0.92843   22.140
 4519.00    0.87855   0.92354   22.399
 4520.00    0.87162   0.91719   22.649
 4521.00    0.87029   0.90955   22.703
 4522.00    0.87084   0.90178   22.647
 4523.00    0.86750   0.89506   22.718
 4524.00    0.86127   0.88977   22.918
 4525.00    0.85796   0.88623   23.081
 4526.00    0.86076   0.88479   23.161
 4527.00    0.86940   0.88474   23.108
 4528.00    0.88136   0.88543   22.561
 4529.00    0.89408   0.88764   21.724
 4530.00    0.90818   0.89221   22.441
 4531.00    0.92374   0.89889   25.604
 4532.00    0.93412   0.90575   23.904
 4533.00    0.93495   0.91131   15.808
 4534.00    0.93802   0.91580   11.345
 4535.00    0.95603   0.91962   10.480
 4536.00    0.97936   0.92266   11.187
 4537.00    0.98788   0.92415   11.720
 4538.00    0.97120   0.92326   11.690
 4539.00    0.93954   0.92061   11.683
 4540.00    0.93024   0.91801   11.725
 4541.00    0.96037   0.91631   11.596
 4542.00    0.97765   0.91400   11.398
 4543.00    0.93391   0.90953   11.355
 4544.00    0.86430   0.90440   11.558
 4545.00    0.82547   0.90110   11.905
 4546.00    0.82687   0.89905   12.023
 4547.00    0.84774   0.89657   11.740
 4548.00    0.86199   0.89424   11.497
 4549.00    0.86481   0.89396   11.598
 4550.00    0.88804   0.89651    0.000
 4551.00    0.94423   0.90102    0.000
 4552.00    0.98759   0.90653    0.000
 4553.00    0.98251   0.91231    0.000
 4554.00    0.95306   0.91820    0.000
 4555.00    0.93587   0.92413    0.000
 4556.00    0.94271   0.92900    0.000
 4557.00    0.95822   0.93108    0.000
 4558.00    0.94745   0.93024    0.000
 4559.00    0.90454   0.92842    0.000
 4560.00    0.87328   0.92722    0.000
 4561.00    0.88439   0.92678    0.000
 4562.00    0.92208   0.92671    0.000
 4563.00    0.95252   0.92730    0.000
 4564.00    0.94802   0.92879    0.000
 4565.00    0.92226   0.93014    0.000
 4566.00    0.93009   0.93059    0.000
 4567.00    0.97933   0.93123    0.000
 4568.00    1.00851   0.93247    0.000
 4569.00    0.98248   0.93277    0.000
 4570.00    0.92614   0.93172    0.000
 4571.00    0.87649   0.93080    0.000
 4572.00    0.85770   0.93025    0.000
 4573.00    0.86804   0.92796    0.000
 4574.00    0.88502   0.92316    0.000
 4575.00    0.90166   0.91761    0.000
 4576.00    0.93025   0.91269    0.000
 4577.00    0.96790   0.90828    0.000
 4578.00    0.99220   0.90432    0.000
 4579.00    0.98638   0.90209    0.000
 4580.00    0.94936   0.90237    0.000
 4581.00    0.90014   0.90429    0.000
 4582.00    0.87068   0.90696    0.000
 4583.00    0.88269   0.91003    0.000
 4584.00    0.93472   0.91290    0.000
 4585.00    0.98703   0.91442    0.000
 4586.00    0.98834   0.91441    0.000
 4587.00    0.94859   0.91376    0.000
 4588.00    0.92112   0.91309    0.000
 4589.00    0.92159   0.91211    0.000
 4590.00    0.92858   0.91067    0.000
 4591.00    0.92556   0.90987    0.000
 4592.00    0.91242   0.91041    0.000
 4593.00    0.90874   0.91158    0.000
 4594.00    0.93041   0.91227    0.000
 4595.00    0.94710   0.91230    0.000
 4596.00    0.92284   0.91281    0.000
 4597.00    0.89738   0.91427    0.000
 4598.00    0.93005   0.91603    0.000
 4599.00    0.98840   0.91773    0.000
 4600.00    1.00311   0.91990    0.000
 4601.00    0.97731   0.92336    0.000
 4602.00    0.95360   0.92779    0.000
 4603.00    0.94396   0.93230    0.000
 4604.00    0.94291   0.93605    0.000
 4605.00    0.95699   0.93866    0.000
 4606.00    0.98645   0.94021    0.000
 4607.00    1.00031   0.94083    0.000
 4608.00    0.97551   0.94032    0.000
 4609.00    0.94275   0.93895    0.000
 4610.00    0.93826   0.93712    0.000
 4611.00    0.94823   0.93510    0.000
 4612.00    0.94622   0.93350    0.000
 4613.00    0.93639   0.93218    0.000
 4614.00    0.93640   0.93111    0.000
 4615.00    0.95572   0.93115    0.000
 4616.00    0.98520   0.93245    0.000
 4617.00    0.99429   0.93391    0.000
 4618.00    0.97630   0.93520    0.000
 4619.00    0.97758   0.93645    0.000
 4620.00    1.01709   0.93715    0.000
 4621.00    1.03366   0.93714    0.000
 4622.00    0.99027   0.93663    0.000
 4623.00    0.94168   0.93495    0.000
 4624.00    0.93799   0.93211    0.000
 4625.00    0.96142   0.93000    0.000
 4626.00    0.97875   0.92915    0.000
 4627.00    0.97761   0.92753    0.000
 4628.00    0.96153   0.92449    0.000
 4629.00    0.94400   0.92186    0.000
 4630.00    0.93902   0.92039    0.000
 4631.00    0.95383   0.91864    0.000
 4632.00    0.97881   0.91583    0.000
 4633.00    0.98813   0.91325    0.000
 4634.00    0.96924   0.91191    0.000
 4635.00    0.93509   0.91125    0.000
 4636.00    0.91075   0.91057    0.000
 4637.00    0.91928   0.90944    0.000
 4638.00    0.95023   0.90765    0.000
 4639.00    0.96219   0.90518    0.000
 4640.00    0.94795   0.90162    0.000
 4641.00    0.94137   0.89657    0.000
 4642.00    0.94148   0.89138    0.000
 4643.00    0.90928   0.88793    0.000
 4644.00    0.85926   0.88647    0.000
 4645.00    0.85720   0.88632    0.000
 4646.00    0.90450   0.88774    0.000
 4647.00    0.93734   0.89120    0.000
 4648.00    0.94366   0.89560    0.000
 4649.00    0.96435   0.89917    0.000
 4650.00    0.99085   0.90230    0.000
 4651.00    0.97536   0.90589    0.000
 4652.00    0.93792   0.90978    0.000
 4653.00    0.94469   0.91388    0.000
 4654.00    0.98139   0.91775    0.000
 4655.00    0.97746   0.92036    0.000
 4656.00    0.93705   0.92068    0.000
 4657.00    0.91914   0.91852    0.000
 4658.00    0.92621   0.91409    0.000
 4659.00    0.91922   0.90794    0.000
 4660.00    0.89832   0.90030    0.000
 4661.00    0.89204   0.89122    0.000
 4662.00    0.90442   0.88266    0.000
 4663.00    0.91764   0.87760    0.000
 4664.00    0.91569   0.87635    0.000
 4665.00    0.89487   0.87748    0.000
 4666.00    0.87320   0.88078    0.000
 4667.00    0.87240   0.88610    0.000
 4668.00    0.88808   0.89218    0.000
 4669.00    0.90089   0.89802    0.000
 4670.00    0.89989   0.90306    0.000
 4671.00    0.88455   0.90667    0.000
 4672.00    0.86267   0.90804    0.000
 4673.00    0.84628   0.90730    0.000
 4674.00    0.84618   0.90579    0.000
 4675.00    0.86401   0.90416    0.000
 4676.00    0.88504   0.90204    0.000
 4677.00    0.89871   0.89997    0.000
 4678.00    0.92011   0.89914    0.000
 4679.00    0.95671   0.89904    0.000
 4680.00    0.97548   0.89884    0.000
 4681.00    0.95723   0.89917    0.000
 4682.00    0.94650   0.90035    0.000
 4683.00    0.97720   0.90162    0.000
 4684.00    1.00680   0.90257    0.000
 4685.00    0.99103   0.90345    0.000
 4686.00    0.94891   0.90451    0.000
 4687.00    0.91678   0.90607    0.000
 4688.00    0.90754   0.90769    0.000
 4689.00    0.92097   0.90855    0.000
 4690.00    0.95305   0.90880    0.000
 4691.00    0.99017   0.90864    0.000
 4692.00    1.00758   0.90704    0.000
 4693.00    0.99006   0.90305    0.000
 4694.00    0.94507   0.89824    0.000
 4695.00    0.89682   0.89428    0.000
 4696.00    0.87707   0.89039    0.000
 4697.00    0.89655   0.88566    0.000
 4698.00    0.93329   0.88160    0.000
 4699.00    0.96048   0.87994    0.000
 4700.00    0.96308   0.87979    0.000
 4701.00    0.94095   0.87939    0.000
 4702.00    0.90789   0.87890    0.000
 4703.00    0.88125   0.87906    0.000
 4704.00    0.87649   0.87987    0.000
 4705.00    0.90597   0.88114    0.000
 4706.00    0.97146   0.88306    0.000
 4707.00    1.03599   0.88477    0.000
 4708.00    1.03596   0.88616    0.000
 4709.00    0.97181   0.88833    0.000
 4710.00    0.91354   0.89234    0.000
 4711.00    0.89062   0.89739    0.000
 4712.00    0.87480   0.90239    0.000
 4713.00    0.86154   0.90727    0.000
 4714.00    0.87687   0.91273    0.000
 4715.00    0.90925   0.91821    0.000
 4716.00    0.91416   0.92227    0.000
 4717.00    0.89251   0.92415    0.000
 4718.00    0.88740   0.92445    0.000
 4719.00    0.90984   0.92373    0.000
 4720.00    0.93510   0.92162    0.000
 4721.00    0.94785   0.91736    0.000
 4722.00    0.94875   0.91117    0.000
 4723.00    0.94118   0.90483    0.000
 4724.00    0.92835   0.89964    0.000
 4725.00    0.91466   0.89529    0.000
 4726.00    0.90530   0.89172    0.000
 4727.00    0.90477   0.88998    0.000
 4728.00    0.91222   0.89044    0.000
 4729.00    0.91351   0.89240    0.000
 4730.00    0.89657   0.89482    0.000
 4731.00    0.88099   0.89661    0.000
 4732.00    0.89342   0.89828    0.000
 4733.00    0.91738   0.90105    0.000
 4734.00    0.92009   0.90395    0.000
 4735.00    0.90824   0.90546    0.000
 4736.00    0.90752   0.90651    0.000
 4737.00    0.91882   0.90887    0.000
 4738.00    0.92874   0.91175    0.000
 4739.00    0.93373   0.91341    0.000
 4740.00    0.93768   0.91432    0.000
 4741.00    0.94418   0.91594    0.000
 4742.00    0.95183   0.91766    0.000
 4743.00    0.95068   0.91804    0.000
 4744.00    0.93497   0.91744    0.000
 4745.00    0.91682   0.91678    0.000
 4746.00    0.90842   0.91547    0.000
 4747.00    0.90267   0.91288    0.000
 4748.00    0.89431   0.90980    0.000
 4749.00    0.90058   0.90696    0.000
 4750.00    0.93024   0.90439    0.000
 4751.00    0.95584   0.90210    0.000
 4752.00    0.95102   0.90027    0.000
 4753.00    0.92411   0.89874    0.000
 4754.00    0.89833   0.89734    0.000
 4755.00    0.89146   0.89564    0.000
 4756.00    0.90340   0.89271    0.000
 4757.00    0.91199   0.88848    0.000
 4758.00    0.90636   0.88431    0.000
 4759.00    0.90464   0.88100    0.000
 4760.00    0.90293   0.87834    0.000
 4761.00    0.85448   0.87683   12.929
 4762.00    0.77039   0.87746   13.180
 4763.00    0.75834   0.88011   13.110
 4764.00    0.85423   0.88405   12.579
 4765.00    0.94864   0.88867   12.292
 4766.00    0.96098   0.89300   12.522
 4767.00    0.92410   0.89674   12.789
 4768.00    0.89253   0.90073   12.757
 4769.00    0.89138   0.90492   12.707
 4770.00    0.91899   0.90789   12.820
 4771.00    0.95326   0.90948   12.917
 4772.00    0.97011   0.91109   12.902
 4773.00    0.95560   0.91245   12.913
 4774.00    0.92040   0.91183   12.975
 4775.00    0.89666   0.90975   12.924
 4776.00    0.90150   0.90786   12.774
 4777.00    0.92545   0.90543   12.752
 4778.00    0.94560   0.90158   12.913
 4779.00    0.93894   0.89804   13.081
 4780.00    0.90899   0.89565   13.123
 4781.00    0.88399   0.89297   13.056
 4782.00    0.88041   0.89044   13.000
 4783.00    0.89582   0.88977   13.087
 4784.00    0.92455   0.89042   13.279
 4785.00    0.95863   0.89169   13.374
 4786.00    0.97681   0.89432   13.230
 4787.00    0.95900   0.89811   12.908
 4788.00    0.93134   0.90205   12.754
 4789.00    0.94156   0.90585   13.064
 4790.00    0.97005   0.90894   13.290
 4791.00    0.95713   0.91039   12.503
 4792.00    0.91627   0.91034   11.294
 4793.00    0.90636   0.90928   10.696
 4794.00    0.91575   0.90729   10.820
 4795.00    0.89373   0.90482   11.314
 4796.00    0.86330   0.90271   11.618
 4797.00    0.88025   0.90127   11.320
 4798.00    0.91459   0.90004   10.928
 4799.00    0.89843   0.89844   11.129
 4800.00    0.84831   0.89672   11.780
 4801.00    0.83019   0.89554   12.097
 4802.00    0.86567   0.89463   11.578
 4803.00    0.92809   0.89336   10.642
 4804.00    0.96336   0.89250   10.323
 4805.00    0.93548   0.89288   11.282
 4806.00    0.88423   0.89397   12.967
 4807.00    0.87114   0.89520   13.567
 4808.00    0.89676   0.89695   12.998
 4809.00    0.92481   0.89934   12.623
 4810.00    0.92794   0.90183   12.778
 4811.00    0.90361   0.90399   13.166
 4812.00    0.88322   0.90579   13.279
 4813.00    0.89372   0.90696   12.886
 4814.00    0.91634   0.90675   12.495
 4815.00    0.91874   0.90487   12.579
 4816.00    0.89377   0.90215   13.026
 4817.00    0.86293   0.89893   13.444
 4818.00    0.87015   0.89448   13.491
 4819.00    0.92226   0.88958   13.182
 4820.00    0.94643   0.88641   12.973
 4821.00    0.89866   0.88507   13.105
 4822.00    0.84727   0.88382   13.222
 4823.00    0.85788   0.88238   13.029
 4824.00    0.90321   0.88182   12.822
 4825.00    0.93040   0.88226   12.876
 4826.00    0.91797   0.88233   13.066
 4827.00    0.88158   0.88123   13.173
 4828.00    0.86639   0.88027   13.116
 4829.00    0.88577   0.88034   12.966
 4830.00    0.89374   0.87992   12.893
 4831.00    0.86785   0.87815   12.961
 4832.00    0.84872   0.87642   13.055
 4833.00    0.86154   0.87506   13.050
 4834.00    0.87906   0.87256   12.933
 4835.00    0.87783   0.86911   12.788
 4836.00    0.86515   0.86662   12.743
 4837.00    0.85334   0.86507   12.846
 4838.00    0.84729   0.86285   13.014
 4839.00    0.85198   0.86018   13.099
 4840.00    0.87249   0.85820   12.973
 4841.00    0.89794   0.85633   12.744
 4842.00    0.90210   0.85308   12.709
 4843.00    0.87524   0.84812   12.935
 4844.00    0.83484   0.84248   13.194
 4845.00    0.81455   0.83661   13.302
 4846.00    0.84411   0.82896   13.272
 4847.00    0.89578   0.81842   13.231
 4848.00    0.89846   0.80626    0.000
 4849.00    0.84793   0.79246    0.000
 4850.00    0.81069   0.77497    0.000
 4851.00    0.81829   0.75408    0.000
 4852.00    0.85816   0.73177    0.000
 4853.00    0.94620   0.70863    0.000
 4854.00    1.11811   0.68576    0.000
 4855.00    1.34756   0.66521    0.000
 4856.00    1.55437   0.64875    0.000
 4857.00    1.68295   0.63984    0.000
 4858.00    1.71251   0.64119    0.000
 4859.00    1.63200   0.65028    0.000
 4860.00    1.44823   0.66429    0.000
 4861.00    1.21632   0.68356    0.000
 4862.00    1.01515   0.70554    0.000
 4863.00    0.88290   0.72541    0.000
 4864.00    0.81674   0.74246    0.000
 4865.00    0.79917   0.75725    0.000
 4866.00    0.80675   0.76827    0.000
 4867.00    0.81661   0.77638    0.000
 4868.00    0.81487   0.78484    0.000
 4869.00    0.80822   0.79365    0.000
 4870.00    0.81093   0.80135    0.000
 4871.00    0.82164   0.80940    0.000
 4872.00    0.83135   0.81838    0.000
 4873.00    0.84058   0.82632    0.000
 4874.00    0.85615   0.83288    0.000
 4875.00    0.88222   0.83875   13.429
 4876.00    0.90798   0.84232   13.267
 4877.00    0.89657   0.84298   13.214
 4878.00    0.83530   0.84277   13.243
 4879.00    0.79191   0.84200   13.293
 4880.00    0.82409   0.83955   13.318
 4881.00    0.87577   0.83644   13.345
 4882.00    0.87332   0.83408   13.422
 4883.00    0.83591   0.83257   13.565
 4884.00    0.81561   0.83248   13.695
 4885.00    0.82654   0.83400   13.613
 4886.00    0.85434   0.83666   13.333
 4887.00    0.87407   0.84152   13.280
 4888.00    0.87579   0.84947   13.577
 4889.00    0.88106   0.85847   13.532
 4890.00    0.90010   0.86661   12.838
 4891.00    0.90226   0.87391   12.357
 4892.00    0.87488   0.87991   12.541
 4893.00    0.86100   0.88394   12.822
 4894.00    0.88457   0.88527   12.734
 4895.00    0.90463   0.88387   12.753
 4896.00    0.89199   0.88190   13.139
 4897.00    0.87447   0.88098   13.249
 4898.00    0.87560   0.87953   12.771
 4899.00    0.88051   0.87728   12.422
 4900.00    0.87818   0.87634   12.593
 4901.00    0.88185   0.87625   12.929
 4902.00    0.89434   0.87464   13.045
 4903.00    0.89534   0.87205   12.965
 4904.00    0.88009   0.86998   12.851
 4905.00    0.87074   0.86764   12.811
 4906.00    0.87143   0.86482   12.852
 4907.00    0.85750   0.86335   12.896
 4908.00    0.82824   0.86301   12.900
 4909.00    0.81815   0.86167   12.895
 4910.00    0.84036   0.85905   12.888
 4911.00    0.87149   0.85552   12.854
 4912.00    0.88993   0.84971   12.862
 4913.00    0.89009   0.84113   13.045
 4914.00    0.87609   0.83178   13.288
 4915.00    0.85754   0.82300   13.254
 4916.00    0.84381   0.81555   13.036
 4917.00    0.84072   0.81159   13.097
 4918.00    0.84643   0.81276   13.477
 4919.00    0.85301   0.81700   13.744
 4920.00    0.85491   0.82365   13.724
 4921.00    0.85146   0.83376   13.646
 4922.00    0.84635   0.84521   13.664
 4923.00    0.84457   0.85473   13.760
 4924.00    0.84504   0.86235   13.869
 4925.00    0.84354   0.86777   13.932
 4926.00    0.84435   0.86987   13.984
 4927.00    0.85661   0.86968   14.079
 4928.00    0.87927   0.86734   14.090
 4929.00    0.90059   0.86219   13.857
 4930.00    0.90483   0.85668   13.576
 4931.00    0.88339   0.85309   13.569
 4932.00    0.85319   0.85039   13.812
 4933.00    0.84114   0.84812   14.027
 4934.00    0.84878   0.84755   14.032
 4935.00    0.86035   0.84991   13.821
 4936.00    0.86857   0.85464   13.523
 4937.00    0.87598   0.85963   13.308
 4938.00    0.88940   0.86418   13.283
 4939.00    0.91226   0.86981   13.440
 4940.00    0.93482   0.87545    0.000
 4941.00    0.94371   0.87878    0.000
 4942.00    0.93731   0.88094    0.000
 4943.00    0.92170   0.88359    0.000
 4944.00    0.90226   0.88509    0.000
 4945.00    0.88221   0.88452    0.000
 4946.00    0.86267   0.88344    0.000
 4947.00    0.84972   0.88208    0.000
 4948.00    0.86069   0.87856    0.000
 4949.00    0.89952   0.87254    0.000
 4950.00    0.93298   0.86695    0.000
 4951.00    0.93944   0.86305    0.000
 4952.00    0.95554   0.85863    0.000
 4953.00    1.00735   0.85383    0.000
 4954.00    1.04731   0.85300    0.000
 4955.00    1.03499   0.85627    0.000
 4956.00    1.00744   0.85891    0.000
 4957.00    1.00251   0.86037    0.000
 4958.00    0.99534   0.86291    0.000
 4959.00    0.95673   0.86540    0.000
 4960.00    0.90029   0.86529    0.000
 4961.00    0.85385   0.86328    0.000
 4962.00    0.83437   0.86171    0.000
 4963.00    0.83948   0.86097    0.000
 4964.00    0.84718   0.86027    0.000
 4965.00    0.84622   0.86030    0.000
 4966.00    0.85081   0.86168    0.000
 4967.00    0.86675   0.86390    0.000
 4968.00    0.87622   0.86599    0.000
 4969.00    0.87392   0.86736    0.000
 4970.00    0.88052   0.86761    0.000
 4971.00    0.90006   0.86616    0.000
 4972.00    0.90573   0.86287    0.000
 4973.00    0.88585   0.85762    0.000
 4974.00    0.85985   0.85008    0.000
 4975.00    0.84206   0.84174    0.000
 4976.00    0.82846   0.83418    0.000
 4977.00    0.81580   0.82689    0.000
 4978.00    0.80732   0.82044    0.000
 4979.00    0.80042   0.81738    0.000
 4980.00    0.78831   0.81785    0.000
 4981.00    0.78546   0.81990    0.000
 4982.00    0.81994   0.82355    0.000
 4983.00    0.87318   0.82891    0.000
 4984.00    0.88586   0.83414    0.000
 4985.00    0.84818   0.83799    0.000
 4986.00    0.80639   0.84071    0.000
 4987.00    0.78811   0.84290    0.000
 4988.00    0.78916   0.84470    0.000
 4989.00    0.80462   0.84508    0.000
 4990.00    0.83343   0.84453    0.000
 4991.00    0.86556   0.84419    0.000
 4992.00    0.88444   0.84266    0.000
 4993.00    0.88162   0.83949    0.000
 4994.00    0.86013   0.83563    0.000
 4995.00    0.83313   0.83107    0.000
 4996.00    0.82054   0.82597    0.000
 4997.00    0.84220   0.82091    0.000
 4998.00    0.90760   0.81625    0.000
 4999.00    0.99896   0.81313    0.000
 5000.00    1.08807   0.81144    0.000
 5001.00    1.17423   0.80983    0.000
 5002.00    1.26484   0.80879    0.000
 5003.00    1.32885   0.80954    0.000
 5004.00    1.32345   0.81049    0.000
 5005.00    1.25171   0.80956    0.000
 5006.00    1.14638   0.80736    0.000
 5007.00    1.02940   0.80462    0.000
 5008.00    0.91819   0.80092    0.000
 5009.00    0.84288   0.79670    0.000
 5010.00    0.82319   0.79263    0.000
 5011.00    0.83510   0.78996    0.000
 5012.00    0.84027   0.78987    0.000
 5013.00    0.82924   0.79068    0.000
 5014.00    0.81444   0.79183    0.000
 5015.00    0.81374   0.79548    0.000
 5016.00    0.83039   0.80102    0.000
 5017.00    0.83597   0.80554    0.000
 5018.00    0.81144   0.80945    0.000
 5019.00    0.78789   0.81417    0.000
 5020.00    0.79321   0.81861    0.000
 5021.00    0.80062   0.82206    0.000
 5022.00    0.78693   0.82522    0.000
 5023.00    0.78518   0.82753    0.000
 5024.00    0.82441   0.83003    0.000
 5025.00    0.87816   0.83346    0.000
 5026.00    0.90983   0.83576    0.000
 5027.00    0.91192   0.83632    0.000
 5028.00    0.89389   0.83634    0.000
 5029.00    0.86972   0.83560   14.964
 5030.00    0.85050   0.83245   15.084
 5031.00    0.83982   0.82656   14.997
 5032.00    0.83408   0.82000   14.857
 5033.00    0.82442   0.81420   14.893
 5034.00    0.80562   0.80847   15.156
 5035.00    0.78191   0.80404   15.399
 5036.00    0.76684   0.80173   15.394
 5037.00    0.77874   0.80144   15.150
 5038.00    0.81699   0.80505   14.805
 5039.00    0.85555   0.81115   14.511
 5040.00    0.87710   0.81579   14.356
 5041.00    0.88622   0.81998   14.365
 5042.00    0.88645   0.82449   14.530
 5043.00    0.87238   0.82639   14.782
 5044.00    0.84606   0.82556   14.758
 5045.00    0.82161   0.82513   13.971
 5046.00    0.81300   0.82595   12.771
 5047.00    0.82634   0.82649   11.944
 5048.00    0.85136   0.82771   11.647
 5049.00    0.86481   0.83116   11.610
 5050.00    0.85442   0.83581   11.728
 5051.00    0.82561   0.83984   12.108
 5052.00    0.79352   0.84354   12.620
 5053.00    0.77437   0.84732   12.867
 5054.00    0.76778   0.85030   12.941
 5055.00    0.75967   0.85150   13.333
 5056.00    0.74751   0.85111   13.641
 5057.00    0.74197   0.84928   12.894
 5058.00    0.75021   0.84643   11.985
 5059.00    0.77160   0.84282   12.395
 5060.00    0.79919   0.83759   14.003
 5061.00    0.82285   0.83227   14.912
 5062.00    0.83571   0.82947   14.418
 5063.00    0.83598   0.82722   14.002
 5064.00    0.82736   0.82391   14.133
 5065.00    0.81667   0.82217   14.372
 5066.00    0.80859   0.82275   14.492
 5067.00    0.80447   0.82193   14.553
 5068.00    0.80219   0.81937   14.530
 5069.00    0.79731   0.81839   14.361
 5070.00    0.78515   0.81773   14.170
 5071.00    0.76500   0.81434   14.152
 5072.00    0.74632   0.81006   14.371
 5073.00    0.74564   0.80743   14.684
 5074.00    0.77887   0.80480   14.666
 5075.00    0.84146   0.80064   14.114
 5076.00    0.88359   0.79819   13.692
 5077.00    0.86263   0.79932   13.986
 5078.00    0.81841   0.80153   14.542
 5079.00    0.80832   0.80359   14.560
 5080.00    0.81149   0.80745   14.330
 5081.00    0.78655   0.81311   14.475
 5082.00    0.75531   0.81804   14.788
 5083.00    0.75987   0.82173   14.786
 5084.00    0.80181   0.82565   14.571
 5085.00    0.85311   0.82958   14.466
 5086.00    0.87792   0.83185   14.505
 5087.00    0.86162   0.83264   14.593
 5088.00    0.83404   0.83279   14.695
 5089.00    0.82524   0.83166   14.825
 5090.00    0.82453   0.82863   15.011
 5091.00    0.81593   0.82433   15.251
 5092.00    0.81036   0.81966   15.473
 5093.00    0.82015   0.81533   15.600
 5094.00    0.83718   0.81169   15.610
 5095.00    0.84808   0.80895   15.547
 5096.00    0.84735   0.80802   15.496
 5097.00    0.83542   0.80869   15.509
 5098.00    0.81657   0.80954   15.559
 5099.00    0.79872   0.80990   15.581
 5100.00    0.79184   0.80998   15.520
 5101.00    0.79725   0.81016   15.408
 5102.00    0.80371   0.80970   15.386
 5103.00    0.80512   0.80839   15.501
 5104.00    0.80864   0.80847   15.624
 5105.00    0.81861   0.80990   15.655
 5106.00    0.82827   0.81116   15.631
 5107.00    0.82617   0.81377   15.647
 5108.00    0.80495   0.81781   15.781
 5109.00    0.78558   0.82139   15.941
 5110.00    0.81136   0.82463   15.876
 5111.00    0.86657   0.82741   15.584
 5112.00    0.87027   0.82881   15.369
 5113.00    0.81153   0.82873   15.331
 5114.00    0.77385   0.82707   15.281
 5115.00    0.79526   0.82358   15.118
 5116.00    0.83346   0.81849   14.942
 5117.00    0.85309   0.81270   14.866
 5118.00    0.85306   0.80683   14.937
 5119.00    0.84228   0.80081   15.068
 5120.00    0.82844   0.79561   15.066
 5121.00    0.81190   0.79217   14.875
 5122.00    0.78966   0.78994   14.606
 5123.00    0.77295   0.78885   14.377
 5124.00    0.78081   0.78936   14.262
 5125.00    0.80656   0.79075   14.296
 5126.00    0.82239   0.79246   14.456
 5127.00    0.81672   0.79495   14.586
 5128.00    0.79812   0.79746   14.517
 5129.00    0.77937   0.79851   14.434
 5130.00    0.77097   0.79902   14.671
 5131.00    0.77595   0.79943   15.096
 5132.00    0.78973   0.79769   15.228
 5133.00    0.80253   0.79540   15.016
 5134.00    0.80456   0.79379   14.797
 5135.00    0.79524   0.79058   14.734
 5136.00    0.78230   0.78821   14.791
 5137.00    0.77626   0.78795   14.850
 5138.00    0.78412   0.78627   14.807
 5139.00    0.80020   0.78475   14.693
 5140.00    0.81164   0.78555   14.602
 5141.00    0.81013   0.78580   14.544
 5142.00    0.79646   0.78523   14.496
 5143.00    0.78384   0.78540   14.511
 5144.00    0.78463   0.78560   14.623
 5145.00    0.79125   0.78585   14.702
 5146.00    0.78890   0.78611   14.636
 5147.00    0.77644   0.78634   14.606
 5148.00    0.76410   0.78771   14.788
 5149.00    0.76605   0.78994   14.963
 5150.00    0.78755   0.79241   14.857
 5151.00    0.81254   0.79553   14.654
 5152.00    0.82654   0.79887   14.638
 5153.00    0.84137   0.80178   14.793
 5154.00    0.86606   0.80324   14.965
 5155.00    0.87694   0.80222   15.052
 5156.00    0.85454   0.79946   15.041
 5157.00    0.81926   0.79419   15.012
 5158.00    0.79506   0.78525   15.034
 5159.00    0.77583   0.77436   15.088
 5160.00    0.75100   0.76238   15.189
 5161.00    0.72855   0.74921   15.458
 5162.00    0.72028   0.73686   15.856
 5163.00    0.72786   0.72712   15.964
 5164.00    0.73837   0.71938   15.666
 5165.00    0.72686   0.71419   15.551
 5166.00    0.69347   0.71427   15.941
 5167.00    0.68020   0.71856   16.375
 5168.00    0.70492   0.72400   16.389
 5169.00    0.72776   0.73194   16.162
 5170.00    0.72203   0.74331   16.011
 5171.00    0.71118   0.75409   16.031
 5172.00    0.71682   0.76169   16.147
 5173.00    0.73165   0.76741   16.190
 5174.00    0.74536   0.77101   16.141
 5175.00    0.75816   0.76994   16.186
 5176.00    0.77316   0.76451   16.291
 5177.00    0.79051   0.75905   16.116
 5178.00    0.79964   0.75489   15.715
 5179.00    0.78272   0.75025   15.599
 5180.00    0.74503   0.74786   15.824
 5181.00    0.71943   0.74950   15.863
 5182.00    0.72912   0.75311   15.546
 5183.00    0.77098   0.75775   15.299
 5184.00    0.81407   0.76157   15.351
 5185.00    0.81556   0.76444   15.589
 5186.00    0.77740   0.76807   15.836
 5187.00    0.74698   0.76985   15.963
 5188.00    0.75017   0.76900   15.941
 5189.00    0.77441   0.77016   15.842
 5190.00    0.78966   0.77270    0.000
 5191.00    0.77135   0.77367    0.000
 5192.00    0.74533   0.77577    0.000
 5193.00    0.76646   0.77950    0.000
 5194.00    0.82580   0.78173    0.000
 5195.00    0.86274   0.78259    0.000
 5196.00    0.86118   0.78334    0.000
 5197.00    0.85021   0.78194    0.000
 5198.00    0.84531   0.77788    0.000
 5199.00    0.84088   0.77411    0.000
 5200.00    0.82635   0.77051    0.000
 5201.00    0.79562   0.76552    0.000
 5202.00    0.75837   0.76258    0.000
 5203.00    0.73240   0.76308    0.000
 5204.00    0.72441   0.76403    0.000
 5205.00    0.73102   0.76648    0.000
 5206.00    0.74749   0.77174    0.000
 5207.00    0.76535   0.77701    0.000
 5208.00    0.76668   0.78111    0.000
 5209.00    0.74619   0.78545    0.000
 5210.00    0.74480   0.78947    0.000
 5211.00    0.79650   0.79219   14.625
 5212.00    0.84617   0.79444   14.429
 5213.00    0.82988   0.79652   14.708
 5214.00    0.79777   0.79811   15.057
 5215.00    0.81916   0.79875   14.975
 5216.00    0.84370   0.79773   14.829
 5217.00    0.80323   0.79520   15.123
 5218.00    0.75066   0.79146   15.560
 5219.00    0.75800   0.78558   15.590
 5220.00    0.78731   0.77886   15.347
 5221.00    0.77690   0.77431   15.220
 5222.00    0.74470   0.77054   15.253
 5223.00    0.73518   0.76730   15.366
 5224.00    0.75583   0.76790   15.584
 5225.00    0.78617   0.77027   15.854
 5226.00    0.79556   0.77200   15.883
 5227.00    0.77956   0.77533   15.555
 5228.00    0.78243   0.77944   15.248
 5229.00    0.82341   0.78253   15.275
 5230.00    0.84528   0.78600   15.545
 5231.00    0.81007   0.79027   15.823
 5232.00    0.76523   0.79431   15.949
 5233.00    0.75605   0.79833   15.912
 5234.00    0.76601   0.80269   15.858
 5235.00    0.77241   0.80624   15.884
 5236.00    0.78260   0.80842   15.927
 5237.00    0.80334   0.81012   15.915
 5238.00    0.82243   0.81103   15.866
 5239.00    0.82502   0.80976   15.851
 5240.00    0.80606   0.80724   15.930
 5241.00    0.78090   0.80513   16.020
 5242.00    0.78265   0.80207   15.880
 5243.00    0.81905   0.79761   15.548
 5244.00    0.85763   0.79445   15.391
 5245.00    0.86475   0.79264   15.488
 5246.00    0.82888   0.79071   15.514
 5247.00    0.77598   0.78982   15.406
 5248.00    0.75884   0.79061   15.504
 5249.00    0.78548   0.79227   15.815
 5250.00    0.80791   0.79410   15.872
 5251.00    0.79980   0.79562   15.590
 5252.00    0.77765   0.79664   15.417
 5253.00    0.76119   0.79635   15.479
 5254.00    0.75955   0.79360   15.479
 5255.00    0.77691   0.78823   15.277
 5256.00    0.80887   0.78077   15.024
 5257.00    0.82485   0.77182   14.880
 5258.00    0.78789   0.76148   14.914
 5259.00    0.72920   0.75049   15.033
 5260.00    0.72320   0.74149   15.057
 5261.00    0.75612   0.73490   15.021
 5262.00    0.74764   0.72871   15.091
 5263.00    0.70430   0.72526   15.112
 5264.00    0.70191   0.72644   14.762
 5265.00    0.74261   0.72816   14.222
 5266.00    0.76458   0.73047   13.917
 5267.00    0.74596   0.73695   13.849
 5268.00    0.71043   0.74422   13.739
 5269.00    0.68576   0.75009   13.464
 5270.00    0.68778   0.75782   13.117
 5271.00    0.70744   0.76585   12.926
 5272.00    0.72531   0.77166   13.020
 5273.00    0.74265   0.77698   13.088
 5274.00    0.77058   0.78173   12.744
 5275.00    0.80140   0.78477   12.314
 5276.00    0.81518   0.78684   12.294
 5277.00    0.79941   0.78859   12.570
 5278.00    0.76307   0.79082   12.732
 5279.00    0.75031   0.79382   12.697
 5280.00    0.79160   0.79719   12.653
 5281.00    0.83551   0.80160   12.753
 5282.00    0.82136   0.80688   13.040
 5283.00    0.78497   0.81146   13.403
 5284.00    0.78714   0.81506   13.684
 5285.00    0.81028   0.81766   13.863
 5286.00    0.81328   0.81839   13.986
 5287.00    0.80797   0.81711   14.020
 5288.00    0.81888   0.81427   13.944
 5289.00    0.83184   0.81009   13.861
 5290.00    0.82532   0.80485   13.913
 5291.00    0.80650   0.79927   14.187
 5292.00    0.79055   0.79448   14.628
 5293.00    0.77818   0.79080   14.947
 5294.00    0.76680   0.78821   14.920
 5295.00    0.76148   0.78772   14.722
 5296.00    0.76519   0.78943   14.589
 5297.00    0.77144   0.79212   14.525
 5298.00    0.77935   0.79565   14.480
 5299.00    0.80204   0.80009   14.484
 5300.00    0.83403   0.80438   14.554
 5301.00    0.83515   0.80806   14.628
 5302.00    0.79423   0.81130   14.644
 5303.00    0.76249   0.81366   14.596
 5304.00    0.77155   0.81508   14.561
 5305.00    0.78874   0.81589   14.673
 5306.00    0.78531   0.81551   14.897
 5307.00    0.77413   0.81420   14.950
 5308.00    0.77350   0.81265   14.797
 5309.00    0.78528   0.81014   14.820
 5310.00    0.79703   0.80703   15.145
 5311.00    0.78999   0.80462   15.397
 5312.00    0.77013   0.80211   15.355
 5313.00    0.77093   0.79921   15.260
 5314.00    0.79421   0.79689   15.265
 5315.00    0.79979   0.79455   15.242
 5316.00    0.78258   0.79130   15.071
 5317.00    0.78561   0.78709   14.778
 5318.00    0.81275   0.78209   14.515
 5319.00    0.81635   0.77682   14.469
 5320.00    0.78840   0.77092   14.626
 5321.00    0.77293   0.76462   14.766
 5322.00    0.78345   0.76026   14.752
 5323.00    0.78890   0.75819   14.636
 5324.00    0.76727   0.75717   14.561
 5325.00    0.72471   0.75858   14.645
 5326.00    0.69610   0.76286   14.748
 5327.00    0.72207   0.76787   14.586
 5328.00    0.78511   0.77294   14.289
 5329.00    0.82507   0.77788   14.249
 5330.00    0.83041   0.78158   14.416
 5331.00    0.83330   0.78396   14.415
 5332.00    0.83441   0.78506   14.266
 5333.00    0.81080   0.78450   14.293
 5334.00    0.77934   0.78367   14.470
 5335.00    0.78053   0.78329   14.511
 5336.00    0.81028   0.78244   14.412
 5337.00    0.83329   0.78213   14.382
 5338.00    0.84148   0.78309   14.439
 5339.00    0.84821   0.78385   14.483
 5340.00    0.85401   0.78479   14.594
 5341.00    0.85086   0.78644   14.876
 5342.00    0.84165   0.78763   15.070
 5343.00    0.83358   0.78909   14.911
 5344.00    0.82171   0.79169   14.903
 5345.00    0.80140   0.79440   15.459
 5346.00    0.79092   0.79748   15.395
 5347.00    0.81021   0.80177   13.661
 5348.00    0.84574   0.80636   11.912
 5349.00    0.87069   0.81034   11.282
 5350.00    0.87949   0.81410   11.351
 5351.00    0.88060   0.81735   11.423
 5352.00    0.88066   0.81899   11.359
 5353.00    0.87854   0.81914   11.371
 5354.00    0.86186   0.81813   11.603
 5355.00    0.82581   0.81539   12.077
 5356.00    0.79262   0.81142   12.615
 5357.00    0.78373   0.80683   12.891
 5358.00    0.79012   0.80128   12.651
 5359.00    0.79593   0.79564   12.202
 5360.00    0.80329   0.79039   12.496
 5361.00    0.81435   0.78497   14.109
 5362.00    0.81463   0.78029   15.937
 5363.00    0.79489   0.77673   16.029
 5364.00    0.76953   0.77370   15.372
 5365.00    0.75883   0.77231   15.373
 5366.00    0.77193   0.77298   15.581
 5367.00    0.79825   0.77468   15.352
 5368.00    0.80731   0.77790   15.065
 5369.00    0.79011   0.78270   15.079
 5370.00    0.78098   0.78721   15.116
 5371.00    0.80205   0.79118   14.906
 5372.00    0.83104   0.79488   14.598
 5373.00    0.84353   0.79690   14.363
 5374.00    0.83820   0.79747   -2.000
 5375.00    0.81932   0.79777   -2.000
 5376.00    0.78798   0.79707   -2.000
 5377.00    0.75491   0.79581   -2.000
 5378.00    0.74243   0.79532   -2.000
 5379.00    0.75637   0.79468   -2.000
 5380.00    0.77612   0.79365   -2.000
 5381.00    0.77777   0.79310   -2.000
 5382.00    0.75071   0.79212   -2.000
 5383.00    0.71887   0.79010   -2.000
 5384.00    0.73098   0.78780   -2.000
 5385.00    0.78180   0.78509   -2.000
 5386.00    0.80503   0.78159   -2.000
 5387.00    0.77543   0.77780   -2.000
 5388.00    0.73379   0.77437   -2.000
 5389.00    0.72724   0.77121   13.781
 5390.00    0.77715   0.76793   14.132
 5391.00    0.84988   0.76545   14.466
 5392.00    0.87514   0.76419   14.771
 5393.00    0.83436   0.76265   14.987
 5394.00    0.77138   0.76113   15.070
 5395.00    0.73817   0.76059   15.079
 5396.00    0.76324   0.75931   15.147
 5397.00    0.81319   0.75684   15.288
 5398.00    0.82069   0.75469   15.414
 5399.00    0.78249   0.75229   15.482
 5400.00    0.75071   0.74939   15.520
 5401.00    0.74920   0.74751   15.569
 5402.00    0.76517   0.74673   15.643
 5403.00    0.77805   0.74675   15.699
 5404.00    0.77554   0.74828   15.688
 5405.00    0.77199   0.75116   15.698
 5406.00    0.78876   0.75469   15.853
 5407.00    0.80924   0.75898   16.065
 5408.00    0.80147   0.76370   16.156
 5409.00    0.77542   0.76830   16.203
 5410.00    0.76677   0.77265   16.384
 5411.00    0.79054   0.77620   16.576
 5412.00    0.83545   0.77900   16.515
 5413.00    0.86941   0.78117   16.224
 5414.00    0.86532   0.78194   15.924
 5415.00    0.83720   0.78198   15.780
 5416.00    0.81599   0.78188   15.806
 5417.00    0.80844   0.78069   15.796
 5418.00    0.80747   0.77933   15.601
 5419.00    0.81300   0.77842   15.499
 5420.00    0.82600   0.77667   15.708
 5421.00    0.83808   0.77498   15.825
 5422.00    0.83835   0.77353   15.493
 5423.00    0.82325   0.77099   15.243
 5424.00    0.80118   0.76887   15.544
 5425.00    0.79374   0.76706   15.914
 5426.00    0.80530   0.76455   15.766
 5427.00    0.79772   0.76344   15.494
 5428.00    0.75464   0.76359   15.546
 5429.00    0.73535   0.76414   15.599
 5430.00    0.77576   0.76643   15.342
 5431.00    0.80798   0.77014   15.155
 5432.00    0.77932   0.77431   15.353
 5433.00    0.74547   0.77889   15.650
 5434.00    0.76198   0.78324   15.656
 5435.00    0.80138   0.78650   15.380
 5436.00    0.82000   0.78836   15.122
 5437.00    0.81040   0.78843   15.259
 5438.00    0.78890   0.78691   15.793
 5439.00    0.78040   0.78444   16.093
 5440.00    0.79131   0.78107   15.796
 5441.00    0.79874   0.77794   15.441
 5442.00    0.78952   0.77587   15.474
 5443.00    0.77960   0.77414   15.815
 5444.00    0.78534   0.77345   16.152
 5445.00    0.80643   0.77373   16.152
 5446.00    0.82580   0.77350   15.885
 5447.00    0.81839   0.77337   15.852
 5448.00    0.79180   0.77317   16.203
 5449.00    0.78914   0.77212   16.528
 5450.00    0.80997   0.77155   16.596
 5451.00    0.79886   0.77141   16.656
 5452.00    0.75493   0.77112   16.784
 5453.00    0.74851   0.77151   16.727
 5454.00    0.79398   0.77213   16.510
 5455.00    0.82822   0.77256   16.493
 5456.00    0.82592   0.77272   16.708
 5457.00    0.82034   0.77246   16.798
 5458.00    0.81903   0.77254   16.663
 5459.00    0.79608   0.77250   16.546
 5460.00    0.76575   0.77208   16.472
 5461.00    0.77686   0.77245   16.247
 5462.00    0.82143   0.77295   15.976
 5463.00    0.84084   0.77254   15.970
 5464.00    0.82374   0.77183   16.168
 5465.00    0.80685   0.77091   16.198
 5466.00    0.80089   0.76879   15.993
 5467.00    0.78863   0.76534   15.792
 5468.00    0.77055   0.76215   15.693
 5469.00    0.76199   0.75889   15.645
 5470.00    0.75998   0.75478   15.655
 5471.00    0.75157   0.75201   15.746
 5472.00    0.74818   0.75073   15.772
 5473.00    0.76716   0.74972   15.578
 5474.00    0.78089   0.75010   15.384
 5475.00    0.75178   0.75195   15.498
 5476.00    0.71574   0.75437   15.703
 5477.00    0.73216   0.75701   15.554
 5478.00    0.77040   0.75980   15.168
 5479.00    0.76805   0.76284   14.915
 5480.00    0.75740   0.76521   14.780
 5481.00    0.79727   0.76670   14.603
 5482.00    0.83966   0.76834   14.513
 5483.00    0.81330   0.76949   14.714
 5484.00    0.76948   0.76958   15.114
 5485.00    0.78921   0.77006   -2.000
 5486.00    0.83415   0.77063   -2.000
 5487.00    0.83326   0.77028   -2.000
 5488.00    0.81325   0.77011   -2.000
 5489.00    0.82284   0.77031   -2.000
 5490.00    0.82809   0.76984   -2.000
 5491.00    0.78138   0.76900   -2.000
 5492.00    0.70622   0.76853   -2.000
 5493.00    0.62679   0.76785   -2.000
 5494.00    0.49540   0.76640   -2.000
 5495.00    0.31305   0.76517   -2.000
 5496.00    0.23546   0.76408   -2.000
 5497.00    0.37353   0.76222   -2.000
 5498.00    0.61782   0.76072   -2.000
 5499.00    0.80876   0.75962   -2.000
 5500.00    0.89333   0.75787   -2.000
 5501.00    0.89067   0.75685   -2.000
 5502.00    0.84945   0.75635   -2.000
 5503.00    0.80899   0.75511   -2.000
 5504.00    0.77580   0.75469   -2.000
 5505.00    0.75209   0.75480   -2.000
 5506.00    0.75313   0.75445   -2.000
 5507.00    0.77803   0.75502   -2.000
 5508.00    0.79728   0.75630   12.440
 5509.00    0.80148   0.75784   12.020
 5510.00    0.82061   0.76011   12.554
 5511.00    0.85493   0.76282   14.280
 5512.00    0.85084   0.76570   15.909
 5513.00    0.79431   0.76829   16.126
 5514.00    0.74489   0.77036   16.127
 5515.00    0.74324   0.77175   16.337
 5516.00    0.77219   0.77186   15.186
 5517.00    0.80364   0.77109   13.110
 5518.00    0.82178   0.76940   11.977
 5519.00    0.82121   0.76654   12.018
 5520.00    0.80591   0.76374   12.481
 5521.00    0.79011   0.76100   12.716
 5522.00    0.79130   0.75803   12.609
 5523.00    0.80348   0.75632   12.426
 5524.00    0.79982   0.75569   12.513
 5525.00    0.77947   0.75514   12.836
 5526.00    0.76876   0.75562   13.004
 5527.00    0.76791   0.75704   13.020
 5528.00    0.75236   0.75810   13.293
 5529.00    0.73370   0.75924   13.631
 5530.00    0.75016   0.76105   13.330
 5531.00    0.78272   0.76253   12.776
 5532.00    0.77214   0.76379   12.951
 5533.00    0.73255   0.76553   13.651
 5534.00    0.73278   0.76683   13.647
 5535.00    0.76910   0.76789   13.002
 5536.00    0.77861   0.76894   12.844
 5537.00    0.74989   0.76925   13.335
 5538.00    0.72344   0.76970   13.822
 5539.00    0.73125   0.77029   13.675
 5540.00    0.77654   0.77041   12.879
 5541.00    0.82245   0.77115   12.160
 5542.00    0.82468   0.77223   12.122
 5543.00    0.79756   0.77288   12.535
 5544.00    0.78700   0.77376   12.718
 5545.00    0.79800   0.77438   12.538
 5546.00    0.80611   0.77439   12.375
 5547.00    0.79959   0.77419   12.489
 5548.00    0.78541   0.77338   12.826
 5549.00    0.78542   0.77231   12.775
 5550.00    0.81064   0.77138   12.088
 5551.00    0.82649   0.76999   12.001
 5552.00    0.79730   0.76877   13.737
 5553.00    0.75270   0.76771   16.709
 5554.00    0.74215   0.76612   17.661
 5555.00    0.76501   0.76480   16.614
 5556.00    0.79434   0.76323   16.175
 5557.00    0.81640   0.76108   16.398
 5558.00    0.82266   0.75951   16.440
 5559.00    0.79741   0.75778   16.306
 5560.00    0.74658   0.75560   16.295
 5561.00    0.72434   0.75438   16.227
 5562.00    0.76694   0.75361   15.964
 5563.00    0.82925   0.75217   15.902
 5564.00    0.85056   0.75161   16.141
 5565.00    0.82145   0.75228   15.809
 5566.00    0.77136   0.75192   14.524
 5567.00    0.74692   0.75196   13.294
 5568.00    0.76529   0.75375   12.757
 5569.00    0.78483   0.75451   12.777
 5570.00    0.77317   0.75511   13.036
 5571.00    0.75488   0.75715   13.233
 5572.00    0.75480   0.75811   13.227
 5573.00    0.76038   0.75837   13.149
 5574.00    0.76541   0.75919   13.030
 5575.00    0.79326   0.75861   12.630
 5576.00    0.84080   0.75691   12.003
 5577.00    0.85552   0.75496   11.618
 5578.00    0.82047   0.75170   11.862
 5579.00    0.78928   0.74768   12.990
 5580.00    0.78996   0.74337   14.942
 5581.00    0.78534   0.73885   16.578
 5582.00    0.75720   0.73501   16.789
 5583.00    0.73834   0.73182   16.428
 5584.00    0.74701   0.72983   16.334
 5585.00    0.76226   0.72916   16.359
 5586.00    0.76375   0.72942   16.296
 5587.00    0.74973   0.73091   16.228
 5588.00    0.73231   0.73255   16.276
 5589.00    0.72982   0.73422   16.457
 5590.00    0.74673   0.73659   16.605
 5591.00    0.76975   0.73781   16.459
 5592.00    0.78357   0.73805   16.135
 5593.00    0.77889   0.73893   16.048
 5594.00    0.75868   0.73929   16.200
 5595.00    0.73505   0.73938   16.185
 5596.00    0.71239   0.74038   15.926
 5597.00    0.68968   0.74209   15.709
 5598.00    0.68342   0.74491   15.561
 5599.00    0.71541   0.74842   15.267
 5600.00    0.76005   0.75226   14.839
 5601.00    0.76483   0.75646   14.465
 5602.00    0.74218   0.76012   14.132
 5603.00    0.75234   0.76280   13.724
 5604.00    0.80194   0.76439   13.364
 5605.00    0.84514   0.76457   13.268
 5606.00    0.84557   0.76316   13.371
 5607.00    0.79785   0.76091   13.446
 5608.00    0.74035   0.75782   13.488
 5609.00    0.72202   0.75351   13.661
 5610.00    0.73263   0.75020   13.983
 5611.00    0.73008   0.74804   14.350
 5612.00    0.71664   0.74553   14.715
 5613.00    0.72101   0.74424   15.072
 5614.00    0.74189   0.74422   15.352
 5615.00    0.75720   0.74406   15.473
 5616.00    0.75556   0.74442   15.474
 5617.00    0.73932   0.74498   15.478
 5618.00    0.72072   0.74492   15.569
 5619.00    0.71203   0.74540   15.767
 5620.00    0.71289   0.74662   16.010
 5621.00    0.71697   0.74756   16.235
 5622.00    0.72345   0.74886   16.503
 5623.00    0.73820   0.75111   16.822
 5624.00    0.77192   0.75297   16.894
 5625.00    0.82031   0.75433   16.592
 5626.00    0.84481   0.75562   16.488
 5627.00    0.82094   0.75587   16.999
 5628.00    0.78894   0.75523   17.516
 5629.00    0.79106   0.75413   17.335
 5630.00    0.80545   0.75240   16.982
 5631.00    0.79554   0.75022   17.103
 5632.00    0.76258   0.74812   17.443
 5633.00    0.72789   0.74661   17.552
 5634.00    0.71106   0.74519   17.499
 5635.00    0.71860   0.74398   17.447
 5636.00    0.73795   0.74403   17.252
 5637.00    0.75557   0.74444   16.890
 5638.00    0.77050   0.74479   16.711
 5639.00    0.78314   0.74602   16.895
 5640.00    0.78737   0.74728   17.153
 5641.00    0.77980   0.74831   17.193
 5642.00    0.76592   0.74947   17.076
 5643.00    0.75440   0.75005   16.931
 5644.00    0.75245   0.75020   16.758
 5645.00    0.76165   0.75004   16.567
 5646.00    0.77660   0.74902   16.444
 5647.00    0.79022   0.74743   16.387
 5648.00    0.79682   0.74513   16.277
 5649.00    0.79112   0.74199   16.114
 5650.00    0.77079   0.73916   16.077
 5651.00    0.75169   0.73597   16.211
 5652.00    0.76368   0.73203   16.334
 5653.00    0.79607   0.72973   16.284
 5654.00    0.79301   0.72865   16.083
 5655.00    0.74538   0.72721   15.997
 5656.00    0.70950   0.72704   16.390
 5657.00    0.71545   0.72847   17.116
 5658.00    0.73986   0.73012   17.381
 5659.00    0.75017   0.73190   17.041
 5660.00    0.73034   0.73409   16.856
 5661.00    0.70747   0.73639   17.068
 5662.00    0.73176   0.73875   17.257
 5663.00    0.78163   0.74106   17.247
 5664.00    0.77790   0.74324   17.289
 5665.00    0.72497   0.74559   17.520
 5666.00    0.70561   0.74793   17.822
 5667.00    0.73749   0.75011   17.934
 5668.00    0.76723   0.75195   17.663
 5669.00    0.76959   0.75317   17.316
 5670.00    0.76080   0.75402   17.377
 5671.00    0.76136   0.75426   17.648
 5672.00    0.77843   0.75338   17.531
 5673.00    0.78898   0.75192   17.265
 5674.00    0.76452   0.75024   17.503
 5675.00    0.73211   0.74795   17.884
 5676.00    0.74102   0.74508   17.511
 5677.00    0.76815   0.74255   16.849
 5678.00    0.75590   0.74049   16.835
 5679.00    0.72071   0.73844   17.023
 5680.00    0.71604   0.73706   16.421
 5681.00    0.72984   0.73655   15.545
 5682.00    0.72019   0.73667   15.274
 5683.00    0.70442   0.73756   15.221
 5684.00    0.71888   0.73890   14.668
 5685.00    0.73478   0.74050   14.054
 5686.00    0.70902   0.74250   14.038
 5687.00    0.67523   0.74427   14.397
 5688.00    0.68987   0.74544   14.601
 5689.00    0.74146   0.74619   14.800
 5690.00    0.78198   0.74633   15.347
 5691.00    0.78411   0.74564   15.877
 5692.00    0.75108   0.74414   15.850
 5693.00    0.71715   0.74252   15.631
 5694.00    0.71249   0.74048   15.738
 5695.00    0.72553   0.73778   15.921
 5696.00    0.73219   0.73541   15.815
 5697.00    0.73040   0.73306   15.710
 5698.00    0.72888   0.73036   15.939
 5699.00    0.73215   0.72780   16.253
 5700.00    0.73646   0.72520   16.273
 5701.00    0.72948   0.72292   16.033
 5702.00    0.71011   0.72090   15.736
 5703.00    0.70196   0.71890   15.467
 5704.00    0.71774   0.71842   15.270
 5705.00    0.73377   0.71884   15.207
 5706.00    0.72839   0.71963   15.251
 5707.00    0.71048   0.72254   15.240
 5708.00    0.69979   0.72596   15.185
 5709.00    0.70946   0.72931   15.421
 5710.00    0.73400   0.73398   16.095
 5711.00    0.74737   0.73818   16.820
 5712.00    0.73920   0.74165   17.151
 5713.00    0.73116   0.74541   17.118
 5714.00    0.73709   0.74833   17.026
 5715.00    0.74392   0.75044   17.165
 5716.00    0.74080   0.75243   17.442
 5717.00    0.73450   0.75361   17.318
 5718.00    0.74100   0.75410   16.758
 5719.00    0.77469   0.75440   16.423
 5720.00    0.81977   0.75403   16.536
 5721.00    0.83136   0.75321   16.675
 5722.00    0.80108   0.75257   16.606
 5723.00    0.77054   0.75174   16.557
 5724.00    0.76189   0.75083   16.617
 5725.00    0.75865   0.75022   16.587
 5726.00    0.74829   0.75004   16.430
 5727.00    0.73620   0.75011   16.335
 5728.00    0.73220   0.75001   16.342
 5729.00    0.74121   0.75018   16.302
 5730.00    0.75020   0.75060   16.208
 5731.00    0.73781   0.75078   16.214
 5732.00    0.71789   0.75075   16.363
 5733.00    0.72826   0.75060   16.544
 5734.00    0.75672   0.75038   16.618
 5735.00    0.75287   0.75001   16.534
 5736.00    0.72240   0.74962   16.492
 5737.00    0.71897   0.74914   16.769
 5738.00    0.75440   0.74870   17.192
 5739.00    0.79674   0.74826   17.236
 5740.00    0.82377   0.74748    0.000
 5741.00    0.83130   0.74662    0.000
 5742.00    0.82125   0.74553    0.000
 5743.00    0.80016   0.74439    0.000
 5744.00    0.78187   0.74296    0.000
 5745.00    0.77780   0.74125    0.000
 5746.00    0.77764   0.73994    0.000
 5747.00    0.76394   0.73890    0.000
 5748.00    0.74523   0.73796    0.000
 5749.00    0.74172   0.73740    0.000
 5750.00    0.75046   0.73723    0.000
 5751.00    0.75545   0.73718    0.000
 5752.00    0.75362   0.73755    0.000
 5753.00    0.75393   0.73808    0.000
 5754.00    0.76869   0.73810    0.000
 5755.00    0.79871   0.73826    0.000
 5756.00    0.81614   0.73847    0.000
 5757.00    0.79518   0.73863    0.000
 5758.00    0.75417   0.73944    0.000
 5759.00    0.72714   0.74034    0.000
 5760.00    0.72247   0.74128    0.000
 5761.00    0.73352   0.74289    0.000
 5762.00    0.75631   0.74420    0.000
 5763.00    0.78358   0.74491    0.000
 5764.00    0.79749   0.74535    0.000
 5765.00    0.78595   0.74540    0.000
 5766.00    0.75911   0.74486    0.000
 5767.00    0.73786   0.74406    0.000
 5768.00    0.73978   0.74297    0.000
 5769.00    0.76563   0.74133    0.000
 5770.00    0.79145   0.73970    0.000
 5771.00    0.79735   0.73770    0.000
 5772.00    0.78925   0.73513    0.000
 5773.00    0.77154   0.73245    0.000
 5774.00    0.72977   0.72944    0.000
 5775.00    0.67426   0.72630    0.000
 5776.00    0.66109   0.72359    0.000
 5777.00    0.70510   0.72117    0.000
 5778.00    0.73560   0.71934    0.000
 5779.00    0.71180   0.71859    0.000
 5780.00    0.68395   0.71896    0.000
 5781.00    0.69333   0.72006    0.000
 5782.00    0.71890   0.72129    0.000
 5783.00    0.73568   0.72336    0.000
 5784.00    0.74530   0.72589    0.000
 5785.00    0.75157   0.72782    0.000
 5786.00    0.74919   0.72991    0.000
 5787.00    0.73685   0.73172    0.000
 5788.00    0.72250   0.73311    0.000
 5789.00    0.71598   0.73470    0.000
 5790.00    0.72332   0.73595    0.000
 5791.00    0.73814   0.73697    0.000
 5792.00    0.74395   0.73810    0.000
 5793.00    0.73790   0.73904    0.000
 5794.00    0.73418   0.73966    0.000
 5795.00    0.74008   0.74014    0.000
 5796.00    0.74999   0.74074    0.000
 5797.00    0.75715   0.74112    0.000
 5798.00    0.75580   0.74090   -2.000
 5799.00    0.73440   0.74075   -2.000
 5800.00    0.68327   0.74057   -2.000
 5801.00    0.62416   0.74005   -2.000
 5802.00    0.59665   0.73989   -2.000
 5803.00    0.59482   0.73989   -2.000
 5804.00    0.58079   0.73995   -2.000
 5805.00    0.56841   0.74011   -2.000
 5806.00    0.60227   0.74018   -2.000
 5807.00    0.65062   0.74034   -2.000
 5808.00    0.64080   0.74043   -2.000
 5809.00    0.60210   0.74049   -2.000
 5810.00    0.62270   0.74074   -2.000
 5811.00    0.68532   0.74116   -2.000
 5812.00    0.70843   0.74175   -2.000
 5813.00    0.70153   0.74244   -2.000
 5814.00    0.72937   0.74345   -2.000
 5815.00    0.78450   0.74471   -2.000
 5816.00    0.81376   0.74568   -2.000
 5817.00    0.80826   0.74651   -2.000
 5818.00    0.79241   0.74729    0.000
 5819.00    0.77884   0.74778    0.000
 5820.00    0.76785   0.74806    0.000
 5821.00    0.75852   0.74828    0.000
 5822.00    0.75156   0.74839    0.000
 5823.00    0.75058   0.74828    0.000
 5824.00    0.75480   0.74803    0.000
 5825.00    0.75041   0.74775    0.000
 5826.00    0.73185   0.74736    0.000
 5827.00    0.72727   0.74685    0.000
 5828.00    0.75395   0.74633    0.000
 5829.00    0.76670   0.74589    0.000
 5830.00    0.72977   0.74557    0.000
 5831.00    0.69678   0.74526    0.000
 5832.00    0.72101   0.74506    0.000
 5833.00    0.75999   0.74519    0.000
 5834.00    0.76403   0.74531    0.000
 5835.00    0.76467   0.74516    0.000
 5836.00    0.79117   0.74499    0.000
 5837.00    0.79573   0.74472    0.000
 5838.00    0.74781   0.74405    0.000
 5839.00    0.70912   0.74292    0.000
 5840.00    0.72653   0.74157    0.000
 5841.00    0.75226   0.73981    0.000
 5842.00    0.74213   0.73775    0.000
 5843.00    0.72478   0.73558    0.000
 5844.00    0.72618   0.73307    0.000
 5845.00    0.72217   0.73038    0.000
 5846.00    0.70531   0.72770    0.000
 5847.00    0.71790   0.72507    0.000
 5848.00    0.76378   0.72252    0.000
 5849.00    0.77218   0.71994    0.000
 5850.00    0.71799   0.71766    0.000
 5851.00    0.67203   0.71613    0.000
 5852.00    0.68142   0.71544    0.000
 5853.00    0.71549   0.71528    0.000
 5854.00    0.73555   0.71522    0.000
 5855.00    0.73121   0.71608    0.000
 5856.00    0.71436   0.71775    0.000
 5857.00    0.70814   0.71947    0.000
 5858.00    0.71497   0.72130    0.000
 5859.00    0.71286   0.72290    0.000
 5860.00    0.69904   0.72456    0.000
 5861.00    0.69564   0.72624    0.000
 5862.00    0.70026   0.72750    0.000
 5863.00    0.68364   0.72825    0.000
 5864.00    0.65091   0.72854    0.000
 5865.00    0.64485   0.72879    0.000
 5866.00    0.68077   0.72839    0.000
 5867.00    0.73538   0.72747    0.000
 5868.00    0.78346   0.72630    0.000
 5869.00    0.81309   0.72473    0.000
 5870.00    0.83419   0.72356    0.000
 5871.00    0.86606   0.72199    0.000
 5872.00    0.89775   0.72050    0.000
 5873.00    0.89621   0.71931    0.000
 5874.00    0.85526   0.71806    0.000
 5875.00    0.79675   0.71689    0.000
 5876.00    0.74262   0.71470    0.000
 5877.00    0.70674   0.71184    0.000
 5878.00    0.69265   0.70809    0.000
 5879.00    0.69617   0.70307    0.000
 5880.00    0.71176   0.69687    0.000
 5881.00    0.73094   0.68892    0.000
 5882.00    0.73715   0.68023    0.000
 5883.00    0.71925   0.67241    0.000
 5884.00    0.69665   0.66470    0.000
 5885.00    0.69402   0.65789    0.000
 5886.00    0.69213   0.65267    0.000
 5887.00    0.65908   0.64833    0.000
 5888.00    0.61211   0.64739    0.000
 5889.00    0.59137   0.64937    0.000
 5890.00    0.60619   0.65192    0.000
 5891.00    0.63871   0.65651    0.000
 5892.00    0.66156   0.66199    0.000
 5893.00    0.66020   0.66799    0.000
 5894.00    0.65660   0.67608    0.000
 5895.00    0.67496   0.68396    0.000
 5896.00    0.69854   0.69076    0.000
 5897.00    0.70277   0.69723    0.000
 5898.00    0.69734   0.70282    0.000
 5899.00    0.70016   0.70733    0.000
 5900.00    0.70568   0.71089    0.000
 5901.00    0.70168   0.71332   17.623
 5902.00    0.68909   0.71485   17.864
 5903.00    0.67703   0.71585   17.982
 5904.00    0.67560   0.71632   17.773
 5905.00    0.68769   0.71620   17.350
 5906.00    0.70403   0.71555   17.130
 5907.00    0.71794   0.71489   17.328
 5908.00    0.73538   0.71423   17.665
 5909.00    0.75279   0.71371   17.788
 5910.00    0.74493   0.71329   17.678
 5911.00    0.70802   0.71297   17.537
 5912.00    0.68341   0.71342   17.618
 5913.00    0.69609   0.71409   17.971
 5914.00    0.71912   0.71482   18.320
 5915.00    0.72538   0.71584   18.454
 5916.00    0.71830   0.71661   18.506
 5917.00    0.70680   0.71733   18.681
 5918.00    0.69167   0.71793   19.045
 5919.00    0.67995   0.71792   19.432
 5920.00    0.68868   0.71780   19.458
 5921.00    0.72022   0.71742   19.130
 5922.00    0.75409   0.71660   18.960
 5923.00    0.77193   0.71619   19.082
 5924.00    0.76920   0.71561   19.071
 5925.00    0.75089   0.71501   18.870
 5926.00    0.72698   0.71461   18.969
 5927.00    0.70312   0.71431   19.418
 5928.00    0.68082   0.71474   19.591
 5929.00    0.67401   0.71523   19.212
 5930.00    0.70206   0.71549   18.696
 5931.00    0.74050   0.71589   18.468
 5932.00    0.73194   0.71617   18.694
 5933.00    0.68646   0.71639   19.084
 5934.00    0.67637   0.71654   19.013
 5935.00    0.70608   0.71637   18.492
 5936.00    0.71181   0.71619   18.114
 5937.00    0.68988   0.71595   18.019
 5938.00    0.69554   0.71541   17.937
 5939.00    0.72856   0.71497   17.843
 5940.00    0.73833   0.71431   17.956
 5941.00    0.72391   0.71353   18.270
 5942.00    0.72584   0.71308   18.570
 5943.00    0.74049   0.71244   18.798
 5944.00    0.73083   0.71152   19.047
 5945.00    0.70001   0.71064   19.249
 5946.00    0.68307   0.71019   19.262
 5947.00    0.69219   0.71014   19.263
 5948.00    0.71415   0.70995   19.536
 5949.00    0.72976   0.70982   19.879
 5950.00    0.72398   0.71006   19.913
 5951.00    0.69690   0.71081   19.990
 5952.00    0.66393   0.71178   20.635
 5953.00    0.65142   0.71256   21.200
 5954.00    0.67635   0.71362   20.656
 5955.00    0.71601   0.71477   19.776
 5956.00    0.73442   0.71598   19.703
 5957.00    0.72959   0.71703   20.048
 5958.00    0.71931   0.71778   19.902
 5959.00    0.71059   0.71865   19.546
 5960.00    0.70227   0.71922   19.650
 5961.00    0.69461   0.71970   19.986
 5962.00    0.69002   0.72006   19.978
 5963.00    0.69209   0.72012   19.663
 5964.00    0.70168   0.72024   19.399
 5965.00    0.71304   0.72000   19.358
 5966.00    0.72141   0.71949   19.473
 5967.00    0.73113   0.71861   19.445
 5968.00    0.74560   0.71736   19.077
 5969.00    0.75700   0.71600   18.610
 5970.00    0.75755   0.71442   18.356
 5971.00    0.75034   0.71286   18.408
 5972.00    0.73838   0.71143   18.714
 5973.00    0.71581   0.71001   19.120
 5974.00    0.68766   0.70881   19.429
 5975.00    0.68224   0.70769   19.486
 5976.00    0.70753   0.70653   19.356
 5977.00    0.72351   0.70587   19.370
 5978.00    0.70592   0.70523   19.683
 5979.00    0.68755   0.70458   20.006
 5980.00    0.69675   0.70433   20.078
 5981.00    0.71767   0.70426   20.035
 5982.00    0.72865   0.70471   20.097
 5983.00    0.72779   0.70534   20.335
 5984.00    0.72290   0.70597   20.640
 5985.00    0.72203   0.70696   20.747
 5986.00    0.72041   0.70783   20.581
 5987.00    0.70063   0.70849   20.400
 5988.00    0.67310   0.70893   20.420
 5989.00    0.68258   0.70896   20.636
 5990.00    0.73101   0.70900   20.841
 5991.00    0.75847   0.70882   20.705
 5992.00    0.73899   0.70823   20.209
 5993.00    0.71016   0.70762   19.715
 5994.00    0.70039   0.70669   19.473
 5995.00    0.70370   0.70571   19.494
 5996.00    0.71273   0.70506   19.644
 5997.00    0.72791   0.70415   19.725
 5998.00    0.73863   0.70313   19.729
 5999.00    0.72632   0.70211   19.825
 6000.00    0.70136   0.70095   19.919
 6001.00    0.69762   0.70037   19.703
 6002.00    0.71075   0.69998   19.374
 6003.00    0.70251   0.69928   19.465
 6004.00    0.67808   0.69889   19.804
 6005.00    0.68066   0.69854   19.661
 6006.00    0.70584   0.69847   19.265
 6007.00    0.70955   0.69862   19.515
 6008.00    0.69739   0.69817   20.252
 6009.00    0.71141   0.69768   20.401
 6010.00    0.73553   0.69732   19.993
 6011.00    0.71708   0.69669   20.011
 6012.00    0.67337   0.69612   20.573
 6013.00    0.66613   0.69554   21.039
 6014.00    0.68991   0.69499   21.127
 6015.00    0.69419   0.69494   21.034
 6016.00    0.67962   0.69491   20.879
 6017.00    0.68043   0.69528   20.670
 6018.00    0.69241   0.69620   20.482
 6019.00    0.68964   0.69720   20.392
 6020.00    0.67915   0.69878   20.333
 6021.00    0.68428   0.70042   20.187
 6022.00    0.70080   0.70217   19.987
 6023.00    0.71091   0.70413   19.814
 6024.00    0.71645   0.70577   19.596
 6025.00    0.72536   0.70750   19.288
 6026.00    0.72517   0.70899   19.106
 6027.00    0.70419   0.71011   19.234
 6028.00    0.68412   0.71111   19.432
 6029.00    0.69145   0.71174   19.353
 6030.00    0.71596   0.71218   19.071
 6031.00    0.73023   0.71234   18.908
 6032.00    0.72030   0.71222   19.119
 6033.00    0.69374   0.71212   19.664
 6034.00    0.68190   0.71185   19.915
 6035.00    0.70540   0.71167   19.450
 6036.00    0.74016   0.71155   18.961
 6037.00    0.75296   0.71140   19.138
 6038.00    0.73927   0.71150   19.836
 6039.00    0.71259   0.71164   20.558
 6040.00    0.68994   0.71187   20.938
 6041.00    0.68190   0.71202   20.889
 6042.00    0.68599   0.71204   20.629
 6043.00    0.69593   0.71186   20.470
 6044.00    0.70951   0.71147   20.625
 6045.00    0.72585   0.71086   20.996
 6046.00    0.74250   0.70998   21.053
 6047.00    0.75288   0.70905   20.612
 6048.00    0.74666   0.70794   20.275
 6049.00    0.72397   0.70698   20.367
 6050.00    0.70199   0.70608   20.474
 6051.00    0.69480   0.70533   20.300
 6052.00    0.70029   0.70475   20.150
 6053.00    0.70105   0.70423   20.267
 6054.00    0.67340   0.70387   20.510
 6055.00    0.63139   0.70335   20.589
 6056.00    0.63267   0.70297   20.295
 6057.00    0.68369   0.70245   19.823
 6058.00    0.71402   0.70217   19.680
 6059.00    0.69329   0.70225   19.919
 6060.00    0.66784   0.70235   20.010
 6061.00    0.66467   0.70298   19.811
 6062.00    0.66179   0.70394   19.803
 6063.00    0.65301   0.70516   20.067
 6064.00    0.66166   0.70668   20.085
 6065.00    0.68420   0.70786   19.689
 6066.00    0.68592   0.70870   19.294
 6067.00    0.66765   0.70924   19.236
 6068.00    0.66994   0.70909   19.566
 6069.00    0.70199   0.70852   19.957
 6070.00    0.73185   0.70739   19.879
 6071.00    0.73551   0.70576   19.589
 6072.00    0.71152   0.70401   19.904
 6073.00    0.67546   0.70198   20.826
 6074.00    0.64869   0.69999   21.488
 6075.00    0.63312   0.69826   21.617
 6076.00    0.61770   0.69674   21.769
 6077.00    0.61308   0.69554   22.068
 6078.00    0.64006   0.69465   22.151
 6079.00    0.68047   0.69394   22.029
 6080.00    0.69285   0.69351   21.995
 6081.00    0.67499   0.69334   21.897
 6082.00    0.65749   0.69322   21.389
 6083.00    0.65933   0.69330   20.755
 6084.00    0.68069   0.69347   20.521
 6085.00    0.70834   0.69368   20.689
 6086.00    0.72388   0.69399   20.915
 6087.00    0.71706   0.69430   20.985
 6088.00    0.69286   0.69459   20.883
 6089.00    0.67791   0.69487   20.711
 6090.00    0.69291   0.69497   20.582
 6091.00    0.70858   0.69474   20.494
 6092.00    0.68691   0.69398   20.418
 6093.00    0.65199   0.69285   20.443
 6094.00    0.64818   0.69160   20.655
 6095.00    0.66744   0.69022   20.933
 6096.00    0.67973   0.68911   21.050
 6097.00    0.68580   0.68785   20.888
 6098.00    0.69801   0.68699   20.556
 6099.00    0.70909   0.68706   20.413
 6100.00    0.70804   0.68754   20.672
 6101.00    0.70185   0.68877   21.024
 6102.00    0.69986   0.69008   21.140
 6103.00    0.69531   0.69125   21.330
 6104.00    0.68147   0.69268   21.930
 6105.00    0.66870   0.69384   22.590
 6106.00    0.66890   0.69468   22.736
 6107.00    0.67973   0.69519   22.311
 6108.00    0.69287   0.69519   21.655
 6109.00    0.70237   0.69483   21.167
 6110.00    0.70088   0.69418   21.057
 6111.00    0.67830   0.69293   21.252
 6112.00    0.64159   0.69132   21.510
 6113.00    0.62506   0.68975   21.517
 6114.00    0.64713   0.68804   21.226
 6115.00    0.68288   0.68655   21.007
 6116.00    0.70180   0.68518   21.067
 6117.00    0.69554   0.68390   21.163
 6118.00    0.67775   0.68336   21.063
 6119.00    0.67650   0.68332   20.845
 6120.00    0.69519   0.68363   20.699
 6121.00    0.69907   0.68423   20.772
 6122.00    0.67360   0.68456   21.105
 6123.00    0.64905   0.68484   21.581
 6124.00    0.65012   0.68487   21.930
 6125.00    0.67178   0.68440   21.820
 6126.00    0.69839   0.68324   21.370
 6127.00    0.71664   0.68131   21.131
 6128.00    0.72764   0.67923   21.224
 6129.00    0.74580   0.67698   21.221
 6130.00    0.77025   0.67469   21.028
 6131.00    0.77913   0.67237   21.094
 6132.00    0.75747   0.67040   21.642
 6133.00    0.70951   0.66981   22.448
 6134.00    0.66072   0.67017   23.081
 6135.00    0.64586   0.67136   23.143
 6136.00    0.66602   0.67294   22.804
 6137.00    0.68829   0.67458   22.635
 6138.00    0.69450   0.67662   22.616
 6139.00    0.69102   0.67856   22.204
 6140.00    0.68760   0.68034   21.378
 6141.00    0.68820   0.68173   20.612
 6142.00    0.68476   0.68244   20.113
 6143.00    0.66618   0.68280   19.808
 6144.00    0.64607   0.68282   19.616
 6145.00    0.65125   0.68256   19.511
 6146.00    0.67497   0.68227   19.548
 6147.00    0.68585   0.68151   19.768
 6148.00    0.67591   0.68055   19.946
 6149.00    0.66031   0.67913   19.822
 6150.00    0.65136   0.67711   19.774
 6151.00    0.65229   0.67456   20.371
 6152.00    0.65692   0.67139   21.231
 6153.00    0.65677   0.66821   21.363
 6154.00    0.65434   0.66495   20.932
 6155.00    0.65577   0.66168   20.866
 6156.00    0.65388   0.65845   21.434
 6157.00    0.63980   0.65589   22.331
 6158.00    0.62649   0.65423   23.007
 6159.00    0.63127   0.65325   23.014
 6160.00    0.64377   0.65325   22.616
 6161.00    0.64417   0.65393   22.369
 6162.00    0.63623   0.65513   22.397
 6163.00    0.63476   0.65640   22.451
 6164.00    0.64212   0.65772   22.070
 6165.00    0.65079   0.65944   21.155
 6166.00    0.65129   0.66146   20.421
 6167.00    0.64065   0.66357   20.440
 6168.00    0.63027   0.66569   20.945
 6169.00    0.62987   0.66776   21.406
 6170.00    0.63017   0.66961   21.752
 6171.00    0.62191   0.67149   22.075
 6172.00    0.61641   0.67321   22.153
 6173.00    0.62865   0.67485   21.750
 6174.00    0.65855   0.67616   20.996
 6175.00    0.69111   0.67698   20.326
 6176.00    0.70119   0.67749   20.298
 6177.00    0.68180   0.67758   21.061
 6178.00    0.66340   0.67723   21.890
 6179.00    0.66989   0.67645   22.007
 6180.00    0.68520   0.67525   21.665
 6181.00    0.68339   0.67335   21.449
 6182.00    0.65465   0.67158   21.605
 6183.00    0.61241   0.67005   22.042
 6184.00    0.59128   0.66867   22.359
 6185.00    0.60659   0.66771   22.293
 6186.00    0.63333   0.66684   22.058
 6187.00    0.64582   0.66691   22.044
 6188.00    0.64139   0.66771   22.564
 6189.00    0.62772   0.66863   23.433
 6190.00    0.61407   0.66989   23.743
 6191.00    0.60841   0.67120   23.161
 6192.00    0.61464   0.67255   22.515
 6193.00    0.62546   0.67375   22.237
 6194.00    0.62460   0.67466   21.978
 6195.00    0.61391   0.67555   21.527
 6196.00    0.61706   0.67653   21.117
 6197.00    0.63802   0.67744   20.985
 6198.00    0.65262   0.67820   21.222
 6199.00    0.65131   0.67876   21.733
 6200.00    0.64911   0.67896   22.223
 6201.00    0.65319   0.67884   22.386
 6202.00    0.65535   0.67826   22.012
 6203.00    0.65236   0.67709   -2.000
 6204.00    0.64941   0.67547   -2.000
 6205.00    0.64656   0.67339   -2.000
 6206.00    0.63854   0.67100   -2.000
 6207.00    0.62915   0.66859   -2.000
 6208.00    0.62939   0.66600   -2.000
 6209.00    0.63878   0.66359   -2.000
 6210.00    0.64492   0.66169   -2.000
 6211.00    0.63789   0.66032   -2.000
 6212.00    0.61803   0.65965   -2.000
 6213.00    0.60468   0.65936   -2.000
 6214.00    0.62097   0.65915   -2.000
 6215.00    0.65338   0.65940   20.645
 6216.00    0.66518   0.65987   20.856
 6217.00    0.64789   0.66045   21.097
 6218.00    0.62102   0.66091   21.749
 6219.00    0.60626   0.66085   22.720
 6220.00    0.61488   0.66051   23.488
 6221.00    0.63477   0.65985   23.689
 6222.00    0.64427   0.65907   23.415
 6223.00    0.64140   0.65820   23.194
 6224.00    0.63797   0.65729   23.410
 6225.00    0.64008   0.65632   23.491
 6226.00    0.64591   0.65566   22.768
 6227.00    0.64820   0.65563   22.022
 6228.00    0.64268   0.65567   22.187
 6229.00    0.63924   0.65616   22.758
 6230.00    0.64730   0.65641   22.691
 6231.00    0.65410   0.65638   22.159
 6232.00    0.64375   0.65603   21.852
 6233.00    0.62500   0.65512   21.765
 6234.00    0.61438   0.65423   21.634
 6235.00    0.61196   0.65299   21.536
 6236.00    0.61276   0.65181   21.588
 6237.00    0.62209   0.65081   21.559
 6238.00    0.64109   0.64963   21.254
 6239.00    0.65136   0.64893   20.936
 6240.00    0.64087   0.64850   20.990
 6241.00    0.62866   0.64812   21.631
 6242.00    0.63313   0.64801   22.766
 6243.00    0.64238   0.64802   23.744
 6244.00    0.64143   0.64785   23.987
 6245.00    0.63669   0.64737   23.888
 6246.00    0.63774   0.64654   23.928
 6247.00    0.64141   0.64532   23.896
 6248.00    0.64054   0.64424   23.639
 6249.00    0.63239   0.64334   23.575
 6250.00    0.62170   0.64299   23.927
 6251.00    0.62048   0.64284   24.259
 6252.00    0.63217   0.64319   24.198
 6253.00    0.64370   0.64408   23.961
 6254.00    0.64418   0.64545   23.809
 6255.00    0.63635   0.64754   23.710
 6256.00    0.63027   0.64958   23.551
 6257.00    0.63669   0.65181   23.285
 6258.00    0.65388   0.65395   22.947
 6259.00    0.66445   0.65570   22.638
 6260.00    0.65690   0.65705   22.386
 6261.00    0.63569   0.65837   22.121
 6262.00    0.61361   0.65960   21.847
 6263.00    0.60495   0.66046   21.670
 6264.00    0.61331   0.66104   21.634
 6265.00    0.62938   0.66145   21.679
 6266.00    0.64545   0.66187   21.766
 6267.00    0.65942   0.66212   21.891
 6268.00    0.66602   0.66222   21.905
 6269.00    0.65761   0.66210   21.559
 6270.00    0.64080   0.66173   20.936
 6271.00    0.63446   0.66134   20.453
 6272.00    0.64156   0.66082   20.506
 6273.00    0.64626   0.66028   21.355
 6274.00    0.63713   0.65996   22.789
 6275.00    0.61597   0.65960   23.987
 6276.00    0.60034   0.65979   24.469
 6277.00    0.61152   0.66034   24.544
 6278.00    0.64007   0.66103   24.522
 6279.00    0.65499   0.66201   24.454
 6280.00    0.65340   0.66275    0.000
 6281.00    0.65575   0.66351    0.000
 6282.00    0.66138   0.66417    0.000
 6283.00    0.65463   0.66448    0.000
 6284.00    0.64428   0.66449    0.000
 6285.00    0.65278   0.66391    0.000
 6286.00    0.67413   0.66296    0.000
 6287.00    0.68431   0.66185    0.000
 6288.00    0.68034   0.66045    0.000
 6289.00    0.67445   0.65892    0.000
 6290.00    0.66844   0.65733    0.000
 6291.00    0.66147   0.65551    0.000
 6292.00    0.67113   0.65392    0.000
 6293.00    0.71054   0.65260    0.000
 6294.00    0.74688   0.65181    0.000
 6295.00    0.74150   0.65138    0.000
 6296.00    0.71938   0.65115    0.000
 6297.00    0.72337   0.65146    0.000
 6298.00    0.73555   0.65235    0.000
 6299.00    0.71847   0.65357    0.000
 6300.00    0.68391   0.65468    0.000
 6301.00    0.66410   0.65570    0.000
 6302.00    0.66430   0.65655    0.000
 6303.00    0.66992   0.65692    0.000
 6304.00    0.66301   0.65676    0.000
 6305.00    0.63792   0.65605    0.000
 6306.00    0.61430   0.65488    0.000
 6307.00    0.61146   0.65349    0.000
 6308.00    0.62194   0.65204    0.000
 6309.00    0.63205   0.65044    0.000
 6310.00    0.64302   0.64886    0.000
 6311.00    0.65763   0.64789    0.000
 6312.00    0.66714   0.64753    0.000
 6313.00    0.66098   0.64727    0.000
 6314.00    0.63691   0.64795    0.000
 6315.00    0.60900   0.64923    0.000
 6316.00    0.60831   0.65078    0.000
 6317.00    0.64281   0.65247    0.000
 6318.00    0.67474   0.65415    0.000
 6319.00    0.67712   0.65608    0.000
 6320.00    0.66796   0.65753    0.000
 6321.00    0.66433   0.65874   23.751
 6322.00    0.65577   0.65944   24.026
 6323.00    0.63848   0.65959   24.115
 6324.00    0.63171   0.65947   24.195
 6325.00    0.64400   0.65873   24.466
 6326.00    0.65819   0.65778   24.842
 6327.00    0.65983   0.65659   25.063
 6328.00    0.65102   0.65523   24.864
 6329.00    0.63918   0.65382   24.453
 6330.00    0.63016   0.65218   24.463
 6331.00    0.62477   0.65095   24.993
 6332.00    0.61954   0.65010   25.365
 6333.00    0.61715   0.64973   25.126
 6334.00    0.62533   0.64934   24.556
 6335.00    0.63405   0.64924   24.248
 6336.00    0.61974   0.64932   24.682
 6337.00    0.59661   0.64928   25.428
 6338.00    0.61223   0.64941   25.213
 6339.00    0.66166   0.64951   24.185
 6340.00    0.68552   0.65005   23.749
 6341.00    0.66685   0.65048   23.909
 6342.00    0.64179   0.65092   23.570
 6343.00    0.62920   0.65146   23.245
 6344.00    0.61986   0.65199   24.344
 6345.00    0.61091   0.65217   24.918
 6346.00    0.60946   0.65199   21.279
 6347.00    0.61398   0.65150   17.141
 6348.00    0.61589   0.65055   15.693
 6349.00    0.61643   0.64917   16.025
 6350.00    0.62271   0.64743   16.213
 6351.00    0.62831   0.64574   15.938
 6352.00    0.62066   0.64394   16.173
 6353.00    0.60688   0.64210   16.583
 6354.00    0.60333   0.64051   16.197
 6355.00    0.60289   0.63949   16.240
 6356.00    0.58871   0.63887   18.925
 6357.00    0.57323   0.63871   24.379
 6358.00    0.58270   0.63917   26.295
 6359.00    0.61606   0.64016   25.034
 6360.00    0.65137   0.64151   24.107
 6361.00    0.67000   0.64308   24.872
 6362.00    0.66584   0.64483   25.384
 6363.00    0.65262   0.64659   24.744
 6364.00    0.64815   0.64826   23.544
 6365.00    0.65035   0.64976   22.756
 6366.00    0.64821   0.65118   22.850
 6367.00    0.64162   0.65249   23.253
 6368.00    0.63432   0.65354   23.141
 6369.00    0.62228   0.65429   22.705
 6370.00    0.60590   0.65468   22.500
 6371.00    0.60470   0.65487   22.517
 6372.00    0.62950   0.65485   22.533
 6373.00    0.65200   0.65459   22.557
 6374.00    0.64439   0.65436   22.651
 6375.00    0.62251   0.65413   22.705
 6376.00    0.61371   0.65391   22.651
 6377.00    0.62135   0.65376   22.681
 6378.00    0.63581   0.65370   22.978
 6379.00    0.64825   0.65355   23.464
 6380.00    0.65342   0.65342   23.953
 6381.00    0.65109   0.65319   24.318
 6382.00    0.64596   0.65288   24.469
 6383.00    0.64637   0.65232   24.344
 6384.00    0.65430   0.65156   24.102
 6385.00    0.66004   0.65063   24.159
 6386.00    0.65839   0.64943   24.637
 6387.00    0.65833   0.64829   25.022
 6388.00    0.66540   0.64711   24.844
 6389.00    0.67145   0.64629   24.251
 6390.00    0.66852   0.64587   23.739
 6391.00    0.65768   0.64546   23.810
 6392.00    0.64600   0.64520   24.402
 6393.00    0.64247   0.64492   24.687
 6394.00    0.64644   0.64494   24.340
 6395.00    0.64575   0.64496   24.106
 6396.00    0.63972   0.64545   24.272
 6397.00    0.64392   0.64616   24.234
 6398.00    0.65498   0.64647   23.911
 6399.00    0.64546   0.64665   24.037
 6400.00    0.61843   0.64655   24.422
 6401.00    0.61496   0.64629   23.705
 6402.00    0.64013   0.64592   22.074
 6403.00    0.65119   0.64552   21.145
 6404.00    0.63617   0.64523   21.330
 6405.00    0.62787   0.64490   21.937
 6406.00    0.63852   0.64440   22.456
 6407.00    0.64790   0.64405   22.921
 6408.00    0.64769   0.64389   23.358
 6409.00    0.64820   0.64378   23.644
 6410.00    0.64958   0.64361   23.866
 6411.00    0.64105   0.64368   24.306
 6412.00    0.62682   0.64373   24.927
 6413.00    0.62530   0.64384   25.329
 6414.00    0.64495   0.64414   25.233
 6415.00    0.67789   0.64470   24.708
 6416.00    0.70201   0.64554   24.110
 6417.00    0.69677   0.64646   23.823
 6418.00    0.67864   0.64757   23.880
 6419.00    0.68234   0.64837   24.036
 6420.00    0.69951   0.64898   24.019
 6421.00    0.69425   0.64929   23.740
 6422.00    0.66528   0.64926   23.569
 6423.00    0.63824   0.64885   23.924
 6424.00    0.62377   0.64814   24.467
 6425.00    0.61945   0.64740   24.447
 6426.00    0.62883   0.64656   23.923
 6427.00    0.65297   0.64605   23.535
 6428.00    0.67080   0.64570   23.663
 6429.00    0.66176   0.64551   24.330
 6430.00    0.64618   0.64551   25.097
 6431.00    0.65285   0.64551   25.361
 6432.00    0.66207   0.64573   25.140
 6433.00    0.64219   0.64621   24.817
 6434.00    0.61158   0.64693   24.478
 6435.00    0.60526   0.64783   24.021
 6436.00    0.61999   0.64868   23.403
 6437.00    0.63458   0.64926   22.776
 6438.00    0.64357   0.64953   22.550
 6439.00    0.65113   0.64941   22.905
 6440.00    0.65911   0.64880   23.302
 6441.00    0.66782   0.64776   23.192
 6442.00    0.67802   0.64625   22.986
 6443.00    0.68804   0.64460   23.222
 6444.00    0.69134   0.64299   23.704
 6445.00    0.68556   0.64150   23.884
 6446.00    0.68000   0.64058   23.432
 6447.00    0.68090   0.63989   22.606
 6448.00    0.67908   0.63933   22.219
 6449.00    0.66507   0.63900   22.653
 6450.00    0.64198   0.63896   23.345
 6451.00    0.61984   0.63904   23.708
 6452.00    0.60917   0.63928   24.016
 6453.00    0.61313   0.63959   24.470
 6454.00    0.62290   0.63977   24.472
 6455.00    0.62543   0.63957   23.767
 6456.00    0.61100   0.63945   23.101
 6457.00    0.58574   0.63955   22.926
 6458.00    0.57452   0.63969   22.931
 6459.00    0.59021   0.64035   22.875
 6460.00    0.61865   0.64093   22.980
 6461.00    0.64217   0.64150   23.364
 6462.00    0.65391   0.64191   23.758
 6463.00    0.65897   0.64231   23.812
 6464.00    0.66953   0.64250   23.381
 6465.00    0.67967   0.64260   22.723
 6466.00    0.66426   0.64291   22.330
 6467.00    0.63179   0.64289   22.247
 6468.00    0.62985   0.64279   22.064
 6469.00    0.66234   0.64256   21.842
 6470.00    0.67538   0.64230   22.181
 6471.00    0.64891   0.64187   23.032
 6472.00    0.61703   0.64136   23.460
 6473.00    0.60101   0.64076   23.292
 6474.00    0.59305   0.63990   23.437
 6475.00    0.59210   0.63906   24.051
 6476.00    0.60878   0.63820   24.288
 6477.00    0.63882   0.63737   23.898
 6478.00    0.66251   0.63659   23.511
 6479.00    0.67065   0.63573   23.421
 6480.00    0.66832   0.63458   23.431
 6481.00    0.66197   0.63303   23.304
 6482.00    0.65612   0.63096   22.987
 6483.00    0.65499   0.62822   22.862
 6484.00    0.65975   0.62487   23.430
 6485.00    0.66091   0.62101   24.464
 6486.00    0.64550   0.61691   25.084
 6487.00    0.61774   0.61255   25.046
 6488.00    0.59356   0.60875   24.883
 6489.00    0.57824   0.60574   24.976
 6490.00    0.56845   0.60385   25.332
 6491.00    0.56661   0.60352   25.552
 6492.00    0.57660   0.60416   25.225
 6493.00    0.59046   0.60629   24.735
 6494.00    0.59825   0.60928   24.678
 6495.00    0.60943   0.61295   24.776
 6496.00    0.63519   0.61696   24.426
 6497.00    0.65418   0.62094   23.851
 6498.00    0.63915   0.62479   23.619
 6499.00    0.60587   0.62809   23.754
 6500.00    0.58912   0.63085   23.981
 6501.00    0.59698   0.63284   24.155
 6502.00    0.61629   0.63419   24.295
 6503.00    0.63005   0.63501   24.525
 6504.00    0.62802   0.63526   24.889
 6505.00    0.61670   0.63502   25.137
 6506.00    0.60997   0.63445   25.015
 6507.00    0.61619   0.63358   24.689
 6508.00    0.63386   0.63250   24.440
 6509.00    0.64976   0.63136   24.308
 6510.00    0.65194   0.63039   24.318
 6511.00    0.64319   0.62958   24.687
 6512.00    0.63344   0.62906   25.361
 6513.00    0.63069   0.62896   25.524
 6514.00    0.63842   0.62903   24.797
 6515.00    0.65385   0.62931   24.244
 6516.00    0.66727   0.62965   24.516
 6517.00    0.66355   0.63001   24.744
 6518.00    0.63944   0.63034   24.267
 6519.00    0.61464   0.63046   23.981
 6520.00    0.60892   0.63045   24.464
 6521.00    0.62406   0.63035   24.862
 6522.00    0.64574   0.63021   24.491
 6523.00    0.64992   0.62998   24.057
 6524.00    0.63166   0.62967   24.193
 6525.00    0.61752   0.62929   24.685
 6526.00    0.62279   0.62899   25.090
 6527.00    0.63004   0.62878   25.149
 6528.00    0.62443   0.62866    0.000
 6529.00    0.61267   0.62853    0.000
 6530.00    0.60749   0.62828    0.000
 6531.00    0.61697   0.62799    0.000
 6532.00    0.63677   0.62753    0.000
 6533.00    0.65037   0.62683    0.000
 6534.00    0.64826   0.62577    0.000
 6535.00    0.63589   0.62437    0.000
 6536.00    0.62747   0.62271    0.000
 6537.00    0.63920   0.62075    0.000
 6538.00    0.67395   0.61855    0.000
 6539.00    0.72147   0.61600    0.000
 6540.00    0.78347   0.61357    0.000
 6541.00    0.87337   0.61109    0.000
 6542.00    0.97959   0.60846    0.000
 6543.00    1.06244   0.60554    0.000
 6544.00    1.08950   0.60220    0.000
 6545.00    1.05057   0.59839    0.000
 6546.00    0.96443   0.59383    0.000
 6547.00    0.86854   0.58838    0.000
 6548.00    0.78355   0.58191    0.000
 6549.00    0.71262   0.57443    0.000
 6550.00    0.66943   0.56602    0.000
 6551.00    0.68378   0.55661    0.000
 6552.00    0.79560   0.54658    0.000
 6553.00    1.06000   0.53637    0.000
 6554.00    1.56089   0.52662    0.000
 6555.00    2.34700   0.51775    0.000
 6556.00    3.28543   0.51111    0.000
 6557.00    4.10110   0.50832    0.000
 6558.00    4.53148   0.50853    0.000
 6559.00    4.41791   0.51140    0.000
 6560.00    3.81443   0.51681    0.000
 6561.00    2.94292   0.52418    0.000
 6562.00    2.06842   0.53281    0.000
 6563.00    1.40795   0.54206    0.000
 6564.00    1.01785   0.55134    0.000
 6565.00    0.83318   0.55998    0.000
 6566.00    0.76360   0.56804    0.000
 6567.00    0.73256   0.57514    0.000
 6568.00    0.71122   0.58109    0.000
 6569.00    0.69874   0.58637    0.000
 6570.00    0.68819   0.59083    0.000
 6571.00    0.67567   0.59473    0.000
 6572.00    0.67828   0.59807    0.000
 6573.00    0.72702   0.60100    0.000
 6574.00    0.85404   0.60350    0.000
 6575.00    1.07665   0.60560    0.000
 6576.00    1.37981   0.60753    0.000
 6577.00    1.70670   0.60889    0.000
 6578.00    1.95545   0.61017    0.000
 6579.00    2.03318   0.61093    0.000
 6580.00    1.91213   0.61151    0.000
 6581.00    1.63526   0.61181    0.000
 6582.00    1.30954   0.61174    0.000
 6583.00    1.03784   0.61150    0.000
 6584.00    0.85971   0.61088    0.000
 6585.00    0.76404   0.61026    0.000
 6586.00    0.70884   0.60947    0.000
 6587.00    0.66420   0.60913    0.000
 6588.00    0.63953   0.60907    0.000
 6589.00    0.64181   0.60923    0.000
 6590.00    0.64853   0.60975    0.000
 6591.00    0.64379   0.61047    0.000
 6592.00    0.63997   0.61149    0.000
 6593.00    0.64809   0.61259    0.000
 6594.00    0.66056   0.61366    0.000
 6595.00    0.66869   0.61450    0.000
 6596.00    0.67252   0.61515    0.000
 6597.00    0.67309   0.61556    0.000
 6598.00    0.66839   0.61564    0.000
 6599.00    0.65669   0.61559    0.000
 6600.00    0.63945   0.61535    0.000
 6601.00    0.62660   0.61520    0.000
 6602.00    0.63313   0.61512    0.000
 6603.00    0.65262   0.61532    0.000
 6604.00    0.65524   0.61576    0.000
 6605.00    0.63076   0.61636    0.000
 6606.00    0.59968   0.61720    0.000
 6607.00    0.58193   0.61810    0.000
 6608.00    0.58431   0.61922    0.000
 6609.00    0.60291   0.62022   24.248
 6610.00    0.62578   0.62117   23.683
 6611.00    0.63879   0.62191   23.366
 6612.00    0.63178   0.62250   23.149
 6613.00    0.61106   0.62284   23.052
 6614.00    0.59659   0.62286   23.251
 6615.00    0.60114   0.62262   23.621
 6616.00    0.62286   0.62208   23.776
 6617.00    0.64341   0.62144   23.682
 6618.00    0.63987   0.62056   23.657
 6619.00    0.61636   0.61968   23.824
 6620.00    0.59802   0.61866   24.067
 6621.00    0.59527   0.61762   24.268
 6622.00    0.60005   0.61655   24.434
 6623.00    0.59832   0.61547   24.860
 6624.00    0.58199   0.61442   25.812
 6625.00    0.56705   0.61343   26.295
 6626.00    0.57650   0.61264   26.227
 6627.00    0.59938   0.61202   25.297
 6628.00    0.60723   0.61172   25.160
 6629.00    0.60016   0.61160   25.680
 6630.00    0.59702   0.61165   25.884
 6631.00    0.60272   0.61183   25.533
 6632.00    0.61136   0.61211   25.042
 6633.00    0.62083   0.61241   24.660
 6634.00    0.63150   0.61264   24.436
 6635.00    0.64076   0.61286   24.362
 6636.00    0.64491   0.61301   24.352
 6637.00    0.64339   0.61320   24.198
 6638.00    0.63938   0.61342   23.796
 6639.00    0.63946   0.61364   23.421
 6640.00    0.64580   0.61392   23.342
 6641.00    0.64750   0.61421   23.402
 6642.00    0.63591   0.61458   23.381
 6643.00    0.62250   0.61491   23.442
 6644.00    0.61980   0.61526   23.794
 6645.00    0.61951   0.61545   24.267
 6646.00    0.61330   0.61561   24.591
 6647.00    0.61434   0.61560   24.786
 6648.00    0.63139   0.61547   25.016
 6649.00    0.64437   0.61515   25.370
 6650.00    0.63537   0.61463   25.796
 6651.00    0.61641   0.61398   26.065
 6652.00    0.60365   0.61310   26.036
 6653.00    0.59525   0.61216   25.866
 6654.00    0.58825   0.61100   25.668
 6655.00    0.59124   0.60998   25.289
 6656.00    0.60633   0.60900   24.790
 6657.00    0.61822   0.60820   24.627
 6658.00    0.61953   0.60762   24.710
 6659.00    0.62471   0.60725   24.051
 6660.00    0.63934   0.60721   22.717
 6661.00    0.64452   0.60734   22.230
 6662.00    0.63121   0.60765   23.075
 6663.00    0.61667   0.60794   23.965
 6664.00    0.61240   0.60819   23.871
 6665.00    0.60985   0.60824   23.559
 6666.00    0.60733   0.60801   23.742
 6667.00    0.61900   0.60758   24.197
 6668.00    0.64415   0.60657   24.454
 6669.00    0.65908   0.60554   24.254
 6670.00    0.65368   0.60440   23.949
 6671.00    0.64322   0.60361   24.295
 6672.00    0.64211   0.60291   25.193
 6673.00    0.65234   0.60266   25.427
 6674.00    0.66596   0.60281   24.839
 6675.00    0.66977   0.60337   24.702
 6676.00    0.65790   0.60435   25.181
 6677.00    0.63620   0.60552   25.093
 6678.00    0.61956   0.60689   24.270
 6679.00    0.62348   0.60812   23.791
 6680.00    0.64005   0.60934   23.901
 6681.00    0.64288   0.61030   23.976
 6682.00    0.62680   0.61106   23.815
 6683.00    0.61043   0.61146   23.774
 6684.00    0.60646   0.61160   23.897
 6685.00    0.61403   0.61147   23.875
 6686.00    0.62283   0.61109   23.622
 6687.00    0.62174   0.61052   23.349
 6688.00    0.61680   0.60988   23.323
 6689.00    0.62489   0.60926   23.686
 6690.00    0.64786   0.60862   24.164
 6691.00    0.67174   0.60813   24.250
 6692.00    0.67930   0.60764   23.961
 6693.00    0.66109   0.60730   23.753
 6694.00    0.63138   0.60696   23.913
 6695.00    0.61348   0.60672   24.468
 6696.00    0.60584   0.60654    0.000
 6697.00    0.59242   0.60640    0.000
 6698.00    0.57347   0.60625    0.000
 6699.00    0.56238   0.60601    0.000
 6700.00    0.57059   0.60581    0.000
 6701.00    0.59958   0.60541    0.000
 6702.00    0.63314   0.60500    0.000
 6703.00    0.65047   0.60440    0.000
 6704.00    0.64754   0.60366    0.000
 6705.00    0.63947   0.60278    0.000
 6706.00    0.65827   0.60176    0.000
 6707.00    0.73351   0.60068    0.000
 6708.00    0.86795   0.59957    0.000
 6709.00    1.04147   0.59858    0.000
 6710.00    1.22002   0.59787    0.000
 6711.00    1.36112   0.59735    0.000
 6712.00    1.42063   0.59714    0.000
 6713.00    1.37248   0.59720    0.000
 6714.00    1.22855   0.59762    0.000
 6715.00    1.03258   0.59826    0.000
 6716.00    0.84866   0.59904    0.000
 6717.00    0.72678   0.59989    0.000
 6718.00    0.67288   0.60078    0.000
 6719.00    0.66395   0.60165    0.000
 6720.00    0.66770   0.60241    0.000
 6721.00    0.67817   0.60310    0.000
 6722.00    0.73568   0.60362    0.000
 6723.00    0.85939   0.60405    0.000
 6724.00    1.00143   0.60428    0.000
 6725.00    1.10529   0.60446    0.000
 6726.00    1.14836   0.60444    0.000
 6727.00    1.12503   0.60434    0.000
 6728.00    1.03569   0.60403    0.000
 6729.00    0.90103   0.60364    0.000
 6730.00    0.76600   0.60311    0.000
 6731.00    0.66581   0.60254    0.000
 6732.00    0.60743   0.60189    0.000
 6733.00    0.58111   0.60120    0.000
 6734.00    0.57086   0.60051    0.000
 6735.00    0.57159   0.59984    0.000
 6736.00    0.59077   0.59924    0.000
 6737.00    0.61434   0.59861    0.000
 6738.00    0.60558   0.59808    0.000
 6739.00    0.57483   0.59752    0.000
 6740.00    0.58420   0.59709    0.000
 6741.00    0.63317   0.59666    0.000
 6742.00    0.64448   0.59638    0.000
 6743.00    0.60173   0.59622    0.000
 6744.00    0.57116   0.59616    0.000
 6745.00    0.57762   0.59634    0.000
 6746.00    0.58288   0.59661    0.000
 6747.00    0.57286   0.59716    0.000
 6748.00    0.57113   0.59777    0.000
 6749.00    0.58274   0.59856    0.000
 6750.00    0.58788   0.59938    0.000
 6751.00    0.57838   0.60016    0.000
 6752.00    0.56447   0.60092    0.000
 6753.00    0.56136   0.60147   22.902
 6754.00    0.57874   0.60190   23.080
 6755.00    0.60430   0.60202   23.159
 6756.00    0.61305   0.60193   22.787
 6757.00    0.59971   0.60159   22.476
 6758.00    0.57775   0.60108   22.936
 6759.00    0.55871   0.60047   23.395
 6760.00    0.54948   0.59976   22.302
 6761.00    0.55679   0.59915   20.290
 6762.00    0.57914   0.59860   18.835
 6763.00    0.58996   0.59832   18.124
 6764.00    0.56119   0.59819   17.819
 6765.00    0.51202   0.59838   17.828
 6766.00    0.48733   0.59869   18.162
 6767.00    0.50472   0.59925   18.586
 6768.00    0.55343   0.59982   18.662
 6769.00    0.60865   0.60044   18.087
 6770.00    0.64756   0.60092   17.053
 6771.00    0.66919   0.60124   16.302
 6772.00    0.68034   0.60130   16.345
 6773.00    0.67255   0.60109   16.922
 6774.00    0.64357   0.60066   17.429
 6775.00    0.62712   0.60000   17.636
 6776.00    0.64656   0.59925   17.729
 6777.00    0.65719   0.59843   18.053
 6778.00    0.61725   0.59767   18.823
 6779.00    0.57300   0.59698   19.781
 6780.00    0.57958   0.59648   20.450
 6781.00    0.60876   0.59613   20.729
 6782.00    0.61096   0.59593   20.881
 6783.00    0.58693   0.59584   21.248
 6784.00    0.56391   0.59588   21.822
 6785.00    0.56419   0.59592   21.861
 6786.00    0.58844   0.59601   20.969
 6787.00    0.60718   0.59606   19.976
 6788.00    0.59824   0.59613   19.563
 6789.00    0.57597   0.59617   19.620
 6790.00    0.56273   0.59624   19.759
 6791.00    0.56474   0.59628   19.653
 6792.00    0.57543   0.59635   19.357
 6793.00    0.58153   0.59638   19.381
 6794.00    0.57915   0.59643   19.816
 6795.00    0.58152   0.59644   19.882
 6796.00    0.59656   0.59640   19.237
 6797.00    0.61462   0.59634   18.681
 6798.00    0.62571   0.59619   18.644
 6799.00    0.62985   0.59602   18.705
 6800.00    0.63246   0.59582   18.587
 6801.00    0.63951   0.59562   18.602
 6802.00    0.64786   0.59541   19.038
 6803.00    0.64477   0.59523   19.856
 6804.00    0.63080   0.59508   20.697
 6805.00    0.62409   0.59499   20.978
 6806.00    0.62654   0.59498   20.804
 6807.00    0.61769   0.59498   21.038
 6808.00    0.59756   0.59507   21.699
 6809.00    0.59259   0.59518   21.639
 6810.00    0.60281   0.59537   20.705
 6811.00    0.59664   0.59558   20.053
 6812.00    0.57361   0.59583   20.008
 6813.00    0.56971   0.59609   20.004
 6814.00    0.59118   0.59630   19.891
 6815.00    0.60600   0.59651   20.095
 6816.00    0.59562   0.59663   20.677
 6817.00    0.56909   0.59669   21.132
 6818.00    0.55128   0.59667   20.891
 6819.00    0.56496   0.59658   19.810
 6820.00    0.59189   0.59642   18.486
 6821.00    0.58891   0.59621   17.634
 6822.00    0.55966   0.59595   17.365
 6823.00    0.54624   0.59567   17.480
 6824.00    0.55947   0.59537   17.965
 6825.00    0.57863   0.59502   18.943
 6826.00    0.59275   0.59458   20.236
 6827.00    0.60591   0.59406   21.287
 6828.00    0.62626   0.59333   21.763
 6829.00    0.65526   0.59251   21.818
 6830.00    0.67199   0.59147   21.809
 6831.00    0.65364   0.59041   21.988
 6832.00    0.61955   0.58925   22.153
 6833.00    0.60783   0.58820   21.913
 6834.00    0.61956   0.58728   21.343
 6835.00    0.63274   0.58662   20.760
 6836.00    0.64201   0.58627   20.238
 6837.00    0.64917   0.58623   19.758
 6838.00    0.63934   0.58652   19.480
 6839.00    0.60298   0.58703   19.577
 6840.00    0.57144   0.58772   19.986
 6841.00    0.58039   0.58838   20.394
 6842.00    0.61451   0.58898   20.285
 6843.00    0.63643   0.58940   19.465
 6844.00    0.63311   0.58959   18.546
 6845.00    0.61213   0.58950   18.073
 6846.00    0.58935   0.58917   17.927
 6847.00    0.57711   0.58863   17.859
 6848.00    0.57349   0.58793   17.956
 6849.00    0.57306   0.58718   18.380
 6850.00    0.57859   0.58645   19.053
 6851.00    0.59025   0.58584   19.829
 6852.00    0.59587   0.58535   20.726
 6853.00    0.59102   0.58504   21.645
 6854.00    0.59516   0.58488   22.032
 6855.00    0.61903   0.58487   21.672
 6856.00    0.63945   0.58496   21.357
 6857.00    0.63797   0.58510   21.553
 6858.00    0.62976   0.58525   21.630
 6859.00    0.62752   0.58533   21.243
 6860.00    0.61746   0.58538   21.218
 6861.00    0.59780   0.58537   21.755
 6862.00    0.59926   0.58531   21.464
 6863.00    0.62680   0.58522   20.084
 6864.00    0.63318   0.58514   19.447
 6865.00    0.60493   0.58511   20.053
 6866.00    0.59923   0.58509   20.230
 6867.00    0.63451   0.58517   19.266
 6868.00    0.64611   0.58525   18.879
 6869.00    0.60618   0.58537   19.750
 6870.00    0.57063   0.58546   20.592
 6871.00    0.57192   0.58555   20.551
 6872.00    0.57825   0.58560   20.659
 6873.00    0.57033   0.58559   21.256
 6874.00    0.56868   0.58559   21.126
 6875.00    0.58433   0.58555   20.098
 6876.00    0.60173   0.58559   19.546
 6877.00    0.60336   0.58568   19.943
 6878.00    0.58378   0.58591   20.628
 6879.00    0.56131   0.58625   20.994
 6880.00    0.56765   0.58670   21.002
 6881.00    0.59562   0.58726   20.867
 6882.00    0.60279   0.58783   20.807
 6883.00    0.58816   0.58845   20.848
 6884.00    0.59248   0.58897   20.863
 6885.00    0.61630   0.58945   20.895
 6886.00    0.61945   0.58980   21.091
 6887.00    0.59762   0.59006   21.252
 6888.00    0.58242   0.59023   21.014
 6889.00    0.57787   0.59030   20.794
 6890.00    0.56285   0.59036   21.378
 6891.00    0.54326   0.59037   22.420
 6892.00    0.54601   0.59045   22.615
 6893.00    0.57201   0.59051   22.123
 6894.00    0.60016   0.59065   22.209
 6895.00    0.62213   0.59079   22.844
 6896.00    0.64054   0.59098   23.015
 6897.00    0.64847   0.59114   22.583
 6898.00    0.63631   0.59127   22.190
 6899.00    0.61312   0.59133   22.022
 6900.00    0.59736   0.59129   21.898
 6901.00    0.59229   0.59114   21.731
 6902.00    0.59047   0.59082   21.468
 6903.00    0.58936   0.59038   20.896
 6904.00    0.59110   0.58979   20.038
 6905.00    0.59775   0.58913   19.581
 6906.00    0.60869   0.58841   20.043
 6907.00    0.61804   0.58770   20.736
 6908.00    0.61677   0.58706   20.569
 6909.00    0.59673   0.58652   19.937
 6910.00    0.56142   0.58614   19.816
 6911.00    0.53739   0.58589   20.396
 6912.00    0.54778   0.58578   21.345
 6913.00    0.57936   0.58573   22.049
 6914.00    0.60567   0.58576   22.034
 6915.00    0.61783   0.58575   21.631
 6916.00    0.61816   0.58572   21.434
 6917.00    0.60988   0.58565   21.665
 6918.00    0.60096   0.58550   22.198
 6919.00    0.60666   0.58537   22.568
 6920.00    0.62458   0.58519   22.500
 6921.00    0.61637   0.58508   22.444
 6922.00    0.56514   0.58494   22.712
 6923.00    0.52027   0.58492   22.776
 6924.00    0.52617   0.58489   22.198
 6925.00    0.56424   0.58493   21.426
 6926.00    0.59489   0.58498   20.973
 6927.00    0.59570   0.58504   20.920
 6928.00    0.57363   0.58511   21.091
 6929.00    0.56506   0.58514   21.143
 6930.00    0.58597   0.58516   20.883
 6931.00    0.60564   0.58508   20.480
 6932.00    0.60090   0.58495   20.301
 6933.00    0.58628   0.58471   20.730
 6934.00    0.57732   0.58435   21.699
 6935.00    0.57073   0.58392   22.374
 6936.00    0.56556   0.58339   22.301
 6937.00    0.57208   0.58286   22.146
 6938.00    0.59227   0.58229   22.266
 6939.00    0.61157   0.58179   22.196
 6940.00    0.61082   0.58134   21.842
 6941.00    0.57846   0.58100   21.760
 6942.00    0.53721   0.58075   21.772
 6943.00    0.53762   0.58060   20.904
 6944.00    0.57944   0.58057   19.594
 6945.00    0.60293   0.58060   19.314
 6946.00    0.58973   0.58076   20.129
 6947.00    0.57999   0.58096   20.591
 6948.00    0.58162   0.58128   20.154
 6949.00    0.56090   0.58163   19.881
 6950.00    0.53029   0.58209   20.110
 6951.00    0.54628   0.58256   20.206
 6952.00    0.60159   0.58307   19.987
 6953.00    0.62752   0.58357   19.920
 6954.00    0.60895   0.58405   20.179
 6955.00    0.59052   0.58448   20.526
 6956.00    0.59223   0.58484   20.761
 6957.00    0.59822   0.58514   20.881
 6958.00    0.59304   0.58534   21.092
 6959.00    0.57435   0.58546   21.581
 6960.00    0.55854   0.58545   21.903
 6961.00    0.56586   0.58533   21.422
 6962.00    0.58393   0.58503   20.847
 6963.00    0.58288   0.58455   21.288
 6964.00    0.56562   0.58386   22.192
 6965.00    0.55763   0.58295   21.911
 6966.00    0.56458   0.58183   20.700
 6967.00    0.57483   0.58055   19.913
 6968.00    0.58079   0.57918   19.679
 6969.00    0.58222   0.57782   19.512
 6970.00    0.58441   0.57659   19.338
 6971.00    0.58976   0.57561   19.344
 6972.00    0.58556   0.57497   19.533
 6973.00    0.56263   0.57475   19.774
 6974.00    0.54521   0.57496   19.997
 6975.00    0.55627   0.57556   20.215
 6976.00    0.56416   0.57647   20.518
 6977.00    0.53502   0.57759   20.925
 6978.00    0.50963   0.57879   21.178
 6979.00    0.53469   0.57998   21.100
 6980.00    0.56843   0.58105   21.086
 6981.00    0.55604   0.58195   21.475
 6982.00    0.52819   0.58265   21.774
 6983.00    0.53594   0.58316   21.437
 6984.00    0.56885   0.58348   20.910
 6985.00    0.59474   0.58361   20.739
 6986.00    0.60860   0.58359   20.754
 6987.00    0.61421   0.58340   20.616
 6988.00    0.60344   0.58307   20.355
 6989.00    0.57593   0.58258   20.159
 6990.00    0.55492   0.58197   20.148
 6991.00    0.55016   0.58123   20.396
 6992.00    0.53209   0.58043   20.939
 6993.00    0.49416   0.57958   21.573
 6994.00    0.49308   0.57876   21.688
 6995.00    0.55611   0.57798   21.025
 6996.00    0.62132   0.57732   20.185
 6997.00    0.63142   0.57676   19.804
 6998.00    0.59747   0.57635   20.166
 6999.00    0.55821   0.57607   21.098
 7000.00    0.54649   0.57589   21.776
 7001.00    0.56606   0.57578   -2.000
 7002.00    0.58565   0.57568   -2.000
 7003.00    0.58263   0.57556   -2.000
 7004.00    0.56526   0.57536   -2.000
 7005.00    0.55243   0.57507   -2.000
 7006.00    0.55888   0.57468   -2.000
 7007.00    0.58031   0.57424   -2.000
 7008.00    0.59286   0.57377   -2.000
 7009.00    0.58510   0.57334   -2.000
 7010.00    0.56746   0.57298   -2.000
 7011.00    0.54602   0.57275   -2.000
 7012.00    0.51658   0.57265   -2.000
 7013.00    0.48941   0.57269   -2.000
 7014.00    0.48975   0.57284   -2.000
 7015.00    0.52010   0.57308   -2.000
 7016.00    0.55452   0.57339   -2.000
 7017.00    0.57137   0.57374   -2.000
 7018.00    0.56570   0.57412   -2.000
 7019.00    0.54968   0.57454   -2.000
 7020.00    0.54370   0.57498   -2.000
 7021.00    0.54990   0.57544   -2.000
 7022.00    0.55288   0.57589   -2.000
 7023.00    0.54655   0.57634   -2.000
 7024.00    0.53891   0.57673   -2.000
 7025.00    0.54251   0.57709   -2.000
 7026.00    0.56363   0.57739   -2.000
 7027.00    0.58271   0.57767   -2.000
 7028.00    0.57214   0.57793   -2.000
 7029.00    0.54904   0.57827   -2.000
 7030.00    0.55329   0.57868   -2.000
 7031.00    0.57220   0.57924   -2.000
 7032.00    0.56638   0.57993   -2.000
 7033.00    0.55641   0.58079   -2.000
 7034.00    0.58690   0.58173   -2.000
 7035.00    0.62406   0.58277   -2.000
 7036.00    0.60528   0.58377   -2.000
 7037.00    0.56195   0.58471   -2.000
 7038.00    0.56366   0.58545   -2.000
 7039.00    0.58857   0.58598   -2.000
 7040.00    0.57588   0.58620   -2.000
 7041.00    0.54119   0.58612   -2.000
 7042.00    0.53394   0.58570   -2.000
 7043.00    0.54862   0.58498   -2.000
 7044.00    0.55281   0.58398   -2.000
 7045.00    0.54377   0.58276   -2.000
 7046.00    0.53742   0.58140   -2.000
 7047.00    0.54350   0.57997   -2.000
 7048.00    0.55886   0.57854   -2.000
 7049.00    0.56520   0.57717   -2.000
 7050.00    0.55466   0.57593   -2.000
 7051.00    0.55568   0.57482   -2.000
 7052.00    0.58685   0.57387   -2.000
 7053.00    0.60945   0.57306   -2.000
 7054.00    0.58513   0.57239   -2.000
 7055.00    0.53521   0.57183   -2.000
 7056.00    0.50397   0.57135   -2.000
 7057.00    0.51673   0.57097   -2.000
 7058.00    0.56232   0.57063   -2.000
 7059.00    0.58828   0.57041   -2.000
 7060.00    0.56814   0.57024   -2.000
 7061.00    0.54755   0.57022   -2.000
 7062.00    0.56250   0.57028   -2.000
 7063.00    0.58178   0.57051   -2.000
 7064.00    0.57414   0.57082   -2.000
 7065.00    0.55487   0.57125   -2.000
 7066.00    0.54783   0.57170   -2.000
 7067.00    0.55855   0.57215   -2.000
 7068.00    0.58136   0.57249   -2.000
 7069.00    0.60544   0.57268   -2.000
 7070.00    0.61775   0.57264   -2.000
 7071.00    0.60798   0.57231   -2.000
 7072.00    0.58649   0.57168   -2.000
 7073.00    0.58515   0.57069   -2.000
 7074.00    0.60987   0.56939   -2.000
 7075.00    0.62678   0.56778   -2.000
 7076.00    0.61651   0.56594   -2.000
 7077.00    0.59559   0.56393   -2.000
 7078.00    0.58987   0.56186   -2.000
 7079.00    0.61462   0.55979   -2.000
 7080.00    0.64531   0.55784   -2.000
 7081.00    0.62860   0.55605   -2.000
 7082.00    0.57167   0.55454   -2.000
 7083.00    0.54567   0.55327   -2.000
 7084.00    0.56737   0.55235   -2.000
 7085.00    0.58395   0.55170   -2.000
 7086.00    0.57437   0.55141   -2.000
 7087.00    0.56718   0.55137   -2.000
 7088.00    0.58173   0.55163   -2.000
 7089.00    0.61157   0.55211   -2.000
 7090.00    0.63444   0.55279   -2.000
 7091.00    0.62905   0.55362   -2.000
 7092.00    0.61112   0.55451   -2.000
 7093.00    0.61834   0.55546   -2.000
 7094.00    0.64523   0.55630   -2.000
 7095.00    0.65059   0.55713   -2.000
 7096.00    0.61760   0.55772   -2.000
 7097.00    0.56452   0.55822   -2.000
 7098.00    0.53305   0.55844   -2.000
 7099.00    0.55672   0.55854   -2.000
 7100.00    0.60225   0.55841   -2.000
 7101.00    0.60772   0.55819   -2.000
 7102.00    0.58176   0.55785   -2.000
 7103.00    0.57433   0.55748   -2.000
 7104.00    0.58627   0.55712   -2.000
 7105.00    0.58673   0.55680   -2.000
 7106.00    0.57265   0.55657   -2.000
 7107.00    0.56013   0.55638   -2.000
 7108.00    0.55348   0.55633   -2.000
 7109.00    0.54937   0.55627   -2.000
 7110.00    0.55057   0.55631   -2.000
 7111.00    0.56092   0.55628   -2.000
 7112.00    0.57533   0.55629   -2.000
 7113.00    0.58268   0.55619   -2.000
 7114.00    0.57232   0.55608   -2.000
 7115.00    0.54438   0.55586   -2.000
 7116.00    0.51971   0.55562   -2.000
 7117.00    0.51510   0.55529   -2.000
 7118.00    0.51513   0.55495   -2.000
 7119.00    0.50340   0.55457   -2.000
 7120.00    0.49744   0.55423   -2.000
 7121.00    0.51512   0.55390   -2.000
 7122.00    0.53896   0.55367   -2.000
 7123.00    0.54710   0.55354   -2.000
 7124.00    0.54458   0.55359   -2.000
 7125.00    0.54357   0.55378   -2.000
 7126.00    0.54457   0.55416   -2.000
 7127.00    0.55322   0.55467   -2.000
 7128.00    0.59045   0.55530   -2.000
 7129.00    0.64794   0.55599   -2.000
 7130.00    0.66345   0.55664   -2.000
 7131.00    0.60971   0.55724   -2.000
 7132.00    0.54782   0.55767   -2.000
 7133.00    0.52169   0.55797   -2.000
 7134.00    0.49429   0.55803   -2.000
 7135.00    0.43473   0.55793   -2.000
 7136.00    0.37031   0.55763   -2.000
 7137.00    0.33744   0.55723   -2.000
 7138.00    0.34850   0.55672   -2.000
 7139.00    0.38649   0.55625   -2.000
 7140.00    0.41266   0.55581   -2.000
 7141.00    0.41806   0.55555   -2.000
 7142.00    0.43655   0.55544   -2.000
 7143.00    0.47179   0.55559   -2.000
 7144.00    0.47843   0.55591   -2.000
 7145.00    0.44777   0.55647   -2.000
 7146.00    0.42951   0.55712   -2.000
 7147.00    0.44787   0.55786   -2.000
 7148.00    0.47761   0.55852   -2.000
 7149.00    0.49956   0.55911   -2.000
 7150.00    0.51805   0.55945   -2.000
 7151.00    0.53754   0.55960   -2.000
 7152.00    0.55335   0.55946   -2.000
 7153.00    0.55251   0.55911   -2.000
 7154.00    0.52294   0.55854   -2.000
 7155.00    0.48159   0.55788   -2.000
 7156.00    0.46633   0.55719   -2.000
 7157.00    0.48303   0.55658   -2.000
 7158.00    0.50288   0.55615   -2.000
 7159.00    0.50304   0.55593   -2.000
 7160.00    0.48270   0.55599   -2.000
 7161.00    0.47196   0.55627   -2.000
 7162.00    0.50687   0.55678   -2.000
 7163.00    0.56286   0.55739   -2.000
 7164.00    0.57928   0.55805   -2.000
 7165.00    0.55481   0.55863   -2.000
 7166.00    0.52998   0.55906   -2.000
 7167.00    0.50023   0.55926   -2.000
 7168.00    0.43754   0.55922   -2.000
 7169.00    0.37282   0.55892   -2.000
 7170.00    0.36236   0.55839   -2.000
 7171.00    0.39286   0.55768   -2.000
 7172.00    0.41197   0.55685   -2.000
 7173.00    0.41493   0.55594   -2.000
 7174.00    0.43293   0.55501   -2.000
 7175.00    0.48636   0.55411   -2.000
 7176.00    0.56330   0.55324   -2.000
 7177.00    0.60193   0.55245   -2.000
 7178.00    0.55659   0.55173   -2.000
 7179.00    0.49292   0.55110   -2.000
 7180.00    0.49878   0.55056   -2.000
 7181.00    0.54751   0.55015   -2.000
 7182.00    0.56444   0.54985   -2.000
 7183.00    0.53511   0.54974   -2.000
 7184.00    0.49059   0.54974   -2.000
 7185.00    0.47111   0.54995   -2.000
 7186.00    0.49621   0.55024   -2.000
 7187.00    0.53899   0.55070   -2.000
 7188.00    0.56445   0.55118   -2.000
 7189.00    0.57071   0.55175   -2.000
 7190.00    0.56225   0.55225   -2.000
 7191.00    0.52333   0.55273   -2.000
 7192.00    0.45995   0.55308   -2.000
 7193.00    0.43199   0.55333   -2.000
 7194.00    0.46606   0.55342   -2.000
 7195.00    0.49120   0.55338   -2.000
 7196.00    0.46284   0.55322   -2.000
 7197.00    0.45104   0.55295   -2.000
 7198.00    0.49949   0.55264   -2.000
 7199.00    0.53207   0.55230   -2.000
 7200.00    0.50171   0.55203   -2.000
 7201.00    0.48059   0.55183   -2.000
 7202.00    0.51044   0.55177   -2.000
 7203.00    0.52036   0.55185   -2.000
 7204.00    0.47288   0.55207   -2.000
 7205.00    0.43695   0.55243   -2.000
 7206.00    0.45386   0.55285   -2.000
 7207.00    0.47375   0.55335   -2.000
 7208.00    0.45878   0.55384   -2.000
 7209.00    0.43035   0.55432   -2.000
 7210.00    0.40784   0.55474   -2.000
 7211.00    0.38453   0.55513   -2.000
 7212.00    0.37030   0.55546   -2.000
 7213.00    0.39836   0.55578   -2.000
 7214.00    0.46082   0.55610   -2.000
 7215.00    0.50141   0.55645   -2.000
 7216.00    0.50661   0.55687   -2.000
 7217.00    0.51980   0.55738   -2.000
 7218.00    0.54506   0.55799   -2.000
