###################################################################
## OUTPUT of StarlightChains_v04.for    [Cid@UFSC - 01/Apr/2007] ##
###################################################################

## Some input info
2002aw.txt                               [arq_obs]
Base.CB07.vall.4m                        [arq_base]
Masks.EmLines.NEW.gm                     [arq_masks]
StCv04.C11.config                        [arq_config]
   66                                    [N_base]
    0                                    [N_YAV_components = # of components with extra extinction!]
    0                                    [i_FitPowerLaw (1/0 = Yes/No)]
-9.99                                    [alpha_PowerLaw]
CCM                                      [red_law_option]
 1.458241                                [q_norm = A(l_norm)/A(V)]

## (Re)Sampling Parameters
 3741.00                                 [l_ini (A)]
 7218.00                                 [l_fin (A)]
    1.00                                 [dl    (A)]     (OBS: dl_cushion =    50.00 A)

## Normalization info
 4020.00                                 [l_norm (A) - for base]
 4010.00                                 [llow_norm (A) - window for f_obs]
 4060.00                                 [lupp_norm (A) - window for f_obs]
2.528234E-17                             [fobs_norm (in input units)]

## S/N
 3691.00                                 [llow_SN (A) - window for S/N]
 7268.00                                 [lupp_SN (A) - window for S/N]
   5.632                                 [S/N in S/N window]
   4.542                                 [S/N in norm. window]
  19.833                                 [S/N_err in S/N window]
  15.995                                 [S/N_err in norm. window]
  1.0000                                 [fscale_chi2]

## etc...
    -2007263                             [idum_orig]
  2359                                   [NOl_eff]
  2354                                   [Nl_eff]
     5    NSIGMA                         [Ntot_cliped & clip_method]
   985040                                [Nglobal_steps]
   7                                     [N_chains]
  16                                     [NEX0s_base = N_base in EX0s-fits]
 0   0   1        4   2.0   2.251E+01    [Clip-Bug, RC-Crash & Burn-In warning-flags, n_censored_weights, wei_nsig_threshold & wei_limit]
    15     14.762     14.257      0.506  [idt_all, wdt_TotTime, wdt_UsrTime & wdt_SysTime (sec)]

## Synthesis Results - Best model ##

 3.73308E-01                             [chi2/Nl_eff]
     2.62040                             [adev (%)]

   110.73767                             [sum-of-x (%)]
 3.22473E-17                             [Flux_tot (units of input spectrum!)]
 8.26039E-13                             [Mini_tot (???)]
 4.39660E-13                             [Mcor_tot (???)]

  47.85                                  [v0_min  (km/s)]
 154.24                                  [vd_min  (km/s)]
 0.1052                                  [AV_min  (mag)]
 0.0000                                  [YAV_min (mag)]

# j     x_j(%)      Mini_j(%)     Mcor_j(%)     age_j(yr)     Z_j      (L/M)_j    YAV?  Mstars   component_j        a/Fe...       SSP_chi2r SSP_adev(%)   SSP_AV   SSP_x(%)
  1      0.0000     0.0000E+00    0.0000E+00    1.000000E+06  0.00400  1.094E-02    0   1.0000   age020_m42            0.0000     2.5409E+00     8.1513   3.5314    96.8593
  2      0.0000     0.0000E+00    0.0000E+00    3.160000E+06  0.00400  4.007E-02    0   0.9999   age045_m42            0.0000     2.1066E+00     7.0084   2.8146   103.1188
  3      0.0000     0.0000E+00    0.0000E+00    5.010000E+06  0.00400  2.539E-02    0   0.9488   age055_m42            0.0000     2.2781E+00     7.4818   3.1285   100.8528
  4      0.0000     0.0000E+00    0.0000E+00    6.610000E+06  0.00400  2.620E-02    0   0.9220   age061_m42            0.0000     2.0899E+00     6.9994   2.7361   103.5748
  5      0.0000     0.0000E+00    0.0000E+00    1.000000E+07  0.00400  1.322E-02    0   0.8862   age070_m42            0.0000     2.4046E+00     7.9049   2.4145   107.6357
  6      0.0000     0.0000E+00    0.0000E+00    1.445000E+07  0.00400  7.883E-03    0   0.8571   age078_m42            0.0000     2.4768E+00     8.0636   2.7443   104.7714
  7      0.0000     0.0000E+00    0.0000E+00    2.512000E+07  0.00400  5.251E-03    0   0.8174   age090_m42            0.0000     2.5114E+00     8.1026   2.2779   108.5502
  8      0.0000     0.0000E+00    0.0000E+00    4.000000E+07  0.00400  3.649E-03    0   0.7851   age104_m42            0.0000     2.3334E+00     7.7650   2.0540   109.3065
  9      0.0000     0.0000E+00    0.0000E+00    5.500000E+07  0.00400  3.098E-03    0   0.7629   age110_m42            0.0000     2.1370E+00     7.1939   2.2268   108.3939
 10      0.0000     0.0000E+00    0.0000E+00    1.015200E+08  0.00400  2.228E-03    0   0.7207   age116_m42            0.0000     2.0337E+00     6.8678   2.2601   107.9906
 11      0.0013     4.1899E-05    5.2333E-05    2.861200E+08  0.00400  1.093E-03    0   0.6648   age125_m42            0.0000     2.0711E+00     7.0199   1.6777   111.9988
 12      0.0000     0.0000E+00    0.0000E+00    5.088000E+08  0.00400  6.597E-04    0   0.6365   age130_m42            0.0000     1.7328E+00     6.3534   1.6859   112.0665
 13      0.0000     0.0000E+00    0.0000E+00    1.434000E+09  0.00400  2.132E-04    0   0.5798   age139_m42            0.0000     1.0281E+00     4.8717   0.7198   114.1781
 14      0.0000     0.0000E+00    0.0000E+00    4.250000E+09  0.00400  5.895E-05    0   0.5377   age158_m42            0.0000     5.4405E-01     3.5471   0.2983   108.9837
 15      0.0000     0.0000E+00    0.0000E+00    7.500000E+09  0.00400  3.510E-05    0   0.5212   age171_m42            0.0000     4.4800E-01     3.1189   0.1196   107.9023
 16     14.4272     2.5367E+01    2.3992E+01    1.300000E+10  0.00400  2.005E-05    0   0.5034   age193_m42            0.0000     4.2237E-01     2.9230  -0.0376   107.0362
 17      0.1117     2.5811E-01    2.4087E-01    1.800000E+10  0.00400  1.525E-05    0   0.4967   age213_m42            0.0000     4.2850E-01     2.9865  -0.0627   106.6544
 18      0.0000     0.0000E+00    0.0000E+00    1.000000E+06  0.00800  1.238E-02    0   1.0000   age020_m52            0.0000     2.5370E+00     8.1522   3.5277    97.0491
 19      0.0000     0.0000E+00    0.0000E+00    3.160000E+06  0.00800  3.074E-02    0   0.9966   age045_m52            0.0000     2.4932E+00     8.0331   3.4546    97.7603
 20      0.0000     0.0000E+00    0.0000E+00    5.010000E+06  0.00800  2.668E-02    0   0.9443   age055_m52            0.0000     2.3063E+00     7.6065   3.2084   100.0658
 21      0.0000     0.0000E+00    0.0000E+00    6.610000E+06  0.00800  2.136E-02    0   0.9177   age061_m52            0.0000     1.9170E+00     7.3785   1.9120   109.0715
 22      0.0000     0.0000E+00    0.0000E+00    1.000000E+07  0.00800  1.215E-02    0   0.8827   age070_m52            0.0000     2.6063E+00     8.3688   2.5831   107.9244
 23      0.0000     0.0000E+00    0.0000E+00    1.445000E+07  0.00800  8.717E-03    0   0.8552   age078_m52            0.0000     2.4098E+00     7.9466   2.7087   106.2816
 24      0.0000     0.0000E+00    0.0000E+00    2.512000E+07  0.00800  5.592E-03    0   0.8162   age090_m52            0.0000     2.4926E+00     8.0693   2.3414   109.8858
 25      0.0000     0.0000E+00    0.0000E+00    4.000000E+07  0.00800  3.896E-03    0   0.7841   age104_m52            0.0000     2.3100E+00     7.6567   2.2624   110.3330
 26      0.0000     0.0000E+00    0.0000E+00    1.015200E+08  0.00800  2.148E-03    0   0.7226   age116_m52            0.0000     2.0020E+00     6.9474   2.2181   109.3329
 27      0.0000     0.0000E+00    0.0000E+00    2.861200E+08  0.00800  9.925E-04    0   0.6683   age125_m52            0.0000     1.6911E+00     6.3042   1.7494   113.1555
 28      5.2976     5.9458E-01    6.8567E-01    9.047900E+08  0.00800  3.141E-04    0   0.6138   age135_m52            0.0000     9.1426E-01     4.5450   0.9737   116.9001
 29      8.6593     1.7758E+00    1.9528E+00    1.434000E+09  0.00800  1.719E-04    0   0.5853   age139_m52            0.0000     6.5050E-01     3.7997   0.3930   114.6934
 30      0.0000     0.0000E+00    0.0000E+00    2.500000E+09  0.00800  7.872E-05    0   0.5600   age150_m52            0.0000     4.0283E-01     2.8392   0.1472   110.5862
 31      8.9803     7.3013E+00    7.4432E+00    4.250000E+09  0.00800  4.336E-05    0   0.5426   age158_m52            0.0000     3.8640E-01     2.7511   0.1327   109.5155
 32     38.5809     4.3055E+01    4.3026E+01    6.250000E+09  0.00800  3.159E-05    0   0.5319   age166_m52            0.0000     3.8736E-01     2.6026  -0.0556   108.9388
 33      0.0000     0.0000E+00    0.0000E+00    1.300000E+10  0.00800  1.361E-05    0   0.5073   age193_m52            0.0000     5.4692E-01     3.2664  -0.5063   107.5043
 34      0.0000     0.0000E+00    0.0000E+00    1.800000E+10  0.00800  9.886E-06    0   0.4990   age213_m52            0.0000     7.2680E-01     3.9644  -0.5972   106.2626
 35      0.0000     0.0000E+00    0.0000E+00    1.000000E+06  0.02000  1.544E-02    0   1.0000   age020_m62            0.0000     2.5507E+00     8.1809   3.5240    97.2648
 36      0.0000     0.0000E+00    0.0000E+00    3.160000E+06  0.02000  3.762E-02    0   0.9858   age045_m62            0.0000     2.5425E+00     8.1450   3.4642    98.0778
 37      0.0000     0.0000E+00    0.0000E+00    5.010000E+06  0.02000  3.296E-02    0   0.9342   age055_m62            0.0000     2.1639E+00     7.1565   3.0941   101.8536
 38      0.0000     0.0000E+00    0.0000E+00    8.710000E+06  0.02000  1.154E-02    0   0.8861   age067_m62            0.0000     4.7088E+00    11.8872   1.9609   114.6646
 39      0.0000     0.0000E+00    0.0000E+00    1.445000E+07  0.02000  7.663E-03    0   0.8472   age078_m62            0.0000     2.9621E+00     9.1726   2.2071   111.5730
 40      0.0000     0.0000E+00    0.0000E+00    2.512000E+07  0.02000  4.532E-03    0   0.8099   age090_m62            0.0000     3.1612E+00     9.3878   2.1966   111.4076
 41      0.0000     0.0000E+00    0.0000E+00    5.500000E+07  0.02000  2.733E-03    0   0.7595   age110_m62            0.0000     2.2541E+00     7.5855   2.2432   109.6457
 42      0.0000     0.0000E+00    0.0000E+00    1.609000E+08  0.02000  1.369E-03    0   0.6985   age120_m62            0.0000     1.9484E+00     6.7746   2.1057   111.5121
 43      0.0000     0.0000E+00    0.0000E+00    2.861200E+08  0.02000  9.013E-04    0   0.6714   age125_m62            0.0000     1.7561E+00     6.4566   1.8640   114.2976
 44      0.0000     0.0000E+00    0.0000E+00    5.088000E+08  0.02000  5.028E-04    0   0.6449   age130_m62            0.0000     1.2595E+00     5.4723   1.5123   116.1347
 45      4.7984     6.9669E-01    8.0880E-01    9.047900E+08  0.02000  2.428E-04    0   0.6179   age135_m62            0.0000     6.4987E-01     3.7919   0.9353   115.1779
 46      2.6131     7.2938E-01    8.0962E-01    1.434000E+09  0.02000  1.263E-04    0   0.5908   age139_m62            0.0000     4.5170E-01     3.0383   0.4942   113.4146
 47      8.3953     4.9450E+00    5.2706E+00    2.500000E+09  0.02000  5.985E-05    0   0.5673   age150_m62            0.0000     4.0429E-01     2.6611   0.1468   111.0707
 48      5.4898     5.9167E+00    6.0784E+00    4.250000E+09  0.02000  3.271E-05    0   0.5468   age158_m62            0.0000     5.6331E-01     3.2439  -0.1369   109.2326
 49      1.3855     3.5914E+00    3.4864E+00    1.000000E+10  0.02000  1.360E-05    0   0.5167   age181_m62            0.0000     9.5236E-01     4.6644  -0.4593   107.7002
 50      0.0000     0.0000E+00    0.0000E+00    1.800000E+10  0.02000  7.124E-06    0   0.5013   age213_m62            0.0000     1.3758E+00     5.7890  -0.6458   105.8692
 51      0.0000     0.0000E+00    0.0000E+00    1.000000E+06  0.05000  2.592E-02    0   0.9998   age020_m72            0.0000     2.6026E+00     8.3007   3.5144    97.3374
 52      0.0000     0.0000E+00    0.0000E+00    3.160000E+06  0.05000  4.845E-02    0   0.9577   age045_m72            0.0000     2.4055E+00     7.7383   3.3532    99.1182
 53      0.0000     0.0000E+00    0.0000E+00    5.010000E+06  0.05000  3.072E-02    0   0.9147   age055_m72            0.0000     2.6816E+00     8.5636   2.8233   106.0085
 54      0.0000     0.0000E+00    0.0000E+00    6.610000E+06  0.05000  1.455E-02    0   0.8877   age061_m72            0.0000     7.2159E+00    14.5549   1.9933   116.9409
 55      0.0000     0.0000E+00    0.0000E+00    1.000000E+07  0.05000  9.074E-03    0   0.8524   age070_m72            0.0000     3.1315E+00     9.0528   3.0185   105.4415
 56      0.0000     0.0000E+00    0.0000E+00    2.512000E+07  0.05000  4.250E-03    0   0.7902   age090_m72            0.0000     2.8561E+00     8.5568   2.7096   107.6013
 57      0.0000     0.0000E+00    0.0000E+00    4.000000E+07  0.05000  3.087E-03    0   0.7618   age104_m72            0.0000     2.9730E+00     8.6932   2.4752   109.7030
 58      0.0000     0.0000E+00    0.0000E+00    1.015200E+08  0.05000  1.700E-03    0   0.7096   age116_m72            0.0000     2.2158E+00     7.2553   2.2387   111.5201
 59      0.0000     0.0000E+00    0.0000E+00    2.861200E+08  0.05000  7.384E-04    0   0.6633   age125_m72            0.0000     1.4728E+00     5.9339   1.7458   115.2134
 60      0.0000     0.0000E+00    0.0000E+00    5.088000E+08  0.05000  3.819E-04    0   0.6372   age130_m72            0.0000     8.7772E-01     4.5338   1.2726   116.2362
 61      6.7823     1.4266E+00    1.6377E+00    9.047900E+08  0.05000  1.676E-04    0   0.6110   age135_m72            0.0000     5.1710E-01     3.1711   0.6038   113.0540
 62      0.0000     0.0000E+00    0.0000E+00    1.434000E+09  0.05000  8.837E-05    0   0.5874   age139_m72            0.0000     4.5038E-01     2.7922   0.1496   112.5587
 63      5.2151     4.3432E+00    4.5680E+00    2.500000E+09  0.05000  4.233E-05    0   0.5598   age150_m72            0.0000     6.6427E-01     3.6422  -0.1296   109.8211
 64      0.0000     0.0000E+00    0.0000E+00    6.250000E+09  0.05000  1.435E-05    0   0.5249   age166_m72            0.0000     1.1384E+00     5.0775  -0.5475   106.9002
 65      0.0000     0.0000E+00    0.0000E+00    1.300000E+10  0.05000  6.513E-06    0   0.5036   age193_m72            0.0000     1.7644E+00     6.5294  -0.7972   106.6212
 66      0.0000     0.0000E+00    0.0000E+00    1.800000E+10  0.05000  4.527E-06    0   0.4945   age213_m72            0.0000     2.2474E+00     7.4423  -0.9378   105.5366


## Synthesis Results - Average & Chains ##

# j      x_j: min, <> & last-chain-values for 1 ...  7 chains
  1      0.0000      0.0350      0.0000      0.0000      0.0000      0.0000      0.0000      0.0000      0.0000
  2      0.0000      0.0272      0.0000      0.0000      0.0341      0.0000      0.0000      0.0000      0.0000
  3      0.0000      0.0412      0.0000      0.0438      0.0000      0.0000      0.0000      0.0000      0.0000
  4      0.0000      0.0921      0.0000      0.0701      0.0000      0.0000      0.0000      0.0000      0.0000
  5      0.0000      0.0910      0.0000      0.0000      0.0000      0.1204      0.0000      0.0000      0.0000
  6      0.0000      0.0547      0.0000      0.1548      0.0000      0.0000      0.0000      0.0000      0.0000
  7      0.0000      0.0945      0.0000      0.0000      0.0015      0.0000      0.0000      0.0000      0.0000
  8      0.0000      0.0347      0.0000      0.0000      0.0000      0.0000      0.0000      0.0000      0.0000
  9      0.0000      0.0641      0.0523      0.0000      0.0000      0.0000      0.0000      0.0000      0.0000
 10      0.0000      0.1449      0.0000      0.0000      0.0000      0.0000      0.0000      0.0000      0.0000
 11      0.0013      0.2013      0.0000      0.0000      0.9081      0.0000      0.0000      0.8378      0.0000
 12      0.0000      0.0840      0.0000      0.0000      0.0000      0.0000      0.0000      0.0218      0.6437
 13      0.0000      0.4686      0.7793      1.9331      0.0983      0.2112      1.5903      0.0000      1.2461
 14      0.0000      0.9297      0.0000      0.0000      0.0000      0.0000      0.0000      0.0000      0.0000
 15      0.0000      2.4790      1.7815      0.2962      0.6627      4.6783      1.7868      0.0000      0.0000
 16     14.4272     15.5201     17.8009     17.1462     18.3577     13.2270     12.2550     19.9325     17.4604
 17      0.1117      3.9063      5.7168      3.8650      2.9856      4.5957      3.5623      2.5112      2.8665
 18      0.0000      0.0343      0.0000      0.0000      0.0000      0.0000      0.0000      0.0000      0.0000
 19      0.0000      0.0294      0.0000      0.0000      0.0000      0.0000      0.0000      0.0000      0.0000
 20      0.0000      0.0278      0.0000      0.0000      0.0000      0.0000      0.0000      0.0000      0.0000
 21      0.0000      0.0632      0.0000      0.3509      0.0000      0.0000      0.5851      0.0000      0.0000
 22      0.0000      0.0487      0.0000      0.0000      0.0000      0.0000      0.0000      0.0000      0.0000
 23      0.0000      0.0385      0.0000      0.0000      0.0000      0.0000      0.0000      0.0000      0.0000
 24      0.0000      0.0639      0.0000      0.0000      0.0000      0.0000      0.0000      0.2852      0.0000
 25      0.0000      0.0330      0.0000      0.0000      0.0000      0.0000      0.0000      0.0000      0.0000
 26      0.0000      0.0680      0.0000      0.0000      0.0000      0.7159      0.0000      0.0000      0.0000
 27      0.0000      0.0752      0.0000      0.0000      0.1644      0.1977      0.0000      0.0000      0.0000
 28      5.2976      1.3739      1.5555      1.5788      1.7473      2.5980      1.3063      2.8170      1.8208
 29      8.6593      3.8732      3.9892      4.3015      6.5506      3.3188      3.9292      4.3809      6.2164
 30      0.0000      4.8486      0.0000      1.1032      1.6412      2.6833      5.2558      1.1570      4.2314
 31      8.9803      7.2544      8.4465      7.3608     15.6189      5.1281     10.6086      8.8083     10.4093
 32     38.5809     13.3099     13.5984     11.2368      7.2740     14.1881     17.7615     14.1955     15.6975
 33      0.0000      0.1210      0.0000      0.7925      0.0000      0.0000      0.0000      0.0000      0.0000
 34      0.0000      0.3416      0.0000      0.4096      0.0000      0.0000      0.1300      0.0000      0.0000
 35      0.0000      0.0356      0.0000      0.0000      0.0000      0.0000      0.0000      0.0000      0.0000
 36      0.0000      0.0175      0.0000      0.0000      0.0000      0.0000      0.0000      0.0000      0.0000
 37      0.0000      0.0294      0.0000      0.0000      0.0000      0.0000      0.0000      0.0000      0.0000
 38      0.0000      0.0440      0.0000      0.0000      0.0000      0.0000      0.0000      0.0000      0.0000
 39      0.0000      0.0462      0.0000      0.0000      0.0000      0.0000      0.0000      0.0000      0.0000
 40      0.0000      0.0236      0.0000      0.0715      0.0000      0.0000      0.0000      0.0000      0.0000
 41      0.0000      0.0411      0.0000      0.0000      0.0000      0.0000      0.0000      0.0000      0.0260
 42      0.0000      0.0591      0.5326      0.0000      0.0000      0.0000      0.1532      0.0000      0.0000
 43      0.0000      0.0956      0.0000      0.5052      0.0412      0.0000      0.0000      0.0000      0.0000
 44      0.0000      0.1183      0.0000      0.1186      1.0824      0.5029      0.0000      0.0000      0.1327
 45      4.7984      3.0743      3.3689      4.9592      2.0770      3.6395      3.8812      1.0719      3.4387
 46      2.6131      3.6526      4.2507      2.7469      7.0642      3.5151      3.0332      5.0634      3.2833
 47      8.3953     19.5073     20.8325     19.7066     21.5982     25.0587     22.6009     22.5349     17.1943
 48      5.4898      3.0020      2.1553      5.1451      2.1826      3.4835      0.7864      2.7887      3.1403
 49      1.3855      0.7085      0.0000      1.1112      1.9255      0.9582      0.0000      1.0049      0.0000
 50      0.0000      0.1021      0.0000      0.0000      0.0000      0.0000      0.0000      0.0000      0.0000
 51      0.0000      0.0241      0.3038      0.0000      0.0000      0.0000      0.0000      0.0000      0.0000
 52      0.0000      0.0533      0.0000      0.0000      0.0000      0.0000      0.0000      0.1247      0.0000
 53      0.0000      0.0264      0.0000      0.0000      0.0000      0.0000      0.0000      0.0000      0.0000
 54      0.0000      0.0213      0.0000      0.0000      0.0000      0.0000      0.0000      0.0000      0.0000
 55      0.0000      0.0368      0.1280      0.0000      0.0000      0.0000      0.0000      0.0000      0.0000
 56      0.0000      0.0213      0.0000      0.0000      0.0000      0.0000      0.0000      0.0000      0.0000
 57      0.0000      0.0389      0.0000      0.0000      0.0000      0.2061      0.2703      0.0000      0.0000
 58      0.0000      0.1332      0.0000      0.0669      0.0000      0.0000      0.0000      0.1560      0.1775
 59      0.0000      0.2053      0.1431      0.0000      0.0000      0.0000      0.0000      0.0000      0.0000
 60      0.0000      0.1254      0.0000      0.0000      0.0075      0.0000      0.0000      0.5368      0.0000
 61      6.7823     14.1113     15.2367     17.0760     13.5027     12.1331     12.9763     16.1676     14.4034
 62      0.0000      4.7104      5.9323      2.3479      0.0000      6.1113      2.0150      1.5675      4.6801
 63      5.2151      4.5130      4.2509      6.1694      4.7649      3.5681      6.3067      4.3794      3.0630
 64      0.0000      0.2639      0.0000      0.0000      0.6068      0.0000      0.0000      0.0000      0.0000
 65      0.0000      0.0694      0.2309      0.2721      0.0000      0.0682      0.0000      0.0000      0.0000
 66      0.0000      0.1361      0.0000      0.0000      0.0000      0.0000      0.0000      0.5332      1.0723

# j      m_j: min, <> & last-chain-values for 1 ...  7 chains
  1  0.0000E+00  2.2559E-04  0.0000E+00  0.0000E+00  0.0000E+00  0.0000E+00  0.0000E+00  0.0000E+00  0.0000E+00
  2  0.0000E+00  4.7855E-05  0.0000E+00  0.0000E+00  6.0292E-05  0.0000E+00  0.0000E+00  0.0000E+00  0.0000E+00
  3  0.0000E+00  1.0870E-04  0.0000E+00  1.1336E-04  0.0000E+00  0.0000E+00  0.0000E+00  0.0000E+00  0.0000E+00
  4  0.0000E+00  2.2851E-04  0.0000E+00  1.7080E-04  0.0000E+00  0.0000E+00  0.0000E+00  0.0000E+00  0.0000E+00
  5  0.0000E+00  4.3022E-04  0.0000E+00  0.0000E+00  0.0000E+00  5.8213E-04  0.0000E+00  0.0000E+00  0.0000E+00
  6  0.0000E+00  4.1969E-04  0.0000E+00  1.1650E-03  0.0000E+00  0.0000E+00  0.0000E+00  0.0000E+00  0.0000E+00
  7  0.0000E+00  1.0377E-03  0.0000E+00  0.0000E+00  1.6013E-05  0.0000E+00  0.0000E+00  0.0000E+00  0.0000E+00
  8  0.0000E+00  5.2687E-04  0.0000E+00  0.0000E+00  0.0000E+00  0.0000E+00  0.0000E+00  0.0000E+00  0.0000E+00
  9  0.0000E+00  1.1138E-03  8.9189E-04  0.0000E+00  0.0000E+00  0.0000E+00  0.0000E+00  0.0000E+00  0.0000E+00
 10  0.0000E+00  3.3043E-03  0.0000E+00  0.0000E+00  0.0000E+00  0.0000E+00  0.0000E+00  0.0000E+00  0.0000E+00
 11  5.2333E-05  8.6326E-03  0.0000E+00  0.0000E+00  3.9093E-02  0.0000E+00  0.0000E+00  3.4618E-02  0.0000E+00
 12  0.0000E+00  5.7161E-03  0.0000E+00  0.0000E+00  0.0000E+00  0.0000E+00  0.0000E+00  1.4302E-03  4.2355E-02
 13  0.0000E+00  8.9860E-02  1.4673E-01  3.6388E-01  1.8914E-02  4.1418E-02  3.2227E-01  0.0000E+00  2.3113E-01
 14  0.0000E+00  5.9802E-01  0.0000E+00  0.0000E+00  0.0000E+00  0.0000E+00  0.0000E+00  0.0000E+00  0.0000E+00
 15  0.0000E+00  2.5959E+00  1.8315E+00  3.0439E-01  6.9655E-01  5.0100E+00  1.9771E+00  0.0000E+00  0.0000E+00
 16  2.3992E+01  2.7479E+01  3.0942E+01  2.9798E+01  3.2624E+01  2.3950E+01  2.2928E+01  3.3998E+01  2.9898E+01
 17  2.4087E-01  8.9721E+00  1.2891E+01  8.7135E+00  6.8829E+00  1.0795E+01  8.6458E+00  5.5565E+00  6.3675E+00
 18  0.0000E+00  1.9560E-04  0.0000E+00  0.0000E+00  0.0000E+00  0.0000E+00  0.0000E+00  0.0000E+00  0.0000E+00
 19  0.0000E+00  6.7272E-05  0.0000E+00  0.0000E+00  0.0000E+00  0.0000E+00  0.0000E+00  0.0000E+00  0.0000E+00
 20  0.0000E+00  6.9380E-05  0.0000E+00  0.0000E+00  0.0000E+00  0.0000E+00  0.0000E+00  0.0000E+00  0.0000E+00
 21  0.0000E+00  1.9144E-04  0.0000E+00  1.0435E-03  0.0000E+00  0.0000E+00  1.8732E-03  0.0000E+00  0.0000E+00
 22  0.0000E+00  2.4939E-04  0.0000E+00  0.0000E+00  0.0000E+00  0.0000E+00  0.0000E+00  0.0000E+00  0.0000E+00
 23  0.0000E+00  2.6646E-04  0.0000E+00  0.0000E+00  0.0000E+00  0.0000E+00  0.0000E+00  0.0000E+00  0.0000E+00
 24  0.0000E+00  6.5743E-04  0.0000E+00  0.0000E+00  0.0000E+00  0.0000E+00  0.0000E+00  2.8278E-03  0.0000E+00
 25  0.0000E+00  4.6828E-04  0.0000E+00  0.0000E+00  0.0000E+00  0.0000E+00  0.0000E+00  0.0000E+00  0.0000E+00
 26  0.0000E+00  1.6127E-03  0.0000E+00  0.0000E+00  0.0000E+00  1.7369E-02  0.0000E+00  0.0000E+00  0.0000E+00
 27  0.0000E+00  3.5692E-03  0.0000E+00  0.0000E+00  7.8358E-03  9.6011E-03  0.0000E+00  0.0000E+00  0.0000E+00
 28  6.8567E-01  1.8933E-01  2.1044E-01  2.1355E-01  2.4167E-01  3.6613E-01  1.9022E-01  3.7397E-01  2.4267E-01
 29  1.9528E+00  9.2999E-01  9.4036E-01  1.0138E+00  1.5787E+00  8.1494E-01  9.9693E-01  1.0133E+00  1.4436E+00
 30  0.0000E+00  2.4324E+00  0.0000E+00  5.4319E-01  8.2636E-01  1.3766E+00  2.7861E+00  5.5915E-01  2.0530E+00
 31  7.4432E+00  6.4018E+00  7.3177E+00  6.3758E+00  1.3834E+01  4.6280E+00  9.8924E+00  7.4882E+00  8.8839E+00
 32  4.3026E+01  1.5804E+01  1.5852E+01  1.3096E+01  8.6690E+00  1.7229E+01  2.2285E+01  1.6238E+01  1.8026E+01
 33  0.0000E+00  3.1811E-01  0.0000E+00  2.0445E+00  0.0000E+00  0.0000E+00  0.0000E+00  0.0000E+00  0.0000E+00
 34  0.0000E+00  1.2158E+00  0.0000E+00  1.4309E+00  0.0000E+00  0.0000E+00  4.8882E-01  0.0000E+00  0.0000E+00
 35  0.0000E+00  1.6260E-04  0.0000E+00  0.0000E+00  0.0000E+00  0.0000E+00  0.0000E+00  0.0000E+00  0.0000E+00
 36  0.0000E+00  3.2390E-05  0.0000E+00  0.0000E+00  0.0000E+00  0.0000E+00  0.0000E+00  0.0000E+00  0.0000E+00
 37  0.0000E+00  5.8717E-05  0.0000E+00  0.0000E+00  0.0000E+00  0.0000E+00  0.0000E+00  0.0000E+00  0.0000E+00
 38  0.0000E+00  2.3836E-04  0.0000E+00  0.0000E+00  0.0000E+00  0.0000E+00  0.0000E+00  0.0000E+00  0.0000E+00
 39  0.0000E+00  3.6006E-04  0.0000E+00  0.0000E+00  0.0000E+00  0.0000E+00  0.0000E+00  0.0000E+00  0.0000E+00
 40  0.0000E+00  2.9704E-04  0.0000E+00  8.8446E-04  0.0000E+00  0.0000E+00  0.0000E+00  0.0000E+00  0.0000E+00
 41  0.0000E+00  8.0594E-04  0.0000E+00  0.0000E+00  0.0000E+00  0.0000E+00  0.0000E+00  0.0000E+00  4.9315E-04
 42  0.0000E+00  2.1269E-03  1.8813E-02  0.0000E+00  0.0000E+00  0.0000E+00  5.8262E-03  0.0000E+00  0.0000E+00
 43  0.0000E+00  5.0239E-03  0.0000E+00  2.6049E-02  2.1713E-03  0.0000E+00  0.0000E+00  0.0000E+00  0.0000E+00
 44  0.0000E+00  1.0696E-02  0.0000E+00  1.0528E-02  9.8262E-02  4.6523E-02  0.0000E+00  0.0000E+00  1.1610E-02
 45  8.0880E-01  5.5173E-01  5.9356E-01  8.7356E-01  3.7414E-01  6.6797E-01  7.3603E-01  1.8531E-01  5.9684E-01
 46  8.0962E-01  1.2049E+00  1.3766E+00  8.8938E-01  2.3389E+00  1.1858E+00  1.0573E+00  1.6091E+00  1.0475E+00
 47  5.2706E+00  1.3039E+01  1.3671E+01  1.2929E+01  1.4490E+01  1.7130E+01  1.5964E+01  1.4511E+01  1.1115E+01
 48  6.0784E+00  3.5389E+00  2.4944E+00  5.9533E+00  2.5825E+00  4.1996E+00  9.7964E-01  3.1669E+00  3.5802E+00
 49  3.4864E+00  1.8981E+00  0.0000E+00  2.9223E+00  5.1779E+00  2.6253E+00  0.0000E+00  2.5936E+00  0.0000E+00
 50  0.0000E+00  5.0662E-01  0.0000E+00  0.0000E+00  0.0000E+00  0.0000E+00  0.0000E+00  0.0000E+00  0.0000E+00
 51  0.0000E+00  6.5642E-05  8.1137E-04  0.0000E+00  0.0000E+00  0.0000E+00  0.0000E+00  0.0000E+00  0.0000E+00
 52  0.0000E+00  7.4346E-05  0.0000E+00  0.0000E+00  0.0000E+00  0.0000E+00  0.0000E+00  1.6741E-04  0.0000E+00
 53  0.0000E+00  5.5514E-05  0.0000E+00  0.0000E+00  0.0000E+00  0.0000E+00  0.0000E+00  0.0000E+00  0.0000E+00
 54  0.0000E+00  9.1834E-05  0.0000E+00  0.0000E+00  0.0000E+00  0.0000E+00  0.0000E+00  0.0000E+00  0.0000E+00
 55  0.0000E+00  2.4367E-04  8.3223E-04  0.0000E+00  0.0000E+00  0.0000E+00  0.0000E+00  0.0000E+00  0.0000E+00
 56  0.0000E+00  2.7986E-04  0.0000E+00  0.0000E+00  0.0000E+00  0.0000E+00  0.0000E+00  0.0000E+00  0.0000E+00
 57  0.0000E+00  6.7718E-04  0.0000E+00  0.0000E+00  0.0000E+00  3.6671E-03  4.9714E-03  0.0000E+00  0.0000E+00
 58  0.0000E+00  3.9212E-03  0.0000E+00  1.9320E-03  0.0000E+00  0.0000E+00  0.0000E+00  4.4247E-03  5.0523E-03
 59  0.0000E+00  1.3005E-02  8.8985E-03  0.0000E+00  0.0000E+00  0.0000E+00  0.0000E+00  0.0000E+00  0.0000E+00
 60  0.0000E+00  1.4757E-02  0.0000E+00  0.0000E+00  8.8941E-04  0.0000E+00  0.0000E+00  6.0850E-02  0.0000E+00
 61  1.6377E+00  3.6278E+00  3.8456E+00  4.3089E+00  3.4842E+00  3.1899E+00  3.5251E+00  4.0041E+00  3.5812E+00
 62  0.0000E+00  2.2080E+00  2.7299E+00  1.0803E+00  0.0000E+00  2.9296E+00  9.9806E-01  7.0785E-01  2.1217E+00
 63  4.5680E+00  4.2088E+00  3.8920E+00  5.6473E+00  4.4602E+00  3.4030E+00  6.2150E+00  3.9345E+00  2.7626E+00
 64  0.0000E+00  6.8081E-01  0.0000E+00  0.0000E+00  1.5711E+00  0.0000E+00  0.0000E+00  0.0000E+00  0.0000E+00
 65  0.0000E+00  3.7833E-01  1.2358E+00  1.4565E+00  0.0000E+00  3.8054E-01  0.0000E+00  0.0000E+00  0.0000E+00
 66  0.0000E+00  1.0486E+00  0.0000E+00  0.0000E+00  0.0000E+00  0.0000E+00  0.0000E+00  3.9565E+00  7.9888E+00

# AV, chi2 & Mass for <> & i_chain = 1 ...  7 solutions
AV       0.1052      0.1662      0.1622      0.1646      0.1716      0.1649      0.1652      0.1574      0.1512
chi2 3.7331E-01  3.8163E-01  3.8039E-01  3.8042E-01  3.8007E-01  3.8004E-01  3.7971E-01  3.7920E-01  3.7921E-01
Mass 4.3966E-13  4.4819E-13  4.5404E-13  4.5565E-13  4.4977E-13  4.3751E-13  4.2356E-13  4.5974E-13  4.5417E-13
  47.85                                  [v0_min (km/s) before EX0s...]
 154.24                                  [vd_min (km/s) before EX0s...]


## Synthetic spectrum (Best Model) ##l_obs f_obs f_syn wei
 3478    [Nl_obs]
 3741.00    0.51678   0.61339    0.000
 3742.00    0.52680   0.61798    0.000
 3743.00    0.52314   0.60240    0.000
 3744.00    0.50170   0.57347    0.000
 3745.00    0.46266   0.53859    8.594
 3746.00    0.41437   0.50400    8.640
 3747.00    0.37676   0.47151    8.820
 3748.00    0.36686   0.44401    9.006
 3749.00    0.38267   0.43051    9.026
 3750.00    0.41235   0.43927    8.856
 3751.00    0.44557   0.47166    8.752
 3752.00    0.47659   0.52271    8.876
 3753.00    0.50556   0.58199    9.050
 3754.00    0.53407   0.63470    9.063
 3755.00    0.56219   0.66698    8.968
 3756.00    0.59405   0.67164    8.908
 3757.00    0.63949   0.65233    8.948
 3758.00    0.69681   0.62265    9.008
 3759.00    0.74574   0.59777    8.872
 3760.00    0.77100   0.58706    8.561
 3761.00    0.77312   0.59159    8.388
 3762.00    0.75256   0.60407    8.510
 3763.00    0.70578   0.61571    8.819
 3764.00    0.64470   0.62240    9.065
 3765.00    0.59731   0.62168    9.006
 3766.00    0.57438   0.61386    8.863
 3767.00    0.56442   0.60355    9.161
 3768.00    0.56310   0.59362    9.774
 3769.00    0.57757   0.58577    9.782
 3770.00    0.60609   0.58560    9.202
 3771.00    0.63638   0.59716    8.956
 3772.00    0.65915   0.61769    9.226
 3773.00    0.67192   0.64220    9.589
 3774.00    0.67870   0.66663    9.657
 3775.00    0.68683   0.68772    9.386
 3776.00    0.70046   0.70470    9.122
 3777.00    0.71879   0.72000    9.230
 3778.00    0.73571   0.73727    9.660
 3779.00    0.74644   0.75735   10.043
 3780.00    0.75843   0.77712   10.032
 3781.00    0.78020   0.79324    9.653
 3782.00    0.80230   0.80404    9.435
 3783.00    0.81075   0.80712    9.733
 3784.00    0.80850   0.79823   10.085
 3785.00    0.80187   0.77560    9.901
 3786.00    0.78219   0.74359    9.711
 3787.00    0.74612   0.70874   10.097
 3788.00    0.71732   0.67720   10.612
 3789.00    0.71692   0.65536   10.533
 3790.00    0.73466   0.64536   10.123
 3791.00    0.74947   0.64125    9.924
 3792.00    0.74927   0.63485   10.077
 3793.00    0.72819   0.62171   10.493
 3794.00    0.68375   0.60093   10.910
 3795.00    0.62073   0.57410   11.130
 3796.00    0.55315   0.54499   11.256
 3797.00    0.49871   0.52060   11.457
 3798.00    0.47373   0.50998   11.760
 3799.00    0.48521   0.51941   11.953
 3800.00    0.52792   0.54891   11.669
 3801.00    0.59081   0.59359   11.068
 3802.00    0.66088   0.64465   10.737
 3803.00    0.72549   0.69032   10.735
 3804.00    0.77390   0.72167   10.596
 3805.00    0.79968   0.73687   10.169
 3806.00    0.80215   0.74060    9.779
 3807.00    0.78816   0.74161    9.756
 3808.00    0.77002   0.74719   10.273
 3809.00    0.75748   0.75811   10.953
 3810.00    0.75412   0.76901   10.891
 3811.00    0.75441   0.77101   10.274
 3812.00    0.74876   0.75728   10.034
 3813.00    0.73681   0.72959   10.299
 3814.00    0.72494   0.69655   10.659
 3815.00    0.71429   0.66868   10.852
 3816.00    0.70051   0.65365   10.894
 3817.00    0.67822   0.64986   10.914
 3818.00    0.64445   0.64802   11.082
 3819.00    0.60274   0.64144   11.557
 3820.00    0.56167   0.63167   12.290
 3821.00    0.53137   0.62257   12.555
 3822.00    0.51839   0.61423   11.858
 3823.00    0.51999   0.60378   11.241
 3824.00    0.52761   0.58934   11.524
 3825.00    0.53208   0.57070   12.220
 3826.00    0.52674   0.55043   12.422
 3827.00    0.51017   0.53374   12.225
 3828.00    0.48639   0.52409   12.246
 3829.00    0.46407   0.51903   12.802
 3830.00    0.44945   0.51162   13.620
 3831.00    0.44097   0.49642   13.487
 3832.00    0.43341   0.47434   12.326
 3833.00    0.42197   0.45040   11.850
 3834.00    0.40708   0.43058   12.643
 3835.00    0.39584   0.42033   13.536
 3836.00    0.39224   0.42069   13.232
 3837.00    0.39345   0.42827   12.303
 3838.00    0.40087   0.44103   11.641
 3839.00    0.42344   0.45938   11.530
 3840.00    0.46598   0.48531   11.761
 3841.00    0.52438   0.52092   11.745
 3842.00    0.58915   0.56374   11.290
 3843.00    0.64820   0.60726   10.821
 3844.00    0.69063   0.64527   10.732
 3845.00    0.71043   0.67435   11.209
 3846.00    0.71289   0.69451   11.947
 3847.00    0.71062   0.70704    0.000
 3848.00    0.70630   0.71234    0.000
 3849.00    0.69426   0.71321    0.000
 3850.00    0.67695   0.71471    0.000
 3851.00    0.66320   0.71837    0.000
 3852.00    0.65483   0.72223    0.000
 3853.00    0.64823   0.72440    0.000
 3854.00    0.64355   0.72189    0.000
 3855.00    0.64278   0.71230    0.000
 3856.00    0.64321   0.69739    0.000
 3857.00    0.64184   0.67974    0.000
 3858.00    0.64372   0.66180    0.000
 3859.00    0.65439   0.64987    0.000
 3860.00    0.66818   0.65092    0.000
 3861.00    0.68058   0.66600    0.000
 3862.00    0.70404   0.69076    0.000
 3863.00    0.74654   0.71797    0.000
 3864.00    0.78747   0.73936    0.000
 3865.00    0.80178   0.75043    0.000
 3866.00    0.78632   0.75223    0.000
 3867.00    0.75609   0.74817    0.000
 3868.00    0.73578   0.73994    0.000
 3869.00    0.73594   0.72684    0.000
 3870.00    0.73857   0.70847    0.000
 3871.00    0.72772   0.68768    0.000
 3872.00    0.70916   0.67182    0.000
 3873.00    0.69146   0.66776    0.000
 3874.00    0.67472   0.67531    0.000
 3875.00    0.65951   0.68706    0.000
 3876.00    0.65068   0.69358    0.000
 3877.00    0.64960   0.68980    0.000
 3878.00    0.65154   0.67934    0.000
 3879.00    0.65181   0.66868    0.000
 3880.00    0.64823   0.66010    0.000
 3881.00    0.63964   0.65386   11.929
 3882.00    0.62594   0.65013   12.066
 3883.00    0.61058   0.64469   12.533
 3884.00    0.59914   0.63099   13.083
 3885.00    0.59251   0.60844   13.269
 3886.00    0.58704   0.58184   12.798
 3887.00    0.58063   0.55590   12.272
 3888.00    0.57453   0.53693   12.496
 3889.00    0.57305   0.53454   13.306
 3890.00    0.58133   0.55267   13.696
 3891.00    0.60041   0.58554   13.270
 3892.00    0.62693   0.62338   12.621
 3893.00    0.65448   0.65777   12.452
 3894.00    0.67707   0.68337   13.062
 3895.00    0.69441   0.70073   13.681
 3896.00    0.70924   0.71342   13.205
 3897.00    0.72211   0.72315   12.428
 3898.00    0.73095   0.73122   12.462
 3899.00    0.73174   0.73964   13.179
 3900.00    0.72149   0.74878   13.853
 3901.00    0.70171   0.75553   13.961
 3902.00    0.67925   0.75797   13.474
 3903.00    0.66592   0.75643   12.763
 3904.00    0.66866   0.75056   12.226
 3905.00    0.68161   0.74373   12.094
 3906.00    0.69979   0.74430   12.339
 3907.00    0.72942   0.75706   12.569
 3908.00    0.77231   0.77948   12.486
 3909.00    0.81579   0.80661   12.303
 3910.00    0.84991   0.83330   12.302
 3911.00    0.87750   0.85359   12.540
 3912.00    0.90045   0.86342   12.829
 3913.00    0.91263   0.86369   12.787
 3914.00    0.90874   0.85745   12.476
 3915.00    0.88965   0.84610   12.480
 3916.00    0.86322   0.83128   12.914
 3917.00    0.84119   0.81464   13.185
 3918.00    0.82507   0.79613   13.013
 3919.00    0.80533   0.77583   12.805
 3920.00    0.78100   0.75654   12.753
 3921.00    0.76186   0.74163   12.712
 3922.00    0.75093   0.73229   12.753
 3923.00    0.74139   0.72668   13.124
 3924.00    0.72554   0.71905   13.540
 3925.00    0.69801   0.70293   13.339
 3926.00    0.65683   0.67359   12.893
 3927.00    0.60293   0.62924   13.103
 3928.00    0.53846   0.57232   13.906
 3929.00    0.46649   0.50763   14.443
 3930.00    0.39152   0.44022   14.448
 3931.00    0.32048   0.37525   14.357
 3932.00    0.26435   0.31897   14.302
 3933.00    0.23337   0.27869   14.156
 3934.00    0.22903   0.26129   13.931
 3935.00    0.24547   0.27067   13.717
 3936.00    0.27396   0.30577   13.518
 3937.00    0.30938   0.36096   13.318
 3938.00    0.35700   0.42744   13.178
 3939.00    0.41929   0.49459   13.131
 3940.00    0.48156   0.55310   13.028
 3941.00    0.53052   0.59831   12.069
 3942.00    0.57339   0.63000    9.525
 3943.00    0.62043   0.65245    7.247
 3944.00    0.66827   0.67369    6.798
 3945.00    0.70894   0.69854    8.584
 3946.00    0.73862   0.72465   12.116
 3947.00    0.75701   0.74870   13.197
 3948.00    0.76634   0.77014   12.151
 3949.00    0.76995   0.78857   11.978
 3950.00    0.77132   0.80257   12.372
 3951.00    0.77361   0.81200   12.626
 3952.00    0.77903   0.81943   12.879
 3953.00    0.78649   0.82622   13.148
 3954.00    0.79137   0.82911   12.903
 3955.00    0.78950   0.82578   12.277
 3956.00    0.77905   0.81879   12.083
 3957.00    0.76026   0.81042   12.520
 3958.00    0.73481   0.79874   13.046
 3959.00    0.70397   0.77929   13.106
 3960.00    0.66702   0.74844    0.000
 3961.00    0.61888   0.70638    0.000
 3962.00    0.55405   0.65604    0.000
 3963.00    0.47967   0.60035    0.000
 3964.00    0.41138   0.54144    0.000
 3965.00    0.35401   0.48030    0.000
 3966.00    0.30501   0.41803    0.000
 3967.00    0.27266   0.35895    0.000
 3968.00    0.27000   0.31215    0.000
 3969.00    0.29521   0.28784    0.000
 3970.00    0.33617   0.29198    0.000
 3971.00    0.38529   0.32364    0.000
 3972.00    0.44000   0.37616    0.000
 3973.00    0.49903   0.44096    0.000
 3974.00    0.55979   0.51027    0.000
 3975.00    0.61590   0.57787    0.000
 3976.00    0.66264   0.64097    0.000
 3977.00    0.70355   0.69931    0.000
 3978.00    0.74316   0.75227    0.000
 3979.00    0.77857   0.79745    0.000
 3980.00    0.80529   0.83157    0.000
 3981.00    0.82350   0.85360   13.219
 3982.00    0.83599   0.86624   13.508
 3983.00    0.84571   0.87411   13.837
 3984.00    0.85549   0.88167   13.946
 3985.00    0.86783   0.89160   13.717
 3986.00    0.88323   0.90490   13.278
 3987.00    0.89944   0.92064   12.943
 3988.00    0.91373   0.93510   12.943
 3989.00    0.92489   0.94671   13.306
 3990.00    0.93568   0.95722   13.491
 3991.00    0.95209   0.96738   12.511
 3992.00    0.97314   0.97571   10.883
 3993.00    0.98863   0.97971    9.895
 3994.00    0.99128   0.97784    9.833
 3995.00    0.98142   0.96981   10.492
 3996.00    0.96396   0.95818   11.557
 3997.00    0.94672   0.94973   12.458
 3998.00    0.93942   0.95144   12.780
 3999.00    0.94997   0.96413   12.694
 4000.00    0.97480   0.98306   12.532
 4001.00    1.00049   1.00231   12.487
 4002.00    1.01598   1.01479   12.509
 4003.00    1.01603   1.01315   12.445
 4004.00    1.00138   0.99697   12.410
 4005.00    0.97766   0.97635   12.666
 4006.00    0.95314   0.96314   13.225
 4007.00    0.93424   0.96291   13.789
 4008.00    0.91851   0.97512   13.866
 4009.00    0.90162   0.99527   13.286
 4010.00    0.89075   1.01641   12.755
 4011.00    0.89708   1.03249   12.921
 4012.00    0.92143   1.04233   13.552
 4013.00    0.95792   1.04817   13.942
 4014.00    1.00156   1.05281   13.762
 4015.00    1.04707   1.05668   13.217
 4016.00    1.08662   1.05898   12.715
 4017.00    1.11386   1.06140   12.556
 4018.00    1.12815   1.06568   12.824
 4019.00    1.13211   1.07033   13.358
 4020.00    1.12877   1.07314   13.616
 4021.00    1.12098   1.07329   13.273
 4022.00    1.11106   1.07037   12.801
 4023.00    1.09979   1.06484   12.666
 4024.00    1.08641   1.06077   12.922
 4025.00    1.07295   1.06284   13.449
 4026.00    1.06573   1.07050   14.020
 4027.00    1.06696   1.07800   14.258
 4028.00    1.07057   1.07702   13.823
 4029.00    1.06801   1.06097   13.070
 4030.00    1.05276   1.03118   12.810
 4031.00    1.02636   0.99599   13.275
 4032.00    0.99816   0.96595   14.021
 4033.00    0.97314   0.95099   14.490
 4034.00    0.95038   0.95635   14.431
 4035.00    0.93646   0.98119   14.090
 4036.00    0.94377   1.01848   13.956
 4037.00    0.96881   1.05731   14.207
 4038.00    0.99327   1.08777   14.667
 4039.00    1.00775   1.10378   14.973
 4040.00    1.01399   1.10515   14.787
 4041.00    1.01209   1.09498   14.325
 4042.00    1.00000   1.07402   14.092
 4043.00    0.98013   1.04173   14.261
 4044.00    0.95974   1.00240   14.704
 4045.00    0.94846   0.96811   15.113
 4046.00    0.95415   0.95235   15.096
 4047.00    0.97663   0.95954   14.495
 4048.00    1.00769   0.98577   13.620
 4049.00    1.03330   1.02173   13.177
 4050.00    1.04051   1.05445   13.570
 4051.00    1.02651   1.07327   14.265
 4052.00    0.99758   1.07521   14.397
 4053.00    0.96558   1.06423   14.210
 4054.00    0.94183   1.04708   14.260
 4055.00    0.93080   1.02940   14.224
 4056.00    0.93291   1.01424   13.768
 4057.00    0.94761   1.00456   13.407
 4058.00    0.96985   1.00296   13.509
 4059.00    0.98772   1.00800   13.661
 4060.00    0.99288   1.01314   13.457
 4061.00    0.98806   1.01011   13.166
 4062.00    0.97904   0.99620   13.120
 4063.00    0.96919   0.97788   13.332
 4064.00    0.96347   0.96441   13.662
 4065.00    0.96937   0.96069   13.911
 4066.00    0.98594   0.96853   13.983
 4067.00    1.00076   0.98690   13.967
 4068.00    1.00663   1.00930   13.926
 4069.00    1.00773   1.02550   13.828
 4070.00    1.00800   1.02953   13.782
 4071.00    1.00678   1.02525   14.018
 4072.00    1.00331   1.01958   14.373
 4073.00    0.99821   1.01371   14.296
 4074.00    0.99245   1.00456   13.876
 4075.00    0.98676   0.98914   13.791
 4076.00    0.98128   0.96875   14.170
 4077.00    0.97582   0.95076   14.587
 4078.00    0.97067   0.94456   14.800
 4079.00    0.96743   0.95614   14.889
 4080.00    0.97014   0.98300   14.847
 4081.00    0.98100   1.01426   14.600
 4082.00    0.99110   1.03840   14.317
 4083.00    0.99029   1.05027   14.260
 4084.00    0.98962   1.05276   14.483
 4085.00    1.00773   1.05411   14.821
 4086.00    1.04060   1.06176   14.918
 4087.00    1.07088   1.07735   14.537
 4088.00    1.09017   1.09618   14.024
 4089.00    1.09834   1.11108   13.832
 4090.00    1.09783   1.11693   14.038
 4091.00    1.09088   1.11259   14.459
 4092.00    1.07726   1.10053    0.000
 4093.00    1.05599   1.08282    0.000
 4094.00    1.02751   1.05939    0.000
 4095.00    0.99428   1.03083    0.000
 4096.00    0.96078   0.99847    0.000
 4097.00    0.92992   0.96309    0.000
 4098.00    0.90054   0.92427    0.000
 4099.00    0.87234   0.88140    0.000
 4100.00    0.84927   0.83767    0.000
 4101.00    0.83513   0.80224    0.000
 4102.00    0.83109   0.78527    0.000
 4103.00    0.84072   0.79227    0.000
 4104.00    0.87043   0.82202    0.000
 4105.00    0.91498   0.86634    0.000
 4106.00    0.95459   0.91332    0.000
 4107.00    0.97984   0.95238    0.000
 4108.00    0.99864   0.97816    0.000
 4109.00    1.01333   0.99197    0.000
 4110.00    1.01665   0.99938    0.000
 4111.00    1.01454   1.00654    0.000
 4112.00    1.02553   1.01779    0.000
 4113.00    1.04897   1.03383   14.974
 4114.00    1.06557   1.05210   15.098
 4115.00    1.07134   1.06832   14.933
 4116.00    1.07807   1.07738   14.560
 4117.00    1.08691   1.07642   14.341
 4118.00    1.08952   1.06786   14.656
 4119.00    1.08721   1.05726   15.285
 4120.00    1.08786   1.04876   15.550
 4121.00    1.09003   1.04456   15.313
 4122.00    1.08706   1.04563   14.971
 4123.00    1.08078   1.05137   14.737
 4124.00    1.07663   1.05880   14.641
 4125.00    1.07176   1.06363   14.710
 4126.00    1.06011   1.06319   14.941
 4127.00    1.04267   1.05724   15.190
 4128.00    1.02359   1.04714   15.292
 4129.00    1.00358   1.03425   15.267
 4130.00    0.98271   1.01933   15.180
 4131.00    0.96453   1.00405   14.961
 4132.00    0.95186   0.99227   14.664
 4133.00    0.94257   0.98854   14.677
 4134.00    0.93554   0.99646   15.208
 4135.00    0.93572   1.01595   15.833
 4136.00    0.94580   1.04260   15.916
 4137.00    0.96024   1.07090   15.319
 4138.00    0.97515   1.09441   14.524
 4139.00    0.99391   1.10708   14.229
 4140.00    1.01291   1.10470   14.628
 4141.00    1.01634   1.08589   15.220
 4142.00    1.00257   1.05588   15.476
 4143.00    0.99359   1.02628   15.383
 4144.00    1.00162   1.00829   15.106
 4145.00    1.01642   1.00661   14.740
 4146.00    1.02978   1.01841   14.438
 4147.00    1.04409   1.03564   14.403
 4148.00    1.05878   1.04965   14.685
 4149.00    1.06761   1.05612   15.126
 4150.00    1.06986   1.05540   15.465
 4151.00    1.07188   1.05000   15.445
 4152.00    1.07864   1.04248   15.091
 4153.00    1.09077   1.03438   14.679
 4154.00    1.10443   1.02739   14.457
 4155.00    1.11388   1.02334   14.531
 4156.00    1.11773   1.02448   14.735
 4157.00    1.11817   1.03253   14.785
 4158.00    1.11555   1.04667   14.746
 4159.00    1.10827   1.06410   14.869
 4160.00    1.09515   1.08191   15.019
 4161.00    1.07729   1.09819   14.929
 4162.00    1.06027   1.11099   14.880
 4163.00    1.05041   1.11846   15.253
 4164.00    1.04842   1.11990   15.679
 4165.00    1.05036   1.11514   15.558
 4166.00    1.05079   1.10551   15.211
 4167.00    1.04568   1.09429   15.169
 4168.00    1.03543   1.08355   15.227
 4169.00    1.02243   1.07170   15.092
 4170.00    1.00823   1.05517   15.144
 4171.00    0.99533   1.03234   15.701
 4172.00    0.98895   1.00687   16.261
 4173.00    0.99229   0.98551   16.208
 4174.00    1.00278   0.97360   15.766
 4175.00    1.01756   0.97225   15.244
 4176.00    1.03729   0.97877   14.494
 4177.00    1.06056   0.98961   13.699
 4178.00    1.08044   1.00228   13.510
 4179.00    1.08931   1.01460   14.079
 4180.00    1.08286   1.02479   14.708
 4181.00    1.06471   1.03253   14.863
 4182.00    1.04661   1.03886   14.943
 4183.00    1.03725   1.04476   15.223
 4184.00    1.03739   1.04997   15.391
 4185.00    1.04383   1.05232   15.380
 4186.00    1.05219   1.05084   15.593
 4187.00    1.06023   1.04814   16.070
 4188.00    1.06837   1.04761   16.327
 4189.00    1.07693   1.05104   16.231
 4190.00    1.08565   1.05925   16.140
 4191.00    1.09536   1.07179   16.075
 4192.00    1.10661   1.08530   15.761
 4193.00    1.11492   1.09378   15.378
 4194.00    1.11216   1.09220   15.369
 4195.00    1.09312   1.07925   15.730
 4196.00    1.05876   1.05715   16.078
 4197.00    1.01931   1.03113   16.157
 4198.00    0.98821   1.00809   15.984
 4199.00    0.96973   0.99261   15.785
 4200.00    0.96243   0.98536   15.791
 4201.00    0.96899   0.98569   16.001
 4202.00    0.99226   0.99244   16.201
 4203.00    1.02703   1.00400   16.071
 4204.00    1.06381   1.01970   15.524
 4205.00    1.09570   1.03906   15.021
 4206.00    1.11818   1.06020   14.943
 4207.00    1.12788   1.08042   15.120
 4208.00    1.12452   1.09685   15.245
 4209.00    1.11278   1.10813   15.341
 4210.00    1.09834   1.11488   15.546
 4211.00    1.08418   1.11757   15.837
 4212.00    1.07252   1.11520   16.113
 4213.00    1.06649   1.10636   16.289
 4214.00    1.06701   1.09210   16.316
 4215.00    1.07129   1.07826   16.199
 4216.00    1.07869   1.07217   16.010
 4217.00    1.09353   1.07763   15.871
 4218.00    1.11701   1.09349   15.845
 4219.00    1.14317   1.11389   15.897
 4220.00    1.16443   1.12952   15.944
 4221.00    1.17461   1.13139   15.899
 4222.00    1.16839   1.11406   15.738
 4223.00    1.14233   1.07646   15.536
 4224.00    1.10029   1.02296   15.446
 4225.00    1.05381   0.96484   15.638
 4226.00    1.01483   0.91917   16.083
 4227.00    0.99181   0.90115   16.505
 4228.00    0.98640   0.91581   16.617
 4229.00    0.99478   0.95620   16.331
 4230.00    1.01453   1.00668   15.933
 4231.00    1.04381   1.04969   15.804
 4232.00    1.07378   1.07484   15.838
 4233.00    1.09245   1.08125   15.649
 4234.00    1.09785   1.07382   15.306
 4235.00    1.09698   1.06067   15.135
 4236.00    1.09708   1.04946   15.092
 4237.00    1.10270   1.04398   14.963
 4238.00    1.11390   1.04561   14.897
 4239.00    1.12696   1.05482   15.091
 4240.00    1.13614   1.07012   -2.000
 4241.00    1.13647   1.08876   -2.000
 4242.00    1.12735   1.10841   -2.000
 4243.00    1.11140   1.12612   -2.000
 4244.00    1.09221   1.13744   -2.000
 4245.00    1.07258   1.13868   -2.000
 4246.00    1.05285   1.12892   -2.000
 4247.00    1.03299   1.11031   -2.000
 4248.00    1.01480   1.08728   -2.000
 4249.00    1.00192   1.06600   -2.000
 4250.00    0.99909   1.05226   -2.000
 4251.00    1.00762   1.04769   -2.000
 4252.00    1.02259   1.04948   -2.000
 4253.00    1.03987   1.05424   -2.000
 4254.00    1.06022   1.06045   -2.000
 4255.00    1.08109   1.06763   15.332
 4256.00    1.09319   1.07399   15.004
 4257.00    1.09218   1.07609   14.708
 4258.00    1.08381   1.07121   14.654
 4259.00    1.07423   1.06078   14.861
 4260.00    1.06636   1.05173   15.266
 4261.00    1.06753   1.05258   15.696
 4262.00    1.08887   1.06768   15.886
 4263.00    1.12907   1.09476   15.722
 4264.00    1.17209   1.12605   15.344
 4265.00    1.20298   1.15118   15.013
 4266.00    1.21353   1.16194   14.965
 4267.00    1.20130   1.15521   15.225
 4268.00    1.16963   1.13169   15.634
 4269.00    1.12836   1.09459   16.049
 4270.00    1.08976   1.05060   16.411
 4271.00    1.05817   1.00893   16.754
 4272.00    1.03210   0.97772   17.121
 4273.00    1.01448   0.96254   17.333
 4274.00    1.01154   0.96653   17.126
 4275.00    1.02604   0.98825   16.587
 4276.00    1.05503   1.02140   16.068
 4277.00    1.08867   1.05679   15.912
 4278.00    1.11500   1.08514   16.244
 4279.00    1.12758   1.10096   16.669
 4280.00    1.12512   1.10442   16.724
 4281.00    1.10929   1.09973   16.758
 4282.00    1.08582   1.09212   17.168
 4283.00    1.06549   1.08420   17.309
 4284.00    1.05571   1.07570   16.606
 4285.00    1.05200   1.06510   15.913
 4286.00    1.04625   1.05042   15.940
 4287.00    1.03566   1.03034   16.295
 4288.00    1.02173   1.00660   16.443
 4289.00    1.00846   0.98490   16.561
 4290.00    1.00150   0.97220   16.819
 4291.00    1.00674   0.97246   16.800
 4292.00    1.02411   0.98408   16.314
 4293.00    1.04421   1.00073   15.858
 4294.00    1.05416   1.01404   15.720
 4295.00    1.04298   1.01653   15.684
 4296.00    1.01049   1.00425   15.658
 4297.00    0.96870   0.97719   15.894
 4298.00    0.92509   0.93968   16.458
 4299.00    0.87798   0.89954   17.014
 4300.00    0.83284   0.86469   17.306
 4301.00    0.80452   0.84094   17.406
 4302.00    0.79770   0.83045   17.371
 4303.00    0.80344   0.83039   17.143
 4304.00    0.81373   0.83458   16.777
 4305.00    0.82518   0.83669   16.461
 4306.00    0.83451   0.83302   16.379
 4307.00    0.83837   0.82497   16.632
 4308.00    0.83687   0.81816   17.093
 4309.00    0.83358   0.81931   17.431
 4310.00    0.83326   0.83293   17.417
 4311.00    0.84076   0.85970   17.063
 4312.00    0.85989   0.89726   16.596
 4313.00    0.89335   0.94324   16.286
 4314.00    0.94312   0.99663   16.273
 4315.00    1.00852   1.05523   16.535
 4316.00    1.08313   1.11394   16.817
 4317.00    1.15625   1.16561   16.819
 4318.00    1.21609   1.20251   16.574
 4319.00    1.25247   1.21931   16.311
 4320.00    1.25996   1.21505   16.184
 4321.00    1.24041   1.19150   16.198
 4322.00    1.20476   1.15200   16.200
 4323.00    1.16571   1.10239   16.127
 4324.00    1.12989   1.05265   16.235
 4325.00    1.09876   1.01601   16.638
 4326.00    1.07116   1.00332   16.880
 4327.00    1.05090   1.01737   16.709
 4328.00    1.05058   1.05129   16.714
 4329.00    1.07207   1.09258   17.172
 4330.00    1.09554   1.12948    0.000
 4331.00    1.10608   1.15532    0.000
 4332.00    1.10886   1.16934    0.000
 4333.00    1.10909   1.17333    0.000
 4334.00    1.10146   1.16645    0.000
 4335.00    1.08208   1.14461    0.000
 4336.00    1.05395   1.10476    0.000
 4337.00    1.02144   1.04813    0.000
 4338.00    0.98817   0.98182    0.000
 4339.00    0.95933   0.91964    0.000
 4340.00    0.94156   0.87711    0.000
 4341.00    0.93872   0.86353    0.000
 4342.00    0.95070   0.87965    0.000
 4343.00    0.97461   0.91919    0.000
 4344.00    1.00561   0.97099    0.000
 4345.00    1.03798   1.02381    0.000
 4346.00    1.06597   1.07065    0.000
 4347.00    1.08493   1.10773    0.000
 4348.00    1.09153   1.13142    0.000
 4349.00    1.08352   1.13844    0.000
 4350.00    1.06230   1.12972    0.000
 4351.00    1.03809   1.11187   17.902
 4352.00    1.02420   1.09432   17.770
 4353.00    1.02518   1.08620   17.589
 4354.00    1.03860   1.09270   17.412
 4355.00    1.06144   1.11176   17.425
 4356.00    1.09037   1.13536   17.731
 4357.00    1.12086   1.15576   18.048
 4358.00    1.14986   1.17028   18.032
 4359.00    1.17896   1.18085   17.826
 4360.00    1.20988   1.19110   17.682
 4361.00    1.23924   1.20408   17.495
 4362.00    1.26403   1.22055   17.160
 4363.00    1.28674   1.23787   16.903
 4364.00    1.30669   1.25083   16.940
 4365.00    1.31327   1.25494   17.218
 4366.00    1.29951   1.24906   17.537
 4367.00    1.27211   1.23540   17.675
 4368.00    1.24023   1.21816   17.624
 4369.00    1.20771   1.20208   17.671
 4370.00    1.17856   1.18969   17.875
 4371.00    1.15926   1.17925   17.847
 4372.00    1.15051   1.16712   17.551
 4373.00    1.14487   1.15217   17.544
 4374.00    1.13961   1.13788   17.936
 4375.00    1.14033   1.13023   18.104
 4376.00    1.14775   1.13359   17.825
 4377.00    1.15404   1.14722   17.628
 4378.00    1.15247   1.16453   17.761
 4379.00    1.14064   1.17531   17.981
 4380.00    1.11760   1.16935   18.047
 4381.00    1.08400   1.14163   17.906
 4382.00    1.04581   1.09693   17.672
 4383.00    1.01280   1.04842   17.532
 4384.00    0.99090   1.01157   17.571
 4385.00    0.98188   0.99739   17.748
 4386.00    0.98770   1.00776   17.905
 4387.00    1.00827   1.03522   17.815
 4388.00    1.03443   1.06755   17.354
 4389.00    1.05366   1.09533   16.712
 4390.00    1.06363   1.11552   16.559
 4391.00    1.07078   1.12929   17.281
 4392.00    1.08292   1.13890   17.632
 4393.00    1.10527   1.14672   16.265
 4394.00    1.13643   1.15515   14.883
 4395.00    1.17052   1.16564   14.898
 4396.00    1.20082   1.17764   15.412
 4397.00    1.22076   1.18855   15.058
 4398.00    1.22465   1.19442   14.527
 4399.00    1.21108   1.19303   14.824
 4400.00    1.18603   1.18521   15.573
 4401.00    1.15806   1.17263   15.952
 4402.00    1.13321   1.15670   15.968
 4403.00    1.11345   1.13941   15.955
 4404.00    1.09648   1.12299   15.870
 4405.00    1.08166   1.10980   15.722
 4406.00    1.07395   1.10342   15.855
 4407.00    1.07906   1.10768   16.336
 4408.00    1.09945   1.12370   16.605
 4409.00    1.13176   1.14912   16.370
 4410.00    1.16642   1.17934   16.151
 4411.00    1.19338   1.20755   16.306
 4412.00    1.20607   1.22566   16.653
 4413.00    1.20499   1.22860   16.875
 4414.00    1.19742   1.21787   16.777
 4415.00    1.18941   1.20075   16.498
 4416.00    1.18418   1.18754   16.391
 4417.00    1.18937   1.18634   16.410
 4418.00    1.21431   1.19805   16.178
 4419.00    1.25181   1.21645   15.829
 4420.00    1.28074   1.23279   15.888
 4421.00    1.29237   1.24117   16.308
 4422.00    1.29348   1.24086   16.534
 4423.00    1.29314   1.23522   16.524
 4424.00    1.29742   1.22900   16.706
 4425.00    1.30572   1.22542   17.025
 4426.00    1.31267   1.22501   17.038
 4427.00    1.31361   1.22603   16.719
 4428.00    1.30585   1.22639   16.407
 4429.00    1.28855   1.22536   16.335
 4430.00    1.26357   1.22258   16.574
 4431.00    1.23661   1.21720   17.039
 4432.00    1.21434   1.20861   17.560
 4433.00    1.20006   1.19753   18.020
 4434.00    1.19470   1.18727   18.347
 4435.00    1.19899   1.18310   18.458
 4436.00    1.21459   1.18957   18.310
 4437.00    1.24435   1.20714   17.959
 4438.00    1.28288   1.23002   17.482
 4439.00    1.30908   1.24854   16.899
 4440.00    1.30934   1.25464   16.307
 4441.00    1.29699   1.24699   15.940
 4442.00    1.28641   1.23197   15.983
 4443.00    1.27295   1.21967   16.481
 4444.00    1.25466   1.21775   17.278
 4445.00    1.24613   1.22791   17.913
 4446.00    1.25483   1.24599   18.096
 4447.00    1.26840   1.26464   18.124
 4448.00    1.27588   1.27767   18.297
 4449.00    1.27860   1.28278   18.549
 4450.00    1.27866   1.28022   18.620
 4451.00    1.27364   1.27064   18.263
 4452.00    1.26109   1.25433   17.704
 4453.00    1.24134   1.23208   17.504
 4454.00    1.21924   1.20638   17.757
 4455.00    1.20235   1.18108   18.038
 4456.00    1.19239   1.16038   18.134
 4457.00    1.18487   1.14682   18.231
 4458.00    1.17821   1.13998   18.440
 4459.00    1.17479   1.13758   18.673
 4460.00    1.17560   1.13840   18.789
 4461.00    1.17967   1.14318    0.000
 4462.00    1.18704   1.15306    0.000
 4463.00    1.19881   1.16808    0.000
 4464.00    1.21559   1.18606    0.000
 4465.00    1.23556   1.20285    0.000
 4466.00    1.25159   1.21454    0.000
 4467.00    1.25719   1.21989    0.000
 4468.00    1.25761   1.22107    0.000
 4469.00    1.26316   1.22241    0.000
 4470.00    1.27562   1.22846    0.000
 4471.00    1.29007   1.24192    0.000
 4472.00    1.30064   1.26227    0.000
 4473.00    1.30577   1.28626    0.000
 4474.00    1.31285   1.30982    0.000
 4475.00    1.32814   1.32924    0.000
 4476.00    1.34561   1.34148    0.000
 4477.00    1.35608   1.34407    0.000
 4478.00    1.35712   1.33537    0.000
 4479.00    1.34934   1.31606    0.000
 4480.00    1.33295   1.29080    0.000
 4481.00    1.31394   1.26788    0.000
 4482.00    1.30725   1.25593   17.900
 4483.00    1.32365   1.25955   14.649
 4484.00    1.35985   1.27649   12.625
 4485.00    1.39763   1.29832   12.362
 4486.00    1.40916   1.31492   12.800
 4487.00    1.38738   1.31973   13.048
 4488.00    1.35596   1.31260   13.010
 4489.00    1.33349   1.29893   12.871
 4490.00    1.31809   1.28576   12.752
 4491.00    1.30096   1.27746   12.758
 4492.00    1.27617   1.27410   12.970
 4493.00    1.25303   1.27278   13.227
 4494.00    1.25104   1.27119   13.184
 4495.00    1.26667   1.27007   12.976
 4496.00    1.27491   1.27243   13.104
 4497.00    1.26963   1.28057   13.533
 4498.00    1.26801   1.29382   13.681
 4499.00    1.28730   1.30938   13.395
 4500.00    1.33254   1.32491   13.067
 4501.00    1.38413   1.34003   12.963
 4502.00    1.41286   1.35600   13.095
 4503.00    1.41798   1.37356   13.166
 4504.00    1.41947   1.39094   12.885
 4505.00    1.42768   1.40455   12.585
 4506.00    1.44026   1.41164   12.721
 4507.00    1.44771   1.41225   13.065
 4508.00    1.44273   1.40875   13.095
 4509.00    1.43187   1.40375   12.919
 4510.00    1.42332   1.39825   12.888
 4511.00    1.40910   1.39138   12.878
 4512.00    1.38302   1.38184   12.668
 4513.00    1.36277   1.36970   12.445
 4514.00    1.36508   1.35652   12.395
 4515.00    1.37810   1.34469   12.316
 4516.00    1.38153   1.33634   12.110
 4517.00    1.36878   1.33239   12.172
 4518.00    1.34769   1.33247   12.710
 4519.00    1.33670   1.33503   13.192
 4520.00    1.34195   1.33764   13.145
 4521.00    1.34445   1.33751   13.009
 4522.00    1.33087   1.33188   13.161
 4523.00    1.31091   1.31936   13.349
 4524.00    1.29093   1.30039   13.343
 4525.00    1.26186   1.27659   13.316
 4526.00    1.22415   1.25047   13.402
 4527.00    1.19629   1.22529   13.494
 4528.00    1.18937   1.20474   13.565
 4529.00    1.19777   1.19192   13.750
 4530.00    1.21338   1.18752   13.996
 4531.00    1.22999   1.18943   14.015
 4532.00    1.23659   1.19419   13.772
 4533.00    1.22232   1.19959   13.559
 4534.00    1.20082   1.20654   13.543
 4535.00    1.20303   1.21819   13.685
 4536.00    1.23285   1.23718   13.798
 4537.00    1.26726   1.26237   13.670
 4538.00    1.29125   1.28853   13.375
 4539.00    1.30466   1.30941   13.152
 4540.00    1.31537   1.32139   13.031
 4541.00    1.33124   1.32498   12.910
 4542.00    1.34717   1.32326   12.840
 4543.00    1.35126   1.31921   12.915
 4544.00    1.34052   1.31395   13.015
 4545.00    1.32120   1.30725   12.971
 4546.00    1.30399   1.29878   12.931
 4547.00    1.29786   1.28904   13.100
 4548.00    1.30250   1.27915   13.299
 4549.00    1.31037   1.27049   13.257
 4550.00    1.31138   1.26437    0.000
 4551.00    1.30160   1.26110    0.000
 4552.00    1.29136   1.25984    0.000
 4553.00    1.29070   1.25982    0.000
 4554.00    1.29504   1.26186    0.000
 4555.00    1.29996   1.26830    0.000
 4556.00    1.31395   1.28139    0.000
 4557.00    1.34086   1.30104    0.000
 4558.00    1.36711   1.32405    0.000
 4559.00    1.38121   1.34529    0.000
 4560.00    1.38682   1.35994    0.000
 4561.00    1.38941   1.36523    0.000
 4562.00    1.38828   1.36119    0.000
 4563.00    1.38364   1.35073    0.000
 4564.00    1.37958   1.33899    0.000
 4565.00    1.37609   1.33159    0.000
 4566.00    1.36752   1.33204    0.000
 4567.00    1.35454   1.33970    0.000
 4568.00    1.34700   1.34998    0.000
 4569.00    1.35305   1.35751    0.000
 4570.00    1.37411   1.35947    0.000
 4571.00    1.40345   1.35712    0.000
 4572.00    1.42869   1.35454    0.000
 4573.00    1.44088   1.35540    0.000
 4574.00    1.43761   1.36007    0.000
 4575.00    1.42339   1.36557    0.000
 4576.00    1.40635   1.36764    0.000
 4577.00    1.39039   1.36315    0.000
 4578.00    1.37540   1.35143    0.000
 4579.00    1.36225   1.33435    0.000
 4580.00    1.35257   1.31558    0.000
 4581.00    1.34604   1.29919    0.000
 4582.00    1.34109   1.28807    0.000
 4583.00    1.33712   1.28326    0.000
 4584.00    1.33554   1.28435    0.000
 4585.00    1.34056   1.29050    0.000
 4586.00    1.35580   1.30084    0.000
 4587.00    1.37936   1.31402    0.000
 4588.00    1.40326   1.32751    0.000
 4589.00    1.41426   1.33788    0.000
 4590.00    1.40264   1.34218    0.000
 4591.00    1.37134   1.33955    0.000
 4592.00    1.33171   1.33180    0.000
 4593.00    1.29750   1.32242    0.000
 4594.00    1.27821   1.31472    0.000
 4595.00    1.27445   1.31050    0.000
 4596.00    1.28452   1.30980    0.000
 4597.00    1.30862   1.31145    0.000
 4598.00    1.33975   1.31393    0.000
 4599.00    1.35992   1.31599    0.000
 4600.00    1.35802   1.31718    0.000
 4601.00    1.33993   1.31797    0.000
 4602.00    1.32120   1.31938    0.000
 4603.00    1.31936   1.32242    0.000
 4604.00    1.33861   1.32790    0.000
 4605.00    1.36629   1.33653    0.000
 4606.00    1.38972   1.34883    0.000
 4607.00    1.40399   1.36440    0.000
 4608.00    1.41187   1.38122    0.000
 4609.00    1.41950   1.39586    0.000
 4610.00    1.42232   1.40503    0.000
 4611.00    1.40856   1.40744    0.000
 4612.00    1.38402   1.40449    0.000
 4613.00    1.37108   1.39935    0.000
 4614.00    1.38526   1.39499    0.000
 4615.00    1.42607   1.39268    0.000
 4616.00    1.47158   1.39204    0.000
 4617.00    1.49333   1.39202    0.000
 4618.00    1.48970   1.39206    0.000
 4619.00    1.47844   1.39257    0.000
 4620.00    1.46912   1.39441    0.000
 4621.00    1.46139   1.39782    0.000
 4622.00    1.45105   1.40196    0.000
 4623.00    1.43582   1.40530    0.000
 4624.00    1.42183   1.40649    0.000
 4625.00    1.41768   1.40514    0.000
 4626.00    1.42507   1.40189    0.000
 4627.00    1.43760   1.39791    0.000
 4628.00    1.44174   1.39428    0.000
 4629.00    1.42914   1.39166    0.000
 4630.00    1.40812   1.39004    0.000
 4631.00    1.39005   1.38854    0.000
 4632.00    1.37596   1.38579    0.000
 4633.00    1.36287   1.38066    0.000
 4634.00    1.34996   1.37303    0.000
 4635.00    1.33845   1.36370    0.000
 4636.00    1.33089   1.35395    0.000
 4637.00    1.32945   1.34509    0.000
 4638.00    1.33458   1.33849    0.000
 4639.00    1.34280   1.33542    0.000
 4640.00    1.34759   1.33637    0.000
 4641.00    1.35025   1.34014    0.000
 4642.00    1.36131   1.34369    0.000
 4643.00    1.38035   1.34325    0.000
 4644.00    1.39033   1.33625    0.000
 4645.00    1.37428   1.32305    0.000
 4646.00    1.32615   1.30728    0.000
 4647.00    1.26320   1.29441    0.000
 4648.00    1.21974   1.28926    0.000
 4649.00    1.21229   1.29365    0.000
 4650.00    1.23363   1.30555    0.000
 4651.00    1.26912   1.32019    0.000
 4652.00    1.30442   1.33232    0.000
 4653.00    1.33179   1.33879    0.000
 4654.00    1.34971   1.33989    0.000
 4655.00    1.35827   1.33923    0.000
 4656.00    1.35950   1.34180    0.000
 4657.00    1.36003   1.35115    0.000
 4658.00    1.36688   1.36705    0.000
 4659.00    1.37911   1.38517    0.000
 4660.00    1.39024   1.39911    0.000
 4661.00    1.39480   1.40349    0.000
 4662.00    1.38962   1.39610    0.000
 4663.00    1.37420   1.37809    0.000
 4664.00    1.34994   1.35240    0.000
 4665.00    1.31930   1.32259    0.000
 4666.00    1.28811   1.29271    0.000
 4667.00    1.26756   1.26783    0.000
 4668.00    1.26515   1.25329    0.000
 4669.00    1.27641   1.25247    0.000
 4670.00    1.29645   1.26480    0.000
 4671.00    1.32923   1.28564    0.000
 4672.00    1.37257   1.30882    0.000
 4673.00    1.40797   1.32949    0.000
 4674.00    1.42026   1.34552    0.000
 4675.00    1.41137   1.35669    0.000
 4676.00    1.39321   1.36294    0.000
 4677.00    1.38047   1.36373    0.000
 4678.00    1.37888   1.35879    0.000
 4679.00    1.38112   1.34951    0.000
 4680.00    1.37979   1.33912    0.000
 4681.00    1.37396   1.33159    0.000
 4682.00    1.36833   1.32969    0.000
 4683.00    1.36986   1.33369    0.000
 4684.00    1.37650   1.34143    0.000
 4685.00    1.37751   1.34964    0.000
 4686.00    1.36990   1.35559    0.000
 4687.00    1.35998   1.35809    0.000
 4688.00    1.34971   1.35757    0.000
 4689.00    1.33645   1.35549    0.000
 4690.00    1.32430   1.35358    0.000
 4691.00    1.32123   1.35348    0.000
 4692.00    1.32454   1.35632    0.000
 4693.00    1.32544   1.36217    0.000
 4694.00    1.32675   1.36960    0.000
 4695.00    1.33756   1.37575    0.000
 4696.00    1.35574   1.37737    0.000
 4697.00    1.37200   1.37236    0.000
 4698.00    1.38247   1.36093    0.000
 4699.00    1.38644   1.34554    0.000
 4700.00    1.37952   1.32967    0.000
 4701.00    1.35938   1.31629    0.000
 4702.00    1.33443   1.30713    0.000
 4703.00    1.31839   1.30259    0.000
 4704.00    1.32148   1.30191    0.000
 4705.00    1.34178   1.30338    0.000
 4706.00    1.35884   1.30505    0.000
 4707.00    1.35290   1.30590    0.000
 4708.00    1.32400   1.30676    0.000
 4709.00    1.28843   1.30962    0.000
 4710.00    1.27135   1.31599    0.000
 4711.00    1.28481   1.32526    0.000
 4712.00    1.31381   1.33513    0.000
 4713.00    1.33678   1.34344    0.000
 4714.00    1.34189   1.35001    0.000
 4715.00    1.33611   1.35682    0.000
 4716.00    1.34389   1.36633    0.000
 4717.00    1.37312   1.37938    0.000
 4718.00    1.40268   1.39456    0.000
 4719.00    1.41295   1.40906    0.000
 4720.00    1.40082   1.42034    0.000
 4721.00    1.37757   1.42727    0.000
 4722.00    1.36166   1.43009    0.000
 4723.00    1.35658   1.42945    0.000
 4724.00    1.34995   1.42519    0.000
 4725.00    1.33873   1.41616    0.000
 4726.00    1.33234   1.40123    0.000
 4727.00    1.33607   1.38100    0.000
 4728.00    1.34698   1.35874    0.000
 4729.00    1.35694   1.33934    0.000
 4730.00    1.35959   1.32715    0.000
 4731.00    1.36370   1.32401    0.000
 4732.00    1.38256   1.32879    0.000
 4733.00    1.40615   1.33830    0.000
 4734.00    1.41256   1.34890    0.000
 4735.00    1.39997   1.35801    0.000
 4736.00    1.38457   1.36479    0.000
 4737.00    1.38636   1.36985    0.000
 4738.00    1.41307   1.37432    0.000
 4739.00    1.44182   1.37880    0.000
 4740.00    1.44709   1.38325    0.000
 4741.00    1.43877   1.38751    0.000
 4742.00    1.43880   1.39172    0.000
 4743.00    1.44872   1.39623    0.000
 4744.00    1.45693   1.40128    0.000
 4745.00    1.45130   1.40676    0.000
 4746.00    1.43117   1.41225    0.000
 4747.00    1.41478   1.41718    0.000
 4748.00    1.41607   1.42081    0.000
 4749.00    1.42692   1.42229    0.000
 4750.00    1.43494   1.42084    0.000
 4751.00    1.43641   1.41607    0.000
 4752.00    1.42814   1.40822    0.000
 4753.00    1.40397   1.39843    0.000
 4754.00    1.36920   1.38848    0.000
 4755.00    1.34470   1.38029    0.000
 4756.00    1.34341   1.37522    0.000
 4757.00    1.35950   1.37341    0.000
 4758.00    1.37675   1.37356    0.000
 4759.00    1.37719   1.37320    0.000
 4760.00    1.35872   1.36958    0.000
 4761.00    1.33564   1.36092   15.047
 4762.00    1.31459   1.34745   15.002
 4763.00    1.29211   1.33160   15.171
 4764.00    1.27528   1.31709   15.504
 4765.00    1.27951   1.30759   15.716
 4766.00    1.30331   1.30550   15.670
 4767.00    1.33000   1.31121   15.458
 4768.00    1.35080   1.32299   15.219
 4769.00    1.36667   1.33766   15.057
 4770.00    1.37910   1.35194   15.029
 4771.00    1.38930   1.36391   15.129
 4772.00    1.40089   1.37372   15.259
 4773.00    1.41613   1.38273   15.299
 4774.00    1.42885   1.39210   15.250
 4775.00    1.43135   1.40164   15.207
 4776.00    1.42692   1.40991   15.265
 4777.00    1.42462   1.41519   15.435
 4778.00    1.42891   1.41645   15.543
 4779.00    1.43884   1.41356   15.436
 4780.00    1.44903   1.40718   15.259
 4781.00    1.45374   1.39836   15.208
 4782.00    1.45099   1.38830   15.259
 4783.00    1.43930   1.37811   15.338
 4784.00    1.41482   1.36869   15.485
 4785.00    1.38053   1.36065   15.719
 4786.00    1.35271   1.35436   15.902
 4787.00    1.34487   1.35025   15.928
 4788.00    1.35571   1.34888   15.881
 4789.00    1.37837   1.35106   15.836
 4790.00    1.40707   1.35752   15.738
 4791.00    1.43347   1.36857   15.568
 4792.00    1.44611   1.38357   15.430
 4793.00    1.44127   1.40062   15.420
 4794.00    1.42768   1.41661   15.570
 4795.00    1.41868   1.42798   15.824
 4796.00    1.42499   1.43209   16.051
 4797.00    1.44124   1.42859   16.151
 4798.00    1.44759   1.41979   16.119
 4799.00    1.43864   1.40987   16.033
 4800.00    1.42765   1.40281   15.991
 4801.00    1.42122   1.40050   15.980
 4802.00    1.41425   1.40188   15.916
 4803.00    1.40290   1.40385   15.899
 4804.00    1.38854   1.40336   16.119
 4805.00    1.37703   1.39917   16.422
 4806.00    1.37488   1.39240   16.418
 4807.00    1.38058   1.38552   16.190
 4808.00    1.38641   1.38096   16.125
 4809.00    1.38694   1.37997   16.208
 4810.00    1.38076   1.38243   16.179
 4811.00    1.37025   1.38738   16.090
 4812.00    1.36111   1.39369   16.162
 4813.00    1.36136   1.40066   16.389
 4814.00    1.37600   1.40811   16.599
 4815.00    1.39960   1.41605   16.664
 4816.00    1.42299   1.42425   16.548
 4817.00    1.44341   1.43193   16.314
 4818.00    1.46025   1.43769   16.070
 4819.00    1.46856   1.43981   15.902
 4820.00    1.46301   1.43681   15.856
 4821.00    1.44305   1.42822   15.925
 4822.00    1.41465   1.41532   16.040
 4823.00    1.39035   1.40110   16.070
 4824.00    1.37904   1.38926   15.977
 4825.00    1.37791   1.38244   15.924
 4826.00    1.37796   1.38082   16.024
 4827.00    1.36975   1.38226   16.176
 4828.00    1.35132   1.38383   16.235
 4829.00    1.33170   1.38353   16.152
 4830.00    1.32136   1.38116   16.057
 4831.00    1.32547   1.37805   16.206
 4832.00    1.34030   1.37599   16.566
 4833.00    1.35412   1.37620   16.678
 4834.00    1.36035   1.37860   16.349
 4835.00    1.36229   1.38176   15.914
 4836.00    1.36633   1.38357   15.662
 4837.00    1.37674   1.38232   15.640
 4838.00    1.38774   1.37753   15.702
 4839.00    1.38678   1.37024   15.618
 4840.00    1.37468   1.36254   15.459
 4841.00    1.36594   1.35666   15.498
 4842.00    1.36953   1.35413   15.589
 4843.00    1.38385   1.35521   15.312
 4844.00    1.39887   1.35889   14.841
 4845.00    1.40223   1.36321   14.679
 4846.00    1.39140   1.36600   14.797
 4847.00    1.37318   1.36582   14.836
 4848.00    1.35655   1.36265    0.000
 4849.00    1.34899   1.35757    0.000
 4850.00    1.35263   1.35170    0.000
 4851.00    1.36419   1.34485    0.000
 4852.00    1.37639   1.33549    0.000
 4853.00    1.38158   1.32171    0.000
 4854.00    1.37660   1.30257    0.000
 4855.00    1.36275   1.27847    0.000
 4856.00    1.34441   1.25019    0.000
 4857.00    1.32393   1.21777    0.000
 4858.00    1.29688   1.18052    0.000
 4859.00    1.26203   1.13914    0.000
 4860.00    1.23047   1.09800    0.000
 4861.00    1.20968   1.06535    0.000
 4862.00    1.19029   1.05013    0.000
 4863.00    1.16633   1.05734    0.000
 4864.00    1.15024   1.08516    0.000
 4865.00    1.15344   1.12578    0.000
 4866.00    1.17236   1.16898    0.000
 4867.00    1.19605   1.20604    0.000
 4868.00    1.21304   1.23177    0.000
 4869.00    1.21906   1.24495    0.000
 4870.00    1.21988   1.24798    0.000
 4871.00    1.22339   1.24576    0.000
 4872.00    1.23441   1.24405    0.000
 4873.00    1.25028   1.24746    0.000
 4874.00    1.26228   1.25772    0.000
 4875.00    1.26875   1.27371   15.733
 4876.00    1.27741   1.29273   15.836
 4877.00    1.29416   1.31201   15.985
 4878.00    1.31937   1.32938   15.899
 4879.00    1.34945   1.34316   15.713
 4880.00    1.37812   1.35196   15.844
 4881.00    1.39847   1.35492   16.122
 4882.00    1.40432   1.35219   15.969
 4883.00    1.39201   1.34486   15.558
 4884.00    1.36287   1.33464   15.537
 4885.00    1.32737   1.32326   15.962
 4886.00    1.29998   1.31217   16.420
 4887.00    1.28745   1.30232   16.615
 4888.00    1.28794   1.29432   16.527
 4889.00    1.29395   1.28901   16.347
 4890.00    1.29749   1.28821   16.277
 4891.00    1.29706   1.29472   16.301
 4892.00    1.29622   1.31099   16.328
 4893.00    1.29990   1.33720   16.413
 4894.00    1.31472   1.36989   16.616
 4895.00    1.34899   1.40288   16.806
 4896.00    1.40077   1.42962   16.792
 4897.00    1.44696   1.44573   16.549
 4898.00    1.46722   1.45029   16.253
 4899.00    1.46708   1.44546   16.219
 4900.00    1.46141   1.43523   16.557
 4901.00    1.45800   1.42387   16.914
 4902.00    1.45673   1.41478   16.918
 4903.00    1.45107   1.40985   16.646
 4904.00    1.43646   1.40926   16.441
 4905.00    1.41552   1.41142   16.654
 4906.00    1.39416   1.41338   17.199
 4907.00    1.37848   1.41190   17.359
 4908.00    1.37190   1.40517   16.949
 4909.00    1.37387   1.39417   16.750
 4910.00    1.38140   1.38249   17.052
 4911.00    1.39010   1.37470   17.312
 4912.00    1.39535   1.37376   17.312
 4913.00    1.39343   1.37930   17.472
 4914.00    1.38386   1.38739   17.708
 4915.00    1.36970   1.39206   17.355
 4916.00    1.35531   1.38762   16.676
 4917.00    1.34434   1.37125   16.596
 4918.00    1.33643   1.34458   17.113
 4919.00    1.32829   1.31367   17.411
 4920.00    1.31937   1.28669   17.334
 4921.00    1.31264   1.27070   17.422
 4922.00    1.31250   1.26884   17.653
 4923.00    1.32281   1.27997   17.558
 4924.00    1.34377   1.30028   17.175
 4925.00    1.37241   1.32569   16.883
 4926.00    1.40473   1.35303   16.729
 4927.00    1.43482   1.37983   16.602
 4928.00    1.45312   1.40360   16.604
 4929.00    1.45182   1.42155   16.885
 4930.00    1.43325   1.43115   17.302
 4931.00    1.40694   1.43110   17.564
 4932.00    1.38368   1.42209   17.558
 4933.00    1.37072   1.40679   17.352
 4934.00    1.36708   1.38887   17.079
 4935.00    1.36671   1.37157   16.873
 4936.00    1.36284   1.35679   16.830
 4937.00    1.35260   1.34549   16.956
 4938.00    1.34065   1.33888   17.127
 4939.00    1.33571   1.33894   17.137
 4940.00    1.34634   1.34733    0.000
 4941.00    1.37349   1.36375    0.000
 4942.00    1.40630   1.38516    0.000
 4943.00    1.43015   1.40693    0.000
 4944.00    1.43426   1.42505    0.000
 4945.00    1.42281   1.43781    0.000
 4946.00    1.41650   1.44601    0.000
 4947.00    1.42685   1.45172    0.000
 4948.00    1.44595   1.45666    0.000
 4949.00    1.46319   1.46120    0.000
 4950.00    1.47335   1.46422    0.000
 4951.00    1.47568   1.46383    0.000
 4952.00    1.47173   1.45809    0.000
 4953.00    1.45950   1.44565    0.000
 4954.00    1.43510   1.42624    0.000
 4955.00    1.40509   1.40122    0.000
 4956.00    1.38430   1.37426    0.000
 4957.00    1.37784   1.35097    0.000
 4958.00    1.38057   1.33735    0.000
 4959.00    1.38928   1.33686    0.000
 4960.00    1.40369   1.34841    0.000
 4961.00    1.42144   1.36645    0.000
 4962.00    1.43750   1.38365    0.000
 4963.00    1.44554   1.39421    0.000
 4964.00    1.44114   1.39591    0.000
 4965.00    1.42686   1.39014    0.000
 4966.00    1.40944   1.38053    0.000
 4967.00    1.39397   1.37125    0.000
 4968.00    1.38420   1.36560    0.000
 4969.00    1.38414   1.36532    0.000
 4970.00    1.39400   1.37052    0.000
 4971.00    1.40538   1.38002    0.000
 4972.00    1.40888   1.39181    0.000
 4973.00    1.40323   1.40339    0.000
 4974.00    1.39327   1.41217    0.000
 4975.00    1.38623   1.41589    0.000
 4976.00    1.38519   1.41306    0.000
 4977.00    1.38433   1.40321    0.000
 4978.00    1.37685   1.38680    0.000
 4979.00    1.36138   1.36509    0.000
 4980.00    1.34014   1.33992    0.000
 4981.00    1.31703   1.31388    0.000
 4982.00    1.29600   1.29047    0.000
 4983.00    1.28006   1.27382    0.000
 4984.00    1.27065   1.26750    0.000
 4985.00    1.26782   1.27288    0.000
 4986.00    1.27260   1.28821    0.000
 4987.00    1.28700   1.30893    0.000
 4988.00    1.30899   1.32949    0.000
 4989.00    1.33191   1.34560    0.000
 4990.00    1.35111   1.35564    0.000
 4991.00    1.36522   1.36061    0.000
 4992.00    1.37122   1.36290    0.000
 4993.00    1.36605   1.36468    0.000
 4994.00    1.35706   1.36687    0.000
 4995.00    1.35790   1.36890    0.000
 4996.00    1.36835   1.36919    0.000
 4997.00    1.37548   1.36596    0.000
 4998.00    1.37090   1.35817    0.000
 4999.00    1.35515   1.34617    0.000
 5000.00    1.33770   1.33167    0.000
 5001.00    1.33013   1.31699    0.000
 5002.00    1.33350   1.30397    0.000
 5003.00    1.34305   1.29333    0.000
 5004.00    1.36029   1.28510    0.000
 5005.00    1.38835   1.27949    0.000
 5006.00    1.42181   1.27737    0.000
 5007.00    1.44946   1.27953    0.000
 5008.00    1.46068   1.28530    0.000
 5009.00    1.45068   1.29186    0.000
 5010.00    1.42546   1.29508    0.000
 5011.00    1.39418   1.29182    0.000
 5012.00    1.36070   1.28179    0.000
 5013.00    1.32666   1.26796    0.000
 5014.00    1.29507   1.25487    0.000
 5015.00    1.26788   1.24632    0.000
 5016.00    1.24423   1.24387    0.000
 5017.00    1.22678   1.24676    0.000
 5018.00    1.22476   1.25316    0.000
 5019.00    1.24125   1.26131    0.000
 5020.00    1.26551   1.27018    0.000
 5021.00    1.28207   1.27927    0.000
 5022.00    1.27895   1.28840    0.000
 5023.00    1.26007   1.29733    0.000
 5024.00    1.24699   1.30576    0.000
 5025.00    1.25550   1.31327    0.000
 5026.00    1.28458   1.31971    0.000
 5027.00    1.31914   1.32562    0.000
 5028.00    1.33782   1.33227    0.000
 5029.00    1.33632   1.34100   16.823
 5030.00    1.32969   1.35213   17.150
 5031.00    1.32989   1.36423   17.447
 5032.00    1.33864   1.37436   17.270
 5033.00    1.34968   1.37913   16.852
 5034.00    1.35317   1.37600   16.831
 5035.00    1.34503   1.36429   17.154
 5036.00    1.32698   1.34522   17.265
 5037.00    1.30092   1.32140   17.204
 5038.00    1.26873   1.29588   17.454
 5039.00    1.23485   1.27201   17.994
 5040.00    1.20722   1.25371   18.373
 5041.00    1.19775   1.24532   18.352
 5042.00    1.21633   1.25028   18.019
 5043.00    1.26110   1.26887   17.586
 5044.00    1.31996   1.29698   17.218
 5045.00    1.37552   1.32704   16.917
 5046.00    1.41089   1.35090   16.676
 5047.00    1.41645   1.36307   16.642
 5048.00    1.39347   1.36271   16.936
 5049.00    1.35645   1.35352   17.446
 5050.00    1.32441   1.34172   17.963
 5051.00    1.31086   1.33354   18.395
 5052.00    1.31868   1.33286   18.596
 5053.00    1.33763   1.34038   18.250
 5054.00    1.35686   1.35415   17.474
 5055.00    1.37483   1.37087   16.995
 5056.00    1.39313   1.38730   17.090
 5057.00    1.41138   1.40127   17.218
 5058.00    1.42655   1.41187   17.118
 5059.00    1.43374   1.41890   17.364
 5060.00    1.43178   1.42201   17.969
 5061.00    1.42550   1.42045   17.735
 5062.00    1.42061   1.41333   16.294
 5063.00    1.42007   1.40052   14.747
 5064.00    1.42067   1.38348   13.675
 5065.00    1.41363   1.36529   13.026
 5066.00    1.39367   1.34963   12.771
 5067.00    1.36329   1.33923   12.997
 5068.00    1.33414   1.33469   13.730
 5069.00    1.32164   1.33477   14.860
 5070.00    1.32662   1.33724   16.102
 5071.00    1.33540   1.34002   17.015
 5072.00    1.33709   1.34182   17.499
 5073.00    1.32869   1.34227   17.893
 5074.00    1.31473   1.34137   18.296
 5075.00    1.30357   1.33861   18.514
 5076.00    1.29939   1.33285   18.552
 5077.00    1.30223   1.32303   18.585
 5078.00    1.31166   1.30919   18.624
 5079.00    1.32606   1.29305   18.569
 5080.00    1.33999   1.27812   18.432
 5081.00    1.34691   1.26851   18.313
 5082.00    1.34426   1.26709   18.292
 5083.00    1.33439   1.27420   18.375
 5084.00    1.32450   1.28795   18.447
 5085.00    1.32076   1.30532   18.399
 5086.00    1.32138   1.32316   18.292
 5087.00    1.32235   1.33917   18.196
 5088.00    1.32445   1.35250   18.017
 5089.00    1.33054   1.36349   17.714
 5090.00    1.34200   1.37274   17.485
 5091.00    1.35861   1.38049   17.471
 5092.00    1.37843   1.38629   17.555
 5093.00    1.39529   1.38890   17.608
 5094.00    1.39849   1.38651   17.674
 5095.00    1.38425   1.37782   17.796
 5096.00    1.36222   1.36318   17.903
 5097.00    1.34488   1.34496   17.949
 5098.00    1.34021   1.32714   17.980
 5099.00    1.35076   1.31402   17.885
 5100.00    1.37305   1.30852   17.412
 5101.00    1.39671   1.31078   16.818
 5102.00    1.40789   1.31798   16.766
 5103.00    1.40595   1.32585   17.214
 5104.00    1.40476   1.33051   17.289
 5105.00    1.40953   1.33004   16.785
 5106.00    1.41156   1.32478   16.458
 5107.00    1.40277   1.31699   16.655
 5108.00    1.38083   1.30981   17.180
 5109.00    1.34876   1.30598   17.768
 5110.00    1.31429   1.30716   18.211
 5111.00    1.28837   1.31376   18.345
 5112.00    1.28129   1.32502   18.127
 5113.00    1.29446   1.33931   17.724
 5114.00    1.32019   1.35453   17.409
 5115.00    1.34581   1.36886   17.372
 5116.00    1.36090   1.38077   17.633
 5117.00    1.36878   1.38877   17.879
 5118.00    1.37802   1.39157   17.715
 5119.00    1.38495   1.38807   17.261
 5120.00    1.37982   1.37775   16.921
 5121.00    1.36068   1.36125   16.934
 5122.00    1.33402   1.34054   17.313
 5123.00    1.31221   1.31861   17.778
 5124.00    1.30505   1.29880   17.995
 5125.00    1.31035   1.28367   18.005
 5126.00    1.31824   1.27445   18.035
 5127.00    1.31776   1.27090   18.184
 5128.00    1.30477   1.27213   18.473
 5129.00    1.28768   1.27707   18.915
 5130.00    1.27703   1.28474   19.377
 5131.00    1.27633   1.29443   19.500
 5132.00    1.28463   1.30529   19.279
 5133.00    1.29917   1.31589   19.340
 5134.00    1.31734   1.32436   19.766
 5135.00    1.33740   1.32880   19.564
 5136.00    1.35630   1.32796   18.611
 5137.00    1.36878   1.32197   18.213
 5138.00    1.37094   1.31239   18.721
 5139.00    1.36163   1.30159   19.043
 5140.00    1.34053   1.29176   18.670
 5141.00    1.30843   1.28452   18.462
 5142.00    1.27244   1.28042   18.776
 5143.00    1.24554   1.27879   19.066
 5144.00    1.23638   1.27880   19.027
 5145.00    1.24558   1.27942   18.946
 5146.00    1.26627   1.27992   19.071
 5147.00    1.28744   1.28051   19.380
 5148.00    1.30285   1.28102   19.503
 5149.00    1.31191   1.28082   19.035
 5150.00    1.31510   1.28005   18.392
 5151.00    1.31256   1.27929   18.309
 5152.00    1.30379   1.27934   18.730
 5153.00    1.28986   1.28158   19.037
 5154.00    1.27773   1.28753   18.935
 5155.00    1.27663   1.29826   18.581
 5156.00    1.28991   1.31344   18.250
 5157.00    1.31417   1.33071   18.144
 5158.00    1.34076   1.34676   18.257
 5159.00    1.36016   1.35832   18.449
 5160.00    1.36797   1.36260   18.553
 5161.00    1.36450   1.35771   18.465
 5162.00    1.35299   1.34257   18.234
 5163.00    1.33602   1.31678   18.007
 5164.00    1.31197   1.28084   17.924
 5165.00    1.27687   1.23660   18.043
 5166.00    1.22731   1.18818   18.268
 5167.00    1.16593   1.14160   18.477
 5168.00    1.10530   1.10259   18.633
 5169.00    1.06107   1.07504   18.682
 5170.00    1.04510   1.06023   18.484
 5171.00    1.05789   1.05723   18.067
 5172.00    1.08580   1.06452   17.726
 5173.00    1.11597   1.08146   17.690
 5174.00    1.14547   1.10798   17.970
 5175.00    1.17607   1.14306   18.289
 5176.00    1.20948   1.18299   18.143
 5177.00    1.24048   1.22068   17.617
 5178.00    1.25637   1.24716   17.448
 5179.00    1.25003   1.25604   17.874
 5180.00    1.22494   1.24641   18.423
 5181.00    1.19034   1.22207   18.704
 5182.00    1.15789   1.19009   18.758
 5183.00    1.13708   1.15992   18.698
 5184.00    1.13270   1.14130   18.571
 5185.00    1.14237   1.14066   18.455
 5186.00    1.15935   1.15844   18.448
 5187.00    1.18241   1.18928   18.548
 5188.00    1.21366   1.22374   18.661
 5189.00    1.24631   1.25168   18.683
 5190.00    1.26777   1.26727    0.000
 5191.00    1.27325   1.27103    0.000
 5192.00    1.26715   1.26753    0.000
 5193.00    1.25936   1.26230    0.000
 5194.00    1.26053   1.25959    0.000
 5195.00    1.27523   1.26232    0.000
 5196.00    1.30191   1.27164    0.000
 5197.00    1.33475   1.28564    0.000
 5198.00    1.36566   1.30079    0.000
 5199.00    1.38692   1.31417    0.000
 5200.00    1.39420   1.32322    0.000
 5201.00    1.38946   1.32531    0.000
 5202.00    1.37466   1.31895    0.000
 5203.00    1.34528   1.30425    0.000
 5204.00    1.29993   1.28308    0.000
 5205.00    1.24946   1.25901    0.000
 5206.00    1.20879   1.23662    0.000
 5207.00    1.18849   1.22022    0.000
 5208.00    1.19164   1.21329    0.000
 5209.00    1.21269   1.21788    0.000
 5210.00    1.24329   1.23315    0.000
 5211.00    1.27661   1.25564   15.250
 5212.00    1.30854   1.28119   14.889
 5213.00    1.33757   1.30522   14.631
 5214.00    1.36086   1.32361   14.435
 5215.00    1.37323   1.33508   14.228
 5216.00    1.37285   1.34123   14.025
 5217.00    1.36339   1.34537   13.924
 5218.00    1.35076   1.35053   13.922
 5219.00    1.34027   1.35785   13.907
 5220.00    1.33120   1.36534   13.946
 5221.00    1.31726   1.36888   14.260
 5222.00    1.29463   1.36443   14.755
 5223.00    1.26510   1.35030   15.000
 5224.00    1.23659   1.32807   14.962
 5225.00    1.21988   1.30222   15.036
 5226.00    1.21960   1.27889   15.291
 5227.00    1.23329   1.26423   15.474
 5228.00    1.25491   1.26188   15.534
 5229.00    1.27757   1.27132   15.616
 5230.00    1.29729   1.28847   15.700
 5231.00    1.31306   1.30744   15.681
 5232.00    1.32538   1.32242   15.666
 5233.00    1.33619   1.33155   15.809
 5234.00    1.34897   1.33758   15.962
 5235.00    1.36617   1.34398   15.879
 5236.00    1.38540   1.35343   15.645
 5237.00    1.39967   1.36664   15.497
 5238.00    1.39924   1.38138   15.517
 5239.00    1.38182   1.39473   15.674
 5240.00    1.36304   1.40462   15.892
 5241.00    1.35939   1.41034   16.076
 5242.00    1.36968   1.41237   16.151
 5243.00    1.38244   1.41128   16.127
 5244.00    1.38543   1.40699   16.138
 5245.00    1.37433   1.39898   16.324
 5246.00    1.35762   1.38744   16.736
 5247.00    1.34319   1.37348   17.251
 5248.00    1.32916   1.35861   17.536
 5249.00    1.31202   1.34489   17.464
 5250.00    1.29248   1.33517   17.369
 5251.00    1.27555   1.33121   17.492
 5252.00    1.26938   1.33213   17.721
 5253.00    1.28020   1.33677   17.829
 5254.00    1.30910   1.34527   17.676
 5255.00    1.35024   1.35685   17.434
 5256.00    1.39173   1.36952   17.493
 5257.00    1.42267   1.38125   17.823
 5258.00    1.43612   1.38949   17.931
 5259.00    1.42893   1.39091   17.753
 5260.00    1.40279   1.38156   17.742
 5261.00    1.36780   1.35969   17.916
 5262.00    1.33808   1.32761   17.865
 5263.00    1.31587   1.29018   17.660
 5264.00    1.29318   1.25310   17.761
 5265.00    1.26769   1.22133   18.137
 5266.00    1.24452   1.19793   18.360
 5267.00    1.23030   1.18346   18.382
 5268.00    1.22850   1.17693   18.494
 5269.00    1.23321   1.17745   18.732
 5270.00    1.23492   1.18458   18.882
 5271.00    1.23305   1.19736   18.716
 5272.00    1.23415   1.21585   18.217
 5273.00    1.24506   1.24077   17.737
 5274.00    1.26871   1.26945   17.598
 5275.00    1.30004   1.29683   17.698
 5276.00    1.33220   1.32089   17.696
 5277.00    1.36452   1.34207   17.325
 5278.00    1.39693   1.35975   16.668
 5279.00    1.42278   1.37249   16.239
 5280.00    1.43374   1.37865   16.295
 5281.00    1.42585   1.37777   16.420
 5282.00    1.40327   1.37288   16.281
 5283.00    1.38001   1.36927   16.280
 5284.00    1.37056   1.37145   16.685
 5285.00    1.38156   1.38125   16.991
 5286.00    1.40816   1.39763   16.822
 5287.00    1.43412   1.41765   16.629
 5288.00    1.44652   1.43714   16.740
 5289.00    1.44418   1.45196   16.892
 5290.00    1.43104   1.46020   16.897
 5291.00    1.41220   1.46230   16.964
 5292.00    1.39451   1.45892   17.203
 5293.00    1.38520   1.44989   17.431
 5294.00    1.38466   1.43503   17.545
 5295.00    1.38528   1.41536   17.648
 5296.00    1.38025   1.39335   17.751
 5297.00    1.36714   1.37216   17.728
 5298.00    1.34759   1.35509   17.628
 5299.00    1.32734   1.34537   17.662
 5300.00    1.31640   1.34539   17.845
 5301.00    1.32432   1.35519   18.003
 5302.00    1.34711   1.37172   18.108
 5303.00    1.37059   1.39060   18.274
 5304.00    1.38738   1.40910   18.471
 5305.00    1.39948   1.42608   18.538
 5306.00    1.41421   1.44022   18.390
 5307.00    1.43733   1.45035   18.102
 5308.00    1.46185   1.45652   17.914
 5309.00    1.47573   1.45999   18.027
 5310.00    1.47843   1.46198   18.303
 5311.00    1.47721   1.46265   18.420
 5312.00    1.47694   1.46099   18.250
 5313.00    1.47877   1.45632   17.939
 5314.00    1.48051   1.44916   17.832
 5315.00    1.47897   1.44079   -2.000
 5316.00    1.47230   1.43257   -2.000
 5317.00    1.45391   1.42553   -2.000
 5318.00    1.40783   1.41997   -2.000
 5319.00    1.33164   1.41573   -2.000
 5320.00    1.25582   1.41196   -2.000
 5321.00    1.21204   1.40652   -2.000
 5322.00    1.20542   1.39723   -2.000
 5323.00    1.22464   1.38324   -2.000
 5324.00    1.25246   1.36466   -2.000
 5325.00    1.27283   1.34240   -2.000
 5326.00    1.27613   1.31871   -2.000
 5327.00    1.26373   1.29736   -2.000
 5328.00    1.24885   1.28207   -2.000
 5329.00    1.24687   1.27547   17.225
 5330.00    1.26814   1.28004   17.310
 5331.00    1.31005   1.29729   16.703
 5332.00    1.35733   1.32387   16.456
 5333.00    1.39943   1.35186   16.793
 5334.00    1.43528   1.37482   16.861
 5335.00    1.46274   1.39056   16.411
 5336.00    1.47596   1.39919   16.119
 5337.00    1.47073   1.40080   16.225
 5338.00    1.44741   1.39605   16.438
 5339.00    1.41384   1.38745   16.628
 5340.00    1.38322   1.37853   16.910
 5341.00    1.36620   1.37196   17.258
 5342.00    1.36657   1.36930   17.487
 5343.00    1.37663   1.37153   17.559
 5344.00    1.38320   1.37746   17.585
 5345.00    1.38223   1.38352   17.615
 5346.00    1.37807   1.38704   17.636
 5347.00    1.37618   1.38816   17.662
 5348.00    1.37929   1.38888   17.754
 5349.00    1.38366   1.39161   18.027
 5350.00    1.38591   1.39760   18.516
 5351.00    1.39323   1.40744   18.959
 5352.00    1.41406   1.42148   19.047
 5353.00    1.44454   1.43832   18.900
 5354.00    1.47383   1.45512   18.774
 5355.00    1.49299   1.46981   18.637
 5356.00    1.49990   1.48169   18.440
 5357.00    1.50221   1.48991   18.379
 5358.00    1.50549   1.49317   18.574
 5359.00    1.50323   1.49099   18.798
 5360.00    1.48905   1.48383   18.879
 5361.00    1.46642   1.47251   19.028
 5362.00    1.44113   1.45816   19.327
 5363.00    1.41536   1.44224   19.397
 5364.00    1.38993   1.42640   19.133
 5365.00    1.36602   1.41181   19.056
 5366.00    1.34539   1.39827   19.279
 5367.00    1.32983   1.38504   19.170
 5368.00    1.31854   1.37218   18.661
 5369.00    1.30805   1.36025   18.564
 5370.00    1.29848   1.35072   19.117
 5371.00    1.29500   1.34603   19.634
 5372.00    1.30218   1.34866   19.524
 5373.00    1.32175   1.36027   18.877
 5374.00    1.35311   1.37993   18.128
 5375.00    1.39290   1.40295   17.692
 5376.00    1.43261   1.42315   17.720
 5377.00    1.46099   1.43693   18.100
 5378.00    1.47274   1.44369   18.401
 5379.00    1.47002   1.44469   18.134
 5380.00    1.45976   1.44210   17.650
 5381.00    1.45043   1.43758   17.663
 5382.00    1.44659   1.43253   18.069
 5383.00    1.44768   1.42859   18.208
 5384.00    1.44837   1.42659   17.936
 5385.00    1.44150   1.42601   17.634
 5386.00    1.42327   1.42591   17.668
 5387.00    1.39749   1.42468   18.144
 5388.00    1.37985   1.42047   18.622
 5389.00    1.38313   1.41289   18.576
 5390.00    1.39659   1.40280   18.343
 5391.00    1.40076   1.39135   18.454
 5392.00    1.38935   1.37985   18.722
 5393.00    1.36665   1.36924   18.794
 5394.00    1.34122   1.35969   18.877
 5395.00    1.32093   1.35132   19.218
 5396.00    1.30881   1.34472   19.516
 5397.00    1.30524   1.34067   19.436
 5398.00    1.31004   1.33940   19.167
 5399.00    1.32085   1.34127   18.971
 5400.00    1.33242   1.34611   18.834
 5401.00    1.34139   1.35020   18.723
 5402.00    1.34901   1.34919   18.727
 5403.00    1.35649   1.34238   18.863
 5404.00    1.36204   1.33140   18.989
 5405.00    1.36126   1.31821   19.045
 5406.00    1.34909   1.30630   19.156
 5407.00    1.32776   1.30003   19.385
 5408.00    1.30816   1.30171   19.635
 5409.00    1.29853   1.31042   19.805
 5410.00    1.29970   1.32304   19.863
 5411.00    1.30662   1.33729   19.865
 5412.00    1.31190   1.35335   19.907
 5413.00    1.31544   1.37132   19.999
 5414.00    1.32445   1.38892   20.053
 5415.00    1.34343   1.40341   19.993
 5416.00    1.37165   1.41401   19.789
 5417.00    1.40507   1.42145   19.432
 5418.00    1.43847   1.42630   18.943
 5419.00    1.46893   1.42792   18.386
 5420.00    1.49490   1.42600   17.852
 5421.00    1.51233   1.42176   17.421
 5422.00    1.51644   1.41695   17.177
 5423.00    1.50668   1.41295   17.237
 5424.00    1.48648   1.41000   -2.000
 5425.00    1.46129   1.40695   -2.000
 5426.00    1.43768   1.40347   -2.000
 5427.00    1.42236   1.40009   -2.000
 5428.00    1.41789   1.39535   -2.000
 5429.00    1.41634   1.38722   -2.000
 5430.00    1.38784   1.37557   -2.000
 5431.00    1.27230   1.36311   -2.000
 5432.00    1.03405   1.35456   -2.000
 5433.00    0.72005   1.35131   -2.000
 5434.00    0.44593   1.35115   -2.000
 5435.00    0.36330   1.35440   -2.000
 5436.00    0.53554   1.36325   -2.000
 5437.00    0.85155   1.37837   -2.000
 5438.00    1.16657   1.39821   -2.000
 5439.00    1.41038   1.41937   -2.000
 5440.00    1.55409   1.43786   -2.000
 5441.00    1.58616   1.44996   -2.000
 5442.00    1.53405   1.45340   -2.000
 5443.00    1.46603   1.44793   -2.000
 5444.00    1.42700   1.43506   -2.000
 5445.00    1.41168   1.41759   -2.000
 5446.00    1.40398   1.39897   -2.000
 5447.00    1.39669   1.38335   17.950
 5448.00    1.39065   1.37436   18.143
 5449.00    1.39152   1.37393   18.644
 5450.00    1.40004   1.37999   19.211
 5451.00    1.41047   1.38631   19.512
 5452.00    1.41751   1.38820   19.401
 5453.00    1.41862   1.38498   19.027
 5454.00    1.41366   1.37840   18.695
 5455.00    1.40429   1.37121   18.669
 5456.00    1.39283   1.36612   18.914
 5457.00    1.38231   1.36553   19.149
 5458.00    1.37717   1.37097   19.143
 5459.00    1.38167   1.37990   18.812
 5460.00    1.39622   1.38680   18.225
 5461.00    1.41795   1.38893   17.528
 5462.00    1.44305   1.38713   16.831
 5463.00    1.46755   1.38392   16.266
 5464.00    1.48785   1.38151   16.062
 5465.00    1.50055   1.38176   16.331
 5466.00    1.50216   1.38561   16.745
 5467.00    1.49135   1.39083   16.917
 5468.00    1.47159   1.39446   17.087
 5469.00    1.44830   1.39583   17.603
 5470.00    1.42534   1.39445   18.152
 5471.00    1.40621   1.38927   18.294
 5472.00    1.39512   1.38065   18.249
 5473.00    1.39199   1.37008   18.303
 5474.00    1.38870   1.35836   18.212
 5475.00    1.37775   1.34629   17.881
 5476.00    1.35922   1.33631   17.802
 5477.00    1.33887   1.32970   18.243
 5478.00    1.32524   1.32661   18.758
 5479.00    1.32305   1.32920   18.789
 5480.00    1.32957   1.33750   18.282
 5481.00    1.33831   1.34722   17.781
 5482.00    1.34253   1.35549   18.016
 5483.00    1.34179   1.36331   18.615
 5484.00    1.34334   1.37233   18.051
 5485.00    1.35338   1.38145   17.489
 5486.00    1.37245   1.38858   20.133
 5487.00    1.39339   1.39254   22.194
 5488.00    1.40434   1.39323   13.804
 5489.00    1.40192   1.39239    8.182
 5490.00    1.39343   1.39267    6.715
 5491.00    1.38884   1.39438    6.971
 5492.00    1.39471   1.39612    7.352
 5493.00    1.40500   1.39753    7.192
 5494.00    1.40663   1.39813    7.040
 5495.00    1.39916   1.39741    7.119
 5496.00    1.39219   1.39642    7.225
 5497.00    1.38867   1.39551    7.222
 5498.00    1.38591   1.39367    7.155
 5499.00    1.38472   1.39111    7.186
 5500.00    1.38782   1.38921    7.365
 5501.00    1.39392   1.38710    7.249
 5502.00    1.39879   1.38277    6.728
 5503.00    1.39868   1.37712    6.990
 5504.00    1.39139   1.37268    9.875
 5505.00    1.37714   1.37011   18.339
 5506.00    1.35802   1.36840   22.514
 5507.00    1.33733   1.36671   19.451
 5508.00    1.31997   1.36516   18.231
 5509.00    1.31242   1.36471   19.291
 5510.00    1.31796   1.36430   19.215
 5511.00    1.33241   1.36193   18.520
 5512.00    1.34981   1.35835   18.611
 5513.00    1.36725   1.35554   18.749
 5514.00    1.38207   1.35553   18.183
 5515.00    1.38987   1.36030   17.720
 5516.00    1.38917   1.36985   17.902
 5517.00    1.38454   1.38239   18.162
 5518.00    1.38527   1.39577   18.012
 5519.00    1.40182   1.40814   17.751
 5520.00    1.43208   1.41793   17.645
 5521.00    1.45789   1.42341   17.567
 5522.00    1.46495   1.42398   17.473
 5523.00    1.45215   1.42036   17.520
 5524.00    1.42772   1.41335   17.621
 5525.00    1.40438   1.40376   17.422
 5526.00    1.38809   1.39273   17.005
 5527.00    1.37655   1.38191   16.852
 5528.00    1.36889   1.37335   17.068
 5529.00    1.36729   1.36874   17.353
 5530.00    1.37151   1.36922   17.586
 5531.00    1.37808   1.37459   17.875
 5532.00    1.38254   1.38170   18.129
 5533.00    1.38079   1.38717   18.084
 5534.00    1.37051   1.39047   17.750
 5535.00    1.35327   1.39278   17.327
 5536.00    1.33784   1.39515   16.813
 5537.00    1.33546   1.39865   16.155
 5538.00    1.34978   1.40396   15.557
 5539.00    1.37592   1.40976   15.211
 5540.00    1.40244   1.41476   14.948
 5541.00    1.41745   1.41874   14.561
 5542.00    1.41690   1.42102   14.217
 5543.00    1.40344   1.42109   14.168
 5544.00    1.38298   1.41964   14.408
 5545.00    1.36357   1.41862   14.779
 5546.00    1.35402   1.41978   15.110
 5547.00    1.35941   1.42303   15.313
 5548.00    1.37684   1.42747   15.487
 5549.00    1.39959   1.43250   15.734
 5550.00    1.42155   1.43664   15.978
 5551.00    1.43806   1.43810   16.163
 5552.00    1.44619   1.43660   16.418
 5553.00    1.44426   1.43282   16.751
 5554.00    1.43187   1.42764   16.845
 5555.00    1.41287   1.42228   16.663
 5556.00    1.39612   1.41813   16.719
 5557.00    1.38821   1.41573   17.176
 5558.00    1.38946   1.41418   17.461
 5559.00    1.39618   1.41225   17.285
 5560.00    1.40273   1.40964   17.132
 5561.00    1.40539   1.40615   17.290
 5562.00    1.40354   1.40137   17.553
 5563.00    1.39756   1.39550   17.761
 5564.00    1.38867   1.38926   17.975
 5565.00    1.38191   1.38378   18.190
 5566.00    1.38379   1.37963   18.285
 5567.00    1.39167   1.37642   18.258
 5568.00    1.39493   1.37436   18.256
 5569.00    1.38857   1.37374   18.419
 5570.00    1.37501   1.37391   18.794
 5571.00    1.35832   1.37470   19.244
 5572.00    1.34318   1.37674   19.509
 5573.00    1.33611   1.37949   19.520
 5574.00    1.34302   1.38220   19.428
 5575.00    1.36386   1.38640   19.419
 5576.00    1.39143   1.39228   19.580
 5577.00    1.41187   1.39753   19.725
 5578.00    1.41242   1.40151   19.609
 5579.00    1.39350   1.40463   19.351
 5580.00    1.36562   1.40586   19.243
 5581.00    1.34200   1.40450   19.422
 5582.00    1.33266   1.40013   19.762
 5583.00    1.33826   1.39199   19.770
 5584.00    1.35028   1.38061   19.208
 5585.00    1.35296   1.36690   18.708
 5586.00    1.33568   1.35125   18.838
 5587.00    1.30440   1.33508   19.450
 5588.00    1.27474   1.32102   19.947
 5589.00    1.26306   1.31210   19.639
 5590.00    1.27341   1.31005   18.701
 5591.00    1.29040   1.31426   18.292
 5592.00    1.30129   1.32260   18.768
 5593.00    1.31004   1.33228   19.025
 5594.00    1.32244   1.34106   18.405
 5595.00    1.33670   1.34801   17.858
 5596.00    1.34772   1.35299   17.940
 5597.00    1.35099   1.35598   18.195
 5598.00    1.34814   1.35550   18.233
 5599.00    1.34688   1.35077   18.203
 5600.00    1.34850   1.34487   18.298
 5601.00    1.34577   1.34176   18.521
 5602.00    1.33663   1.34265   18.738
 5603.00    1.32791   1.34788   18.765
 5604.00    1.32805   1.35847   18.636
 5605.00    1.34285   1.37428   18.579
 5606.00    1.37033   1.39278   18.656
 5607.00    1.40184   1.40995   18.739
 5608.00    1.42913   1.42308   18.744
 5609.00    1.44681   1.43107   18.694
 5610.00    1.45310   1.43366   18.715
 5611.00    1.44930   1.43107   18.890
 5612.00    1.43792   1.42380   18.961
 5613.00    1.42234   1.41266   18.625
 5614.00    1.40673   1.39869   18.223
 5615.00    1.39511   1.38323   18.231
 5616.00    1.38972   1.36880   18.396
 5617.00    1.38902   1.35966   18.124
 5618.00    1.38559   1.35845   17.344
 5619.00    1.37259   1.36226   16.394
 5620.00    1.35260   1.36656   15.590
 5621.00    1.33325   1.36974   15.080
 5622.00    1.32044   1.37171   14.822
 5623.00    1.31806   1.37212   14.808
 5624.00    1.32841   1.37061   15.235
 5625.00    1.35030   1.36818   16.146
 5626.00    1.37756   1.36783   16.942
 5627.00    1.40224   1.37238   17.033
 5628.00    1.41767   1.38100   16.823
 5629.00    1.42062   1.39077   16.884
 5630.00    1.41271   1.39987   17.266
 5631.00    1.40080   1.40706   17.752
 5632.00    1.39528   1.41082   18.034
 5633.00    1.39886   1.41058   17.924
 5634.00    1.40230   1.40678   17.517
 5635.00    1.39799   1.40041   17.045
 5636.00    1.38660   1.39276   16.723
 5637.00    1.37154   1.38507   16.562
 5638.00    1.35596   1.37825   16.365
 5639.00    1.34170   1.37331   15.966
 5640.00    1.32980   1.37084   15.352
 5641.00    1.32359   1.37022   14.707
 5642.00    1.32751   1.37060   14.300
 5643.00    1.33921   1.37248   14.275
 5644.00    1.35072   1.37634   14.649
 5645.00    1.35978   1.38116   15.285
 5646.00    1.37055   1.38604   15.924
 5647.00    1.38616   1.39077   16.507
 5648.00    1.40609   1.39497   17.169
 5649.00    1.42483   1.39812   17.755
 5650.00    1.43526   1.39986   17.930
 5651.00    1.43606   1.40031   17.906
 5652.00    1.42968   1.39953   18.143
 5653.00    1.41579   1.39679   18.477
 5654.00    1.39249   1.39103   18.452
 5655.00    1.36058   1.38190   18.254
 5656.00    1.32499   1.37053   18.332
 5657.00    1.29574   1.35909   18.658
 5658.00    1.28223   1.34849   18.920
 5659.00    1.28593   1.33908   18.916
 5660.00    1.30111   1.33389   18.671
 5661.00    1.31759   1.33547   18.428
 5662.00    1.32881   1.34112   18.334
 5663.00    1.33903   1.34711   18.197
 5664.00    1.35319   1.35346   17.869
 5665.00    1.36749   1.36096   17.562
 5666.00    1.37453   1.36827   17.509
 5667.00    1.36929   1.37365   17.733
 5668.00    1.35609   1.37723   18.029
 5669.00    1.35032   1.38063   17.995
 5670.00    1.35774   1.38545   17.584
 5671.00    1.36493   1.39198   17.301
 5672.00    1.36437   1.39960   17.409
 5673.00    1.36611   1.40765   17.661
 5674.00    1.37909   1.41525   17.738
 5675.00    1.40198   1.42094   17.528
 5676.00    1.42765   1.42377   17.216
 5677.00    1.44728   1.42416   17.140
 5678.00    1.45744   1.42265   17.327
 5679.00    1.46079   1.41877   17.458
 5680.00    1.45807   1.41257   17.396
 5681.00    1.44720   1.40521   17.307
 5682.00    1.43013   1.39739   17.325
 5683.00    1.41313   1.38917   17.444
 5684.00    1.40111   1.38180   17.502
 5685.00    1.39503   1.37700   17.348
 5686.00    1.38989   1.37481   17.249
 5687.00    1.37884   1.37426   17.613
 5688.00    1.36312   1.37516   18.232
 5689.00    1.34979   1.37843   18.470
 5690.00    1.34258   1.38472   18.321
 5691.00    1.34229   1.39319   18.217
 5692.00    1.35066   1.40181   18.136
 5693.00    1.36787   1.40889   17.884
 5694.00    1.38765   1.41343   17.717
 5695.00    1.40104   1.41466   17.897
 5696.00    1.40282   1.41270   18.034
 5697.00    1.39407   1.40828   17.663
 5698.00    1.38373   1.40173   17.102
 5699.00    1.38087   1.39344   16.840
 5700.00    1.38607   1.38487   16.929
 5701.00    1.39426   1.37727   17.175
 5702.00    1.39865   1.37050   17.317
 5703.00    1.39325   1.36457   17.242
 5704.00    1.37515   1.35971   17.153
 5705.00    1.34723   1.35491   17.214
 5706.00    1.31933   1.34840   17.309
 5707.00    1.30130   1.33991   17.287
 5708.00    1.29760   1.33142   17.155
 5709.00    1.30487   1.32491   17.001
 5710.00    1.31265   1.32182   16.921
 5711.00    1.31472   1.32382   16.898
 5712.00    1.31388   1.33101   16.781
 5713.00    1.31395   1.34219   16.459
 5714.00    1.31636   1.35671   15.964
 5715.00    1.32390   1.37262   15.465
 5716.00    1.34106   1.38721   15.177
 5717.00    1.36856   1.39979   15.136
 5718.00    1.40165   1.41048   15.228
 5719.00    1.43171   1.41927   15.425
 5720.00    1.44966   1.42683   15.808
 5721.00    1.45442   1.43319   16.320
 5722.00    1.45202   1.43771   16.748
 5723.00    1.44630   1.44028   17.009
 5724.00    1.43818   1.44078   17.179
 5725.00    1.43039   1.43899   17.258
 5726.00    1.42652   1.43526   17.221
 5727.00    1.42663   1.43029   17.260
 5728.00    1.42672   1.42519   17.607
 5729.00    1.41979   1.42177   18.097
 5730.00    1.40098   1.42076   18.326
 5731.00    1.37549   1.42081   18.229
 5732.00    1.35438   1.42093   18.014
 5733.00    1.34585   1.42211   17.814
 5734.00    1.35007   1.42516   -2.000
 5735.00    1.35486   1.42875   -2.000
 5736.00    1.34701   1.43131   -2.000
 5737.00    1.32648   1.43235   -2.000
 5738.00    1.30776   1.43218   -2.000
 5739.00    1.31702   1.43155   -2.000
 5740.00    1.36577   1.43095   -2.000
 5741.00    1.42895   1.43049   -2.000
 5742.00    1.47172   1.43011   -2.000
 5743.00    1.47509   1.42970   -2.000
 5744.00    1.44403   1.42939   -2.000
 5745.00    1.40814   1.42955   -2.000
 5746.00    1.39345   1.42983   -2.000
 5747.00    1.40414   1.42887   -2.000
 5748.00    1.42850   1.42561   -2.000
 5749.00    1.44643   1.42073   -2.000
 5750.00    1.44610   1.41625   -2.000
 5751.00    1.43085   1.41278   -2.000
 5752.00    1.40961   1.40910   -2.000
 5753.00    1.39145   1.40476    0.000
 5754.00    1.38265   1.40120    0.000
 5755.00    1.38514   1.40047    0.000
 5756.00    1.39490   1.40338    0.000
 5757.00    1.40330   1.40813    0.000
 5758.00    1.40347   1.41172    0.000
 5759.00    1.39337   1.41267    0.000
 5760.00    1.37847   1.41099    0.000
 5761.00    1.36894   1.40767    0.000
 5762.00    1.37043   1.40445    0.000
 5763.00    1.38164   1.40309    0.000
 5764.00    1.39436   1.40517    0.000
 5765.00    1.39843   1.41137    0.000
 5766.00    1.39145   1.41971    0.000
 5767.00    1.37763   1.42717    0.000
 5768.00    1.36186   1.43252    0.000
 5769.00    1.34917   1.43553    0.000
 5770.00    1.34531   1.43608    0.000
 5771.00    1.35299   1.43465    0.000
 5772.00    1.36671   1.43190    0.000
 5773.00    1.37857   1.42849    0.000
 5774.00    1.38641   1.42523    0.000
 5775.00    1.39098   1.42201    0.000
 5776.00    1.39164   1.41817    0.000
 5777.00    1.38751   1.41348    0.000
 5778.00    1.37907   1.40729    0.000
 5779.00    1.36647   1.39870    0.000
 5780.00    1.34838   1.38756    0.000
 5781.00    1.32593   1.37472    0.000
 5782.00    1.30526   1.36236    0.000
 5783.00    1.29215   1.35363    0.000
 5784.00    1.28800   1.34998    0.000
 5785.00    1.29007   1.35023    0.000
 5786.00    1.29311   1.35331    0.000
 5787.00    1.29606   1.35985    0.000
 5788.00    1.30396   1.36937    0.000
 5789.00    1.31786   1.37944    0.000
 5790.00    1.33161   1.38844    0.000
 5791.00    1.34146   1.39566    0.000
 5792.00    1.34947   1.40135    0.000
 5793.00    1.35898   1.40691    0.000
 5794.00    1.37150   1.41263    0.000
 5795.00    1.38276   1.41780    0.000
 5796.00    1.38475   1.42222    0.000
 5797.00    1.37646   1.42566    0.000
 5798.00    1.36516   1.42807    0.000
 5799.00    1.36002   1.43071    0.000
 5800.00    1.36684   1.43484    0.000
 5801.00    1.38004   1.43936    0.000
 5802.00    1.38794   1.44218    0.000
 5803.00    1.38856   1.44264    0.000
 5804.00    1.38812   1.44078    0.000
 5805.00    1.39119   1.43726    0.000
 5806.00    1.39784   1.43392    0.000
 5807.00    1.40272   1.43212    0.000
 5808.00    1.40096   1.43192    0.000
 5809.00    1.39731   1.43270    0.000
 5810.00    1.40018   1.43375    0.000
 5811.00    1.41146   1.43458    0.000
 5812.00    1.42431   1.43476    0.000
 5813.00    1.42352   1.43394    0.000
 5814.00    1.40040   1.43231    0.000
 5815.00    1.36790   1.43032    0.000
 5816.00    1.34554   1.42863    0.000
 5817.00    1.34295   1.42839    0.000
 5818.00    1.35750   1.43081    0.000
 5819.00    1.37531   1.43566    0.000
 5820.00    1.38463   1.44108    0.000
 5821.00    1.38513   1.44570    0.000
 5822.00    1.37950   1.44920    0.000
 5823.00    1.36781   1.45155    0.000
 5824.00    1.35240   1.45301    0.000
 5825.00    1.34064   1.45409    0.000
 5826.00    1.34208   1.45506    0.000
 5827.00    1.36416   1.45574    0.000
 5828.00    1.39996   1.45610    0.000
 5829.00    1.42776   1.45630    0.000
 5830.00    1.43518   1.45629    0.000
 5831.00    1.42737   1.45577    0.000
 5832.00    1.41706   1.45452    0.000
 5833.00    1.41626   1.45277    0.000
 5834.00    1.42270   1.45079    0.000
 5835.00    1.42233   1.44872    0.000
 5836.00    1.41086   1.44726    0.000
 5837.00    1.39668   1.44718    0.000
 5838.00    1.39042   1.44800    0.000
 5839.00    1.39841   1.44900    0.000
 5840.00    1.41447   1.45059    0.000
 5841.00    1.42597   1.45288    0.000
 5842.00    1.43046   1.45474    0.000
 5843.00    1.43364   1.45502    0.000
 5844.00    1.43892   1.45335    0.000
 5845.00    1.44507   1.44980    0.000
 5846.00    1.44595   1.44470    0.000
 5847.00    1.43740   1.43836    0.000
 5848.00    1.42669   1.43107    0.000
 5849.00    1.42395   1.42373    0.000
 5850.00    1.42914   1.41691    0.000
 5851.00    1.43498   1.41016    0.000
 5852.00    1.43301   1.40252    0.000
 5853.00    1.42198   1.39359    0.000
 5854.00    1.41418   1.38442    0.000
 5855.00    1.41880   1.37698    0.000
 5856.00    1.42733   1.37186    0.000
 5857.00    1.42919   1.36765    0.000
 5858.00    1.42518   1.36396    0.000
 5859.00    1.42090   1.36314    0.000
 5860.00    1.42049   1.36662    0.000
 5861.00    1.42311   1.37259    0.000
 5862.00    1.42234   1.37859    0.000
 5863.00    1.41508   1.38345    0.000
 5864.00    1.40530   1.38794    0.000
 5865.00    1.39534   1.39289    0.000
 5866.00    1.38302   1.39743    0.000
 5867.00    1.37019   1.40068    0.000
 5868.00    1.36401   1.40369    0.000
 5869.00    1.36556   1.40781    0.000
 5870.00    1.36825   1.41253    0.000
 5871.00    1.37004   1.41643    0.000
 5872.00    1.37504   1.41869    0.000
 5873.00    1.38405   1.41919    0.000
 5874.00    1.39272   1.41833    0.000
 5875.00    1.39593   1.41658    0.000
 5876.00    1.39025   1.41370    0.000
 5877.00    1.37704   1.40944    0.000
 5878.00    1.36155   1.40431    0.000
 5879.00    1.34923   1.39883    0.000
 5880.00    1.34415   1.39312    0.000
 5881.00    1.34755   1.38743    0.000
 5882.00    1.35807   1.38221    0.000
 5883.00    1.37268   1.37634    0.000
 5884.00    1.38747   1.36677    0.000
 5885.00    1.39841   1.35125    0.000
 5886.00    1.39803   1.33032    0.000
 5887.00    1.37159   1.30535    0.000
 5888.00    1.31254   1.27679    0.000
 5889.00    1.24126   1.24514    0.000
 5890.00    1.18560   1.21253    0.000
 5891.00    1.15640   1.18584    0.000
 5892.00    1.14987   1.17306    0.000
 5893.00    1.15357   1.17265    0.000
 5894.00    1.15444   1.17726    0.000
 5895.00    1.14579   1.18332    0.000
 5896.00    1.12896   1.19001    0.000
 5897.00    1.11334   1.20124    0.000
 5898.00    1.11093   1.22247    0.000
 5899.00    1.13135   1.24991    0.000
 5900.00    1.17529   1.27655    0.000
 5901.00    1.23172   1.30093   18.288
 5902.00    1.28435   1.32311   17.621
 5903.00    1.31783   1.34188   17.500
 5904.00    1.32936   1.35641   17.842
 5905.00    1.33110   1.36633   18.098
 5906.00    1.33544   1.37235   18.000
 5907.00    1.34807   1.37636   17.833
 5908.00    1.36755   1.37963   17.786
 5909.00    1.38715   1.38176   17.792
 5910.00    1.40147   1.38200   17.854
 5911.00    1.40788   1.38066   18.073
 5912.00    1.40402   1.37848   18.384
 5913.00    1.38872   1.37540   18.581
 5914.00    1.36703   1.37098   18.691
 5915.00    1.34929   1.36644   18.919
 5916.00    1.34541   1.36419   19.187
 5917.00    1.35973   1.36479   19.232
 5918.00    1.38351   1.36750   19.141
 5919.00    1.40143   1.37131   19.167
 5920.00    1.40726   1.37546   19.144
 5921.00    1.40279   1.37974   18.847
 5922.00    1.39088   1.38330   18.730
 5923.00    1.37526   1.38558   19.274
 5924.00    1.36207   1.38718   19.922
 5925.00    1.35701   1.38811   19.779
 5926.00    1.36126   1.38800   19.256
 5927.00    1.37110   1.38714   19.131
 5928.00    1.37865   1.38552   19.315
 5929.00    1.37781   1.38316   19.383
 5930.00    1.37011   1.38043   19.214
 5931.00    1.36083   1.37843   18.955
 5932.00    1.35417   1.37869   18.854
 5933.00    1.34981   1.38053   18.957
 5934.00    1.34146   1.38199   18.942
 5935.00    1.32651   1.38272   18.650
 5936.00    1.31225   1.38395   18.425
 5937.00    1.30660   1.38635   18.496
 5938.00    1.31158   1.38861   18.656
 5939.00    1.32452   1.38978   18.665
 5940.00    1.33994   1.39017   18.503
 5941.00    1.35406   1.38973   18.299
 5942.00    1.36630   1.38875   18.222
 5943.00    1.37446   1.38837   18.294
 5944.00    1.37424   1.38864   18.366
 5945.00    1.36717   1.38886   18.372
 5946.00    1.36102   1.38885   18.399
 5947.00    1.35809   1.38812   18.493
 5948.00    1.35334   1.38577   18.609
 5949.00    1.34342   1.38183   18.697
 5950.00    1.32903   1.37824   18.741
 5951.00    1.31276   1.37660   18.754
 5952.00    1.29849   1.37575   18.752
 5953.00    1.29168   1.37395   18.683
 5954.00    1.29760   1.37239   18.450
 5955.00    1.31736   1.37317   18.033
 5956.00    1.34703   1.37542   17.511
 5957.00    1.37817   1.37730   17.052
 5958.00    1.40232   1.37942   16.821
 5959.00    1.41878   1.38321   16.872
 5960.00    1.43033   1.38850   17.150
 5961.00    1.43424   1.39390   17.460
 5962.00    1.42659   1.39833   17.609
 5963.00    1.41073   1.40168   17.655
 5964.00    1.39438   1.40402   17.754
 5965.00    1.38416   1.40549   17.879
 5966.00    1.38220   1.40622   17.927
 5967.00    1.38364   1.40697   17.880
 5968.00    1.38395   1.40873   17.814
 5969.00    1.38603   1.41096   17.845
 5970.00    1.39377   1.41275   17.991
 5971.00    1.40549   1.41357   18.068
 5972.00    1.41551   1.41292   18.022
 5973.00    1.41674   1.41049   18.160
 5974.00    1.40699   1.40649   18.637
 5975.00    1.39223   1.40130   19.104
 5976.00    1.37835   1.39542   19.252
 5977.00    1.36627   1.38990   19.242
 5978.00    1.35638   1.38583   19.254
 5979.00    1.35069   1.38325   19.222
 5980.00    1.34930   1.38165   19.052
 5981.00    1.34914   1.38070   18.766
 5982.00    1.34677   1.37952   18.577
 5983.00    1.34037   1.37735   18.760
 5984.00    1.33231   1.37414   19.072
 5985.00    1.32819   1.37138   18.802
 5986.00    1.33005   1.37129   18.111
 5987.00    1.33582   1.37368   17.862
 5988.00    1.34550   1.37680   18.084
 5989.00    1.36053   1.38065   18.080
 5990.00    1.37622   1.38555   17.763
 5991.00    1.38452   1.39038   17.662
 5992.00    1.38622   1.39380   17.937
 5993.00    1.38945   1.39617   18.304
 5994.00    1.39926   1.39842   18.298
 5995.00    1.41502   1.39975   17.680
 5996.00    1.43023   1.39913   16.968
 5997.00    1.43671   1.39672   16.774
 5998.00    1.43215   1.39325   17.007
 5999.00    1.41945   1.38999   17.208
 6000.00    1.40361   1.38778   17.141
 6001.00    1.38936   1.38611   16.913
 6002.00    1.37853   1.38405   16.897
 6003.00    1.37122   1.38072   17.316
 6004.00    1.36751   1.37688   17.796
 6005.00    1.36736   1.37441   17.918
 6006.00    1.37014   1.37272   18.053
 6007.00    1.37452   1.37046   18.598
 6008.00    1.37841   1.36759   19.111
 6009.00    1.37974   1.36547   19.079
 6010.00    1.37727   1.36645   18.846
 6011.00    1.37159   1.36966   18.798
 6012.00    1.36548   1.37157   18.759
 6013.00    1.36144   1.37113   18.557
 6014.00    1.35979   1.37006   18.385
 6015.00    1.35818   1.36987   18.390
 6016.00    1.35224   1.36954   18.471
 6017.00    1.34041   1.36745   18.538
 6018.00    1.32611   1.36498   18.624
 6019.00    1.31525   1.36375   18.750
 6020.00    1.31358   1.36272   18.862
 6021.00    1.32101   1.36173   18.936
 6022.00    1.33122   1.36223   18.993
 6023.00    1.33967   1.36477   18.958
 6024.00    1.34646   1.36879   18.720
 6025.00    1.35483   1.37363   18.492
 6026.00    1.36913   1.37966   18.638
 6027.00    1.39062   1.38615   18.868
 6028.00    1.41606   1.39212   18.484
 6029.00    1.43792   1.39829   17.820
 6030.00    1.44817   1.40430   17.761
 6031.00    1.44705   1.40915   18.245
 6032.00    1.44055   1.41283   18.543
 6033.00    1.43066   1.41609   18.536
 6034.00    1.41602   1.41893   18.651
 6035.00    1.39748   1.42054   18.977
 6036.00    1.37908   1.42092   19.296
 6037.00    1.36776   1.42065   19.450
 6038.00    1.36823   1.42003   19.437
 6039.00    1.37594   1.41920   19.413
 6040.00    1.38393   1.41818   19.452
 6041.00    1.39313   1.41751   19.267
 6042.00    1.40697   1.41776   18.648
 6043.00    1.42368   1.41894   17.945
 6044.00    1.43934   1.42125   17.576
 6045.00    1.45197   1.42409   17.664
 6046.00    1.46054   1.42664   18.067
 6047.00    1.46360   1.42881   18.367
 6048.00    1.46067   1.43033   18.351
 6049.00    1.45343   1.43071   18.427
 6050.00    1.44597   1.42985   18.766
 6051.00    1.44377   1.42812   18.752
 6052.00    1.44602   1.42530   18.172
 6053.00    1.44278   1.42132   17.807
 6054.00    1.42885   1.41686   18.063
 6055.00    1.41047   1.41305   18.520
 6056.00    1.39608   1.41014   18.732
 6057.00    1.39007   1.40793   18.709
 6058.00    1.38883   1.40688   18.620
 6059.00    1.38244   1.40689   18.598
 6060.00    1.36924   1.40701   18.690
 6061.00    1.35860   1.40594   18.843
 6062.00    1.35806   1.40360   18.899
 6063.00    1.36792   1.40089   18.704
 6064.00    1.38013   1.39846   18.450
 6065.00    1.38350   1.39662   18.552
 6066.00    1.37939   1.39607   19.111
 6067.00    1.38050   1.39944   19.864
 6068.00    1.39564   1.40688   20.404
 6069.00    1.42417   1.41512   20.407
 6070.00    1.45320   1.42237   20.005
 6071.00    1.46560   1.42850   19.537
 6072.00    1.45731   1.43341   18.933
 6073.00    1.43694   1.43612   17.925
 6074.00    1.41798   1.43568   16.530
 6075.00    1.40992   1.43258   15.124
 6076.00    1.40694   1.42787   14.303
 6077.00    1.39908   1.42168   14.380
 6078.00    1.39025   1.41409   15.047
 6079.00    1.38981   1.40581   15.700
 6080.00    1.39852   1.39890   16.026
 6081.00    1.40955   1.39412   16.107
 6082.00    1.41261   1.38994   16.263
 6083.00    1.40327   1.38640   16.695
 6084.00    1.39102   1.38506   17.174
 6085.00    1.38750   1.38529   17.462
 6086.00    1.39540   1.38514   17.804
 6087.00    1.41104   1.38487   18.446
 6088.00    1.42767   1.38534   19.152
 6089.00    1.43875   1.38593   19.542
 6090.00    1.44034   1.38547   19.522
 6091.00    1.43262   1.38472   19.409
 6092.00    1.41995   1.38564   19.743
 6093.00    1.40602   1.38786   20.386
 6094.00    1.39177   1.39034   20.156
 6095.00    1.37844   1.39364   18.746
 6096.00    1.36879   1.39751   17.256
 6097.00    1.36446   1.39953   16.281
 6098.00    1.36409   1.39804   15.790
 6099.00    1.36047   1.39415   15.828
 6100.00    1.34391   1.38974   16.576
 6101.00    1.31755   1.38479   17.753
 6102.00    1.29758   1.37788   18.397
 6103.00    1.29626   1.36943   18.188
 6104.00    1.31627   1.36486   17.811
 6105.00    1.35074   1.36794   17.549
 6106.00    1.38749   1.37437   17.234
 6107.00    1.41914   1.37984   16.974
 6108.00    1.44309   1.38434   17.058
 6109.00    1.45587   1.38986   17.493
 6110.00    1.45500   1.39681   18.037
 6111.00    1.44480   1.40199   18.468
 6112.00    1.43247   1.40377   18.684
 6113.00    1.41951   1.40469   18.771
 6114.00    1.40296   1.40634   18.865
 6115.00    1.38000   1.40718   18.916
 6116.00    1.35183   1.40510   18.869
 6117.00    1.32750   1.39994   18.946
 6118.00    1.31527   1.39382   19.363
 6119.00    1.31190   1.38768   19.950
 6120.00    1.30947   1.38059   20.382
 6121.00    1.30433   1.37303   20.570
 6122.00    1.29772   1.36607   20.471
 6123.00    1.29498   1.36134   19.871
 6124.00    1.30028   1.36175   18.751
 6125.00    1.31268   1.36592   17.473
 6126.00    1.33075   1.36993   16.435
 6127.00    1.35522   1.37355   15.902
 6128.00    1.38020   1.37755   16.013
 6129.00    1.38995   1.38164   16.805
 6130.00    1.37847   1.38486   17.936
 6131.00    1.35685   1.38598   18.445
 6132.00    1.32606   1.38348   18.395
 6133.00    1.26036   1.37667   19.243
 6134.00    1.10267   1.36735   -2.000
 6135.00    0.79021   1.35724   -2.000
 6136.00    0.36995   1.34635   -2.000
 6137.00    0.00753   1.33457   -2.000
 6138.00   -0.17124   1.32568   -2.000
 6139.00   -0.12936   1.32609   -2.000
 6140.00    0.12961   1.33462   -2.000
 6141.00    0.55797   1.34403   -2.000
 6142.00    1.00347   1.35142   -2.000
 6143.00    1.27178   1.36008   -2.000
 6144.00    1.33775   1.37163   -2.000
 6145.00    1.32460   1.38126   -2.000
 6146.00    1.31771   1.38565   15.935
 6147.00    1.33473   1.38669   15.026
 6148.00    1.36043   1.38653   16.224
 6149.00    1.37194   1.38513   18.342
 6150.00    1.37032   1.38242   19.927
 6151.00    1.37026   1.37944   20.242
 6152.00    1.37322   1.37757   19.871
 6153.00    1.37174   1.37650   19.793
 6154.00    1.36247   1.37472   20.153
 6155.00    1.34701   1.37078   20.510
 6156.00    1.33010   1.36509   20.272
 6157.00    1.31549   1.35765   19.366
 6158.00    1.30174   1.34657   18.607
 6159.00    1.28633   1.33231   18.502
 6160.00    1.27041   1.31725   18.563
 6161.00    1.25648   1.30168   18.372
 6162.00    1.24574   1.28553   18.465
 6163.00    1.23797   1.27301   19.147
 6164.00    1.23174   1.26822   19.524
 6165.00    1.22645   1.26910   18.832
 6166.00    1.22378   1.27157   17.706
 6167.00    1.22691   1.27514   16.860
 6168.00    1.23934   1.28134   16.455
 6169.00    1.26042   1.28722   16.506
 6170.00    1.28403   1.28989   17.046
 6171.00    1.30492   1.29346   18.077
 6172.00    1.32145   1.30123   19.459
 6173.00    1.33175   1.30952   20.739
 6174.00    1.33323   1.31548   21.192
 6175.00    1.32794   1.32150   20.866
 6176.00    1.32266   1.32856   20.664
 6177.00    1.32087   1.33478   20.872
 6178.00    1.32125   1.33993   21.018
 6179.00    1.32265   1.34526   20.836
 6180.00    1.32493   1.34983   20.503
 6181.00    1.32658   1.35268   20.233
 6182.00    1.32521   1.35491   20.104
 6183.00    1.32060   1.35603   19.948
 6184.00    1.31494   1.35460   19.537
 6185.00    1.31167   1.35086   19.011
 6186.00    1.31295   1.34521   18.653
 6187.00    1.31553   1.33687   18.413
 6188.00    1.31313   1.32706   18.182
 6189.00    1.30239   1.31864   18.325
 6190.00    1.28462   1.31276   19.132
 6191.00    1.26675   1.30788   19.696
 6192.00    1.25771   1.30388   18.870
 6193.00    1.26249   1.30544   17.539
 6194.00    1.27501   1.31306   17.004
 6195.00    1.27128   1.32077   17.621
 6196.00    1.22564   1.32623   18.444
 6197.00    1.13079   1.33146   -1.000
 6198.00    1.00588   1.33702   -1.000
 6199.00    0.89966   1.34056   -1.000
 6200.00    0.86278   1.34105   -1.000
 6201.00    0.92105   1.34160   -1.000
 6202.00    1.06463   1.34499    6.988
 6203.00    1.24411   1.34979    7.543
 6204.00    1.39309   1.35377    9.361
 6205.00    1.45287   1.35681   12.741
 6206.00    1.42390   1.35963   16.917
 6207.00    1.38050   1.36164   19.764
 6208.00    1.37284   1.36130   20.119
 6209.00    1.38209   1.35797   19.384
 6210.00    1.38181   1.35184   18.910
 6211.00    1.36731   1.34339   18.899
 6212.00    1.34022   1.33366   19.116
 6213.00    1.30279   1.32344   19.212
 6214.00    1.26491   1.31269   19.143
 6215.00    1.24278   1.30299   19.178
 6216.00    1.24440   1.29586   19.252
 6217.00    1.26526   1.29194   19.024
 6218.00    1.29170   1.29136   18.793
 6219.00    1.30832   1.29203   19.209
 6220.00    1.31489   1.29230   19.925
 6221.00    1.32317   1.29377   19.790
 6222.00    1.33769   1.29745   18.978
 6223.00    1.35307   1.30156   18.603
 6224.00    1.35907   1.30405   18.953
 6225.00    1.34834   1.30471   19.693
 6226.00    1.32849   1.30437   20.397
 6227.00    1.31294   1.30240   20.752
 6228.00    1.30154   1.29857   20.853
 6229.00    1.28692   1.29398   20.985
 6230.00    1.26914   1.28878   21.126
 6231.00    1.25500   1.28391   21.095
 6232.00    1.25371   1.28254   20.873
 6233.00    1.26953   1.28563   20.548
 6234.00    1.29438   1.29049   20.176
 6235.00    1.31579   1.29610   19.837
 6236.00    1.32642   1.30118   19.690
 6237.00    1.32453   1.30389   19.801
 6238.00    1.31324   1.30370   20.016
 6239.00    1.29888   1.30069   20.140
 6240.00    1.28887   1.29531   20.133
 6241.00    1.28562   1.28916   20.081
 6242.00    1.28332   1.28433   20.136
 6243.00    1.27801   1.28006   20.368
 6244.00    1.27368   1.27622   20.679
 6245.00    1.27613   1.27580   20.881
 6246.00    1.28824   1.27821   20.798
 6247.00    1.30624   1.28095   20.555
 6248.00    1.31973   1.28419   20.565
 6249.00    1.32079   1.28751   20.931
 6250.00    1.30855   1.28889   21.292
 6251.00    1.28927   1.28754   21.398
 6252.00    1.27349   1.28320   21.344
 6253.00    1.26569   1.27584   21.219
 6254.00    1.26222   1.26800   21.022
 6255.00    1.25768   1.26166   20.868
 6256.00    1.24890   1.25720   20.902
 6257.00    1.23965   1.25425   20.882
 6258.00    1.23822   1.25350   20.446
 6259.00    1.24762   1.25645   20.097
 6260.00    1.26480   1.26382   20.503
 6261.00    1.28506   1.27352   20.617
 6262.00    1.30420   1.28235   19.326
 6263.00    1.32064   1.29160   19.384
 6264.00    1.33316   1.30140   22.514
 6265.00    1.33634   1.30806   21.544
 6266.00    1.32591   1.31101   12.093
 6267.00    1.30855   1.31406    7.911
 6268.00    1.29672   1.31780    7.158
 6269.00    1.29835   1.31971    7.648
 6270.00    1.31220   1.32022    7.852
 6271.00    1.32468   1.32154    7.560
 6272.00    1.32344   1.32404    7.417
 6273.00    1.31282   1.32657    7.619
 6274.00    1.30551   1.32814    7.906
 6275.00    1.31136   1.32856    7.591
 6276.00    1.33065   1.32833    6.957
 6277.00    1.35021   1.32730    7.604
 6278.00    1.35559   1.32546   11.889
 6279.00    1.34169   1.32341   22.514
 6280.00    1.31413   1.32139    0.000
 6281.00    1.28776   1.31976    0.000
 6282.00    1.27348   1.32026    0.000
 6283.00    1.27052   1.32344    0.000
 6284.00    1.27256   1.32811    0.000
 6285.00    1.27248   1.33337    0.000
 6286.00    1.26628   1.33830    0.000
 6287.00    1.25490   1.34307    0.000
 6288.00    1.24286   1.34721    0.000
 6289.00    1.23622   1.34960    0.000
 6290.00    1.23754   1.34974    0.000
 6291.00    1.24513   1.34772    0.000
 6292.00    1.25816   1.34425    0.000
 6293.00    1.27692   1.33976    0.000
 6294.00    1.29777   1.33460    0.000
 6295.00    1.31383   1.32977    0.000
 6296.00    1.32152   1.32488    0.000
 6297.00    1.32183   1.31882    0.000
 6298.00    1.31870   1.31286    0.000
 6299.00    1.31678   1.30931    0.000
 6300.00    1.31762   1.30818    0.000
 6301.00    1.31910   1.30730    0.000
 6302.00    1.31612   1.30644    0.000
 6303.00    1.30620   1.30840    0.000
 6304.00    1.29850   1.31438    0.000
 6305.00    1.30437   1.32144    0.000
 6306.00    1.32038   1.32706    0.000
 6307.00    1.33489   1.33229    0.000
 6308.00    1.34089   1.33798    0.000
 6309.00    1.33741   1.34194    0.000
 6310.00    1.32859   1.34246    0.000
 6311.00    1.31866   1.33976    0.000
 6312.00    1.30678   1.33545    0.000
 6313.00    1.29120   1.33112    0.000
 6314.00    1.27367   1.32615    0.000
 6315.00    1.25811   1.31902    0.000
 6316.00    1.24869   1.31245    0.000
 6317.00    1.24760   1.31003    0.000
 6318.00    1.25358   1.30911    0.000
 6319.00    1.26251   1.30751    0.000
 6320.00    1.26886   1.30942    0.000
 6321.00    1.27125   1.31596   21.075
 6322.00    1.27473   1.32270   21.382
 6323.00    1.28370   1.32810   21.491
 6324.00    1.29797   1.33455   21.503
 6325.00    1.31336   1.34219   21.602
 6326.00    1.32382   1.34804   21.894
 6327.00    1.32861   1.35135   22.126
 6328.00    1.33305   1.35353   21.676
 6329.00    1.33893   1.35579   20.216
 6330.00    1.34253   1.35696   18.138
 6331.00    1.34109   1.35519   16.371
 6332.00    1.33579   1.35179   15.558
 6333.00    1.33351   1.34864   15.470
 6334.00    1.34205   1.34539   15.496
 6335.00    1.35631   1.34015   15.627
 6336.00    1.36233   1.33359   16.304
 6337.00    1.35630   1.32975   17.364
 6338.00    1.34533   1.32993   17.990
 6339.00    1.33918   1.33097   17.977
 6340.00    1.34457   1.33121   17.881
 6341.00    1.35830   1.33291   18.124
 6342.00    1.37061   1.33597   18.808
 6343.00    1.37324   1.33746   19.653
 6344.00    1.36313   1.33691   20.215
 6345.00    1.34550   1.33688   20.494
 6346.00    1.32828   1.33903   20.715
 6347.00    1.31417   1.34155   20.745
 6348.00    1.30217   1.34368   20.518
 6349.00    1.29088   1.34660   20.588
 6350.00    1.27981   1.34959   21.333
 6351.00    1.27034   1.35047   22.097
 6352.00    1.26631   1.34924   21.938
 6353.00    1.27362   1.34691   20.917
 6354.00    1.29271   1.34240   19.755
 6355.00    1.31333   1.33478   19.095
 6356.00    1.32379   1.32650   19.042
 6357.00    1.31868   1.31990   19.112
 6358.00    1.30196   1.31284   19.063
 6359.00    1.28629   1.30414   19.321
 6360.00    1.27833   1.29742   20.000
 6361.00    1.27238   1.29478   20.355
 6362.00    1.26375   1.29361   19.760
 6363.00    1.25511   1.29326   18.481
 6364.00    1.25077   1.29634   17.174
 6365.00    1.25371   1.30312   16.350
 6366.00    1.26494   1.31096   16.136
 6367.00    1.28363   1.31873   16.424
 6368.00    1.30814   1.32730   17.133
 6369.00    1.33571   1.33641   18.216
 6370.00    1.36008   1.34400   19.473
 6371.00    1.37332   1.34960   20.473
 6372.00    1.37344   1.35463   20.861
 6373.00    1.36537   1.35963   20.622
 6374.00    1.35754   1.36299   20.027
 6375.00    1.35759   1.36382   19.429
 6376.00    1.36486   1.36343   19.061
 6377.00    1.37181   1.36267   19.013
 6378.00    1.37056   1.36074   19.221
 6379.00    1.35725   1.35756   19.548
 6380.00    1.33724   1.35467   19.932
 6381.00    1.32172   1.35265   20.190
 6382.00    1.32064   1.35140   19.676
 6383.00    1.33611   1.35155   18.142
 6384.00    1.35549   1.35245   16.522
 6385.00    1.36294   1.35290   15.548
 6386.00    1.35507   1.35353   15.153
 6387.00    1.33726   1.35481   15.161
 6388.00    1.31683   1.35510   15.711
 6389.00    1.29921   1.35298   16.982
 6390.00    1.28542   1.34930   18.730
 6391.00    1.27810   1.34582   20.036
 6392.00    1.28588   1.34255   19.620
 6393.00    1.31126   1.33810   17.836
 6394.00    1.34206   1.33348   16.581
 6395.00    1.36325   1.33197   16.525
 6396.00    1.36631   1.33259   16.972
 6397.00    1.35080   1.33228   17.320
 6398.00    1.32430   1.33268   17.851
 6399.00    1.29805   1.33462   18.777
 6400.00    1.28327   1.33512   19.601
 6401.00    1.28522   1.33516   19.894
 6402.00    1.30081   1.33962   19.891
 6403.00    1.32163   1.34572   19.885
 6404.00    1.33722   1.34850   19.874
 6405.00    1.34233   1.34993   19.596
 6406.00    1.33942   1.35276   18.761
 6407.00    1.33652   1.35388   17.624
 6408.00    1.34259   1.35055   16.730
 6409.00    1.35564   1.34672   16.245
 6410.00    1.36464   1.34582   16.105
 6411.00    1.36525   1.34469   16.444
 6412.00    1.36110   1.34136   17.505
 6413.00    1.35571   1.34005   18.999
 6414.00    1.34945   1.34185   20.020
 6415.00    1.33771   1.34287   20.424
 6416.00    1.31641   1.34208   20.891
 6417.00    1.29317   1.34130   21.387
 6418.00    1.28047   1.34054   21.408
 6419.00    1.28015   1.33987   21.266
 6420.00    1.28737   1.33940   21.547
 6421.00    1.30060   1.33882   21.938
 6422.00    1.31938   1.33984   21.768
 6423.00    1.33917   1.34461   21.155
 6424.00    1.35337   1.35099   20.530
 6425.00    1.35702   1.35546   19.927
 6426.00    1.35005   1.35833   19.419
 6427.00    1.33978   1.36044   19.465
 6428.00    1.33310   1.36082   19.966
 6429.00    1.32925   1.35895   19.507
 6430.00    1.32585   1.35525   18.428
 6431.00    1.32445   1.35051   20.022
 6432.00    1.32685   1.34726   22.514
 6433.00    1.33249   1.34741   17.133
 6434.00    1.34234   1.34860    9.579
 6435.00    1.36015   1.34860    7.076
 6436.00    1.38257   1.34891    6.879
 6437.00    1.39667   1.35147    7.266
 6438.00    1.40064   1.35399    7.258
 6439.00    1.40958   1.35417    7.057
 6440.00    1.42703   1.35520    6.981
 6441.00    1.43651   1.36057    6.964
 6442.00    1.42665   1.36706    6.990
 6443.00    1.40069   1.37111    7.179
 6444.00    1.36929   1.37403    7.393
 6445.00    1.34429   1.37597    7.287
 6446.00    1.32835   1.37385    7.265
 6447.00    1.31536   1.36772    8.314
 6448.00    1.30282   1.36062   10.793
 6449.00    1.29362   1.35243   12.448
 6450.00    1.29082   1.34269   11.676
 6451.00    1.29491   1.33557   11.020
 6452.00    1.30131   1.33415   10.930
 6453.00    1.30354   1.33545   10.605
 6454.00    1.30098   1.33764   10.805
 6455.00    1.29827   1.34132   13.243
 6456.00    1.30098   1.34565   18.626
 6457.00    1.31217   1.34972   21.848
 6458.00    1.32842   1.35328   20.158
 6459.00    1.34209   1.35425   19.209
 6460.00    1.34599   1.35305   19.809
 6461.00    1.33727   1.35222   20.474
 6462.00    1.32140   1.35046   20.668
 6463.00    1.30756   1.34648   20.663
 6464.00    1.30260   1.34509   20.617
 6465.00    1.30953   1.34830   20.574
 6466.00    1.32686   1.35150   20.599
 6467.00    1.35069   1.35354   20.676
 6468.00    1.37660   1.35649   20.639
 6469.00    1.39896   1.35972   20.465
 6470.00    1.41095   1.36106   20.451
 6471.00    1.40954   1.36036   20.661
 6472.00    1.39857   1.35823   20.623
 6473.00    1.38386   1.35677   20.141
 6474.00    1.36974   1.35671   19.718
 6475.00    1.35891   1.35558   19.701
 6476.00    1.35207   1.35355   19.967
 6477.00    1.34588   1.35303   20.250
 6478.00    1.33422   1.35262   20.344
 6479.00    1.31889   1.34953   20.302
 6480.00    1.31114   1.34573   20.405
 6481.00    1.31712   1.34285   20.671
 6482.00    1.33241   1.33911   20.791
 6483.00    1.34534   1.33491   20.743
 6484.00    1.34410   1.33335   20.863
 6485.00    1.33490   1.33416   21.255
 6486.00    1.33831   1.33448   21.677
 6487.00    1.36177   1.33362   21.800
 6488.00    1.39479   1.33219   21.450
 6489.00    1.41783   1.32888   20.917
 6490.00    1.41348   1.32094   20.655
 6491.00    1.38559   1.30792   20.681
 6492.00    1.35181   1.29269   20.719
 6493.00    1.32007   1.27697   20.622
 6494.00    1.28969   1.26019   20.444
 6495.00    1.26215   1.24423   20.376
 6496.00    1.24112   1.23367   20.520
 6497.00    1.22940   1.23039   20.574
 6498.00    1.22816   1.23301   20.251
 6499.00    1.23662   1.24054   19.925
 6500.00    1.25202   1.25206   20.021
 6501.00    1.26984   1.26713   20.305
 6502.00    1.28806   1.28361   20.375
 6503.00    1.31112   1.29877   20.312
 6504.00    1.34130   1.31149   20.384
 6505.00    1.37036   1.32189   20.655
 6506.00    1.38808   1.33022   20.966
 6507.00    1.39078   1.33631   20.985
 6508.00    1.38202   1.33988   20.714
 6509.00    1.37143   1.34126   20.741
 6510.00    1.36589   1.34210   21.235
 6511.00    1.36413   1.34256   21.408
 6512.00    1.36246   1.34134   20.927
 6513.00    1.35889   1.33874   20.648
 6514.00    1.35418   1.33610   20.907
 6515.00    1.35140   1.33285   20.972
 6516.00    1.35139   1.32884   20.500
 6517.00    1.35133   1.32595   20.075
 6518.00    1.34862   1.32479   20.006
 6519.00    1.34295   1.32427   20.058
 6520.00    1.33719   1.32524   20.073
 6521.00    1.33647   1.32871   20.111
 6522.00    1.34405   1.33263   20.103
 6523.00    1.35938   1.33509   19.869
 6524.00    1.37685   1.33689   19.567
 6525.00    1.38861   1.33898   19.549
 6526.00    1.39307   1.34005   19.723
 6527.00    1.39441   1.33906   19.696
 6528.00    1.39557   1.33755    0.000
 6529.00    1.39570   1.33707    0.000
 6530.00    1.38869   1.33678    0.000
 6531.00    1.36867   1.33610    0.000
 6532.00    1.34075   1.33578    0.000
 6533.00    1.31704   1.33612    0.000
 6534.00    1.30623   1.33675    0.000
 6535.00    1.31126   1.33815    0.000
 6536.00    1.32863   1.34044    0.000
 6537.00    1.34968   1.34247    0.000
 6538.00    1.36290   1.34343    0.000
 6539.00    1.36269   1.34386    0.000
 6540.00    1.35845   1.34376    0.000
 6541.00    1.36185   1.34201    0.000
 6542.00    1.37266   1.33767    0.000
 6543.00    1.38706   1.33132    0.000
 6544.00    1.40666   1.32493    0.000
 6545.00    1.43326   1.31899    0.000
 6546.00    1.46383   1.31223    0.000
 6547.00    1.49115   1.30525    0.000
 6548.00    1.50542   1.30063    0.000
 6549.00    1.49925   1.29780    0.000
 6550.00    1.47125   1.29417    0.000
 6551.00    1.42716   1.28921    0.000
 6552.00    1.37873   1.28364    0.000
 6553.00    1.33551   1.27746    0.000
 6554.00    1.30168   1.26948    0.000
 6555.00    1.28286   1.25825    0.000
 6556.00    1.28690   1.24401    0.000
 6557.00    1.31330   1.22823    0.000
 6558.00    1.35100   1.20902    0.000
 6559.00    1.38774   1.18225    0.000
 6560.00    1.41501   1.15268    0.000
 6561.00    1.43208   1.12889    0.000
 6562.00    1.44439   1.10800    0.000
 6563.00    1.45507   1.08722    0.000
 6564.00    1.46278   1.07972    0.000
 6565.00    1.46341   1.09255    0.000
 6566.00    1.45208   1.11282    0.000
 6567.00    1.42672   1.13431    0.000
 6568.00    1.38966   1.16158    0.000
 6569.00    1.34896   1.19006    0.000
 6570.00    1.31569   1.21166    0.000
 6571.00    1.29839   1.22752    0.000
 6572.00    1.29889   1.24012    0.000
 6573.00    1.30787   1.24894    0.000
 6574.00    1.31299   1.25531    0.000
 6575.00    1.31190   1.26160    0.000
 6576.00    1.31204   1.26845    0.000
 6577.00    1.32751   1.27571    0.000
 6578.00    1.37204   1.28269    0.000
 6579.00    1.45100   1.28921    0.000
 6580.00    1.55606   1.29515    0.000
 6581.00    1.66234   1.29968    0.000
 6582.00    1.74427   1.30288    0.000
 6583.00    1.79001   1.30581    0.000
 6584.00    1.79579   1.30858    0.000
 6585.00    1.76080   1.31055    0.000
 6586.00    1.69148   1.31161    0.000
 6587.00    1.60403   1.31215    0.000
 6588.00    1.51700   1.31228    0.000
 6589.00    1.44542   1.31041    0.000
 6590.00    1.39544   1.30581    0.000
 6591.00    1.36310   1.30103    0.000
 6592.00    1.34309   1.29664    0.000
 6593.00    1.33225   1.29080    0.000
 6594.00    1.32393   1.28534    0.000
 6595.00    1.30869   1.28415    0.000
 6596.00    1.28773   1.28632    0.000
 6597.00    1.27426   1.28927    0.000
 6598.00    1.27846   1.29336    0.000
 6599.00    1.30062   1.29883    0.000
 6600.00    1.32783   1.30458    0.000
 6601.00    1.34052   1.30932    0.000
 6602.00    1.33344   1.31218    0.000
 6603.00    1.31714   1.31325    0.000
 6604.00    1.30631   1.31293    0.000
 6605.00    1.31118   1.31081    0.000
 6606.00    1.32599   1.30728    0.000
 6607.00    1.33658   1.30447    0.000
 6608.00    1.34043   1.30287    0.000
 6609.00    1.34404   1.30149   19.813
 6610.00    1.35128   1.30106   19.794
 6611.00    1.36187   1.30374   19.886
 6612.00    1.37259   1.30863   19.798
 6613.00    1.37922   1.31282   19.298
 6614.00    1.37905   1.31633   18.879
 6615.00    1.37157   1.32074   19.096
 6616.00    1.35905   1.32542   19.908
 6617.00    1.34816   1.32822   20.911
 6618.00    1.35073   1.32942   21.617
 6619.00    1.37196   1.33036   21.667
 6620.00    1.39983   1.33057   21.133
 6621.00    1.41680   1.32896   20.507
 6622.00    1.41200   1.32618   20.448
 6623.00    1.38793   1.32337   21.019
 6624.00    1.36259   1.31996   21.226
 6625.00    1.35142   1.31575   20.549
 6626.00    1.35524   1.31223   19.933
 6627.00    1.36593   1.30999   19.921
 6628.00    1.37218   1.30764   20.001
 6629.00    1.36860   1.30499   19.767
 6630.00    1.35897   1.30244   19.463
 6631.00    1.34741   1.29979   19.339
 6632.00    1.33470   1.29746   19.404
 6633.00    1.32238   1.29541   19.635
 6634.00    1.31421   1.29354   20.032
 6635.00    1.31470   1.29304   20.450
 6636.00    1.32709   1.29450   20.612
 6637.00    1.34890   1.29660   20.478
 6638.00    1.37151   1.29906   20.310
 6639.00    1.38406   1.30161   20.352
 6640.00    1.37851   1.30267   20.668
 6641.00    1.35978   1.30289   20.900
 6642.00    1.34128   1.30379   20.588
 6643.00    1.32788   1.30350   20.181
 6644.00    1.31712   1.30119   20.423
 6645.00    1.31067   1.30040   20.875
 6646.00    1.31172   1.30188   20.526
 6647.00    1.31562   1.30249   19.837
 6648.00    1.31505   1.30227   19.721
 6649.00    1.31161   1.30341   19.651
 6650.00    1.31310   1.30503   18.547
 6651.00    1.32603   1.30533   16.557
 6652.00    1.35047   1.30500   14.609
 6653.00    1.37514   1.30490   13.410
 6654.00    1.38695   1.30462   13.096
 6655.00    1.38294   1.30399   13.254
 6656.00    1.36914   1.30314   13.372
 6657.00    1.35689   1.30169   13.266
 6658.00    1.35169   1.29990   13.110
 6659.00    1.34473   1.29770   13.318
 6660.00    1.32874   1.29406   14.109
 6661.00    1.31047   1.28997   15.143
 6662.00    1.29694   1.28675   16.005
 6663.00    1.28573   1.28334   16.914
 6664.00    1.27569   1.27972   18.057
 6665.00    1.27287   1.27867   18.815
 6666.00    1.27986   1.28016   18.661
 6667.00    1.29057   1.28195   18.049
 6668.00    1.29812   1.28462   17.682
 6669.00    1.29952   1.28889   18.010
 6670.00    1.29668   1.29344   18.907
 6671.00    1.29522   1.29678   19.543
 6672.00    1.29793   1.29892   19.570
 6673.00    1.30358   1.29984   19.592
 6674.00    1.31263   1.29838   19.794
 6675.00    1.32688   1.29454   19.717
 6676.00    1.34084   1.29043   19.374
 6677.00    1.34346   1.28622   19.297
 6678.00    1.33140   1.28042   19.670
 6679.00    1.31064   1.27570   20.254
 6680.00    1.29035   1.27518   20.699
 6681.00    1.27770   1.27626   20.785
 6682.00    1.27047   1.27710   20.800
 6683.00    1.26495   1.28005   20.907
 6684.00    1.27479   1.28458   19.810
 6685.00    1.31658   1.28807   16.807
 6686.00    1.37726   1.29063   13.874
 6687.00    1.42651   1.29306   12.128
 6688.00    1.44645   1.29470   11.223
 6689.00    1.43471   1.29524   10.786
 6690.00    1.40137   1.29542   10.886
 6691.00    1.36160   1.29520   11.693
 6692.00    1.32686   1.29404   12.993
 6693.00    1.30509   1.29207   14.095
 6694.00    1.30172   1.29015   14.332
 6695.00    1.31375   1.28831   13.834
 6696.00    1.32536   1.28592    0.000
 6697.00    1.32487   1.28390    0.000
 6698.00    1.31906   1.28340    0.000
 6699.00    1.32002   1.28350    0.000
 6700.00    1.33328   1.28357    0.000
 6701.00    1.35739   1.28428    0.000
 6702.00    1.38481   1.28522    0.000
 6703.00    1.40550   1.28567    0.000
 6704.00    1.41068   1.28555    0.000
 6705.00    1.40078   1.28525    0.000
 6706.00    1.38641   1.28524    0.000
 6707.00    1.37036   1.28503    0.000
 6708.00    1.34478   1.28433    0.000
 6709.00    1.32034   1.28346    0.000
 6710.00    1.32807   1.28193    0.000
 6711.00    1.37350   1.27902    0.000
 6712.00    1.42841   1.27545    0.000
 6713.00    1.46856   1.27120    0.000
 6714.00    1.48640   1.26543    0.000
 6715.00    1.48679   1.25961    0.000
 6716.00    1.47982   1.25531    0.000
 6717.00    1.46582   1.25180    0.000
 6718.00    1.43816   1.24886    0.000
 6719.00    1.40049   1.24858    0.000
 6720.00    1.36680   1.25136    0.000
 6721.00    1.35127   1.25464    0.000
 6722.00    1.35948   1.25773    0.000
 6723.00    1.37653   1.26164    0.000
 6724.00    1.38439   1.26592    0.000
 6725.00    1.39450   1.26913    0.000
 6726.00    1.42412   1.27109    0.000
 6727.00    1.45274   1.27297    0.000
 6728.00    1.45209   1.27518    0.000
 6729.00    1.43468   1.27686    0.000
 6730.00    1.42801   1.27786    0.000
 6731.00    1.43562   1.27902    0.000
 6732.00    1.44860   1.28002    0.000
 6733.00    1.46287   1.28019    0.000
 6734.00    1.47242   1.27971    0.000
 6735.00    1.46281   1.27886    0.000
 6736.00    1.42694   1.27744    0.000
 6737.00    1.37723   1.27572    0.000
 6738.00    1.32742   1.27383    0.000
 6739.00    1.27967   1.27142    0.000
 6740.00    1.23917   1.26895    0.000
 6741.00    1.22180   1.26743    0.000
 6742.00    1.23406   1.26631    0.000
 6743.00    1.26440   1.26446    0.000
 6744.00    1.30648   1.26288    0.000
 6745.00    1.36544   1.26239    0.000
 6746.00    1.42453   1.26128    0.000
 6747.00    1.44194   1.25911    0.000
 6748.00    1.40832   1.25776    0.000
 6749.00    1.35897   1.25686    0.000
 6750.00    1.32324   1.25526    0.000
 6751.00    1.30743   1.25456    0.000
 6752.00    1.30600   1.25583    0.000
 6753.00    1.30850   1.25744   18.928
 6754.00    1.30758   1.25952   18.867
 6755.00    1.30198   1.26363   18.822
 6756.00    1.29758   1.26817   18.839
 6757.00    1.30295   1.27222   18.911
 6758.00    1.31843   1.27659   18.807
 6759.00    1.33728   1.28054   18.258
 6760.00    1.35359   1.28337   17.395
 6761.00    1.36314   1.28518   16.581
 6762.00    1.36192   1.28586   16.084
 6763.00    1.34582   1.28517   16.065
 6764.00    1.31129   1.28339   16.618
 6765.00    1.26502   1.28081   17.681
 6766.00    1.23630   1.27796   18.661
 6767.00    1.24676   1.27486   18.606
 6768.00    1.27070   1.27160   17.252
 6769.00    1.27126   1.26981   15.347
 6770.00    1.24791   1.26990   13.858
 6771.00    1.22246   1.27047   13.128
 6772.00    1.21711   1.27199   12.957
 6773.00    1.23757   1.27562   13.169
 6774.00    1.26278   1.27989   13.873
 6775.00    1.27634   1.28367   15.151
 6776.00    1.28956   1.28740   16.616
 6777.00    1.30872   1.29050   17.651
 6778.00    1.31455   1.29182   18.135
 6779.00    1.29801   1.29149   18.359
 6780.00    1.27951   1.28969   18.637
 6781.00    1.27418   1.28609   19.069
 6782.00    1.27469   1.28139   19.456
 6783.00    1.27335   1.27626   19.624
 6784.00    1.27241   1.27111   19.621
 6785.00    1.27471   1.26707   19.580
 6786.00    1.27985   1.26455   19.585
 6787.00    1.28763   1.26305   19.481
 6788.00    1.29853   1.26313   18.951
 6789.00    1.31024   1.26464   18.057
 6790.00    1.31848   1.26586   17.185
 6791.00    1.32389   1.26688   16.560
 6792.00    1.33027   1.26846   16.241
 6793.00    1.33316   1.26938   16.295
 6794.00    1.32298   1.26941   16.751
 6795.00    1.30119   1.26995   17.320
 6796.00    1.28041   1.27094   17.413
 6797.00    1.27493   1.27168   16.723
 6798.00    1.29221   1.27290   15.555
 6799.00    1.32100   1.27456   14.621
 6800.00    1.34038   1.27595   14.410
 6801.00    1.34030   1.27715   14.807
 6802.00    1.32203   1.27827   15.482
 6803.00    1.29300   1.27884   16.448
 6804.00    1.26480   1.27852   17.851
 6805.00    1.25103   1.27812   19.229
 6806.00    1.25821   1.27795   19.774
 6807.00    1.27561   1.27693   19.599
 6808.00    1.28617   1.27580   19.376
 6809.00    1.28057   1.27571   19.402
 6810.00    1.26020   1.27531   19.639
 6811.00    1.23786   1.27433   19.849
 6812.00    1.22812   1.27409   19.762
 6813.00    1.23824   1.27421   19.292
 6814.00    1.26385   1.27411   18.654
 6815.00    1.28834   1.27399   18.276
 6816.00    1.29898   1.27415   18.307
 6817.00    1.29730   1.27502   18.457
 6818.00    1.28984   1.27607   18.553
 6819.00    1.28153   1.27705   18.814
 6820.00    1.27366   1.27837   19.226
 6821.00    1.26461   1.27982   19.278
 6822.00    1.25751   1.28135   18.869
 6823.00    1.26080   1.28286   18.558
 6824.00    1.27351   1.28374   18.538
 6825.00    1.28309   1.28399   18.487
 6826.00    1.28350   1.28400   18.411
 6827.00    1.28011   1.28381   18.681
 6828.00    1.28117   1.28297   19.043
 6829.00    1.29165   1.28182   18.663
 6830.00    1.30443   1.28150   17.721
 6831.00    1.30606   1.28186   17.113
 6832.00    1.29978   1.28204   16.927
 6833.00    1.30024   1.28195   16.746
 6834.00    1.30545   1.28185   16.649
 6835.00    1.30202   1.28122   17.057
 6836.00    1.29125   1.27916   17.978
 6837.00    1.28475   1.27577   18.954
 6838.00    1.28483   1.27168   19.380
 6839.00    1.28299   1.26708   19.051
 6840.00    1.26472   1.26238   18.723
 6841.00    1.22488   1.25861   19.157
 6842.00    1.18800   1.25628   19.955
 6843.00    1.18279   1.25571   20.189
 6844.00    1.20446   1.25714   19.890
 6845.00    1.23017   1.26015   19.667
 6846.00    1.24422   1.26400   19.779
 6847.00    1.24294   1.26784   20.127
 6848.00    1.23574   1.27114   20.314
 6849.00    1.23388   1.27358   20.059
 6850.00    1.23968   1.27459   19.619
 6851.00    1.24948   1.27403   19.302
 6852.00    1.25746   1.27209   19.117
 6853.00    1.25988   1.26955   18.958
 6854.00    1.25770   1.26673   18.759
 6855.00    1.25372   1.26288   18.566
 6856.00    1.24999   1.25919   18.532
 6857.00    1.24538   1.25735   18.665
 6858.00    1.23624   1.25565   18.739
 6859.00    1.22742   1.25392   18.678
 6860.00    1.23308   1.25448   18.679
 6861.00    1.25172   1.25593   18.734
 6862.00    1.26208   1.25656   18.553
 6863.00    1.25711   1.25820   18.204
 6864.00    1.25160   1.26078   18.119
 6865.00    1.25505   1.26204   18.281
 6866.00    1.26467   1.26239   18.185
 6867.00    1.27797   1.26317   17.687
 6868.00    1.29444   1.26313   17.129
 6869.00    1.30795   1.26183   16.805
 6870.00    1.30965   1.26134   16.835
 6871.00    1.30165   1.26168   17.142
 6872.00    1.29439   1.26150   17.505
 6873.00    1.29220   1.26187   17.727
 6874.00    1.29405   1.26394   17.756
 6875.00    1.30207   1.26614   17.808
 6876.00    1.31673   1.26760   18.137
 6877.00    1.32530   1.26957   18.583
 6878.00    1.31407   1.27172   18.784
 6879.00    1.29108   1.27247   18.801
 6880.00    1.27510   1.27222   18.863
 6881.00    1.27389   1.27211   18.819
 6882.00    1.28306   1.27158   18.539
 6883.00    1.28953   1.27033   18.474
 6884.00    1.28352   1.27011   18.953
 6885.00    1.27110   1.27149   19.395
 6886.00    1.26557   1.27296   19.125
 6887.00    1.27643   1.27482   18.531
 6888.00    1.30277   1.27849   18.189
 6889.00    1.33002   1.28215   18.107
 6890.00    1.34566   1.28453   18.064
 6891.00    1.35098   1.28712   17.891
 6892.00    1.35010   1.28947   17.621
 6893.00    1.34250   1.29022   17.514
 6894.00    1.33235   1.29031   17.635
 6895.00    1.33160   1.29059   17.692
 6896.00    1.34043   1.29021   17.584
 6897.00    1.34165   1.28940   17.627
 6898.00    1.33165   1.28920   17.915
 6899.00    1.32979   1.28949   18.111
 6900.00    1.34643   1.28979   18.065
 6901.00    1.37158   1.29031   18.026
 6902.00    1.39105   1.29161   18.127
 6903.00    1.39528   1.29336   18.246
 6904.00    1.38584   1.29489   18.309
 6905.00    1.37253   1.29637   18.351
 6906.00    1.35709   1.29798   18.347
 6907.00    1.33476   1.29928   18.206
 6908.00    1.31315   1.29960   17.952
 6909.00    1.30728   1.29905   17.729
 6910.00    1.31346   1.29795   17.724
 6911.00    1.31533   1.29568   18.025
 6912.00    1.31176   1.29244   18.340
 6913.00    1.31060   1.28948   18.234
 6914.00    1.30433   1.28627   17.898
 6915.00    1.28041   1.28303   17.866
 6916.00    1.24759   1.28164   18.335
 6917.00    1.22628   1.28113   19.124
 6918.00    1.22623   1.28072   19.603
 6919.00    1.24562   1.28173   19.258
 6920.00    1.27500   1.28313   18.667
 6921.00    1.30084   1.28372   18.523
 6922.00    1.31021   1.28404   18.631
 6923.00    1.30135   1.28399   18.616
 6924.00    1.29273   1.28337   18.688
 6925.00    1.29932   1.28244   19.046
 6926.00    1.30993   1.28185   19.247
 6927.00    1.30613   1.28188   18.942
 6928.00    1.28119   1.28245   18.580
 6929.00    1.24223   1.28335   18.541
 6930.00    1.20876   1.28430   18.611
 6931.00    1.19768   1.28543   18.495
 6932.00    1.21255   1.28661   18.193
 6933.00    1.24255   1.28721   17.810
 6934.00    1.26632   1.28744   17.435
 6935.00    1.27454   1.28843   17.191
 6936.00    1.27811   1.28964   17.204
 6937.00    1.28598   1.29027   17.324
 6938.00    1.29539   1.29122   17.145
 6939.00    1.29958   1.29216   16.807
 6940.00    1.29410   1.29230   16.977
 6941.00    1.28683   1.29185   17.695
 6942.00    1.29370   1.29051   18.187
 6943.00    1.31126   1.28869   18.085
 6944.00    1.31757   1.28715   17.826
 6945.00    1.30450   1.28524   17.677
 6946.00    1.28188   1.28343   17.582
 6947.00    1.26133   1.28329   17.538
 6948.00    1.25059   1.28335   17.569
 6949.00    1.25126   1.28286   17.444
 6950.00    1.25995   1.28359   16.927
 6951.00    1.27189   1.28429   16.375
 6952.00    1.27970   1.28384   16.308
 6953.00    1.27036   1.28424   16.734
 6954.00    1.23862   1.28517   17.301
 6955.00    1.20900   1.28573   17.640
 6956.00    1.21000   1.28737   17.611
 6957.00    1.23146   1.28992   17.544
 6958.00    1.24905   1.29231   17.729
 6959.00    1.26421   1.29484   17.764
 6960.00    1.28678   1.29751   17.281
 6961.00    1.30907   1.29984   16.839
 6962.00    1.31977   1.30175   16.887
 6963.00    1.32109   1.30312   16.933
 6964.00    1.32044   1.30428   16.570
 6965.00    1.32090   1.30546   16.389
 6966.00    1.32287   1.30596   16.659
 6967.00    1.32593   1.30619   16.470
 6968.00    1.32794   1.30670   15.498
 6969.00    1.32540   1.30652   14.901
 6970.00    1.32079   1.30558   15.166
 6971.00    1.32463   1.30423   15.505
 6972.00    1.33736   1.30162   15.243
 6973.00    1.34304   1.29786   14.751
 6974.00    1.33460   1.29342   14.600
 6975.00    1.32246   1.28736   15.100
 6976.00    1.31032   1.28065   16.130
 6977.00    1.28848   1.27542   16.963
 6978.00    1.25576   1.27118   17.182
 6979.00    1.22516   1.26777   17.241
 6980.00    1.20936   1.26781   -2.000
 6981.00    1.21509   1.27151   -2.000
 6982.00    1.24304   1.27595   -2.000
 6983.00    1.28412   1.28149   -2.000
 6984.00    1.30923   1.28870   -2.000
 6985.00    1.28651   1.29468   -2.000
 6986.00    1.23181   1.29866   -2.000
 6987.00    1.19449   1.30171   -2.000
 6988.00    1.19445   1.30347   -2.000
 6989.00    1.21965   1.30391   -2.000
 6990.00    1.25170   1.30390   -2.000
 6991.00    1.27539   1.30397   -2.000
 6992.00    1.28590   1.30392   -2.000
 6993.00    1.28644   1.30376   -2.000
 6994.00    1.28234   1.30359   -2.000
 6995.00    1.27780   1.30315   -2.000
 6996.00    1.27276   1.30227   -2.000
 6997.00    1.26509   1.30065   -2.000
 6998.00    1.25407   1.29853   -2.000
 6999.00    1.24381   1.29638   -2.000
 7000.00    1.24520   1.29384   -2.000
 7001.00    1.25999   1.29130   -2.000
 7002.00    1.26713   1.28956   -2.000
 7003.00    1.25090   1.28812   -2.000
 7004.00    1.22490   1.28670   -2.000
 7005.00    1.20691   1.28613   -2.000
 7006.00    1.19845   1.28659   -2.000
 7007.00    1.19732   1.28719   -2.000
 7008.00    1.20617   1.28769   -2.000
 7009.00    1.22144   1.28851   -2.000
 7010.00    1.22904   1.28939   -2.000
 7011.00    1.22318   1.28946   -2.000
 7012.00    1.21345   1.28856   -2.000
 7013.00    1.20474   1.28690   -2.000
 7014.00    1.19092   1.28461   -2.000
 7015.00    1.17391   1.28252   -2.000
 7016.00    1.16826   1.28060   -2.000
 7017.00    1.18372   1.27893   -2.000
 7018.00    1.21814   1.27954   -2.000
 7019.00    1.25807   1.28145   -2.000
 7020.00    1.28343   1.28236   -2.000
 7021.00    1.28086   1.28401   -2.000
 7022.00    1.25173   1.28662   -2.000
 7023.00    1.22140   1.28770   -2.000
 7024.00    1.22205   1.28768   -2.000
 7025.00    1.24516   1.28821   -2.000
 7026.00    1.25674   1.28924   -2.000
 7027.00    1.25591   1.29031   -2.000
 7028.00    1.26216   1.29177   -2.000
 7029.00    1.26588   1.29405   -2.000
 7030.00    1.24709   1.29659   -2.000
 7031.00    1.22347   1.29851   -2.000
 7032.00    1.22486   1.29974   -2.000
 7033.00    1.24240   1.30059   -2.000
 7034.00    1.25299   1.30126   -2.000
 7035.00    1.26196   1.30101   -2.000
 7036.00    1.27866   1.30053   -2.000
 7037.00    1.28251   1.30172   -2.000
 7038.00    1.25946   1.30322   -2.000
 7039.00    1.24182   1.30470   -2.000
 7040.00    1.25703   1.30891   -2.000
 7041.00    1.27890   1.31438   -2.000
 7042.00    1.27968   1.31856   -2.000
 7043.00    1.27461   1.32350   -2.000
 7044.00    1.28181   1.32903   -2.000
 7045.00    1.29125   1.33242   -2.000
 7046.00    1.28768   1.33425   -2.000
 7047.00    1.26792   1.33535   -2.000
 7048.00    1.23893   1.33447   -2.000
 7049.00    1.21321   1.33134   -2.000
 7050.00    1.19339   1.32644   -2.000
 7051.00    1.16983   1.31980   -2.000
 7052.00    1.14940   1.31149   -2.000
 7053.00    1.15759   1.30182   -2.000
 7054.00    1.18629   1.29204   -2.000
 7055.00    1.19086   1.28306   -2.000
 7056.00    1.16570   1.27473   -2.000
 7057.00    1.15254   1.26773   -2.000
 7058.00    1.16788   1.26260   -2.000
 7059.00    1.19359   1.25868   -2.000
 7060.00    1.22496   1.25547   -2.000
 7061.00    1.26865   1.25318   -2.000
 7062.00    1.29844   1.25192   -2.000
 7063.00    1.27536   1.25053   -2.000
 7064.00    1.22179   1.24905   -2.000
 7065.00    1.19482   1.24854   -2.000
 7066.00    1.19432   1.24786   -2.000
 7067.00    1.18421   1.24704   -2.000
 7068.00    1.16781   1.24753   -2.000
 7069.00    1.17219   1.24837   -2.000
 7070.00    1.19868   1.24994   -2.000
 7071.00    1.22621   1.25326   -2.000
 7072.00    1.22989   1.25670   -2.000
 7073.00    1.20256   1.26024   -2.000
 7074.00    1.17635   1.26451   -2.000
 7075.00    1.18262   1.26798   -2.000
 7076.00    1.20461   1.27024   -2.000
 7077.00    1.21389   1.27191   -2.000
 7078.00    1.21290   1.27247   -2.000
 7079.00    1.21989   1.27145   -2.000
 7080.00    1.24889   1.26895   -2.000
 7081.00    1.29313   1.26486   -2.000
 7082.00    1.31735   1.25895   -2.000
 7083.00    1.29523   1.25172   -2.000
 7084.00    1.23568   1.24344   -2.000
 7085.00    1.16683   1.23397   -2.000
 7086.00    1.12131   1.22495   -2.000
 7087.00    1.12043   1.21699   -2.000
 7088.00    1.16362   1.20889   -2.000
 7089.00    1.22109   1.20245   -2.000
 7090.00    1.24503   1.19829   -2.000
 7091.00    1.23664   1.19440   -2.000
 7092.00    1.24877   1.19204   -2.000
 7093.00    1.26818   1.19159   -2.000
 7094.00    1.21423   1.19146   -2.000
 7095.00    1.11280   1.19246   -2.000
 7096.00    1.09663   1.19473   -2.000
 7097.00    1.19745   1.19733   -2.000
 7098.00    1.32142   1.20033   -2.000
 7099.00    1.37959   1.20387   -2.000
 7100.00    1.33888   1.20758   -2.000
 7101.00    1.24924   1.21065   -2.000
 7102.00    1.19812   1.21356   -2.000
 7103.00    1.19518   1.21634   -2.000
 7104.00    1.19578   1.21796   -2.000
 7105.00    1.20049   1.21921   -2.000
 7106.00    1.23548   1.22026   -2.000
 7107.00    1.28237   1.22029   -2.000
 7108.00    1.30044   1.21975   -2.000
 7109.00    1.28133   1.21932   -2.000
 7110.00    1.23979   1.21877   -2.000
 7111.00    1.18818   1.21798   -2.000
 7112.00    1.13825   1.21773   -2.000
 7113.00    1.10689   1.21849   -2.000
 7114.00    1.10420   1.21977   -2.000
 7115.00    1.12052   1.22117   -2.000
 7116.00    1.14039   1.22305   -2.000
 7117.00    1.15741   1.22518   -2.000
 7118.00    1.16819   1.22661   -2.000
 7119.00    1.16710   1.22713   -2.000
 7120.00    1.15850   1.22697   -2.000
 7121.00    1.16208   1.22628   -2.000
 7122.00    1.17768   1.22442   -2.000
 7123.00    1.16910   1.22122   -2.000
 7124.00    1.12477   1.21810   -2.000
 7125.00    1.08667   1.21459   -2.000
 7126.00    1.08939   1.20974   -2.000
 7127.00    1.12856   1.20526   -2.000
 7128.00    1.18319   1.20137   -2.000
 7129.00    1.23008   1.19752   -2.000
 7130.00    1.25334   1.19466   -2.000
 7131.00    1.24755   1.19302   -2.000
 7132.00    1.21381   1.19296   -2.000
 7133.00    1.16153   1.19434   -2.000
 7134.00    1.12003   1.19647   -2.000
 7135.00    1.12246   1.19986   -2.000
 7136.00    1.14578   1.20356   -2.000
 7137.00    1.12991   1.20671   -2.000
 7138.00    1.08045   1.21013   -2.000
 7139.00    1.05926   1.21269   -2.000
 7140.00    1.09137   1.21403   -2.000
 7141.00    1.15574   1.21563   -2.000
 7142.00    1.21705   1.21635   -2.000
 7143.00    1.24407   1.21569   -2.000
 7144.00    1.23094   1.21544   -2.000
 7145.00    1.19401   1.21449   -2.000
 7146.00    1.15859   1.21242   -2.000
 7147.00    1.13934   1.21172   -2.000
 7148.00    1.11626   1.21119   -2.000
 7149.00    1.06902   1.21043   -2.000
 7150.00    1.02595   1.21251   -2.000
 7151.00    1.02908   1.21580   -2.000
 7152.00    1.08404   1.21863   -2.000
 7153.00    1.15987   1.22333   -2.000
 7154.00    1.20099   1.22879   -2.000
 7155.00    1.18848   1.23256   -2.000
 7156.00    1.18640   1.23558   -2.000
 7157.00    1.23348   1.23834   -2.000
 7158.00    1.26238   1.23911   -2.000
 7159.00    1.23149   1.23783   -2.000
 7160.00    1.21068   1.23575   -2.000
 7161.00    1.23570   1.23215   -2.000
 7162.00    1.22939   1.22727   -2.000
 7163.00    1.15912   1.22249   -2.000
 7164.00    1.10748   1.21769   -2.000
 7165.00    1.11517   1.21368   -2.000
 7166.00    1.12111   1.21152   -2.000
 7167.00    1.09819   1.21110   -2.000
 7168.00    1.09583   1.21224   -2.000
 7169.00    1.13358   1.21490   -2.000
 7170.00    1.17345   1.21844   -2.000
 7171.00    1.19258   1.22197   -2.000
 7172.00    1.20325   1.22517   -2.000
 7173.00    1.22356   1.22738   -2.000
 7174.00    1.25509   1.22820   -2.000
 7175.00    1.24970   1.22817   -2.000
 7176.00    1.15258   1.22700   -2.000
 7177.00    1.03636   1.22458   -2.000
 7178.00    1.03761   1.22202   -2.000
 7179.00    1.13043   1.21941   -2.000
 7180.00    1.18582   1.21661   -2.000
 7181.00    1.20242   1.21431   -2.000
 7182.00    1.25415   1.21235   -2.000
 7183.00    1.30784   1.21098   -2.000
 7184.00    1.28605   1.20984   -2.000
 7185.00    1.22125   1.20801   -2.000
 7186.00    1.19028   1.20669   -2.000
 7187.00    1.18512   1.20534   -2.000
 7188.00    1.16065   1.20319   -2.000
 7189.00    1.11928   1.20226   -2.000
 7190.00    1.09009   1.20200   -2.000
 7191.00    1.09144   1.20189   -2.000
 7192.00    1.12308   1.20341   -2.000
 7193.00    1.16352   1.20544   -2.000
 7194.00    1.18149   1.20719   -2.000
 7195.00    1.15096   1.20953   -2.000
 7196.00    1.08656   1.21189   -2.000
 7197.00    1.05926   1.21329   -2.000
 7198.00    1.10029   1.21445   -2.000
 7199.00    1.14567   1.21574   -2.000
 7200.00    1.14607   1.21626   -2.000
 7201.00    1.13011   1.21629   -2.000
 7202.00    1.13461   1.21614   -2.000
 7203.00    1.16306   1.21545   -2.000
 7204.00    1.19474   1.21412   -2.000
 7205.00    1.19769   1.21232   -2.000
 7206.00    1.16035   1.21073   -2.000
 7207.00    1.10207   1.20895   -2.000
 7208.00    1.05616   1.20749   -2.000
 7209.00    1.05211   1.20787   -2.000
 7210.00    1.07973   1.20865   -2.000
 7211.00    1.10047   1.21009   -2.000
 7212.00    1.12309   1.21338   -2.000
 7213.00    1.18959   1.21635   -2.000
 7214.00    1.26769   1.21901   -2.000
 7215.00    1.27310   1.22240   -2.000
 7216.00    1.20201   1.22509   -2.000
 7217.00    1.12600   1.22702   -2.000
 7218.00    1.10368   1.22927   -2.000
