###################################################################
## OUTPUT of StarlightChains_v04.for    [Cid@UFSC - 01/Apr/2007] ##
###################################################################

## Some input info
2002au.txt                               [arq_obs]
Base.CB07.vall.4m                        [arq_base]
Masks.EmLines.NEW.gm                     [arq_masks]
StCv04.C11.config                        [arq_config]
   66                                    [N_base]
    0                                    [N_YAV_components = # of components with extra extinction!]
    0                                    [i_FitPowerLaw (1/0 = Yes/No)]
-9.99                                    [alpha_PowerLaw]
CCM                                      [red_law_option]
 1.458241                                [q_norm = A(l_norm)/A(V)]

## (Re)Sampling Parameters
 3741.00                                 [l_ini (A)]
 7218.00                                 [l_fin (A)]
    1.00                                 [dl    (A)]     (OBS: dl_cushion =    50.00 A)

## Normalization info
 4020.00                                 [l_norm (A) - for base]
 4010.00                                 [llow_norm (A) - window for f_obs]
 4060.00                                 [lupp_norm (A) - window for f_obs]
3.375749E-17                             [fobs_norm (in input units)]

## S/N
 3691.00                                 [llow_SN (A) - window for S/N]
 7268.00                                 [lupp_SN (A) - window for S/N]
   0.484                                 [S/N in S/N window]
   0.302                                 [S/N in norm. window]
   9.829                                 [S/N_err in S/N window]
   6.128                                 [S/N_err in norm. window]
  1.0000                                 [fscale_chi2]

## etc...
    -2007262                             [idum_orig]
  2304                                   [NOl_eff]
  2231                                   [Nl_eff]
    73    NSIGMA                         [Ntot_cliped & clip_method]
   933030                                [Nglobal_steps]
   7                                     [N_chains]
  18                                     [NEX0s_base = N_base in EX0s-fits]
 0   0   1      118   2.0   1.404E+01    [Clip-Bug, RC-Crash & Burn-In warning-flags, n_censored_weights, wei_nsig_threshold & wei_limit]
    11     11.216     10.723      0.493  [idt_all, wdt_TotTime, wdt_UsrTime & wdt_SysTime (sec)]

## Synthesis Results - Best model ##

 4.39616E-01                             [chi2/Nl_eff]
     5.37436                             [adev (%)]

   106.42854                             [sum-of-x (%)]
 7.48215E-17                             [Flux_tot (units of input spectrum!)]
 9.61073E-13                             [Mini_tot (???)]
 5.29254E-13                             [Mcor_tot (???)]

-175.30                                  [v0_min  (km/s)]
 314.26                                  [vd_min  (km/s)]
 0.5462                                  [AV_min  (mag)]
 0.0000                                  [YAV_min (mag)]

# j     x_j(%)      Mini_j(%)     Mcor_j(%)     age_j(yr)     Z_j      (L/M)_j    YAV?  Mstars   component_j        a/Fe...       SSP_chi2r SSP_adev(%)   SSP_AV   SSP_x(%)
  1      0.0000     0.0000E+00    0.0000E+00    1.000000E+06  0.00400  1.094E-02    0   1.0000   age020_m42            0.0000     1.0973E+00     8.1177   3.7835    87.6200
  2      1.8493     3.3761E-03    6.1300E-03    3.160000E+06  0.00400  4.007E-02    0   0.9999   age045_m42            0.0000     7.9592E-01     7.0889   3.0232    95.1379
  3      0.0000     0.0000E+00    0.0000E+00    5.010000E+06  0.00400  2.539E-02    0   0.9488   age055_m42            0.0000     9.1730E-01     7.5335   3.3600    92.0868
  4      0.0000     0.0000E+00    0.0000E+00    6.610000E+06  0.00400  2.620E-02    0   0.9220   age061_m42            0.0000     8.0561E-01     7.1136   2.9498    95.3349
  5      0.0000     0.0000E+00    0.0000E+00    1.000000E+07  0.00400  1.322E-02    0   0.8862   age070_m42            0.0000     9.7193E-01     7.8323   2.6844    96.5463
  6      0.0000     0.0000E+00    0.0000E+00    1.445000E+07  0.00400  7.883E-03    0   0.8571   age078_m42            0.0000     1.0254E+00     8.0308   3.0185    93.8117
  7      0.0000     0.0000E+00    0.0000E+00    2.512000E+07  0.00400  5.251E-03    0   0.8174   age090_m42            0.0000     9.9512E-01     7.9621   2.5543    97.0746
  8      1.0266     2.0580E-02    2.9340E-02    4.000000E+07  0.00400  3.649E-03    0   0.7851   age104_m42            0.0000     9.1907E-01     7.6704   2.3177    98.3101
  9      0.0000     0.0000E+00    0.0000E+00    5.500000E+07  0.00400  3.098E-03    0   0.7629   age110_m42            0.0000     8.2884E-01     7.2502   2.4597    98.9010
 10      0.0000     0.0000E+00    0.0000E+00    1.015200E+08  0.00400  2.228E-03    0   0.7207   age116_m42            0.0000     7.8899E-01     7.0300   2.4707    99.5368
 11      0.0000     0.0000E+00    0.0000E+00    2.861200E+08  0.00400  1.093E-03    0   0.6648   age125_m42            0.0000     7.9783E-01     7.1166   1.9010   102.6871
 12      0.0000     0.0000E+00    0.0000E+00    5.088000E+08  0.00400  6.597E-04    0   0.6365   age130_m42            0.0000     7.1702E-01     6.6699   1.8750   104.3480
 13     35.3172     1.2117E+01    1.2758E+01    1.434000E+09  0.00400  2.132E-04    0   0.5798   age139_m42            0.0000     5.1959E-01     5.7088   0.8830   107.4007
 14     41.6446     5.1676E+01    5.0457E+01    4.250000E+09  0.00400  5.895E-05    0   0.5377   age158_m42            0.0000     4.5517E-01     5.4442   0.4395   103.4025
 15      0.0000     0.0000E+00    0.0000E+00    7.500000E+09  0.00400  3.510E-05    0   0.5212   age171_m42            0.0000     4.8847E-01     5.5746   0.2467   102.9975
 16      0.0000     0.0000E+00    0.0000E+00    1.300000E+10  0.00400  2.005E-05    0   0.5034   age193_m42            0.0000     5.4850E-01     5.8200   0.0790   102.6242
 17      0.0000     0.0000E+00    0.0000E+00    1.800000E+10  0.00400  1.525E-05    0   0.4967   age213_m42            0.0000     5.4161E-01     5.7868   0.0583   102.0537
 18      0.0000     0.0000E+00    0.0000E+00    1.000000E+06  0.00800  1.238E-02    0   1.0000   age020_m52            0.0000     1.0969E+00     8.1138   3.7789    87.8161
 19      0.0000     0.0000E+00    0.0000E+00    3.160000E+06  0.00800  3.074E-02    0   0.9966   age045_m52            0.0000     1.0621E+00     8.0024   3.6996    88.6967
 20      0.0000     0.0000E+00    0.0000E+00    5.010000E+06  0.00800  2.668E-02    0   0.9443   age055_m52            0.0000     9.5714E-01     7.6670   3.4464    91.0827
 21      0.0000     0.0000E+00    0.0000E+00    6.610000E+06  0.00800  2.136E-02    0   0.9177   age061_m52            0.0000     8.8014E-01     7.4960   2.1811    97.7832
 22      0.0000     0.0000E+00    0.0000E+00    1.000000E+07  0.00800  1.215E-02    0   0.8827   age070_m52            0.0000     1.0722E+00     8.2489   2.8750    95.8711
 23      0.0000     0.0000E+00    0.0000E+00    1.445000E+07  0.00800  8.717E-03    0   0.8552   age078_m52            0.0000     1.0010E+00     7.9270   2.9823    95.1935
 24      0.0000     0.0000E+00    0.0000E+00    2.512000E+07  0.00800  5.592E-03    0   0.8162   age090_m52            0.0000     9.8859E-01     7.9314   2.6187    98.2635
 25      0.0000     0.0000E+00    0.0000E+00    4.000000E+07  0.00800  3.896E-03    0   0.7841   age104_m52            0.0000     9.0296E-01     7.5887   2.5210    99.5300
 26      0.0000     0.0000E+00    0.0000E+00    1.015200E+08  0.00800  2.148E-03    0   0.7226   age116_m52            0.0000     7.8485E-01     7.0748   2.4442   100.0993
 27      0.0000     0.0000E+00    0.0000E+00    2.861200E+08  0.00800  9.925E-04    0   0.6683   age125_m52            0.0000     7.1509E-01     6.6435   1.9394   105.3702
 28      0.0000     0.0000E+00    0.0000E+00    9.047900E+08  0.00800  3.141E-04    0   0.6138   age135_m52            0.0000     5.3976E-01     5.7941   1.1103   111.4215
 29      0.0000     0.0000E+00    0.0000E+00    1.434000E+09  0.00800  1.719E-04    0   0.5853   age139_m52            0.0000     4.7118E-01     5.5463   0.5386   108.7616
 30      0.0000     0.0000E+00    0.0000E+00    2.500000E+09  0.00800  7.872E-05    0   0.5600   age150_m52            0.0000     4.8331E-01     5.5990   0.2565   106.4516
 31      0.0000     0.0000E+00    0.0000E+00    4.250000E+09  0.00800  4.336E-05    0   0.5426   age158_m52            0.0000     5.0628E-01     5.6864   0.2414   105.4198
 32      0.0000     0.0000E+00    0.0000E+00    6.250000E+09  0.00800  3.159E-05    0   0.5319   age166_m52            0.0000     5.8501E-01     5.9939   0.0275   106.0249
 33      0.0000     0.0000E+00    0.0000E+00    1.300000E+10  0.00800  1.361E-05    0   0.5073   age193_m52            0.0000     7.4916E-01     6.6051  -0.4551   106.0304
 34      0.0000     0.0000E+00    0.0000E+00    1.800000E+10  0.00800  9.886E-06    0   0.4990   age213_m52            0.0000     9.0310E-01     7.1668  -0.5743   106.0760
 35      0.0000     0.0000E+00    0.0000E+00    1.000000E+06  0.02000  1.544E-02    0   1.0000   age020_m62            0.0000     1.1052E+00     8.1355   3.7753    88.0014
 36      1.2658     2.4612E-03    4.4059E-03    3.160000E+06  0.02000  3.762E-02    0   0.9858   age045_m62            0.0000     1.0918E+00     8.0964   3.7140    88.7942
 37      0.0000     0.0000E+00    0.0000E+00    5.010000E+06  0.02000  3.296E-02    0   0.9342   age055_m62            0.0000     8.5455E-01     7.2533   3.3112    93.6214
 38      0.0000     0.0000E+00    0.0000E+00    8.710000E+06  0.02000  1.154E-02    0   0.8861   age067_m62            0.0000     1.8290E+00    11.3344   2.3665    96.5842
 39      0.0000     0.0000E+00    0.0000E+00    1.445000E+07  0.02000  7.663E-03    0   0.8472   age078_m62            0.0000     1.2005E+00     8.9117   2.5328    97.6165
 40      0.0000     0.0000E+00    0.0000E+00    2.512000E+07  0.02000  4.532E-03    0   0.8099   age090_m62            0.0000     1.2356E+00     9.0643   2.5264    97.3215
 41      0.0000     0.0000E+00    0.0000E+00    5.500000E+07  0.02000  2.733E-03    0   0.7595   age110_m62            0.0000     9.1194E-01     7.5858   2.5077    98.6410
 42      0.0000     0.0000E+00    0.0000E+00    1.609000E+08  0.02000  1.369E-03    0   0.6985   age120_m62            0.0000     7.9549E-01     6.9924   2.3172   102.7925
 43      0.0000     0.0000E+00    0.0000E+00    2.861200E+08  0.02000  9.013E-04    0   0.6714   age125_m62            0.0000     7.7453E-01     6.7902   2.0459   106.7827
 44      0.0077     1.1183E-03    1.3096E-03    5.088000E+08  0.02000  5.028E-04    0   0.6449   age130_m62            0.0000     6.6325E-01     6.2484   1.6407   111.0988
 45      0.0000     0.0000E+00    0.0000E+00    9.047900E+08  0.02000  2.428E-04    0   0.6179   age135_m62            0.0000     4.9315E-01     5.5835   1.0473   110.8833
 46      0.0000     0.0000E+00    0.0000E+00    1.434000E+09  0.02000  1.263E-04    0   0.5908   age139_m62            0.0000     4.8438E-01     5.5657   0.6033   109.2427
 47      0.0000     0.0000E+00    0.0000E+00    2.500000E+09  0.02000  5.985E-05    0   0.5673   age150_m62            0.0000     5.6073E-01     5.9229   0.2273   108.2566
 48      0.0000     0.0000E+00    0.0000E+00    4.250000E+09  0.02000  3.271E-05    0   0.5468   age158_m62            0.0000     7.0942E-01     6.5313  -0.0953   108.2110
 49      0.0000     0.0000E+00    0.0000E+00    1.000000E+10  0.02000  1.360E-05    0   0.5167   age181_m62            0.0000     1.0210E+00     7.6576  -0.4624   108.7382
 50      0.0000     0.0000E+00    0.0000E+00    1.800000E+10  0.02000  7.124E-06    0   0.5013   age213_m62            0.0000     1.3068E+00     8.6034  -0.6843   108.5056
 51      0.0000     0.0000E+00    0.0000E+00    1.000000E+06  0.05000  2.592E-02    0   0.9998   age020_m72            0.0000     1.1430E+00     8.2456   3.7702    87.8756
 52      0.0000     0.0000E+00    0.0000E+00    3.160000E+06  0.05000  4.845E-02    0   0.9577   age045_m72            0.0000     9.8578E-01     7.7423   3.5861    90.4308
 53      0.0000     0.0000E+00    0.0000E+00    5.010000E+06  0.05000  3.072E-02    0   0.9147   age055_m72            0.0000     1.1294E+00     8.4596   3.1285    93.7608
 54      0.0000     0.0000E+00    0.0000E+00    6.610000E+06  0.05000  1.455E-02    0   0.8877   age061_m72            0.0000     2.2862E+00    13.1322   2.4583    96.3273
 55      0.0000     0.0000E+00    0.0000E+00    1.000000E+07  0.05000  9.074E-03    0   0.8524   age070_m72            0.0000     1.1468E+00     8.5757   3.3349    93.1272
 56      0.0000     0.0000E+00    0.0000E+00    2.512000E+07  0.05000  4.250E-03    0   0.7902   age090_m72            0.0000     1.0542E+00     8.2276   3.0042    95.7718
 57      0.0000     0.0000E+00    0.0000E+00    4.000000E+07  0.05000  3.087E-03    0   0.7618   age104_m72            0.0000     1.0573E+00     8.2803   2.7694    97.6370
 58      0.0000     0.0000E+00    0.0000E+00    1.015200E+08  0.05000  1.700E-03    0   0.7096   age116_m72            0.0000     8.5952E-01     7.3133   2.4707   101.9094
 59      0.0000     0.0000E+00    0.0000E+00    2.861200E+08  0.05000  7.384E-04    0   0.6633   age125_m72            0.0000     7.2427E-01     6.5418   1.8979   109.0665
 60      0.9547     1.8286E-01    2.1158E-01    5.088000E+08  0.05000  3.819E-04    0   0.6372   age130_m72            0.0000     5.4745E-01     5.7513   1.3830   111.9932
 61      7.7408     3.3785E+00    3.7485E+00    9.047900E+08  0.05000  1.676E-04    0   0.6110   age135_m72            0.0000     5.3058E-01     5.8271   0.6750   110.6746
 62      0.0000     0.0000E+00    0.0000E+00    1.434000E+09  0.05000  8.837E-05    0   0.5874   age139_m72            0.0000     5.9546E-01     6.0556   0.2203   110.1949
 63     15.4662     2.6727E+01    2.7169E+01    2.500000E+09  0.05000  4.233E-05    0   0.5598   age150_m72            0.0000     7.8210E-01     6.8409  -0.1026   109.5023
 64      1.1557     5.8911E+00    5.6152E+00    6.250000E+09  0.05000  1.435E-05    0   0.5249   age166_m72            0.0000     1.0835E+00     7.9355  -0.5633   108.5145
 65      0.0000     0.0000E+00    0.0000E+00    1.300000E+10  0.05000  6.513E-06    0   0.5036   age193_m72            0.0000     1.4774E+00     9.2170  -0.8541   110.1270
 66      0.0000     0.0000E+00    0.0000E+00    1.800000E+10  0.05000  4.527E-06    0   0.4945   age213_m72            0.0000     1.7506E+00     9.9855  -1.0000   109.4062


## Synthesis Results - Average & Chains ##

# j      x_j: min, <> & last-chain-values for 1 ...  7 chains
  1      0.0000      0.0773      0.2267      0.0000      0.0000      0.0000      0.0000      0.0000      0.0000
  2      1.8493      0.2297      1.5710      0.0000      0.0000      1.2762      1.1575      0.0000      0.0000
  3      0.0000      0.0628      0.0000      1.2780      0.0000      0.0000      0.0000      0.0000      0.0000
  4      0.0000      0.1809      0.0000      0.0000      0.0000      0.0000      0.0000      0.0000      2.8069
  5      0.0000      0.2070      0.0245      3.1136      0.0000      0.0000      0.0000      0.0000      0.0000
  6      0.0000      0.0892      0.0000      0.0000      0.0000      0.0000      0.0000      0.0000      0.0000
  7      0.0000      0.2350      0.8589      0.0000      0.2054      0.0000      0.0000      0.0000      0.0000
  8      1.0266      0.4513      3.1710      0.0000      0.0000      0.4300      1.9899      0.0000      0.5634
  9      0.0000      0.4236      0.0000      0.0000      2.7463      0.1370      0.0000      0.9830      0.0000
 10      0.0000      0.2781      0.0000      0.0000      0.8913      0.0000      0.0000      0.0000      0.0000
 11      0.0000      0.8242      0.4303      0.0000      1.2219      0.1833      0.1593      2.3940      0.0000
 12      0.0000      1.1067      3.5283      3.7696      0.0000      2.4081      0.8415      0.0000      0.0000
 13     35.3172     17.3359     20.5880     18.2085     23.1492     21.9029     20.7441     22.2514     23.9223
 14     41.6446     29.0871     32.9746     42.3275     32.3287     34.5541     32.8675     32.6653     32.0002
 15      0.0000      4.7786      2.2353      0.5602      3.5160      4.4340      2.6614      5.8528      7.1203
 16      0.0000      0.9232      0.0000      0.0000      0.6661      0.0000      0.0000      1.5031      1.6142
 17      0.0000      1.8168      0.0000      4.7095      0.3556      1.6939      0.0000      0.0000      0.0000
 18      0.0000      0.1321      0.0000      0.0000      0.6372      0.2991      0.0000      0.0898      0.0763
 19      0.0000      0.1258      0.0000      0.0000      0.0000      0.0000      0.0000      1.2136      0.0000
 20      0.0000      0.1640      0.5208      0.0000      0.0000      0.0000      0.9889      0.0000      0.0000
 21      0.0000      0.2221      0.0000      0.0000      0.0000      0.0000      0.0000      0.0000      0.0000
 22      0.0000      0.1465      0.0000      0.0000      0.7682      0.0000      1.5098      0.4671      0.6628
 23      0.0000      0.1165      0.0000      0.0000      0.0000      0.0000      0.0000      0.0000      0.0000
 24      0.0000      0.1833      0.0000      0.0000      0.1069      0.0000      1.7122      0.0000      0.0000
 25      0.0000      0.1846      0.0000      0.0000      0.0000      0.0000      0.0000      0.0000      0.0000
 26      0.0000      0.3610      0.0000      0.0000      0.0000      0.0000      0.0000      1.5128      0.0000
 27      0.0000      0.5227      0.0000      0.0000      0.0000      0.0000      0.0000      0.2072      0.0000
 28      0.0000      1.2007      0.0000      0.0000      0.0000      0.0000      0.0000      0.0000      2.1839
 29      0.0000      2.3317      0.0000      0.0000      0.0000      0.0000      0.0000      0.3104      0.0000
 30      0.0000      5.0407      3.7447      3.5483      5.5811      5.4961      3.7850      3.8799      6.7130
 31      0.0000      2.3604      2.0869      0.0000      0.0000      0.0000      0.0000      0.0000      0.0000
 32      0.0000      0.7889      1.8227      0.0000      1.0369      0.0000      0.5025      0.0000      0.0000
 33      0.0000      0.1181      0.0000      0.0000      0.0000      0.1034      0.0000      0.0000      0.0000
 34      0.0000      0.0890      0.0000      0.0000      0.0000      0.0000      0.0000      0.0000      0.0000
 35      0.0000      0.0851      0.0000      0.2020      0.0959      0.0000      0.0000      0.0000      0.0000
 36      1.2658      0.1543      0.0828      0.0000      0.0000      1.3042      0.0000      1.0421      0.0000
 37      0.0000      0.1017      0.5200      0.0000      0.4714      0.0000      0.0000      0.0000      0.0000
 38      0.0000      0.2891      0.0000      0.0000      0.0000      0.0000      0.0000      0.0000      0.0000
 39      0.0000      0.2238      0.0000      0.0000      0.0000      0.2479      0.7229      0.0000      0.0000
 40      0.0000      0.1203      0.0000      0.0000      0.0000      0.0000      0.0000      0.0000      0.0000
 41      0.0000      0.2633      0.0000      0.0000      0.0000      0.0000      0.0000      0.0000      0.0000
 42      0.0000      0.3701      0.1956      0.0000      0.0914      0.0000      0.0000      0.0000      0.0000
 43      0.0000      0.5161      0.0000      0.0000      0.6077      0.2981      0.0000      0.0000      3.4602
 44      0.0077      1.1272      0.0000      4.9664      0.1929      2.4083      0.8731      2.7893      0.0000
 45      0.0000      2.0861      4.8370      0.0000      6.4305      2.8878      0.0000      2.8765      1.1585
 46      0.0000      2.8045      0.0000      1.7620      0.0000      0.0000      0.0000      1.2373      0.0000
 47      0.0000      4.6974      2.7562      0.0000      6.6825      3.4810      0.9216      2.7560      2.8237
 48      0.0000      1.4646      0.0000      3.3304      0.8960      0.0000      0.8452      1.6866      2.4421
 49      0.0000      0.3698      1.0286      0.5584      0.0000      0.0000      0.0000      0.0000      0.0000
 50      0.0000      0.2252      1.0315      0.0000      0.0000      0.0000      0.0000      2.6013      0.0000
 51      0.0000      0.0569      0.0000      0.0000      0.2374      0.0000      0.0000      0.0000      0.0000
 52      0.0000      0.0822      0.0000      0.3313      0.0000      0.0000      0.0000      0.0000      0.0000
 53      0.0000      0.1380      0.0000      0.0000      0.0000      0.0000      0.0000      0.0000      0.0000
 54      0.0000      0.1048      0.0000      0.1051      0.0000      0.0000      0.0000      0.6298      0.0000
 55      0.0000      0.0915      0.0000      0.0000      0.0000      0.0000      0.0000      0.0000      0.0000
 56      0.0000      0.0553      0.0000      0.0000      0.0000      0.0000      0.0000      0.0000      0.0000
 57      0.0000      0.1076      0.0000      0.0000      0.0000      0.0000      0.0000      0.0000      0.0000
 58      0.0000      0.1839      0.0000      0.0000      0.0352      0.0000      0.0000      0.0000      0.0000
 59      0.0000      0.8068      0.0000      0.4385      0.0000      2.1333      2.2053      0.0000      0.0000
 60      0.9547      1.1558      0.0000      0.0000      0.0000      2.3206      2.8635      0.0000      1.0492
 61      7.7408      7.4598      6.8895      9.9254      3.0628      5.8572      8.9470      5.9979     12.9379
 62      0.0000      4.7908      8.4395      0.0000     10.4749      4.0290     13.2151      8.0100      0.0000
 63     15.4662      2.9594      5.7685      4.8231      1.6767      6.4107      5.7331      1.4335      3.2357
 64      1.1557      1.2672      1.2504      1.4072      2.2729      1.8133      1.5533      1.8817      1.5583
 65      0.0000      0.1693      0.0000      0.0000      0.0000      0.2250      0.0000      0.0000      0.5025
 66      0.0000      0.0510      0.0171      0.9341      0.0000      0.2305      0.0000      0.0000      0.0000

# j      m_j: min, <> & last-chain-values for 1 ...  7 chains
  1  0.0000E+00  8.3010E-04  2.4869E-03  0.0000E+00  0.0000E+00  0.0000E+00  0.0000E+00  0.0000E+00  0.0000E+00
  2  6.1300E-03  6.7310E-04  4.7045E-03  0.0000E+00  0.0000E+00  3.8249E-03  4.0295E-03  0.0000E+00  0.0000E+00
  3  0.0000E+00  2.7554E-04  0.0000E+00  4.9140E-03  0.0000E+00  0.0000E+00  0.0000E+00  0.0000E+00  0.0000E+00
  4  0.0000E+00  7.4739E-04  0.0000E+00  0.0000E+00  0.0000E+00  0.0000E+00  0.0000E+00  0.0000E+00  1.2102E-02
  5  0.0000E+00  1.6292E-03  1.9695E-04  2.1477E-02  0.0000E+00  0.0000E+00  0.0000E+00  0.0000E+00  0.0000E+00
  6  0.0000E+00  1.1386E-03  0.0000E+00  0.0000E+00  0.0000E+00  0.0000E+00  0.0000E+00  0.0000E+00  0.0000E+00
  7  0.0000E+00  4.2958E-03  1.6046E-02  0.0000E+00  4.1051E-03  0.0000E+00  0.0000E+00  0.0000E+00  0.0000E+00
  8  2.9340E-02  1.1400E-02  8.1876E-02  0.0000E+00  0.0000E+00  1.1110E-02  5.9731E-02  0.0000E+00  1.4853E-02
  9  0.0000E+00  1.2248E-02  0.0000E+00  0.0000E+00  8.6819E-02  4.0505E-03  0.0000E+00  2.5996E-02  0.0000E+00
 10  0.0000E+00  1.0564E-02  0.0000E+00  0.0000E+00  3.7011E-02  0.0000E+00  0.0000E+00  0.0000E+00  0.0000E+00
 11  0.0000E+00  5.8866E-02  3.1407E-02  0.0000E+00  9.5407E-02  1.3388E-02  1.3522E-02  1.5637E-01  0.0000E+00
 12  0.0000E+00  1.2538E-01  4.0853E-01  3.7425E-01  0.0000E+00  2.7904E-01  1.1326E-01  0.0000E+00  0.0000E+00
 13  1.2758E+01  5.5358E+00  6.7191E+00  5.0953E+00  8.0819E+00  7.1538E+00  7.8703E+00  6.4983E+00  7.9710E+00
 14  5.0457E+01  3.1153E+01  3.6095E+01  3.9727E+01  3.7856E+01  3.7853E+01  4.1825E+01  3.1996E+01  3.5762E+01
 15  0.0000E+00  8.3319E+00  3.9833E+00  8.5590E-01  6.7025E+00  7.9075E+00  5.5133E+00  9.3329E+00  1.2954E+01
 16  0.0000E+00  2.7218E+00  0.0000E+00  0.0000E+00  2.1469E+00  0.0000E+00  0.0000E+00  4.0525E+00  4.9656E+00
 17  0.0000E+00  6.9480E+00  0.0000E+00  1.5783E+01  1.4870E+00  6.6260E+00  0.0000E+00  0.0000E+00  0.0000E+00
 18  0.0000E+00  1.2526E-03  0.0000E+00  0.0000E+00  6.6080E-03  2.9012E-03  0.0000E+00  7.7879E-04  7.5495E-04
 19  0.0000E+00  4.7903E-04  0.0000E+00  0.0000E+00  0.0000E+00  0.0000E+00  0.0000E+00  4.2252E-03  0.0000E+00
 20  0.0000E+00  6.8143E-04  2.2121E-03  0.0000E+00  0.0000E+00  0.0000E+00  4.8827E-03  0.0000E+00  0.0000E+00
 21  0.0000E+00  1.1203E-03  0.0000E+00  0.0000E+00  0.0000E+00  0.0000E+00  0.0000E+00  0.0000E+00  0.0000E+00
 22  0.0000E+00  1.2496E-03  0.0000E+00  0.0000E+00  7.1647E-03  0.0000E+00  1.5303E-02  3.6442E-03  5.8996E-03
 23  0.0000E+00  1.3425E-03  0.0000E+00  0.0000E+00  0.0000E+00  0.0000E+00  0.0000E+00  0.0000E+00  0.0000E+00
 24  0.0000E+00  3.1411E-03  0.0000E+00  0.0000E+00  2.0038E-03  0.0000E+00  3.4865E-02  0.0000E+00  0.0000E+00
 25  0.0000E+00  4.3632E-03  0.0000E+00  0.0000E+00  0.0000E+00  0.0000E+00  0.0000E+00  0.0000E+00  0.0000E+00
 26  0.0000E+00  1.4261E-02  0.0000E+00  0.0000E+00  0.0000E+00  0.0000E+00  0.0000E+00  5.4652E-02  0.0000E+00
 27  0.0000E+00  4.1325E-02  0.0000E+00  0.0000E+00  0.0000E+00  0.0000E+00  0.0000E+00  1.4982E-02  0.0000E+00
 28  0.0000E+00  2.7551E-01  0.0000E+00  0.0000E+00  0.0000E+00  0.0000E+00  0.0000E+00  0.0000E+00  5.2288E-01
 29  0.0000E+00  9.3221E-01  0.0000E+00  0.0000E+00  0.0000E+00  0.0000E+00  0.0000E+00  1.1350E-01  0.0000E+00
 30  0.0000E+00  4.2105E+00  3.1969E+00  2.5974E+00  5.0969E+00  4.6957E+00  3.7564E+00  2.9640E+00  5.8510E+00
 31  0.0000E+00  3.4683E+00  3.1340E+00  0.0000E+00  0.0000E+00  0.0000E+00  0.0000E+00  0.0000E+00  0.0000E+00
 32  0.0000E+00  1.5597E+00  3.6830E+00  0.0000E+00  2.2414E+00  0.0000E+00  1.1804E+00  0.0000E+00  0.0000E+00
 33  0.0000E+00  5.1687E-01  0.0000E+00  0.0000E+00  0.0000E+00  4.6277E-01  0.0000E+00  0.0000E+00  0.0000E+00
 34  0.0000E+00  5.2778E-01  0.0000E+00  0.0000E+00  0.0000E+00  0.0000E+00  0.0000E+00  0.0000E+00  0.0000E+00
 35  0.0000E+00  6.4711E-04  0.0000E+00  1.3462E-03  7.9713E-04  0.0000E+00  0.0000E+00  0.0000E+00  0.0000E+00
 36  4.4059E-03  4.7470E-04  2.6036E-04  0.0000E+00  0.0000E+00  4.1046E-03  0.0000E+00  2.9324E-03  0.0000E+00
 37  0.0000E+00  3.3854E-04  1.7687E-03  0.0000E+00  1.7152E-03  0.0000E+00  0.0000E+00  0.0000E+00  0.0000E+00
 38  0.0000E+00  2.6064E-03  0.0000E+00  0.0000E+00  0.0000E+00  0.0000E+00  0.0000E+00  0.0000E+00  0.0000E+00
 39  0.0000E+00  2.9058E-03  0.0000E+00  0.0000E+00  0.0000E+00  3.2914E-03  1.1151E-02  0.0000E+00  0.0000E+00
 40  0.0000E+00  2.5243E-03  0.0000E+00  0.0000E+00  0.0000E+00  0.0000E+00  0.0000E+00  0.0000E+00  0.0000E+00
 41  0.0000E+00  8.5920E-03  0.0000E+00  0.0000E+00  0.0000E+00  0.0000E+00  0.0000E+00  0.0000E+00  0.0000E+00
 42  0.0000E+00  2.2172E-02  1.1975E-02  0.0000E+00  5.9841E-03  0.0000E+00  0.0000E+00  0.0000E+00  0.0000E+00
 43  0.0000E+00  4.5143E-02  0.0000E+00  0.0000E+00  5.8119E-02  2.6666E-02  0.0000E+00  0.0000E+00  3.1581E-01
 44  1.3096E-03  1.6976E-01  0.0000E+00  6.5546E-01  3.1755E-02  3.7098E-01  1.5622E-01  3.8420E-01  0.0000E+00
 45  0.0000E+00  6.2338E-01  1.4773E+00  0.0000E+00  2.1009E+00  8.8263E-01  0.0000E+00  7.8613E-01  3.6124E-01
 46  0.0000E+00  1.5404E+00  0.0000E+00  8.4808E-01  0.0000E+00  0.0000E+00  0.0000E+00  6.2152E-01  0.0000E+00
 47  0.0000E+00  5.2281E+00  3.1352E+00  0.0000E+00  8.1315E+00  3.9627E+00  1.2187E+00  2.8053E+00  3.2793E+00
 48  0.0000E+00  2.8747E+00  0.0000E+00  5.7286E+00  1.9229E+00  0.0000E+00  1.9711E+00  3.0278E+00  5.0018E+00
 49  0.0000E+00  1.6496E+00  4.6896E+00  2.1829E+00  0.0000E+00  0.0000E+00  0.0000E+00  0.0000E+00  0.0000E+00
 50  0.0000E+00  1.8607E+00  8.7108E+00  0.0000E+00  0.0000E+00  0.0000E+00  0.0000E+00  1.9657E+01  0.0000E+00
 51  0.0000E+00  2.5791E-04  0.0000E+00  0.0000E+00  1.1758E-03  0.0000E+00  0.0000E+00  0.0000E+00  0.0000E+00
 52  0.0000E+00  1.9089E-04  0.0000E+00  6.7377E-04  0.0000E+00  0.0000E+00  0.0000E+00  0.0000E+00  0.0000E+00
 53  0.0000E+00  4.8241E-04  0.0000E+00  0.0000E+00  0.0000E+00  0.0000E+00  0.0000E+00  0.0000E+00  0.0000E+00
 54  0.0000E+00  7.5090E-04  0.0000E+00  6.5956E-04  0.0000E+00  0.0000E+00  0.0000E+00  4.1261E-03  0.0000E+00
 55  0.0000E+00  1.0093E-03  0.0000E+00  0.0000E+00  0.0000E+00  0.0000E+00  0.0000E+00  0.0000E+00  0.0000E+00
 56  0.0000E+00  1.2083E-03  0.0000E+00  0.0000E+00  0.0000E+00  0.0000E+00  0.0000E+00  0.0000E+00  0.0000E+00
 57  0.0000E+00  3.1174E-03  0.0000E+00  0.0000E+00  0.0000E+00  0.0000E+00  0.0000E+00  0.0000E+00  0.0000E+00
 58  0.0000E+00  9.0119E-03  0.0000E+00  0.0000E+00  1.8888E-03  0.0000E+00  0.0000E+00  0.0000E+00  0.0000E+00
 59  0.0000E+00  8.5095E-02  0.0000E+00  4.0531E-02  0.0000E+00  2.3015E-01  2.7637E-01  0.0000E+00  0.0000E+00
 60  2.1158E-01  2.2644E-01  0.0000E+00  0.0000E+00  0.0000E+00  4.6503E-01  6.6656E-01  0.0000E+00  2.1450E-01
 61  3.7485E+00  3.1933E+00  3.0141E+00  3.7232E+00  1.4334E+00  2.5645E+00  4.5504E+00  2.3481E+00  5.7789E+00
 62  0.0000E+00  3.7392E+00  6.7322E+00  0.0000E+00  8.9385E+00  3.2164E+00  1.2255E+01  5.7176E+00  0.0000E+00
 63  2.7169E+01  4.5954E+00  9.1549E+00  6.5632E+00  2.8466E+00  1.0182E+01  1.0577E+01  2.0358E+00  5.2430E+00
 64  5.6152E+00  5.4429E+00  5.4888E+00  5.2966E+00  1.0673E+01  7.9659E+00  7.9265E+00  7.3914E+00  6.9839E+00
 65  0.0000E+00  1.5369E+00  0.0000E+00  0.0000E+00  0.0000E+00  2.0890E+00  0.0000E+00  0.0000E+00  4.7609E+00
 66  0.0000E+00  6.5408E-01  2.2478E-01  1.0499E+01  0.0000E+00  3.0236E+00  0.0000E+00  0.0000E+00  0.0000E+00

# AV, chi2 & Mass for <> & i_chain = 1 ...  7 solutions
AV       0.5462      0.5628      0.5608      0.5590      0.5607      0.5711      0.5960      0.5558      0.5636
chi2 4.3962E-01  4.4477E-01  4.4305E-01  4.4277E-01  4.4338E-01  4.4235E-01  4.4262E-01  4.4374E-01  4.4280E-01
Mass 5.2925E-13  6.1219E-13  5.9745E-13  6.9506E-13  5.5837E-13  6.0527E-13  5.3880E-13  6.6315E-13  5.8738E-13
-175.30                                  [v0_min (km/s) before EX0s...]
 314.26                                  [vd_min (km/s) before EX0s...]


## Synthetic spectrum (Best Model) ##l_obs f_obs f_syn wei
 3478    [Nl_obs]
 3741.00    0.74227   0.53809    0.000
 3742.00    0.63413   0.52890    0.000
 3743.00    0.53208   0.51753    0.000
 3744.00    0.46360   0.50568    0.000
 3745.00    0.43420   0.49789   14.038
 3746.00    0.43062   0.49383   14.038
 3747.00    0.43856   0.49544   14.038
 3748.00    0.45237   0.50475   14.038
 3749.00    0.47444   0.51827   14.038
 3750.00    0.50794   0.53454   14.038
 3751.00    0.55143   0.55227   14.038
 3752.00    0.59877   0.57019   14.038
 3753.00    0.64143   0.58488   14.038
 3754.00    0.67089   0.59491   14.038
 3755.00    0.67909   0.60261   14.038
 3756.00    0.66145   0.60633   14.038
 3757.00    0.62128   0.60771   14.038
 3758.00    0.57014   0.60802   14.038
 3759.00    0.52291   0.60515   14.038
 3760.00    0.48842   0.60239   14.038
 3761.00    0.46757   0.59962   14.038
 3762.00    0.45581   0.59397   14.038
 3763.00    0.44943   0.58821   14.038
 3764.00    0.44739   0.58286   14.038
 3765.00    0.45092   0.57770   14.038
 3766.00    0.46220   0.57570   14.038
 3767.00    0.48383   0.57660   14.038
 3768.00    0.51836   0.57997   14.038
 3769.00    0.56617   0.58936   14.038
 3770.00    0.62424   0.60351   14.038
 3771.00    0.68648   0.61883   14.038
 3772.00    0.74645   0.63791   13.397
 3773.00    0.79933   0.65967   12.510
 3774.00    0.84194   0.68032   11.877
 3775.00    0.87117   0.70025   11.479
 3776.00    0.88248   0.71813   11.332
 3777.00    0.87006   0.73347   11.493
 3778.00    0.83191   0.74513   12.021
 3779.00    0.77689   0.75101   12.872
 3780.00    0.72532   0.75322   13.787
 3781.00    0.69968   0.75101   14.038
 3782.00    0.70722   0.74328   14.038
 3783.00    0.73658   0.73216   13.576
 3784.00    0.76511   0.71816   13.070
 3785.00    0.77750   0.70243   12.862
 3786.00    0.77105   0.68494   12.969
 3787.00    0.75302   0.66549   13.280
 3788.00    0.73107   0.64645   13.679
 3789.00    0.70954   0.62775   14.038
 3790.00    0.68967   0.60783   14.038
 3791.00    0.67112   0.58859   14.038
 3792.00    0.65275   0.57279   14.038
 3793.00    0.63302   0.56025   14.038
 3794.00    0.61258   0.55157   14.038
 3795.00    0.59614   0.54908   14.038
 3796.00    0.59198   0.55428   14.038
 3797.00    0.60511   0.56599   14.038
 3798.00    0.63041   0.58278   14.038
 3799.00    0.65265   0.60362   14.038
 3800.00    0.65575   0.62672   14.038
 3801.00    0.63555   0.65148   14.038
 3802.00    0.60129   0.67420   14.038
 3803.00    0.56996   0.69314   14.038
 3804.00    0.55587   0.71031   14.038
 3805.00    0.56853   0.72327   14.038
 3806.00    0.61031   0.73169   14.038
 3807.00    0.67045   0.73725   14.038
 3808.00    0.72346   0.73845   13.823
 3809.00    0.73685   0.73667   13.571
 3810.00    0.69851   0.73375   14.038
 3811.00    0.62720   0.72772   14.038
 3812.00    0.56573   0.71986   14.038
 3813.00    0.54564   0.71190   14.038
 3814.00    0.56850   0.70337   14.038
 3815.00    0.60879   0.69559   14.038
 3816.00    0.63988   0.68685   14.038
 3817.00    0.65282   0.67667   14.038
 3818.00    0.65612   0.66752   14.038
 3819.00    0.66163   0.65743   14.038
 3820.00    0.67067   0.64469   14.038
 3821.00    0.67325   0.63043   14.038
 3822.00    0.65667   0.61566   14.038
 3823.00    0.61698   0.60109   14.038
 3824.00    0.56032   0.58475   14.038
 3825.00    0.49870   0.56591   14.038
 3826.00    0.44206   0.54789   14.038
 3827.00    0.39675   0.52997   14.038
 3828.00    0.36598   0.51168   14.038
 3829.00    0.35074   0.49536   14.038
 3830.00    0.35012   0.48048   14.038
 3831.00    0.36190   0.46953   14.038
 3832.00    0.38464   0.46393   14.038
 3833.00    0.41846   0.46219   14.038
 3834.00    0.46409   0.46726   14.038
 3835.00    0.51818   0.47946   14.038
 3836.00    0.57077   0.49617   14.038
 3837.00    0.60692   0.51850   14.038
 3838.00    0.61860   0.54492   14.038
 3839.00    0.61324   0.57198   14.038
 3840.00    0.61269   0.60088   14.038
 3841.00    0.63665   0.62854   14.038
 3842.00    0.68646   0.65290   14.038
 3843.00    0.74451   0.67598   13.432
 3844.00    0.78744   0.69527   12.699
 3845.00    0.80382   0.71039   12.441
 3846.00    0.79625   0.72198   12.559
 3847.00    0.77598   0.73076    0.000
 3848.00    0.75304   0.73733    0.000
 3849.00    0.73446   0.74121    0.000
 3850.00    0.72456   0.74288    0.000
 3851.00    0.72605   0.74218    0.000
 3852.00    0.74020   0.74065    0.000
 3853.00    0.76638   0.73970    0.000
 3854.00    0.80031   0.73784    0.000
 3855.00    0.83336   0.73637    0.000
 3856.00    0.85412   0.73695    0.000
 3857.00    0.85594   0.73899    0.000
 3858.00    0.84084   0.74355    0.000
 3859.00    0.81864   0.74950    0.000
 3860.00    0.79949   0.75465    0.000
 3861.00    0.78861   0.75971    0.000
 3862.00    0.78619   0.76498    0.000
 3863.00    0.78948   0.76772    0.000
 3864.00    0.79475   0.76791    0.000
 3865.00    0.79755   0.76587    0.000
 3866.00    0.79395   0.76110    0.000
 3867.00    0.78220   0.75601    0.000
 3868.00    0.76289   0.74936    0.000
 3869.00    0.73819   0.74217    0.000
 3870.00    0.71052   0.73582    0.000
 3871.00    0.68229   0.72859    0.000
 3872.00    0.65679   0.72183    0.000
 3873.00    0.64048   0.71416    0.000
 3874.00    0.64350   0.70479    0.000
 3875.00    0.67573   0.69660    0.000
 3876.00    0.73323   0.68733    0.000
 3877.00    0.79311   0.67512    0.000
 3878.00    0.81960   0.66139    0.000
 3879.00    0.79363   0.64547    0.000
 3880.00    0.72804   0.63056    0.000
 3881.00    0.66338   0.61528   14.038
 3882.00    0.63522   0.59812   14.038
 3883.00    0.65106   0.58386   14.038
 3884.00    0.69107   0.57293   14.038
 3885.00    0.72777   0.56663   13.741
 3886.00    0.74505   0.56561   13.422
 3887.00    0.73947   0.56933   13.523
 3888.00    0.71649   0.57976   13.957
 3889.00    0.68544   0.59437   14.038
 3890.00    0.65874   0.61128   14.038
 3891.00    0.64860   0.63035   14.038
 3892.00    0.66105   0.65049   14.038
 3893.00    0.69492   0.66989   14.038
 3894.00    0.74255   0.68678   13.467
 3895.00    0.79168   0.70189   12.631
 3896.00    0.82595   0.71443   12.107
 3897.00    0.82890   0.72698   12.064
 3898.00    0.79735   0.73800   12.542
 3899.00    0.74642   0.74650   13.397
 3900.00    0.70484   0.75605   14.038
 3901.00    0.69246   0.76421   14.038
 3902.00    0.70873   0.77398   14.038
 3903.00    0.73507   0.78515   13.604
 3904.00    0.75360   0.79521   13.270
 3905.00    0.76010   0.80744   13.156
 3906.00    0.76377   0.81798   13.093
 3907.00    0.77653   0.82731   12.878
 3908.00    0.80301   0.83722   12.453
 3909.00    0.83989   0.84317   11.906
 3910.00    0.87927   0.84665   11.373
 3911.00    0.91307   0.84772   10.952
 3912.00    0.93364   0.84505   10.711
 3913.00    0.93572   0.84141   10.687
 3914.00    0.91999   0.83472   10.870
 3915.00    0.89358   0.82631   11.191
 3916.00    0.86716   0.81764   11.532
 3917.00    0.84763   0.80684   11.798
 3918.00    0.83630   0.79580   11.957
 3919.00    0.83028   0.78301   12.044
 3920.00    0.82725   0.76842   12.088
 3921.00    0.82724   0.75096   12.088
 3922.00    0.83152   0.73003   12.026
 3923.00    0.83725   0.70620   11.944
 3924.00    0.83486   0.67820   11.978
 3925.00    0.80986   0.64807   12.348
 3926.00    0.75608   0.61645   13.226
 3927.00    0.68478   0.58527   14.038
 3928.00    0.62315   0.55701   14.038
 3929.00    0.59371   0.53330   14.038
 3930.00    0.59515   0.51786   14.038
 3931.00    0.60203   0.51239   14.038
 3932.00    0.58614   0.51642   14.038
 3933.00    0.54380   0.52918   14.038
 3934.00    0.49866   0.54881   14.038
 3935.00    0.48477   0.57457   14.038
 3936.00    0.51715   0.60501   14.038
 3937.00    0.58660   0.63564   14.038
 3938.00    0.66821   0.66516   14.038
 3939.00    0.74173   0.69181   13.482
 3940.00    0.79687   0.71529   12.549
 3941.00    0.83193   0.73750   12.020
 3942.00    0.84915   0.75680   11.776
 3943.00    0.85301   0.77241   11.723
 3944.00    0.84960   0.78532   11.770
 3945.00    0.84375   0.79670   11.852
 3946.00    0.83762   0.80703   11.939
 3947.00    0.83101   0.81561   12.034
 3948.00    0.82373   0.81964   12.140
 3949.00    0.81728   0.82106   12.236
 3950.00    0.81469   0.82203   12.275
 3951.00    0.81858   0.81910   12.216
 3952.00    0.82935   0.81156   12.058
 3953.00    0.84495   0.80010   11.835
 3954.00    0.86024   0.78554   11.625
 3955.00    0.86621   0.76823   11.545
 3956.00    0.85007   0.74518   11.764
 3957.00    0.80124   0.71549   12.481
 3958.00    0.72170   0.68284   13.856
 3959.00    0.62764   0.64828   14.038
 3960.00    0.54162   0.61122    0.000
 3961.00    0.47379   0.57266    0.000
 3962.00    0.41725   0.53375    0.000
 3963.00    0.35664   0.49851    0.000
 3964.00    0.29657   0.46975    0.000
 3965.00    0.27183   0.44884    0.000
 3966.00    0.33547   0.43788    0.000
 3967.00    0.50318   0.43732    0.000
 3968.00    0.72584   0.44772    0.000
 3969.00    0.90080   0.46830    0.000
 3970.00    0.95301   0.49784    0.000
 3971.00    0.88975   0.53482    0.000
 3972.00    0.79588   0.57525    0.000
 3973.00    0.75913   0.61713    0.000
 3974.00    0.80127   0.65894    0.000
 3975.00    0.87580   0.69828    0.000
 3976.00    0.91643   0.73497    0.000
 3977.00    0.89804   0.76651    0.000
 3978.00    0.84307   0.79330    0.000
 3979.00    0.79694   0.81771    0.000
 3980.00    0.78587   0.83822    0.000
 3981.00    0.80957   0.85630   12.352
 3982.00    0.84914   0.87155   11.777
 3983.00    0.88577   0.88441   11.290
 3984.00    0.90543   0.89805   11.045
 3985.00    0.90004   0.90922   11.111
 3986.00    0.87123   0.91879   11.478
 3987.00    0.83156   0.92791   12.026
 3988.00    0.80147   0.93486   12.477
 3989.00    0.79472   0.94182   12.583
 3990.00    0.81142   0.94629   12.324
 3991.00    0.83950   0.94925   11.912
 3992.00    0.86625   0.95219   11.544
 3993.00    0.88597   0.95438   11.287
 3994.00    0.89991   0.95679   11.112
 3995.00    0.91135   0.95977   10.973
 3996.00    0.92115   0.96239   10.856
 3997.00    0.92763   0.96452   10.780
 3998.00    0.92934   0.96720   10.760
 3999.00    0.92866   0.96960   10.768
 4000.00    0.93204   0.97156   10.729
 4001.00    0.94623   0.97197   10.568
 4002.00    0.97188   0.97282   10.289
 4003.00    1.00249   0.97575    9.975
 4004.00    1.02721   0.97926    9.735
 4005.00    1.03743   0.98286    9.639
 4006.00    1.02837   0.98641    9.724
 4007.00    0.99960   0.99222   10.004
 4008.00    0.95654   0.99868   10.454
 4009.00    0.91099   1.00529   10.977
 4010.00    0.87867   1.01124   11.381
 4011.00    0.86829   1.01612   11.517
 4012.00    0.87625   1.02145   11.412
 4013.00    0.88847   1.02456   11.255
 4014.00    0.89377   1.02771   11.189
 4015.00    0.89263   1.03091   11.203
 4016.00    0.89650   1.03253   11.154
 4017.00    0.91699   1.03395   10.905
 4018.00    0.95599   1.03384   10.460
 4019.00    1.00539   1.03377    9.946
 4020.00    1.05323   1.03331    9.495
 4021.00    1.09124   1.03145    9.164
 4022.00    1.11579   1.02960    8.962
 4023.00    1.12676   1.02668    8.875
 4024.00    1.12578   1.02278    8.883
 4025.00    1.11593   1.01787    8.961
 4026.00    1.10162   1.01147    9.078
 4027.00    1.08834   1.00634    9.188
 4028.00    1.08255   1.00285    9.237
 4029.00    1.08994   0.99999    9.175
 4030.00    1.10969   0.99979    9.012
 4031.00    1.13255   1.00112    8.830
 4032.00    1.14322   1.00516    8.747
 4033.00    1.13133   1.01186    8.839
 4034.00    1.09671   1.01763    9.118
 4035.00    1.04861   1.02259    9.536
 4036.00    1.00000   1.02543   10.000
 4037.00    0.96381   1.02601   10.375
 4038.00    0.95202   1.02542   10.504
 4039.00    0.96858   1.02136   10.324
 4040.00    1.00321   1.01487    9.968
 4041.00    1.03181   1.00783    9.692
 4042.00    1.03082   1.00226    9.701
 4043.00    0.99467   1.00123   10.054
 4044.00    0.93739   1.00139   10.668
 4045.00    0.88333   1.00192   11.321
 4046.00    0.85168   1.00413   11.741
 4047.00    0.85383   1.00752   11.712
 4048.00    0.89178   1.01213   11.213
 4049.00    0.95473   1.01537   10.474
 4050.00    1.01829   1.01620    9.820
 4051.00    1.05214   1.01557    9.504
 4052.00    1.04422   1.01385    9.577
 4053.00    1.00888   1.01038    9.912
 4054.00    0.97992   1.00623   10.205
 4055.00    0.97862   1.00231   10.218
 4056.00    0.99870   0.99838   10.013
 4057.00    1.01052   0.99425    9.896
 4058.00    0.99075   0.98959   10.093
 4059.00    0.94163   0.98495   10.620
 4060.00    0.88947   0.98208   11.243
 4061.00    0.86210   0.98205   11.600
 4062.00    0.86887   0.98152   11.509
 4063.00    0.89993   0.98146   11.112
 4064.00    0.93681   0.98205   10.675
 4065.00    0.96538   0.98357   10.359
 4066.00    0.97731   0.98601   10.232
 4067.00    0.97038   0.98586   10.305
 4068.00    0.94904   0.98501   10.537
 4069.00    0.92435   0.98464   10.818
 4070.00    0.90996   0.98348   10.989
 4071.00    0.91296   0.98043   10.953
 4072.00    0.93168   0.97645   10.733
 4073.00    0.95786   0.97351   10.440
 4074.00    0.98350   0.97375   10.168
 4075.00    1.00318   0.97584    9.968
 4076.00    1.01400   0.97828    9.862
 4077.00    1.01539   0.98200    9.848
 4078.00    1.00897   0.98593    9.911
 4079.00    0.99821   0.99114   10.018
 4080.00    0.98653   0.99722   10.137
 4081.00    0.97601   1.00290   10.246
 4082.00    0.96745   1.00794   10.336
 4083.00    0.96181   1.01135   10.397
 4084.00    0.96143   1.01267   10.401
 4085.00    0.96967   1.01195   10.313
 4086.00    0.98553   1.00860   10.147
 4087.00    0.99711   1.00273   10.029
 4088.00    0.98149   0.99361   10.189
 4089.00    0.91915   0.98043   10.880
 4090.00    0.81730   0.96354   12.235
 4091.00    0.71337   0.94224   -1.000
 4092.00    0.65632   0.91871    0.000
 4093.00    0.66490   0.89339    0.000
 4094.00    0.71776   0.86750    0.000
 4095.00    0.76797   0.84227    0.000
 4096.00    0.78765   0.81872    0.000
 4097.00    0.78298   0.79929    0.000
 4098.00    0.78604   0.78638    0.000
 4099.00    0.81841   0.78119    0.000
 4100.00    0.87430   0.78241    0.000
 4101.00    0.92485   0.78991    0.000
 4102.00    0.94761   0.80266    0.000
 4103.00    0.94529   0.81992    0.000
 4104.00    0.94378   0.84119    0.000
 4105.00    0.96638   0.86329    0.000
 4106.00    1.01139   0.88506    0.000
 4107.00    1.05204   0.90611    0.000
 4108.00    1.05841   0.92494    0.000
 4109.00    1.02336   0.94214    0.000
 4110.00    0.96486   0.95729    0.000
 4111.00    0.91246   0.97001    0.000
 4112.00    0.88540   0.98080    0.000
 4113.00    0.88909   0.98954   11.247
 4114.00    0.91824   0.99657   10.890
 4115.00    0.96374   1.00201   10.376
 4116.00    1.01430   1.00629    9.859
 4117.00    1.05780   1.00967    9.454
 4118.00    1.08541   1.01235    9.213
 4119.00    1.09292   1.01416    9.150
 4120.00    1.08047   1.01540    9.255
 4121.00    1.05115   1.01668    9.513
 4122.00    1.01045   1.01665    9.897
 4123.00    0.96574   1.01565   10.355
 4124.00    0.92373   1.01386   10.826
 4125.00    0.88879   1.01189   11.251
 4126.00    0.86304   1.00912   11.587
 4127.00    0.84752   1.00682   11.799
 4128.00    0.84320   1.00474   11.860
 4129.00    0.85108   1.00460   11.750
 4130.00    0.87229   1.00665   11.464
 4131.00    0.90823   1.00920   11.010
 4132.00    0.96040   1.01405   10.412
 4133.00    1.02688   1.01776    9.738
 4134.00    1.09669   1.02257    9.118
 4135.00    1.14909   1.02648    8.703
 4136.00    1.16235   1.02816    8.603
 4137.00    1.13301   1.02861    8.826
 4138.00    1.08025   1.02647    9.257
 4139.00    1.03690   1.02440    9.644
 4140.00    1.02231   1.02210    9.782
 4141.00    1.03344   1.02031    9.676
 4142.00    1.04993   1.01913    9.524
 4143.00    1.05623   1.01808    9.468
 4144.00    1.05162   1.01776    9.509
 4145.00    1.04801   1.01902    9.542
 4146.00    1.05468   1.02119    9.482
 4147.00    1.06882   1.02341    9.356
 4148.00    1.07663   1.02446    9.288
 4149.00    1.06655   1.02575    9.376
 4150.00    1.04060   1.02658    9.610
 4151.00    1.01431   1.02776    9.859
 4152.00    1.00483   1.03056    9.952
 4153.00    1.01715   1.03339    9.831
 4154.00    1.04295   1.03762    9.588
 4155.00    1.06850   1.04147    9.359
 4156.00    1.08711   1.04662    9.199
 4157.00    1.10101   1.05158    9.083
 4158.00    1.11678   1.05557    8.954
 4159.00    1.13545   1.05936    8.807
 4160.00    1.15023   1.06103    8.694
 4161.00    1.15038   1.06113    8.693
 4162.00    1.13293   1.05919    8.827
 4163.00    1.10642   1.05619    9.038
 4164.00    1.08748   1.05156    9.196
 4165.00    1.08624   1.04504    9.206
 4166.00    1.09975   1.03736    9.093
 4167.00    1.11396   1.02939    8.977
 4168.00    1.11653   1.02171    8.956
 4169.00    1.10474   1.01500    9.052
 4170.00    1.08501   1.01022    9.216
 4171.00    1.06580   1.00629    9.383
 4172.00    1.05156   1.00397    9.510
 4173.00    1.04250   1.00340    9.592
 4174.00    1.03689   1.00490    9.644
 4175.00    1.03368   1.00792    9.674
 4176.00    1.03278   1.01149    9.683
 4177.00    1.03502   1.01583    9.662
 4178.00    1.04212   1.01953    9.596
 4179.00    1.05659   1.02350    9.464
 4180.00    1.07958   1.02702    9.263
 4181.00    1.10632   1.02944    9.039
 4182.00    1.12509   1.03197    8.888
 4183.00    1.12213   1.03402    8.912
 4184.00    1.09616   1.03667    9.123
 4185.00    1.06297   1.03846    9.408
 4186.00    1.04968   1.04068    9.527
 4187.00    1.07051   1.04302    9.341
 4188.00    1.11600   1.04342    8.961
 4189.00    1.15663   1.04314    8.646
 4190.00    1.16600   1.04186    8.576
 4191.00    1.13495   1.03937    8.811
 4192.00    1.07139   1.03466    9.334
 4193.00    0.99338   1.02962   10.067
 4194.00    0.92335   1.02513   10.830
 4195.00    0.88679   1.02007   11.277
 4196.00    0.90017   1.01557   11.109
 4197.00    0.95724   1.01350   10.447
 4198.00    1.02840   1.01363    9.724
 4199.00    1.07794   1.01548    9.277
 4200.00    1.09077   1.02006    9.168
 4201.00    1.07635   1.02647    9.291
 4202.00    1.05774   1.03387    9.454
 4203.00    1.04845   1.04110    9.538
 4204.00    1.04722   1.04839    9.549
 4205.00    1.04337   1.05526    9.584
 4206.00    1.03236   1.06082    9.687
 4207.00    1.02080   1.06500    9.796
 4208.00    1.02310   1.06745    9.774
 4209.00    1.04774   1.06787    9.544
 4210.00    1.09115   1.06736    9.165
 4211.00    1.13947   1.06724    8.776
 4212.00    1.17956   1.06639    8.478
 4213.00    1.20566   1.06516    8.294
 4214.00    1.21908   1.06298    8.203
 4215.00    1.22296   1.06017    8.177
 4216.00    1.21798   1.05512    8.210
 4217.00    1.20226   1.04825    8.318
 4218.00    1.17452   1.04026    8.514
 4219.00    1.13748   1.02993    8.791
 4220.00    1.09815   1.01807    9.106
 4221.00    1.06470   1.00622    9.392
 4222.00    1.04177   0.99774    9.599
 4223.00    1.02971   0.99091    9.712
 4224.00    1.02540   0.98700    9.752
 4225.00    1.02385   0.98669    9.767
 4226.00    1.01862   0.98909    9.817
 4227.00    1.00370   0.99363    9.963
 4228.00    0.97912   1.00044   10.213
 4229.00    0.95268   1.00930   10.497
 4230.00    0.93753   1.01680   10.666
 4231.00    0.94218   1.02417   10.614
 4232.00    0.96619   1.03028   10.350
 4233.00    1.00127   1.03549    9.987
 4234.00    1.03837   1.03985    9.631
 4235.00    1.07192   1.04510    9.329
 4236.00    1.09975   1.05048    9.093
 4237.00    1.12078   1.05468    8.922
 4238.00    1.13312   1.06016    8.825
 4239.00    1.13414   1.06400    8.817
 4240.00    1.12241   1.06637    8.909
 4241.00    1.09993   1.06701    9.091
 4242.00    1.07222   1.06622    9.326
 4243.00    1.04637   1.06415    9.557
 4244.00    1.02799   1.05988    9.728
 4245.00    1.02074   1.05584    9.797
 4246.00    1.02584   1.05190    9.748
 4247.00    1.04104   1.04747    9.606
 4248.00    1.06047   1.04376    9.430
 4249.00    1.07645   1.04127    9.290
 4250.00    1.08494   1.04053    9.217
 4251.00    1.08718   1.04078    9.198
 4252.00    1.08840   1.04109    9.188
 4253.00    1.09265   1.04267    9.152
 4254.00    1.10056   1.04422    9.086
 4255.00    1.10959   1.04632    9.012
 4256.00    1.11583   1.04975    8.962
 4257.00    1.11510   1.05359    8.968
 4258.00    1.10340   1.05814    9.063
 4259.00    1.08024   1.06164    9.257
 4260.00    1.05138   1.06493    9.511
 4261.00    1.02848   1.06633    9.723
 4262.00    1.02205   1.06608    9.784
 4263.00    1.03385   1.06395    9.673
 4264.00    1.05629   1.05910    9.467
 4265.00    1.07850   1.05180    9.272
 4266.00    1.09524   1.04270    9.130
 4267.00    1.10824   1.03418    9.023
 4268.00    1.12359   1.02536    8.900
 4269.00    1.14645   1.01877    8.723
 4270.00    1.17986   1.01516    8.476
 4271.00    1.22392   1.01436    8.170
 4272.00    1.27358   1.01596   -2.000
 4273.00    1.31796   1.01990   -2.000
 4274.00    1.34224   1.02532   -2.000
 4275.00    1.33537   1.03111   -2.000
 4276.00    1.29330   1.03628   -2.000
 4277.00    1.21925   1.04009   -2.000
 4278.00    1.12455   1.04203   -2.000
 4279.00    1.02913   1.04125   -2.000
 4280.00    0.95965   1.03861   -2.000
 4281.00    0.93383   1.03328   -2.000
 4282.00    0.94791   1.02709   -2.000
 4283.00    0.97729   1.01995   -2.000
 4284.00    0.99460   1.01259   -2.000
 4285.00    0.98951   1.00630   -2.000
 4286.00    0.97014   0.99964   -2.000
 4287.00    0.95229   0.99418   -2.000
 4288.00    0.94338   0.98871   10.600
 4289.00    0.94017   0.98346   10.636
 4290.00    0.93400   0.97791   10.707
 4291.00    0.92148   0.97071   10.852
 4292.00    0.90675   0.96315   11.028
 4293.00    0.89836   0.95378   11.131
 4294.00    0.90047   0.94334   11.105
 4295.00    0.91018   0.93167   10.987
 4296.00    0.91946   0.91966   10.876
 4297.00    0.92267   0.90805   10.838
 4298.00    0.91982   0.89728   10.872
 4299.00    0.91554   0.88829   10.922
 4300.00    0.91332   0.88075   10.949
 4301.00    0.91210   0.87591   10.964
 4302.00    0.90684   0.87400   11.027
 4303.00    0.89431   0.87494   11.182
 4304.00    0.87765   0.87877   11.394
 4305.00    0.86610   0.88610   11.546
 4306.00    0.86863   0.89613   11.512
 4307.00    0.88689   0.90973   11.275
 4308.00    0.91477   0.92699   10.932
 4309.00    0.94310   0.94633   10.603
 4310.00    0.96645   0.96835   10.347
 4311.00    0.98422   0.99065   10.160
 4312.00    0.99929   1.01269   10.007
 4313.00    1.01550   1.03198    9.847
 4314.00    1.03711   1.04843    9.642
 4315.00    1.06756   1.05948    9.367
 4316.00    1.10604   1.06574    9.041
 4317.00    1.14656   1.06696    8.722
 4318.00    1.17942   1.06357    8.479
 4319.00    1.19733   1.05791    8.352
 4320.00    1.19792   1.04995    8.348
 4321.00    1.18339   1.04250    8.450
 4322.00    1.15793   1.03492    8.636
 4323.00    1.12633   1.03036    8.878
 4324.00    1.09378   1.02735    9.143
 4325.00    1.06508   1.02618    9.389
 4326.00    1.04391   1.02602    9.579
 4327.00    1.03277   1.02518    9.683
 4328.00    1.03229   1.02322    9.687
 4329.00    1.04041   1.01712    9.612
 4330.00    1.05249   1.00721    0.000
 4331.00    1.06369   0.99280    0.000
 4332.00    1.07257   0.97391    0.000
 4333.00    1.08149   0.95344    0.000
 4334.00    1.09430   0.93276    0.000
 4335.00    1.11172   0.91369    0.000
 4336.00    1.13033   0.89777    0.000
 4337.00    1.14396   0.88749    0.000
 4338.00    1.14746   0.88315    0.000
 4339.00    1.13780   0.88546    0.000
 4340.00    1.11457   0.89438    0.000
 4341.00    1.08177   0.90835    0.000
 4342.00    1.04850   0.92620    0.000
 4343.00    1.02735   0.94528    0.000
 4344.00    1.02541   0.96447    0.000
 4345.00    1.03910   0.98286    0.000
 4346.00    1.05544   0.99943    0.000
 4347.00    1.06320   1.01313    0.000
 4348.00    1.06171   1.02537    0.000
 4349.00    1.06053   1.03627    0.000
 4350.00    1.06997   1.04642    0.000
 4351.00    1.09092   1.05619    9.167
 4352.00    1.11429   1.06642    8.974
 4353.00    1.12844   1.07719    8.862
 4354.00    1.12985   1.08849    8.851
 4355.00    1.12460   1.10001    8.892
 4356.00    1.12353   1.11134    8.900
 4357.00    1.13282   1.12232    8.828
 4358.00    1.15201   1.13142    8.681
 4359.00    1.17570   1.13905    8.506
 4360.00    1.19815   1.14459    8.346
 4361.00    1.21461   1.14861    8.233
 4362.00    1.22158   1.15024    8.186
 4363.00    1.21758   1.15015    8.213
 4364.00    1.20354   1.14808    8.309
 4365.00    1.18248   1.14444    8.457
 4366.00    1.15802   1.13946    8.635
 4367.00    1.13351   1.13384    8.822
 4368.00    1.11192   1.12835    8.993
 4369.00    1.09510   1.12292    9.132
 4370.00    1.08325   1.11813    9.231
 4371.00    1.07494   1.11354    9.303
 4372.00    1.06836   1.10953    9.360
 4373.00    1.06258   1.10518    9.411
 4374.00    1.05765   1.10032    9.455
 4375.00    1.05376   1.09429    9.490
 4376.00    1.05015   1.08768    9.522
 4377.00    1.04495   1.08041    9.570
 4378.00    1.03638   1.07307    9.649
 4379.00    1.02510   1.06592    9.755
 4380.00    1.01467   1.05961    9.855
 4381.00    1.01022   1.05507    9.899
 4382.00    1.01483   1.05275    9.854
 4383.00    1.02852   1.05337    9.723
 4384.00    1.04855   1.05647    9.537
 4385.00    1.07069   1.06217    9.340
 4386.00    1.08972   1.06963    9.177
 4387.00    1.10010   1.07846    9.090
 4388.00    1.09941   1.08796    9.096
 4389.00    1.09022   1.09701    9.172
 4390.00    1.07947   1.10476    9.264
 4391.00    1.07284   1.11122    9.321
 4392.00    1.07045   1.11648    9.342
 4393.00    1.06704   1.12040    9.372
 4394.00    1.05701   1.12257    9.461
 4395.00    1.03966   1.12324    9.619
 4396.00    1.01951   1.12259    9.809
 4397.00    1.00305   1.12056    9.970
 4398.00    0.99412   1.11807   10.059
 4399.00    0.99327   1.11521   10.068
 4400.00    0.99877   1.11310   10.012
 4401.00    1.00847   1.11136    9.916
 4402.00    1.02017   1.11116    9.802
 4403.00    1.03214   1.11278    9.689
 4404.00    1.04447   1.11584    9.574
 4405.00    1.05945   1.12036    9.439
 4406.00    1.08067   1.12582    9.254
 4407.00    1.10958   1.13160    9.012
 4408.00    1.14411   1.13732    8.740
 4409.00    1.17887   1.14313    8.483
 4410.00    1.20613   1.14793    8.291
 4411.00    1.21643   1.15173    8.221
 4412.00    1.19972   1.15468    8.335
 4413.00    1.15455   1.15766    8.661
 4414.00    1.09490   1.16022    9.133
 4415.00    1.04895   1.16254    9.533
 4416.00    1.04011   1.16484    9.614
 4417.00    1.06760   1.16696    9.367
 4418.00    1.10548   1.16899    9.046
 4419.00    1.11940   1.17078    8.933
 4420.00    1.09003   1.17223    9.174
 4421.00    1.01616   1.17275    9.841
 4422.00    0.91099   1.17281   10.977
 4423.00    0.79470   1.17212   -1.000
 4424.00    0.69295   1.17069   -1.000
 4425.00    0.63103   1.16905   -1.000
 4426.00    0.61854   1.16738   -1.000
 4427.00    0.64505   1.16607   -1.000
 4428.00    0.68507   1.16479   -1.000
 4429.00    0.71659   1.16386   -1.000
 4430.00    0.72838   1.16350   -1.000
 4431.00    0.72016   1.16384   -1.000
 4432.00    0.70248   1.16489   -1.000
 4433.00    0.69668   1.16656   -1.000
 4434.00    0.73192   1.16869   -1.000
 4435.00    0.82271   1.17160   -1.000
 4436.00    0.95220   1.17433   10.502
 4437.00    1.07402   1.17682    9.311
 4438.00    1.14508   1.17950    8.733
 4439.00    1.15898   1.18207    8.628
 4440.00    1.14744   1.18485    8.715
 4441.00    1.15214   1.18718    8.679
 4442.00    1.18556   1.18920    8.435
 4443.00    1.22615   1.19059    8.156
 4444.00    1.23744   1.19121    8.081
 4445.00    1.20411   1.19072    8.305
 4446.00    1.13907   1.18916    8.779
 4447.00    1.07333   1.18589    9.317
 4448.00    1.02963   1.18139    9.712
 4449.00    1.01492   1.17503    9.853
 4450.00    1.02297   1.16770    9.775
 4451.00    1.04389   1.15996    9.580
 4452.00    1.06792   1.15269    9.364
 4453.00    1.08610   1.14629    9.207
 4454.00    1.09315   1.14102    9.148
 4455.00    1.08914   1.13819    9.182
 4456.00    1.07890   1.13658    9.269
 4457.00    1.06776   1.13723    9.365
 4458.00    1.05835   1.13930    9.449
 4459.00    1.05057   1.14335    9.519
 4460.00    1.04392   1.14865    9.579
 4461.00    1.03974   1.15437    0.000
 4462.00    1.04130   1.16095    0.000
 4463.00    1.05165   1.16764    0.000
 4464.00    1.07062   1.17505    0.000
 4465.00    1.09450   1.18242    0.000
 4466.00    1.11799   1.19056    0.000
 4467.00    1.13796   1.19882    0.000
 4468.00    1.15411   1.20658    0.000
 4469.00    1.16781   1.21450    0.000
 4470.00    1.17904   1.22144    0.000
 4471.00    1.18550   1.22776    0.000
 4472.00    1.18362   1.23226    0.000
 4473.00    1.17197   1.23563    0.000
 4474.00    1.15262   1.23722    0.000
 4475.00    1.13051   1.23749    0.000
 4476.00    1.10998   1.23660    0.000
 4477.00    1.09289   1.23517    0.000
 4478.00    1.07897   1.23364    0.000
 4479.00    1.06843   1.23236    0.000
 4480.00    1.06390   1.23192    0.000
 4481.00    1.07028   1.23179    0.000
 4482.00    1.09132   1.23200    9.163
 4483.00    1.12637   1.23217    8.878
 4484.00    1.17013   1.23240    8.546
 4485.00    1.21505   1.23244    8.230
 4486.00    1.25442   1.23234    7.972
 4487.00    1.28291   1.23197    7.795
 4488.00    1.29768   1.23147    7.706
 4489.00    1.30061   1.23120    7.689
 4490.00    1.29859   1.23170    7.701
 4491.00    1.30027   1.23289    7.691
 4492.00    1.30745   1.23548    7.648
 4493.00    1.31282   1.23917    7.617
 4494.00    1.30405   1.24442    7.668
 4495.00    1.27840   1.25060    7.822
 4496.00    1.24841   1.25768    8.010
 4497.00    1.23741   1.26521    8.081
 4498.00    1.25664   1.27302    7.958
 4499.00    1.29312   1.28092    7.733
 4500.00    1.31344   1.28819    7.614
 4501.00    1.29485   1.29469    7.723
 4502.00    1.24770   1.29989    8.015
 4503.00    1.21353   1.30356    8.240
 4504.00    1.22937   1.30565    8.134
 4505.00    1.29265   1.30622    7.736
 4506.00    1.36000   1.30551    7.353
 4507.00    1.38103   1.30341    7.241
 4508.00    1.34377   1.30010    7.442
 4509.00    1.27986   1.29612    7.813
 4510.00    1.23976   1.29156    8.066
 4511.00    1.24722   1.28688    8.018
 4512.00    1.29067   1.28216    7.748
 4513.00    1.33597   1.27745    7.485
 4514.00    1.35860   1.27281    7.361
 4515.00    1.35250   1.26775    7.394
 4516.00    1.32666   1.26263    7.538
 4517.00    1.29300   1.25661    7.734
 4518.00    1.26172   1.25021    7.926
 4519.00    1.24072   1.24262    8.060
 4520.00    1.23342   1.23452    8.108
 4521.00    1.23751   1.22544    8.081
 4522.00    1.24568   1.21632    8.028
 4523.00    1.25100   1.20735    7.994
 4524.00    1.25079   1.19891    7.995
 4525.00    1.24658   1.19193    8.022
 4526.00    1.24128   1.18616    8.056
 4527.00    1.23649   1.18305    8.087
 4528.00    1.23227   1.18163    8.115
 4529.00    1.22825   1.18306    8.142
 4530.00    1.22495   1.18626    8.164
 4531.00    1.22401   1.19183    8.170
 4532.00    1.22751   1.19865    8.147
 4533.00    1.23674   1.20674    8.086
 4534.00    1.25204   1.21514    7.987
 4535.00    1.27238   1.22325    7.859
 4536.00    1.29461   1.23068    7.724
 4537.00    1.31319   1.23644    7.615
 4538.00    1.32155   1.24094    7.567
 4539.00    1.31657   1.24335    7.595
 4540.00    1.30041   1.24432    7.690
 4541.00    1.27947   1.24354    7.816
 4542.00    1.25980   1.24143    7.938
 4543.00    1.24464   1.23858    8.034
 4544.00    1.23449   1.23515    8.101
 4545.00    1.22827   1.23213    8.142
 4546.00    1.22418   1.22950    8.169
 4547.00    1.21985   1.22797    8.198
 4548.00    1.21399   1.22758    8.237
 4549.00    1.20787   1.22865    8.279
 4550.00    1.20530   1.23128    0.000
 4551.00    1.20938   1.23515    0.000
 4552.00    1.21821   1.24045    0.000
 4553.00    1.22450   1.24625    0.000
 4554.00    1.22071   1.25289    0.000
 4555.00    1.20819   1.25911    0.000
 4556.00    1.19877   1.26522    0.000
 4557.00    1.20844   1.27029    0.000
 4558.00    1.24159   1.27452    0.000
 4559.00    1.28682   1.27776    0.000
 4560.00    1.32284   1.28018    0.000
 4561.00    1.33851   1.28191    0.000
 4562.00    1.34048   1.28315    0.000
 4563.00    1.34857   1.28411    0.000
 4564.00    1.37316   1.28491    0.000
 4565.00    1.40352   1.28566    0.000
 4566.00    1.41125   1.28637    0.000
 4567.00    1.37742   1.28688    0.000
 4568.00    1.31156   1.28722    0.000
 4569.00    1.25003   1.28706    0.000
 4570.00    1.22765   1.28653    0.000
 4571.00    1.25053   1.28527    0.000
 4572.00    1.29499   1.28334    0.000
 4573.00    1.32792   1.28062    0.000
 4574.00    1.33341   1.27720    0.000
 4575.00    1.31586   1.27340    0.000
 4576.00    1.29095   1.26937    0.000
 4577.00    1.26965   1.26562    0.000
 4578.00    1.25528   1.26237    0.000
 4579.00    1.24598   1.26003    0.000
 4580.00    1.24100   1.25847    0.000
 4581.00    1.24229   1.25811    0.000
 4582.00    1.25294   1.25874    0.000
 4583.00    1.27174   1.26007    0.000
 4584.00    1.29120   1.26204    0.000
 4585.00    1.29949   1.26394    0.000
 4586.00    1.28990   1.26601    0.000
 4587.00    1.26566   1.26750    0.000
 4588.00    1.23874   1.26879    0.000
 4589.00    1.22030   1.26933    0.000
 4590.00    1.21395   1.26976    0.000
 4591.00    1.21599   1.26978    0.000
 4592.00    1.22052   1.26991    0.000
 4593.00    1.22438   1.27004    0.000
 4594.00    1.22746   1.27053    0.000
 4595.00    1.23072   1.27127    0.000
 4596.00    1.23364   1.27266    0.000
 4597.00    1.23398   1.27447    0.000
 4598.00    1.22972   1.27710    0.000
 4599.00    1.22242   1.28030    0.000
 4600.00    1.21782   1.28417    0.000
 4601.00    1.22375   1.28866    0.000
 4602.00    1.24495   1.29346    0.000
 4603.00    1.28182   1.29869    0.000
 4604.00    1.33042   1.30363    0.000
 4605.00    1.38283   1.30862    0.000
 4606.00    1.42723   1.31272    0.000
 4607.00    1.44974   1.31657    0.000
 4608.00    1.44289   1.31930    0.000
 4609.00    1.40992   1.32154    0.000
 4610.00    1.36388   1.32295    0.000
 4611.00    1.32048   1.32388    0.000
 4612.00    1.29315   1.32454    0.000
 4613.00    1.29239   1.32485    0.000
 4614.00    1.32190   1.32537    0.000
 4615.00    1.37486   1.32560    0.000
 4616.00    1.43420   1.32621    0.000
 4617.00    1.48066   1.32653    0.000
 4618.00    1.50328   1.32712    0.000
 4619.00    1.50055   1.32729    0.000
 4620.00    1.47776   1.32749    0.000
 4621.00    1.44238   1.32717    0.000
 4622.00    1.40312   1.32663    0.000
 4623.00    1.36856   1.32562    0.000
 4624.00    1.34362   1.32423    0.000
 4625.00    1.32870   1.32247    0.000
 4626.00    1.32062   1.32035    0.000
 4627.00    1.31578   1.31790    0.000
 4628.00    1.31130   1.31516    0.000
 4629.00    1.30520   1.31219    0.000
 4630.00    1.29725   1.30900    0.000
 4631.00    1.28936   1.30575    0.000
 4632.00    1.28500   1.30247    0.000
 4633.00    1.28504   1.29926    0.000
 4634.00    1.28496   1.29621    0.000
 4635.00    1.27549   1.29326    0.000
 4636.00    1.25014   1.29055    0.000
 4637.00    1.21237   1.28783    0.000
 4638.00    1.17551   1.28538    0.000
 4639.00    1.15318   1.28274    0.000
 4640.00    1.14712   1.28040    0.000
 4641.00    1.14607   1.27796    0.000
 4642.00    1.13535   1.27611    0.000
 4643.00    1.11355   1.27443    0.000
 4644.00    1.09523   1.27367    0.000
 4645.00    1.10218   1.27343    0.000
 4646.00    1.14234   1.27434    0.000
 4647.00    1.20443   1.27588    0.000
 4648.00    1.26380   1.27850    0.000
 4649.00    1.30166   1.28157    0.000
 4650.00    1.31198   1.28537    0.000
 4651.00    1.30010   1.28928    0.000
 4652.00    1.27570   1.29337    0.000
 4653.00    1.24937   1.29709    0.000
 4654.00    1.23181   1.30022    0.000
 4655.00    1.22954   1.30242    0.000
 4656.00    1.24195   1.30319    0.000
 4657.00    1.26161   1.30255    0.000
 4658.00    1.27873   1.30005    0.000
 4659.00    1.28528   1.29618    0.000
 4660.00    1.27545   1.29087    0.000
 4661.00    1.24766   1.28496    0.000
 4662.00    1.20703   1.27883    0.000
 4663.00    1.16551   1.27336    0.000
 4664.00    1.13697   1.26904    0.000
 4665.00    1.12875   1.26636    0.000
 4666.00    1.14025   1.26555    0.000
 4667.00    1.16493   1.26651    0.000
 4668.00    1.19523   1.26905    0.000
 4669.00    1.22374   1.27260    0.000
 4670.00    1.24410   1.27673    0.000
 4671.00    1.25380   1.28083    0.000
 4672.00    1.25511   1.28453    0.000
 4673.00    1.25434   1.28751    0.000
 4674.00    1.25806   1.28969    0.000
 4675.00    1.27131   1.29108    0.000
 4676.00    1.29712   1.29188    0.000
 4677.00    1.33365   1.29232    0.000
 4678.00    1.37232   1.29266    0.000
 4679.00    1.39854   1.29308    0.000
 4680.00    1.39979   1.29371    0.000
 4681.00    1.37299   1.29465    0.000
 4682.00    1.32483   1.29581    0.000
 4683.00    1.26833   1.29725    0.000
 4684.00    1.21845   1.29872    0.000
 4685.00    1.19138   1.30033    0.000
 4686.00    1.19901   1.30176    0.000
 4687.00    1.23971   1.30312    0.000
 4688.00    1.29678   1.30407    0.000
 4689.00    1.34536   1.30468    0.000
 4690.00    1.36852   1.30461    0.000
 4691.00    1.36123   1.30394    0.000
 4692.00    1.32894   1.30234    0.000
 4693.00    1.28278   1.30002    0.000
 4694.00    1.23791   1.29678    0.000
 4695.00    1.21093   1.29306    0.000
 4696.00    1.20854   1.28875    0.000
 4697.00    1.22201   1.28456    0.000
 4698.00    1.22996   1.28033    0.000
 4699.00    1.21763   1.27689    0.000
 4700.00    1.18971   1.27393    0.000
 4701.00    1.16893   1.27221    0.000
 4702.00    1.17710   1.27132    0.000
 4703.00    1.21794   1.27173    0.000
 4704.00    1.27653   1.27310    0.000
 4705.00    1.33164   1.27557    0.000
 4706.00    1.37093   1.27898    0.000
 4707.00    1.39256   1.28316    0.000
 4708.00    1.40098   1.28814    0.000
 4709.00    1.39982   1.29360    0.000
 4710.00    1.39071   1.29956    0.000
 4711.00    1.37489   1.30571    0.000
 4712.00    1.35700   1.31194    0.000
 4713.00    1.34596   1.31802    0.000
 4714.00    1.35208   1.32364    0.000
 4715.00    1.37770   1.32865    0.000
 4716.00    1.41396   1.33260    0.000
 4717.00    1.44340   1.33549    0.000
 4718.00    1.45186   1.33686    0.000
 4719.00    1.43422   1.33691    0.000
 4720.00    1.39401   1.33533    0.000
 4721.00    1.34024   1.33262    0.000
 4722.00    1.28524   1.32866    0.000
 4723.00    1.24383   1.32420    0.000
 4724.00    1.22617   1.31929    0.000
 4725.00    1.23145   1.31473    0.000
 4726.00    1.24792   1.31063    0.000
 4727.00    1.26159   1.30756    0.000
 4728.00    1.26669   1.30555    0.000
 4729.00    1.26674   1.30481    0.000
 4730.00    1.26977   1.30520    0.000
 4731.00    1.28046   1.30665    0.000
 4732.00    1.29876   1.30893    0.000
 4733.00    1.32162   1.31186    0.000
 4734.00    1.34672   1.31517    0.000
 4735.00    1.37346   1.31879    0.000
 4736.00    1.40207   1.32242    0.000
 4737.00    1.43086   1.32611    0.000
 4738.00    1.45527   1.32959    0.000
 4739.00    1.46911   1.33294    0.000
 4740.00    1.46975   1.33591    0.000
 4741.00    1.46073   1.33852    0.000
 4742.00    1.45050   1.34060    0.000
 4743.00    1.44445   1.34202    0.000
 4744.00    1.43966   1.34282    0.000
 4745.00    1.42590   1.34270    0.000
 4746.00    1.39670   1.34199    0.000
 4747.00    1.35921   1.34026    0.000
 4748.00    1.33379   1.33811    0.000
 4749.00    1.33684   1.33506    0.000
 4750.00    1.36014   1.33184    0.000
 4751.00    1.36947   1.32796    0.000
 4752.00    1.32906   1.32409    0.000
 4753.00    1.24184   1.31981    0.000
 4754.00    1.15564   1.31559    0.000
 4755.00    1.13516   1.31113    0.000
 4756.00    1.19878   1.30680    0.000
 4757.00    1.30349   1.30249    0.000
 4758.00    1.36826   1.29853    0.000
 4759.00    1.34726   1.29502    0.000
 4760.00    1.25476   1.29226    0.000
 4761.00    1.15226   1.29045    8.679
 4762.00    1.09065   1.28978    9.169
 4763.00    1.08299   1.29035    9.234
 4764.00    1.10844   1.29213    9.022
 4765.00    1.14187   1.29506    8.758
 4766.00    1.17289   1.29885    8.526
 4767.00    1.20550   1.30333    8.295
 4768.00    1.24659   1.30809    8.022
 4769.00    1.29582   1.31283    7.717
 4770.00    1.34527   1.31730    7.433
 4771.00    1.38521   1.32108    7.219
 4772.00    1.41108   1.32421    7.087
 4773.00    1.42409   1.32620    7.022
 4774.00    1.42832   1.32741    7.001
 4775.00    1.42583   1.32734    7.013
 4776.00    1.41594   1.32665    7.062
 4777.00    1.39684   1.32492    7.159
 4778.00    1.36926   1.32298    7.303
 4779.00    1.33736   1.32050    7.477
 4780.00    1.30748   1.31839    7.648
 4781.00    1.28432   1.31639    7.786
 4782.00    1.26968   1.31528    7.876
 4783.00    1.26273   1.31484    7.919
 4784.00    1.26163   1.31555    7.926
 4785.00    1.26418   1.31719    7.910
 4786.00    1.26812   1.31989    7.886
 4787.00    1.27252   1.32330    7.858
 4788.00    1.27878   1.32730    7.820
 4789.00    1.29023   1.33146    7.751
 4790.00    1.30887   1.33553    7.640
 4791.00    1.33247   1.33916    7.505
 4792.00    1.35464   1.34210    7.382
 4793.00    1.36840   1.34431    7.308
 4794.00    1.37049   1.34553    7.297
 4795.00    1.36176   1.34616    7.343
 4796.00    1.34555   1.34581    7.432
 4797.00    1.32516   1.34531    7.546
 4798.00    1.30337   1.34400    7.672
 4799.00    1.28214   1.34300    7.799
 4800.00    1.26192   1.34144    7.924
 4801.00    1.24152   1.34050    8.055
 4802.00    1.21937   1.33932    8.201
 4803.00    1.19755   1.33891    8.350
 4804.00    1.18306   1.33859    8.453
 4805.00    1.18590   1.33909    8.432
 4806.00    1.21045   1.33992    8.261
 4807.00    1.25156   1.34142    7.990
 4808.00    1.29613   1.34330    7.715
 4809.00    1.33357   1.34548    7.499
 4810.00    1.36237   1.34784    7.340
 4811.00    1.38931   1.34998    7.198
 4812.00    1.41987   1.35191    7.043
 4813.00    1.44985   1.35310    6.897
 4814.00    1.46551   1.35371    6.824
 4815.00    1.45366   1.35329    6.879
 4816.00    1.41343   1.35212    7.075
 4817.00    1.35729   1.35002    7.368
 4818.00    1.30381   1.34732    7.670
 4819.00    1.26610   1.34412    7.898
 4820.00    1.24991   1.34069    8.001
 4821.00    1.25424   1.33725    7.973
 4822.00    1.27263   1.33398    7.858
 4823.00    1.29352   1.33105    7.731
 4824.00    1.30350   1.32849    7.672
 4825.00    1.29726   1.32634    7.709
 4826.00    1.28082   1.32455    7.808
 4827.00    1.26852   1.32302    7.883
 4828.00    1.27007   1.32174    7.874
 4829.00    1.28465   1.32043    7.784
 4830.00    1.30224   1.31923    7.679
 4831.00    1.31285   1.31775    7.617
 4832.00    1.31229   1.31628    7.620
 4833.00    1.30199   1.31443    7.681
 4834.00    1.28562   1.31251    7.778
 4835.00    1.26617   1.31029    7.898
 4836.00    1.24582   1.30802    8.027
 4837.00    1.22684   1.30562    8.151
 4838.00    1.21266   1.30312    8.246
 4839.00    1.20793   1.30052    8.279
 4840.00    1.21590   1.29768    8.224
 4841.00    1.23449   1.29448    8.101
 4842.00    1.25568   1.29062    7.964
 4843.00    1.26895   1.28593    7.881
 4844.00    1.26869   1.27999    7.882
 4845.00    1.25588   1.27264    7.963
 4846.00    1.23635   1.26344    8.088
 4847.00    1.21537   1.25232    8.228
 4848.00    1.19595   1.23890    0.000
 4849.00    1.17951   1.22337    0.000
 4850.00    1.16915   1.20564    0.000
 4851.00    1.17102   1.18643    0.000
 4852.00    1.19342   1.16609    0.000
 4853.00    1.24116   1.14553    0.000
 4854.00    1.31204   1.12565    0.000
 4855.00    1.39703   1.10762    0.000
 4856.00    1.48353   1.09254    0.000
 4857.00    1.55803   1.08118    0.000
 4858.00    1.60658   1.07458    0.000
 4859.00    1.61889   1.07251    0.000
 4860.00    1.59287   1.07558    0.000
 4861.00    1.53500   1.08254    0.000
 4862.00    1.45725   1.09341    0.000
 4863.00    1.37211   1.10646    0.000
 4864.00    1.29185   1.12156    0.000
 4865.00    1.22670   1.13699    0.000
 4866.00    1.18128   1.15277    0.000
 4867.00    1.15369   1.16777    0.000
 4868.00    1.13777   1.18246    0.000
 4869.00    1.12960   1.19590    0.000
 4870.00    1.12955   1.20900    0.000
 4871.00    1.14087   1.22088    0.000
 4872.00    1.16342   1.23223    0.000
 4873.00    1.19088   1.24226    0.000
 4874.00    1.21216   1.25161    0.000
 4875.00    1.21992   1.25934    8.197
 4876.00    1.21587   1.26587    8.225
 4877.00    1.20985   1.27070    8.265
 4878.00    1.21057   1.27427    8.261
 4879.00    1.21775   1.27641    8.212
 4880.00    1.22229   1.27748    8.181
 4881.00    1.21517   1.27795    8.229
 4882.00    1.19761   1.27789    8.350
 4883.00    1.18176   1.27862    8.462
 4884.00    1.18287   1.27965    8.454
 4885.00    1.20717   1.28245    8.284
 4886.00    1.24997   1.28622    8.000
 4887.00    1.29889   1.29201    7.699
 4888.00    1.34069   1.29882    7.459
 4889.00    1.36286   1.30713    7.338
 4890.00    1.35648   1.31588    7.372
 4891.00    1.32484   1.32491    7.548
 4892.00    1.28605   1.33355    7.776
 4893.00    1.26756   1.34113    7.889
 4894.00    1.28340   1.34765    7.792
 4895.00    1.32410   1.35249    7.552
 4896.00    1.36088   1.35588    7.348
 4897.00    1.37141   1.35775    7.292
 4898.00    1.35547   1.35845    7.378
 4899.00    1.33319   1.35818    7.501
 4900.00    1.32421   1.35697    7.552
 4901.00    1.33046   1.35528    7.516
 4902.00    1.33618   1.35310    7.484
 4903.00    1.32353   1.35069    7.556
 4904.00    1.29028   1.34813    7.750
 4905.00    1.25113   1.34554    7.993
 4906.00    1.22658   1.34271    8.153
 4907.00    1.22595   1.33958    8.157
 4908.00    1.24479   1.33624    8.033
 4909.00    1.27047   1.33228    7.871
 4910.00    1.29374   1.32781    7.730
 4911.00    1.31138   1.32244    7.626
 4912.00    1.32464   1.31669    7.549
 4913.00    1.33473   1.31062    7.492
 4914.00    1.34140   1.30492    7.455
 4915.00    1.34337   1.30001    7.444
 4916.00    1.34002   1.29617    7.463
 4917.00    1.33215   1.29388    7.507
 4918.00    1.32187   1.29360    7.565
 4919.00    1.31183   1.29567    7.623
 4920.00    1.30473   1.29966    7.664
 4921.00    1.30311   1.30537    7.674
 4922.00    1.30783   1.31238    7.646
 4923.00    1.31670   1.31968    7.595
 4924.00    1.32468   1.32696    7.549
 4925.00    1.32691   1.33322    7.536
 4926.00    1.32210   1.33808    7.564
 4927.00    1.31280   1.34124    7.617
 4928.00    1.30336   1.34298    7.672
 4929.00    1.29693   1.34302    7.710
 4930.00    1.29499   1.34215    7.722
 4931.00    1.29757   1.34039    7.707
 4932.00    1.30383   1.33870    7.670
 4933.00    1.31219   1.33741    7.621
 4934.00    1.32029   1.33742    7.574
 4935.00    1.32490   1.33843    7.548
 4936.00    1.32195   1.34126    7.565
 4937.00    1.30782   1.34495    7.646
 4938.00    1.28476   1.35011    7.784
 4939.00    1.26318   1.35565    7.917
 4940.00    1.25946   1.36193    0.000
 4941.00    1.28311   1.36764    0.000
 4942.00    1.32912   1.37331    0.000
 4943.00    1.37919   1.37762    0.000
 4944.00    1.41463   1.38097    0.000
 4945.00    1.42681   1.38240    0.000
 4946.00    1.41753   1.38243    0.000
 4947.00    1.39466   1.38060    0.000
 4948.00    1.36735   1.37713    0.000
 4949.00    1.34536   1.37256    0.000
 4950.00    1.33629   1.36659    0.000
 4951.00    1.34143   1.36060    0.000
 4952.00    1.35525   1.35407    0.000
 4953.00    1.36939   1.34855    0.000
 4954.00    1.38102   1.34446    0.000
 4955.00    1.39463   1.34110    0.000
 4956.00    1.41796   1.33918    0.000
 4957.00    1.45054   1.33779    0.000
 4958.00    1.48016   1.33797    0.000
 4959.00    1.48707   1.33819    0.000
 4960.00    1.46084   1.33926    0.000
 4961.00    1.40756   1.34007    0.000
 4962.00    1.34745   1.34168    0.000
 4963.00    1.30036   1.34276    0.000
 4964.00    1.27720   1.34438    0.000
 4965.00    1.27972   1.34563    0.000
 4966.00    1.30093   1.34700    0.000
 4967.00    1.32552   1.34821    0.000
 4968.00    1.33108   1.34876    0.000
 4969.00    1.30263   1.34888    0.000
 4970.00    1.24859   1.34778    0.000
 4971.00    1.20130   1.34561    0.000
 4972.00    1.19577   1.34204    0.000
 4973.00    1.23794   1.33713    0.000
 4974.00    1.30046   1.33109    0.000
 4975.00    1.34093   1.32446    0.000
 4976.00    1.33900   1.31734    0.000
 4977.00    1.30438   1.31017    0.000
 4978.00    1.26672   1.30395    0.000
 4979.00    1.24731   1.29929    0.000
 4980.00    1.25044   1.29624    0.000
 4981.00    1.26655   1.29496    0.000
 4982.00    1.28517   1.29557    0.000
 4983.00    1.30031   1.29752    0.000
 4984.00    1.31034   1.30037    0.000
 4985.00    1.31621   1.30414    0.000
 4986.00    1.32034   1.30782    0.000
 4987.00    1.32629   1.31188    0.000
 4988.00    1.33552   1.31512    0.000
 4989.00    1.34491   1.31741    0.000
 4990.00    1.34704   1.31905    0.000
 4991.00    1.33564   1.31925    0.000
 4992.00    1.31159   1.31830    0.000
 4993.00    1.28328   1.31618    0.000
 4994.00    1.26280   1.31271    0.000
 4995.00    1.26018   1.30847    0.000
 4996.00    1.28257   1.30365    0.000
 4997.00    1.33347   1.29849    0.000
 4998.00    1.41118   1.29334    0.000
 4999.00    1.50850   1.28831    0.000
 5000.00    1.61400   1.28344    0.000
 5001.00    1.71549   1.27886    0.000
 5002.00    1.80113   1.27509    0.000
 5003.00    1.86010   1.27188    0.000
 5004.00    1.88526   1.26916    0.000
 5005.00    1.87425   1.26642    0.000
 5006.00    1.82937   1.26412    0.000
 5007.00    1.75672   1.26121    0.000
 5008.00    1.66567   1.25906    0.000
 5009.00    1.56850   1.25651    0.000
 5010.00    1.47720   1.25517    0.000
 5011.00    1.40105   1.25401    0.000
 5012.00    1.34629   1.25397    0.000
 5013.00    1.31451   1.25434    0.000
 5014.00    1.30099   1.25620    0.000
 5015.00    1.29479   1.25858    0.000
 5016.00    1.28436   1.26238    0.000
 5017.00    1.26587   1.26638    0.000
 5018.00    1.24422   1.27147    0.000
 5019.00    1.22915   1.27683    0.000
 5020.00    1.22741   1.28239    0.000
 5021.00    1.24109   1.28836    0.000
 5022.00    1.26818   1.29360    0.000
 5023.00    1.30414   1.29890    0.000
 5024.00    1.34235   1.30358    0.000
 5025.00    1.37501   1.30747    0.000
 5026.00    1.39660   1.31062    0.000
 5027.00    1.40524   1.31241    0.000
 5028.00    1.40240   1.31297    0.000
 5029.00    1.39080   1.31192    7.190
 5030.00    1.37321   1.30946    7.282
 5031.00    1.35231   1.30549    7.395
 5032.00    1.32961   1.30098    7.521
 5033.00    1.30460   1.29579    7.665
 5034.00    1.27502   1.29092    7.843
 5035.00    1.24021   1.28676    8.063
 5036.00    1.20473   1.28303    8.301
 5037.00    1.17842   1.28161    8.486
 5038.00    1.17111   1.28137    8.539
 5039.00    1.18501   1.28337    8.439
 5040.00    1.21366   1.28672    8.240
 5041.00    1.24637   1.29092    8.023
 5042.00    1.27680   1.29558    7.832
 5043.00    1.30472   1.30029    7.664
 5044.00    1.33303   1.30497    7.502
 5045.00    1.35965   1.30923    7.355
 5046.00    1.37507   1.31367    7.272
 5047.00    1.36632   1.31781    7.319
 5048.00    1.33184   1.32256    7.508
 5049.00    1.28769   1.32673    7.766
 5050.00    1.26311   1.33163    7.917
 5051.00    1.27645   1.33590    7.834
 5052.00    1.32149   1.34015    7.567
 5053.00    1.37001   1.34370    7.299
 5054.00    1.39571   1.34644    7.165
 5055.00    1.39279   1.34836    7.180
 5056.00    1.37571   1.34899    7.269
 5057.00    1.36332   1.34843    7.335
 5058.00    1.36215   1.34669    7.341
 5059.00    1.36525   1.34376    7.325
 5060.00    1.36099   1.33977    7.348
 5061.00    1.34553   1.33548    7.432
 5062.00    1.32453   1.33054    7.550
 5063.00    1.30805   1.32653    7.645
 5064.00    1.30064   1.32230    7.688
 5065.00    1.29933   1.31850    7.696
 5066.00    1.29657   1.31494    7.713
 5067.00    1.28826   1.31177    7.762
 5068.00    1.27603   1.30881    7.837
 5069.00    1.26563   1.30543    7.901
 5070.00    1.26067   1.30244    7.932
 5071.00    1.26005   1.29952    7.936
 5072.00    1.25896   1.29615    7.943
 5073.00    1.25438   1.29312    7.972
 5074.00    1.24821   1.28996    8.011
 5075.00    1.24665   1.28777    8.021
 5076.00    1.25494   1.28543    7.968
 5077.00    1.27330   1.28484    7.854
 5078.00    1.29701   1.28559    7.710
 5079.00    1.32039   1.28793    7.573
 5080.00    1.34092   1.29102    7.458
 5081.00    1.35947   1.29532    7.356
 5082.00    1.37816   1.30057    7.256
 5083.00    1.39726   1.30599    7.157
 5084.00    1.41478   1.31140    7.068
 5085.00    1.42795   1.31626    7.003
 5086.00    1.43617   1.32071    6.963
 5087.00    1.44150   1.32395    6.937
 5088.00    1.44738   1.32605    6.909
 5089.00    1.45501   1.32696    6.873
 5090.00    1.46230   1.32663    6.839
 5091.00    1.46491   1.32507    6.826
 5092.00    1.46001   1.32225    6.849
 5093.00    1.44787   1.31898    6.907
 5094.00    1.43148   1.31513    6.986
 5095.00    1.41489   1.31162    7.068
 5096.00    1.40225   1.30787    7.131
 5097.00    1.39740   1.30541    7.156
 5098.00    1.40120   1.30329    7.137
 5099.00    1.40951   1.30166    7.095
 5100.00    1.41356   1.30019    7.074
 5101.00    1.40594   1.29938    7.113
 5102.00    1.38674   1.29903    7.211
 5103.00    1.36380   1.29946    7.332
 5104.00    1.34700   1.30030    7.424
 5105.00    1.34021   1.30187    7.462
 5106.00    1.34030   1.30462    7.461
 5107.00    1.34091   1.30738    7.458
 5108.00    1.33976   1.31087    7.464
 5109.00    1.34001   1.31491    7.463
 5110.00    1.34730   1.31809    7.422
 5111.00    1.36166   1.32122    7.344
 5112.00    1.37527   1.32324    7.271
 5113.00    1.37555   1.32420    7.270
 5114.00    1.35649   1.32404    7.372
 5115.00    1.32320   1.32235    7.557
 5116.00    1.28987   1.31917    7.753
 5117.00    1.26859   1.31478    7.883
 5118.00    1.26316   1.30951    7.917
 5119.00    1.26960   1.30399    7.876
 5120.00    1.28083   1.29823    7.807
 5121.00    1.29032   1.29278    7.750
 5122.00    1.29246   1.28875    7.737
 5123.00    1.28460   1.28548    7.784
 5124.00    1.26917   1.28335    7.879
 5125.00    1.25355   1.28212    7.977
 5126.00    1.24573   1.28193    8.027
 5127.00    1.24806   1.28231    8.012
 5128.00    1.25653   1.28375    7.958
 5129.00    1.26392   1.28483    7.912
 5130.00    1.26574   1.28591    7.900
 5131.00    1.26146   1.28637    7.927
 5132.00    1.25378   1.28674    7.976
 5133.00    1.24682   1.28639    8.020
 5134.00    1.24562   1.28447    8.028
 5135.00    1.25514   1.28320    7.967
 5136.00    1.27685   1.28058    7.832
 5137.00    1.30725   1.27886    7.650
 5138.00    1.33884   1.27746    7.469
 5139.00    1.36451   1.27494    7.329
 5140.00    1.38005   1.27323    7.246
 5141.00    1.38412   1.27261    7.225
 5142.00    1.37785   1.27185    7.258
 5143.00    1.36446   1.27125    7.329
 5144.00    1.34910   1.27149    7.412
 5145.00    1.33695   1.27215    7.480
 5146.00    1.33136   1.27389    7.511
 5147.00    1.33365   1.27571    7.498
 5148.00    1.34319   1.27783    7.445
 5149.00    1.35750   1.28046    7.367
 5150.00    1.37230   1.28336    7.287
 5151.00    1.38274   1.28591    7.232
 5152.00    1.38569   1.28821    7.217
 5153.00    1.38020   1.28953    7.245
 5154.00    1.36713   1.28930    7.315
 5155.00    1.34831   1.28688    7.417
 5156.00    1.32627   1.28165    7.540
 5157.00    1.30382   1.27388    7.670
 5158.00    1.28260   1.26359    7.797
 5159.00    1.26249   1.25024    7.921
 5160.00    1.24198   1.23539    8.052
 5161.00    1.22025   1.21947    8.195
 5162.00    1.19816   1.20246    8.346
 5163.00    1.17815   1.18613    8.488
 5164.00    1.16257   1.17077    8.602
 5165.00    1.15253   1.15891    8.677
 5166.00    1.14790   1.15076    8.712
 5167.00    1.14794   1.14631    8.711
 5168.00    1.15199   1.14438    8.681
 5169.00    1.15947   1.14417    8.625
 5170.00    1.16935   1.14753    8.552
 5171.00    1.17942   1.15421    8.479
 5172.00    1.18617   1.16182    8.430
 5173.00    1.18621   1.16903    8.430
 5174.00    1.17870   1.17543    8.484
 5175.00    1.16583   1.18106    8.578
 5176.00    1.15186   1.18503    8.682
 5177.00    1.14065   1.18826    8.767
 5178.00    1.13499   1.19032    8.811
 5179.00    1.13651   1.19219    8.799
 5180.00    1.14538   1.19364    8.731
 5181.00    1.16025   1.19622    8.619
 5182.00    1.17848   1.20228    8.486
 5183.00    1.19758   1.20848    8.350
 5184.00    1.21597   1.21620    8.224
 5185.00    1.23296   1.22341    8.111
 5186.00    1.24869   1.23104    8.008
 5187.00    1.26399   1.23930    7.911
 5188.00    1.28032   1.24619    7.811
 5189.00    1.29885   1.25274    7.699
 5190.00    1.31949   1.25914    0.000
 5191.00    1.34083   1.26544    0.000
 5192.00    1.36037   1.27007    0.000
 5193.00    1.37479   1.27433    0.000
 5194.00    1.38006   1.27737    0.000
 5195.00    1.37275   1.27893    0.000
 5196.00    1.35247   1.27961    0.000
 5197.00    1.32239   1.27867    0.000
 5198.00    1.28830   1.27671    0.000
 5199.00    1.25646   1.27366    0.000
 5200.00    1.23296   1.27053    0.000
 5201.00    1.22292   1.26690    0.000
 5202.00    1.22760   1.26395    0.000
 5203.00    1.24326   1.26203    0.000
 5204.00    1.26253   1.26271    0.000
 5205.00    1.28081   1.26381    0.000
 5206.00    1.29977   1.26759    0.000
 5207.00    1.32612   1.27307    0.000
 5208.00    1.36221   1.27967    0.000
 5209.00    1.39931   1.28779    0.000
 5210.00    1.41862   1.29539    0.000
 5211.00    1.40637   1.30323    7.111
 5212.00    1.36858   1.30916    7.307
 5213.00    1.33136   1.31456    7.511
 5214.00    1.32282   1.31876    7.560
 5215.00    1.34904   1.32187    7.413
 5216.00    1.39138   1.32356    7.187
 5217.00    1.42012   1.32348    7.042
 5218.00    1.41934   1.32225    7.046
 5219.00    1.39164   1.31955    7.186
 5220.00    1.35250   1.31614    7.394
 5221.00    1.31637   1.31249    7.597
 5222.00    1.29281   1.30881    7.735
 5223.00    1.28644   1.30622    7.773
 5224.00    1.29661   1.30439    7.712
 5225.00    1.31733   1.30551    7.591
 5226.00    1.33849   1.30808    7.471
 5227.00    1.35202   1.31156    7.396
 5228.00    1.35508   1.31674    7.380
 5229.00    1.34973   1.32188    7.409
 5230.00    1.33968   1.32744    7.464
 5231.00    1.32803   1.33415    7.530
 5232.00    1.31712   1.34047    7.592
 5233.00    1.30895   1.34743    7.640
 5234.00    1.30549   1.35362    7.660
 5235.00    1.30864   1.35881    7.642
 5236.00    1.31939   1.36312    7.579
 5237.00    1.33669   1.36583    7.481
 5238.00    1.35732   1.36761    7.367
 5239.00    1.37735   1.36783    7.260
 5240.00    1.39466   1.36700    7.170
 5241.00    1.40942   1.36538    7.095
 5242.00    1.42302   1.36308    7.027
 5243.00    1.43535   1.35993    6.967
 5244.00    1.44405   1.35648    6.925
 5245.00    1.44560   1.35365    6.918
 5246.00    1.43867   1.35135    6.951
 5247.00    1.42550   1.34899    7.015
 5248.00    1.41096   1.34763    7.087
 5249.00    1.39812   1.34664    7.152
 5250.00    1.38597   1.34526    7.215
 5251.00    1.37007   1.34420    7.299
 5252.00    1.34757   1.34132    7.421
 5253.00    1.32084   1.33869    7.571
 5254.00    1.29711   1.33406    7.709
 5255.00    1.28332   1.32831    7.792
 5256.00    1.28105   1.32080    7.806
 5257.00    1.28634   1.31111    7.774
 5258.00    1.29267   1.30029    7.736
 5259.00    1.29488   1.28852    7.723
 5260.00    1.28976   1.27750    7.753
 5261.00    1.27643   1.26646    7.834
 5262.00    1.25711   1.25772    7.955
 5263.00    1.23724   1.25037    8.083
 5264.00    1.22352   1.24672    8.173
 5265.00    1.21905   1.24573    8.203
 5266.00    1.22209   1.24642    8.183
 5267.00    1.22767   1.25021    8.146
 5268.00    1.23328   1.25691    8.108
 5269.00    1.24095   1.26595    8.058
 5270.00    1.25610   1.27616    7.961
 5271.00    1.28193   1.28769    7.801
 5272.00    1.31650   1.29856    7.596
 5273.00    1.35332   1.30981    7.389
 5274.00    1.38558   1.32141    7.217
 5275.00    1.40912   1.33186    7.097
 5276.00    1.42258   1.34174    7.029
 5277.00    1.42666   1.35018    7.009
 5278.00    1.42340   1.35779    7.025
 5279.00    1.41618   1.36483    7.061
 5280.00    1.40921   1.37151    7.096
 5281.00    1.40703   1.37722    7.107
 5282.00    1.41434   1.38363    7.070
 5283.00    1.43383   1.38891    6.974
 5284.00    1.46239   1.39350    6.838
 5285.00    1.49042   1.39651    6.710
 5286.00    1.50592   1.39805    6.640
 5287.00    1.50410   1.39872    6.648
 5288.00    1.48997   1.39780    6.712
 5289.00    1.47503   1.39587    6.780
 5290.00    1.46640   1.39270    6.819
 5291.00    1.46271   1.38938    6.837
 5292.00    1.45587   1.38584    6.869
 5293.00    1.43971   1.38246    6.946
 5294.00    1.41426   1.37954    7.071
 5295.00    1.38523   1.37738    7.219
 5296.00    1.35876   1.37730    7.360
 5297.00    1.33796   1.37891    7.474
 5298.00    1.32289   1.38169    7.559
 5299.00    1.31278   1.38584    7.617
 5300.00    1.30823   1.39035    7.644
 5301.00    1.31117   1.39568    7.627
 5302.00    1.32296   1.40100    7.559
 5303.00    1.34175   1.40599    7.453
 5304.00    1.36238   1.40984    7.340
 5305.00    1.37944   1.41297    7.249
 5306.00    1.39286   1.41538    7.179
 5307.00    1.40876   1.41677    7.098
 5308.00    1.43500   1.41712    6.969
 5309.00    1.47035   1.41607    6.801
 5310.00    1.50174   1.41387    6.659
 5311.00    1.50977   1.41068    6.624
 5312.00    1.48728   1.40643    6.724
 5313.00    1.44602   1.40138    6.916
 5314.00    1.41183   1.39547    7.083
 5315.00    1.40127   1.38919    7.136
 5316.00    1.40998   1.38146    7.092
 5317.00    1.41553   1.37428    7.064
 5318.00    1.39956   1.36631    7.145
 5319.00    1.36290   1.35862    7.337
 5320.00    1.32472   1.35118    7.549
 5321.00    1.30581   1.34383    7.658
 5322.00    1.31299   1.33847    7.616
 5323.00    1.33842   1.33369    7.472
 5324.00    1.36827   1.33110    7.308
 5325.00    1.39388   1.32881    7.174
 5326.00    1.41297   1.32977    7.077
 5327.00    1.42726   1.33178    7.006
 5328.00    1.43830   1.33587    6.953
 5329.00    1.44665   1.34104    6.913
 5330.00    1.45211   1.34569    6.887
 5331.00    1.45413   1.35086    6.877
 5332.00    1.45194   1.35519    6.887
 5333.00    1.44486   1.35947    6.921
 5334.00    1.43345   1.36270    6.976
 5335.00    1.41991   1.36546    7.043
 5336.00    1.40772   1.36733    7.104
 5337.00    1.40000   1.36882    7.143
 5338.00    1.39871   1.37033    7.149
 5339.00    1.40462   1.37226    7.119
 5340.00    1.41754   1.37424    7.054
 5341.00    1.43643   1.37748    6.962
 5342.00    1.45944   1.38064    6.852
 5343.00    1.48401   1.38405    6.739
 5344.00    1.50692   1.38856    6.636
 5345.00    1.52442   1.39302    6.560
 5346.00    1.53281   1.39843    6.524
 5347.00    1.52935   1.40417    6.539
 5348.00    1.51237   1.41019    6.612
 5349.00    1.48310   1.41624    6.743
 5350.00    1.44866   1.42170    6.903
 5351.00    1.42254   1.42638    7.030
 5352.00    1.41938   1.42969    7.045
 5353.00    1.44274   1.43184    6.931
 5354.00    1.48209   1.43284    6.747
 5355.00    1.51737   1.43186   -2.000
 5356.00    1.53401   1.42979   -2.000
 5357.00    1.52832   1.42603   -2.000
 5358.00    1.50594   1.42102   -2.000
 5359.00    1.47437   1.41476   -2.000
 5360.00    1.43933   1.40777   -2.000
 5361.00    1.40478   1.40087   -2.000
 5362.00    1.37386   1.39402   -2.000
 5363.00    1.34947   1.38903   -2.000
 5364.00    1.33429   1.38384   -2.000
 5365.00    1.33026   1.38072   -2.000
 5366.00    1.33818   1.37839   -2.000
 5367.00    1.35754   1.37718   -2.000
 5368.00    1.38533   1.37766   -2.000
 5369.00    1.41446   1.37921   -2.000
 5370.00    1.43382   1.38300    6.974
 5371.00    1.43376   1.38689    6.975
 5372.00    1.41544   1.39242    7.065
 5373.00    1.39232   1.39660    7.182
 5374.00    1.38350   1.40056    7.228
 5375.00    1.39817   1.40421    7.152
 5376.00    1.43172   1.40651    6.985
 5377.00    1.46953   1.40851    6.805
 5378.00    1.49916   1.40917    6.670
 5379.00    1.51464   1.40946    6.602
 5380.00    1.51584   1.40814    6.597
 5381.00    1.50513   1.40673    6.644
 5382.00    1.48583   1.40430    6.730
 5383.00    1.46206   1.40120    6.840
 5384.00    1.43822   1.39776    6.953
 5385.00    1.41870   1.39348    7.049
 5386.00    1.40750   1.38855    7.105
 5387.00    1.40512   1.38271    7.117
 5388.00    1.40567   1.37788    7.114
 5389.00    1.39731   1.37262    7.157
 5390.00    1.37119   1.36795    7.293
 5391.00    1.33253   1.36315    7.505
 5392.00    1.30140   1.35913    7.684
 5393.00    1.30034   1.35484    7.690
 5394.00    1.33341   1.35019    7.500
 5395.00    1.38283   1.34671    7.232
 5396.00    1.41950   1.34306    7.045
 5397.00    1.42741   1.34134    7.006
 5398.00    1.40964   1.33961    7.094
 5399.00    1.38319   1.33798    7.230
 5400.00    1.36230   1.33591    7.341
 5401.00    1.35270   1.33536    7.393
 5402.00    1.35272   1.33526    7.393
 5403.00    1.35910   1.33579    7.358
 5404.00    1.36967   1.33826    7.301
 5405.00    1.38335   1.34165    7.229
 5406.00    1.39914   1.34689    7.147
 5407.00    1.41552   1.35198    7.065
 5408.00    1.43047   1.35813    6.991
 5409.00    1.44175   1.36391    6.936
 5410.00    1.44722   1.37049    6.910
 5411.00    1.44500   1.37688    6.920
 5412.00    1.43569   1.38257    6.965
 5413.00    1.42513   1.38770    7.017
 5414.00    1.42438   1.39106    7.021
 5415.00    1.44324   1.39444    6.929
 5416.00    1.47918   1.39651    6.760
 5417.00    1.51573   1.39774    6.597
 5418.00    1.53108   1.39751    6.531
 5419.00    1.51784   1.39567    6.588
 5420.00    1.48782   1.39354    6.721
 5421.00    1.46495   1.39138    6.826
 5422.00    1.46278   1.38873    6.836
 5423.00    1.47677   1.38544    6.772
 5424.00    1.48824   1.38249    6.719
 5425.00    1.48278   1.37993    6.744
 5426.00    1.45885   1.37727    6.855
 5427.00    1.42674   1.37525    7.009
 5428.00    1.39970   1.37466    7.144
 5429.00    1.38818   1.37450    7.204
 5430.00    1.39920   1.37664    7.147
 5431.00    1.43253   1.37878    6.981
 5432.00    1.47739   1.38139    6.769
 5433.00    1.51299   1.38514    6.609
 5434.00    1.52043   1.38835    6.577
 5435.00    1.49697   1.39221    6.680
 5436.00    1.45730   1.39458    6.862
 5437.00    1.42298   1.39701    7.028
 5438.00    1.40499   1.39871    7.117
 5439.00    1.40093   1.39877    7.138
 5440.00    1.40017   1.39870    7.142
 5441.00    1.39563   1.39695    7.165
 5442.00    1.38663   1.39511    7.212
 5443.00    1.37686   1.39212    7.263
 5444.00    1.36823   1.38871    7.309
 5445.00    1.35868   1.38548    7.360
 5446.00    1.34364   1.38255    7.442
 5447.00    1.32229   1.38169    7.563
 5448.00    1.30057   1.38051    7.689
 5449.00    1.28978   1.37962    7.753
 5450.00    1.29764   1.37837    7.706
 5451.00    1.32247   1.37752    7.562
 5452.00    1.35377   1.37638    7.387
 5453.00    1.38009   1.37568    7.246
 5454.00    1.39592   1.37634    7.164
 5455.00    1.40200   1.37725    7.133
 5456.00    1.40179   1.37915    7.134
 5457.00    1.39726   1.38024    7.157
 5458.00    1.38854   1.38109    7.202
 5459.00    1.37626   1.38135    7.266
 5460.00    1.36556   1.38120    7.323
 5461.00    1.36647   1.38142    7.318
 5462.00    1.38513   1.38133    7.220
 5463.00    1.40419   1.38120    7.122
 5464.00    1.37824   1.38102    7.256
 5465.00    1.25317   1.37949   -2.000
 5466.00    1.02587   1.37677   -2.000
 5467.00    0.76436   1.37432   -2.000
 5468.00    0.58881   1.37142   -2.000
 5469.00    0.58802   1.36872   -2.000
 5470.00    0.78050   1.36604   -2.000
 5471.00    1.11870   1.36391   -2.000
 5472.00    1.52219   1.36191   -2.000
 5473.00    1.89877   1.35960   -2.000
 5474.00    2.14974   1.35953   -2.000
 5475.00    2.20826   1.35972   -2.000
 5476.00    2.07288   1.36079   -2.000
 5477.00    1.80709   1.36356   -2.000
 5478.00    1.49869   1.36614   -2.000
 5479.00    1.21160   1.36911   -2.000
 5480.00    0.98078   1.37137   -2.000
 5481.00    0.82071   1.37532   -2.000
 5482.00    0.73916   1.37911   -2.000
 5483.00    0.73943   1.38204   -2.000
 5484.00    0.81749   1.38557   -2.000
 5485.00    0.95572   1.38757   -2.000
 5486.00    1.12149   1.38939   -2.000
 5487.00    1.27404   1.39001   -2.000
 5488.00    1.38558   1.39164   -2.000
 5489.00    1.44829   1.39254    6.905
 5490.00    1.47164   1.39235    6.795
 5491.00    1.47049   1.39266    6.800
 5492.00    1.45951   1.39147    6.852
 5493.00    1.45233   1.39019    6.885
 5494.00    1.45678   1.38866    6.864
 5495.00    1.47199   1.38755    6.794
 5496.00    1.48903   1.38553    6.716
 5497.00    1.49828   1.38352    6.674
 5498.00    1.49582   1.38205    6.685
 5499.00    1.48357   1.37982    6.740
 5500.00    1.46550   1.37795    6.824
 5501.00    1.44300   1.37613    6.930
 5502.00    1.41459   1.37494    7.069
 5503.00    1.37886   1.37336    7.252
 5504.00    1.33924   1.37213    7.467
 5505.00    1.30471   1.37177    7.665
 5506.00    1.28618   1.37162    7.775
 5507.00    1.28854   1.37288    7.761
 5508.00    1.30886   1.37418    7.640
 5509.00    1.33863   1.37564    7.470
 5510.00    1.37073   1.37794    7.295
 5511.00    1.40173   1.37998    7.134
 5512.00    1.43106   1.38268    6.988
 5513.00    1.45755   1.38579    6.861
 5514.00    1.47782   1.38904    6.767
 5515.00    1.48684   1.39206    6.726
 5516.00    1.48152   1.39399    6.750
 5517.00    1.46292   1.39539    6.836
 5518.00    1.43617   1.39573    6.963
 5519.00    1.40842   1.39544    7.100
 5520.00    1.38708   1.39465    7.209
 5521.00    1.37940   1.39409    7.250
 5522.00    1.38876   1.39340    7.201
 5523.00    1.41025   1.39232    7.091
 5524.00    1.43054   1.39099    6.990
 5525.00    1.43515   1.38957    6.968
 5526.00    1.41997   1.38925    7.042
 5527.00    1.39299   1.38890    7.179
 5528.00    1.36920   1.39036    7.304
 5529.00    1.35944   1.39259    7.356
 5530.00    1.36784   1.39441    7.311
 5531.00    1.39254   1.39645    7.181
 5532.00    1.42799   1.39842    7.003
 5533.00    1.46569   1.40119    6.823
 5534.00    1.49544   1.40339    6.687
 5535.00    1.51053   1.40601    6.620
 5536.00    1.51012   1.40909    6.622
 5537.00    1.49871   1.41132    6.672
 5538.00    1.48270   1.41356    6.744
 5539.00    1.46830   1.41556    6.811
 5540.00    1.46110   1.41764    6.844
 5541.00    1.46357   1.41919    6.833
 5542.00    1.47288   1.42029    6.789
 5543.00    1.48110   1.42165    6.752
 5544.00    1.47988   1.42252    6.757
 5545.00    1.46581   1.42323    6.822
 5546.00    1.44092   1.42329    6.940
 5547.00    1.41074   1.42362    7.088
 5548.00    1.38122   1.42335    7.240
 5549.00    1.35826   1.42230    7.362
 5550.00    1.34653   1.42118    7.427
 5551.00    1.34716   1.41949    7.423
 5552.00    1.35719   1.41778    7.368
 5553.00    1.37100   1.41548    7.294
 5554.00    1.38478   1.41330    7.221
 5555.00    1.39787   1.41084    7.154
 5556.00    1.41199   1.40845    7.082
 5557.00    1.42774   1.40553    7.004
 5558.00    1.44303   1.40273    6.930
 5559.00    1.45349   1.40019    6.880
 5560.00    1.45504   1.39754    6.873
 5561.00    1.44549   1.39512    6.918
 5562.00    1.42464   1.39259    7.019
 5563.00    1.39489   1.39161    7.169
 5564.00    1.36166   1.38981    7.344
 5565.00    1.33319   1.38842    7.501
 5566.00    1.31722   1.38840    7.592
 5567.00    1.31721   1.38830    7.592
 5568.00    1.33194   1.38835    7.508
 5569.00    1.35622   1.38871    7.373
 5570.00    1.38184   1.38987    7.237
 5571.00    1.39785   1.39016    7.154
 5572.00    1.39407   1.39016    7.173
 5573.00    1.36839   1.39056    7.308
 5574.00    1.32844   1.39021    7.528
 5575.00    1.28871   1.38904    7.760
 5576.00    1.26195   1.38755    7.924
 5577.00    1.25646   1.38526    7.959
 5578.00    1.27555   1.38155    7.840
 5579.00    1.31560   1.37716    7.601
 5580.00    1.36509   1.37309    7.326
 5581.00    1.40640   1.36860    7.110
 5582.00    1.42593   1.36493    7.013
 5583.00    1.42025   1.36147    7.041
 5584.00    1.39582   1.35760    7.164
 5585.00    1.36364   1.35467    7.333
 5586.00    1.33492   1.35143    7.491
 5587.00    1.32038   1.35075    7.574
 5588.00    1.32586   1.35131    7.542
 5589.00    1.34731   1.35206    7.422
 5590.00    1.37065   1.35315    7.296
 5591.00    1.38043   1.35405    7.244
 5592.00    1.37304   1.35626    7.283
 5593.00    1.35864   1.35792    7.360
 5594.00    1.35382   1.36065    7.386
 5595.00    1.36634   1.36410    7.319
 5596.00    1.39165   1.36808    7.186
 5597.00    1.41681   1.37155    7.058
 5598.00    1.43186   1.37548    6.984
 5599.00    1.43337   1.38015    6.977
 5600.00    1.42389   1.38378    7.023
 5601.00    1.40966   1.38829    7.094
 5602.00    1.39949   1.39221    7.145
 5603.00    1.40369   1.39684    7.124
 5604.00    1.42769   1.40044    7.004
 5605.00    1.46823   1.40254    6.811
 5606.00    1.51395   1.40360    6.605
 5607.00    1.55157   1.40185    6.445
 5608.00    1.57099   1.40138    6.365
 5609.00    1.56584   1.40088    6.386
 5610.00    1.53617   1.39941    6.510
 5611.00    1.49145   1.39722    6.705
 5612.00    1.45036   1.39410    6.895
 5613.00    1.43129   1.39192    6.987
 5614.00    1.43773   1.38915    6.955
 5615.00    1.45631   1.38783    6.867
 5616.00    1.46610   1.38755    6.821
 5617.00    1.45817   1.38705    6.858
 5618.00    1.43980   1.38770    6.945
 5619.00    1.42811   1.38826    7.002
 5620.00    1.43168   1.38971    6.985
 5621.00    1.44479   1.39171    6.921
 5622.00    1.45114   1.39338    6.891
 5623.00    1.43901   1.39509    6.949
 5624.00    1.40786   1.39672    7.103
 5625.00    1.36744   1.39920    7.313
 5626.00    1.33223   1.40104    7.506
 5627.00    1.31802   1.40214    7.587
 5628.00    1.34036   1.40295    7.461
 5629.00    1.40275   1.40302    7.129
 5630.00    1.48707   1.40292    6.725
 5631.00    1.55472   1.40273    6.432
 5632.00    1.57054   1.40214    6.367
 5633.00    1.52907   1.40086    6.540
 5634.00    1.45636   1.39997    6.866
 5635.00    1.39066   1.39912    7.191
 5636.00    1.35331   1.39823    7.389
 5637.00    1.34453   1.39797    7.438
 5638.00    1.35047   1.39793    7.405
 5639.00    1.35790   1.39829    7.364
 5640.00    1.35745   1.39828    7.367
 5641.00    1.34484   1.39857    7.436
 5642.00    1.32427   1.39926    7.551
 5643.00    1.30947   1.39959    7.637
 5644.00    1.31928   1.40017    7.580
 5645.00    1.35995   1.39991    7.353
 5646.00    1.41757   1.39911    7.054
 5647.00    1.46227   1.39799    6.839
 5648.00    1.47301   1.39670    6.789
 5649.00    1.45211   1.39459    6.887
 5650.00    1.42321   1.39138    7.026
 5651.00    1.40875   1.38913    7.099
 5652.00    1.41194   1.38730    7.082
 5653.00    1.41696   1.38481    7.057
 5654.00    1.40614   1.38203    7.112
 5655.00    1.37884   1.38055    7.252
 5656.00    1.35263   1.37988    7.393
 5657.00    1.34911   1.37895    7.412
 5658.00    1.37263   1.37945    7.285
 5659.00    1.40749   1.38163    7.105
 5660.00    1.43013   1.38367    6.992
 5661.00    1.43401   1.38522    6.973
 5662.00    1.43495   1.38794    6.969
 5663.00    1.45990   1.39160    6.850
 5664.00    1.51557   1.39583    6.598
 5665.00    1.57881   1.39943    6.334
 5666.00    1.60634   1.40239    6.225
 5667.00    1.57356   1.40539    6.355
 5668.00    1.49099   1.40828    6.707
 5669.00    1.39858   1.41119    7.150
 5670.00    1.33174   1.41294    7.509
 5671.00    1.30157   1.41458    7.683
 5672.00    1.29619   1.41544    7.715
 5673.00    1.29848   1.41545    7.701
 5674.00    1.30013   1.41419    7.692
 5675.00    1.30222   1.41297    7.679
 5676.00    1.31035   1.41215    7.632
 5677.00    1.32936   1.41048    7.522
 5678.00    1.36267   1.40873    7.339
 5679.00    1.40988   1.40661    7.093
 5680.00    1.46307   1.40512    6.835
 5681.00    1.50653   1.40339    6.638
 5682.00    1.52325   1.40261    6.565
 5683.00    1.50805   1.40288    6.631
 5684.00    1.47034   1.40349    6.801
 5685.00    1.42898   1.40396    6.998
 5686.00    1.39774   1.40394    7.154
 5687.00    1.38095   1.40477    7.241
 5688.00    1.37504   1.40567    7.272
 5689.00    1.37473   1.40684    7.274
 5690.00    1.37557   1.40685    7.270
 5691.00    1.37433   1.40667    7.276
 5692.00    1.37053   1.40571    7.296
 5693.00    1.36729   1.40335    7.314
 5694.00    1.37082   1.40145    7.295
 5695.00    1.38541   1.39865    7.218
 5696.00    1.40951   1.39594    7.095
 5697.00    1.43579   1.39214    6.965
 5698.00    1.45525   1.38811    6.872
 5699.00    1.46142   1.38484    6.843
 5700.00    1.45098   1.38075    6.892
 5701.00    1.42476   1.37762    7.019
 5702.00    1.38948   1.37564    7.197
 5703.00    1.35776   1.37390    7.365
 5704.00    1.34351   1.37311    7.443
 5705.00    1.35259   1.37301    7.393
 5706.00    1.38084   1.37415    7.242
 5707.00    1.41707   1.37678    7.057
 5708.00    1.45115   1.37964    6.891
 5709.00    1.47642   1.38405    6.773
 5710.00    1.48957   1.38902    6.713
 5711.00    1.48982   1.39412    6.712
 5712.00    1.47858   1.40034    6.763
 5713.00    1.45936   1.40613    6.852
 5714.00    1.43683   1.41136    6.960
 5715.00    1.41639   1.41668    7.060
 5716.00    1.40385   1.42135    7.123
 5717.00    1.40304   1.42542    7.127
 5718.00    1.41398   1.42868    7.072
 5719.00    1.43290   1.43079    6.979
 5720.00    1.45435   1.43285    6.876
 5721.00    1.47339   1.43428    6.787
 5722.00    1.48583   1.43532    6.730
 5723.00    1.48929   1.43547    6.715
 5724.00    1.48463   1.43544    6.736
 5725.00    1.47613   1.43531    6.774
 5726.00    1.46912   1.43478    6.807
 5727.00    1.46546   1.43552    6.824
 5728.00    1.46256   1.43583    6.837
 5729.00    1.45558   1.43597    6.870
 5730.00    1.44342   1.43541    6.928
 5731.00    1.43046   1.43532    6.991
 5732.00    1.42445   1.43654    7.020
 5733.00    1.42831   1.43711    7.001
 5734.00    1.43683   1.43735    6.960
 5735.00    1.43861   1.43669    6.951
 5736.00    1.42743   1.43648    7.006
 5737.00    1.40857   1.43682    7.099
 5738.00    1.39742   1.43678    7.156
 5739.00    1.40575   1.43629    7.114
 5740.00    1.43127   1.43500    0.000
 5741.00    1.45794   1.43375    0.000
 5742.00    1.46794   1.43264    0.000
 5743.00    1.45430   1.43206    0.000
 5744.00    1.42183   1.43128    0.000
 5745.00    1.38235   1.42991    0.000
 5746.00    1.34778   1.42795    0.000
 5747.00    1.32907   1.42600    0.000
 5748.00    1.33322   1.42542    0.000
 5749.00    1.35742   1.42535    0.000
 5750.00    1.38793   1.42502    0.000
 5751.00    1.40635   1.42404    0.000
 5752.00    1.40632   1.42310    0.000
 5753.00    1.39851   1.42292    0.000
 5754.00    1.40430   1.42356    0.000
 5755.00    1.43222   1.42445    0.000
 5756.00    1.46829   1.42493    0.000
 5757.00    1.48129   1.42545    0.000
 5758.00    1.45189   1.42651    0.000
 5759.00    1.38904   1.42737    0.000
 5760.00    1.32695   1.42837    0.000
 5761.00    1.29747   1.42914    0.000
 5762.00    1.30889   1.42967    0.000
 5763.00    1.34596   1.43119    0.000
 5764.00    1.38549   1.43170    0.000
 5765.00    1.41259   1.43177    0.000
 5766.00    1.42214   1.43112    0.000
 5767.00    1.41665   1.42988    0.000
 5768.00    1.40336   1.42874    0.000
 5769.00    1.39342   1.42668    0.000
 5770.00    1.39323   1.42457    0.000
 5771.00    1.38736   1.42152    0.000
 5772.00    1.33546   1.41787    0.000
 5773.00    1.19631   1.41424    0.000
 5774.00    0.99174   1.41014    0.000
 5775.00    0.82509   1.40671    0.000
 5776.00    0.84367   1.40381    0.000
 5777.00    1.09877   1.40067   -2.000
 5778.00    1.48909   1.39833   -2.000
 5779.00    1.79554   1.39598   -2.000
 5780.00    1.87061   1.39455   -2.000
 5781.00    1.74349   1.39554   -2.000
 5782.00    1.60100   1.39656   -2.000
 5783.00    1.61120   1.39827   -2.000
 5784.00    1.78990   1.39969   -2.000
 5785.00    2.00349   1.40191   -2.000
 5786.00    2.09571   1.40638   -2.000
 5787.00    2.01848   1.41008   -2.000
 5788.00    1.84034   1.41417   -2.000
 5789.00    1.67582   1.41758   -2.000
 5790.00    1.58603   1.42052   -2.000
 5791.00    1.56557   1.42452   -2.000
 5792.00    1.57024   1.42784   -2.000
 5793.00    1.57022   1.43136   -2.000
 5794.00    1.56079   1.43458   -2.000
 5795.00    1.55400   1.43658   -2.000
 5796.00    1.55651   1.43837   -2.000
 5797.00    1.56332   1.43974    0.000
 5798.00    1.56122   1.44140    0.000
 5799.00    1.54200   1.44328    0.000
 5800.00    1.50768   1.44389    0.000
 5801.00    1.46920   1.44461    0.000
 5802.00    1.43877   1.44478    0.000
 5803.00    1.42574   1.44457    0.000
 5804.00    1.43602   1.44509    0.000
 5805.00    1.46908   1.44515    0.000
 5806.00    1.51571   1.44569    0.000
 5807.00    1.55873   1.44585    0.000
 5808.00    1.58265   1.44566    0.000
 5809.00    1.58368   1.44600    0.000
 5810.00    1.57009   1.44635    0.000
 5811.00    1.55346   1.44720    0.000
 5812.00    1.53645   1.44837    0.000
 5813.00    1.51134   1.44920    0.000
 5814.00    1.46765   1.45006    0.000
 5815.00    1.40655   1.45086    0.000
 5816.00    1.34364   1.45221    0.000
 5817.00    1.30194   1.45414    0.000
 5818.00    1.29367   1.45534    0.000
 5819.00    1.31499   1.45659    0.000
 5820.00    1.35040   1.45737    0.000
 5821.00    1.38867   1.45826    0.000
 5822.00    1.42914   1.45931    0.000
 5823.00    1.47934   1.45982    0.000
 5824.00    1.54195   1.46071    0.000
 5825.00    1.60771   1.46078    0.000
 5826.00    1.65703   1.46085    0.000
 5827.00    1.67368   1.46086    0.000
 5828.00    1.65501   1.46071    0.000
 5829.00    1.61188   1.46085    0.000
 5830.00    1.56075   1.46066    0.000
 5831.00    1.51573   1.46042    0.000
 5832.00    1.48777   1.45987    0.000
 5833.00    1.48296   1.45943    0.000
 5834.00    1.50019   1.45890    0.000
 5835.00    1.53093   1.45864    0.000
 5836.00    1.56295   1.45778    0.000
 5837.00    1.58716   1.45628    0.000
 5838.00    1.59900   1.45494    0.000
 5839.00    1.59843   1.45309    0.000
 5840.00    1.58970   1.45131    0.000
 5841.00    1.58141   1.44842    0.000
 5842.00    1.58367   1.44526    0.000
 5843.00    1.59842   1.44222    0.000
 5844.00    1.61550   1.43846    0.000
 5845.00    1.61587   1.43467    0.000
 5846.00    1.58793   1.42986    0.000
 5847.00    1.53635   1.42540    0.000
 5848.00    1.48025   1.42207    0.000
 5849.00    1.43753   1.41844    0.000
 5850.00    1.41329   1.41506    0.000
 5851.00    1.40007   1.41078    0.000
 5852.00    1.38740   1.40759    0.000
 5853.00    1.37143   1.40681    0.000
 5854.00    1.35556   1.40619    0.000
 5855.00    1.34613   1.40592    0.000
 5856.00    1.34656   1.40444    0.000
 5857.00    1.35659   1.40466    0.000
 5858.00    1.37309   1.40719    0.000
 5859.00    1.39163   1.40941    0.000
 5860.00    1.40672   1.41150    0.000
 5861.00    1.41345   1.41228    0.000
 5862.00    1.41136   1.41441    0.000
 5863.00    1.40560   1.41748    0.000
 5864.00    1.40511   1.41972    0.000
 5865.00    1.41646   1.42102    0.000
 5866.00    1.44143   1.42121    0.000
 5867.00    1.47718   1.42189    0.000
 5868.00    1.51769   1.42244    0.000
 5869.00    1.55439   1.42173    0.000
 5870.00    1.57696   1.41995    0.000
 5871.00    1.57831   1.41707    0.000
 5872.00    1.55829   1.41321    0.000
 5873.00    1.52358   1.40883    0.000
 5874.00    1.48441   1.40290    0.000
 5875.00    1.45133   1.39627    0.000
 5876.00    1.43470   1.38831    0.000
 5877.00    1.44114   1.37812    0.000
 5878.00    1.46875   1.36663    0.000
 5879.00    1.50662   1.35365    0.000
 5880.00    1.53990   1.34223    0.000
 5881.00    1.55904   1.33002    0.000
 5882.00    1.56154   1.31535    0.000
 5883.00    1.55002   1.29979    0.000
 5884.00    1.52724   1.28382    0.000
 5885.00    1.49470   1.27396    0.000
 5886.00    1.45364   1.26704    0.000
 5887.00    1.40855   1.25826    0.000
 5888.00    1.36852   1.25030    0.000
 5889.00    1.34555   1.24304    0.000
 5890.00    1.34630   1.24348    0.000
 5891.00    1.36764   1.25124    0.000
 5892.00    1.39776   1.25723    0.000
 5893.00    1.42485   1.26332    0.000
 5894.00    1.44336   1.26969    0.000
 5895.00    1.45396   1.27932    0.000
 5896.00    1.45896   1.29534    0.000
 5897.00    1.45781   1.30976    0.000
 5898.00    1.44707   1.32115    0.000
 5899.00    1.42525   1.33176    0.000
 5900.00    1.39942   1.34217    0.000
 5901.00    1.38577   1.35386    7.216
 5902.00    1.40052   1.36417    7.140
 5903.00    1.44338   1.37089    6.928
 5904.00    1.49454   1.37677    6.691
 5905.00    1.52436   1.38197    6.560
 5906.00    1.51773   1.38639    6.589
 5907.00    1.48065   1.39007    6.754
 5908.00    1.43492   1.39118    6.969
 5909.00    1.39951   1.39303    7.145
 5910.00    1.38348   1.39467    7.228
 5911.00    1.38717   1.39590    7.209
 5912.00    1.40882   1.39738    7.098
 5913.00    1.44800   1.39695    6.906
 5914.00    1.50484   1.39833    6.645
 5915.00    1.57366   1.39967    6.355
 5916.00    1.63849   1.40048    6.103
 5917.00    1.67435   1.40216    5.972
 5918.00    1.66421   1.40227    6.009
 5919.00    1.61538   1.40328    6.191
 5920.00    1.55955   1.40482    6.412
 5921.00    1.53048   1.40526    6.534
 5922.00    1.53435   1.40631    6.517
 5923.00    1.54655   1.40637    6.466
 5924.00    1.53156   1.40614    6.529
 5925.00    1.47870   1.40751    6.763
 5926.00    1.40867   1.40812    7.099
 5927.00    1.35935   1.40832    7.356
 5928.00    1.35058   1.40810    7.404
 5929.00    1.37471   1.40746    7.274
 5930.00    1.40462   1.40865    7.119
 5931.00    1.42184   1.40982    7.033
 5932.00    1.42704   1.40983    7.008
 5933.00    1.43623   1.40949    6.963
 5934.00    1.46154   1.40923    6.842
 5935.00    1.50124   1.40974    6.661
 5936.00    1.54117   1.41050    6.489
 5937.00    1.56707   1.41019    6.381
 5938.00    1.57335   1.40947    6.356
 5939.00    1.56306   1.40954    6.398
 5940.00    1.54283   1.40936    6.482
 5941.00    1.51802   1.40885    6.588
 5942.00    1.49235   1.40790    6.701
 5943.00    1.46893   1.40695    6.808
 5944.00    1.45166   1.40748    6.889
 5945.00    1.44526   1.40742    6.919
 5946.00    1.45258   1.40620    6.884
 5947.00    1.46962   1.40527    6.804
 5948.00    1.48474   1.40536    6.735
 5949.00    1.48363   1.40691    6.740
 5950.00    1.46144   1.40765    6.843
 5951.00    1.42601   1.40735    7.013
 5952.00    1.39399   1.40782    7.174
 5953.00    1.37740   1.40965    7.260
 5954.00    1.37867   1.41214    7.253
 5955.00    1.39202   1.41351    7.184
 5956.00    1.41066   1.41470    7.089
 5957.00    1.43041   1.41637    6.991
 5958.00    1.44971   1.41858    6.898
 5959.00    1.46866   1.42067    6.809
 5960.00    1.48834   1.42156    6.719
 5961.00    1.51062   1.42295    6.620
 5962.00    1.53625   1.42410    6.509
 5963.00    1.56309   1.42493    6.398
 5964.00    1.58610   1.42541    6.305
 5965.00    1.60030   1.42487    6.249
 5966.00    1.60453   1.42485    6.232
 5967.00    1.60184   1.42442    6.243
 5968.00    1.59695   1.42339    6.262
 5969.00    1.59181   1.42223    6.282
 5970.00    1.58480   1.42037    6.310
 5971.00    1.57259   1.41885    6.359
 5972.00    1.55463   1.41723    6.432
 5973.00    1.53433   1.41524    6.518
 5974.00    1.51759   1.41395    6.589
 5975.00    1.50775   1.41226    6.632
 5976.00    1.50377   1.41089    6.650
 5977.00    1.50107   1.40967    6.662
 5978.00    1.49574   1.40821    6.686
 5979.00    1.48666   1.40840    6.726
 5980.00    1.47532   1.40835    6.778
 5981.00    1.46393   1.40823    6.831
 5982.00    1.45416   1.40853    6.877
 5983.00    1.44701   1.40869    6.911
 5984.00    1.44293   1.41013    6.930
 5985.00    1.44176   1.41113    6.936
 5986.00    1.44280   1.41161    6.931
 5987.00    1.44480   1.41260    6.921
 5988.00    1.44602   1.41369    6.916
 5989.00    1.44426   1.41457    6.924
 5990.00    1.43783   1.41483    6.955
 5991.00    1.42729   1.41428    7.006
 5992.00    1.41572   1.41387    7.064
 5993.00    1.40705   1.41439    7.107
 5994.00    1.40215   1.41380    7.132
 5995.00    1.39777   1.41281    7.154
 5996.00    1.38854   1.41099    7.202
 5997.00    1.37358   1.40844    7.280
 5998.00    1.35896   1.40849    7.359
 5999.00    1.35553   1.40780    7.377
 6000.00    1.36911   1.40626    7.304
 6001.00    1.39541   1.40442    7.166
 6002.00    1.42149   1.40120    7.035
 6003.00    1.43634   1.40151    6.962
 6004.00    1.43818   1.40218    6.953
 6005.00    1.43403   1.40075    6.973
 6006.00    1.43241   1.39956    6.981
 6007.00    1.43642   1.39740    6.962
 6008.00    1.44341   1.39786    6.928
 6009.00    1.44879   1.39941    6.902
 6010.00    1.45082   1.39835    6.893
 6011.00    1.45121   1.39769    6.891
 6012.00    1.45323   1.39751    6.881
 6013.00    1.45860   1.39791    6.856
 6014.00    1.46693   1.39947    6.817
 6015.00    1.47637   1.39954    6.773
 6016.00    1.48524   1.40007    6.733
 6017.00    1.49243   1.40231    6.700
 6018.00    1.49735   1.40348    6.678
 6019.00    1.49954   1.40586    6.669
 6020.00    1.49865   1.40813    6.673
 6021.00    1.49456   1.41023    6.691
 6022.00    1.48839   1.41408    6.719
 6023.00    1.48297   1.41652    6.743
 6024.00    1.48242   1.41975    6.746
 6025.00    1.48920   1.42297    6.715
 6026.00    1.50214   1.42529    6.657
 6027.00    1.51662   1.42882    6.594
 6028.00    1.52726   1.43111    6.548
 6029.00    1.53047   1.43330    6.534
 6030.00    1.52468   1.43527    6.559
 6031.00    1.51053   1.43669    6.620
 6032.00    1.49117   1.43871    6.706
 6033.00    1.47222   1.43953    6.792
 6034.00    1.45974   1.44031    6.851
 6035.00    1.45679   1.44120    6.864
 6036.00    1.46282   1.44165    6.836
 6037.00    1.47503   1.44276    6.780
 6038.00    1.49163   1.44294    6.704
 6039.00    1.51263   1.44309    6.611
 6040.00    1.53847   1.44365    6.500
 6041.00    1.56546   1.44371    6.388
 6042.00    1.58422   1.44415    6.312
 6043.00    1.58187   1.44395    6.322
 6044.00    1.55256   1.44361    6.441
 6045.00    1.50254   1.44339    6.655
 6046.00    1.44871   1.44278    6.903
 6047.00    1.40765   1.44196    7.104
 6048.00    1.38826   1.44092    7.203
 6049.00    1.39162   1.43984    7.186
 6050.00    1.41353   1.43875    7.075
 6051.00    1.44678   1.43736    6.912
 6052.00    1.48155   1.43597    6.750
 6053.00    1.50819   1.43509    6.630
 6054.00    1.52066   1.43352    6.576
 6055.00    1.51696   1.43257    6.592
 6056.00    1.49882   1.43182    6.672
 6057.00    1.47118   1.43129    6.797
 6058.00    1.44204   1.43169    6.935
 6059.00    1.42033   1.43046    7.041
 6060.00    1.41094   1.43096    7.087
 6061.00    1.41351   1.43243    7.075
 6062.00    1.42364   1.43297    7.024
 6063.00    1.43708   1.43446    6.959
 6064.00    1.45118   1.43413    6.891
 6065.00    1.46489   1.43520    6.826
 6066.00    1.47873   1.43778    6.763
 6067.00    1.49475   1.43798    6.690
 6068.00    1.51585   1.43826    6.597
 6069.00    1.54122   1.43805    6.488
 6070.00    1.56330   1.43746    6.397
 6071.00    1.56870   1.43740    6.375
 6072.00    1.54821   1.43573    6.459
 6073.00    1.50589   1.43382    6.641
 6074.00    1.45901   1.43267    6.854
 6075.00    1.42617   1.43065    7.012
 6076.00    1.41265   1.42820    7.079
 6077.00    1.40901   1.42617    7.097
 6078.00    1.39990   1.42432    7.143
 6079.00    1.37897   1.42296    7.252
 6080.00    1.35131   1.42172    7.400
 6081.00    1.32894   1.41994    7.525
 6082.00    1.32017   1.41943    7.575
 6083.00    1.32700   1.41918    7.536
 6084.00    1.34609   1.41806    7.429
 6085.00    1.37185   1.41811    7.289
 6086.00    1.39763   1.41835    7.155
 6087.00    1.41644   1.41835    7.060
 6088.00    1.42452   1.41818    7.020
 6089.00    1.42308   1.41767    7.027
 6090.00    1.41771   1.41784    7.054
 6091.00    1.41455   1.41759    7.069
 6092.00    1.41777   1.41663    7.053
 6093.00    1.42935   1.41584    6.996
 6094.00    1.44836   1.41571    6.904
 6095.00    1.47027   1.41569    6.801
 6096.00    1.48720   1.41337    6.724
 6097.00    1.49159   1.41169    6.704
 6098.00    1.48081   1.41253    6.753
 6099.00    1.45758   1.41319    6.861
 6100.00    1.42788   1.41383    7.003
 6101.00    1.39743   1.41213    7.156
 6102.00    1.37108   1.41084    7.294
 6103.00    1.35250   1.41418    7.394
 6104.00    1.34338   1.41653    7.444
 6105.00    1.34327   1.41666    7.445
 6106.00    1.35019   1.41669    7.406
 6107.00    1.36246   1.41654    7.340
 6108.00    1.37936   1.41798    7.250
 6109.00    1.40058   1.41937    7.140
 6110.00    1.42356   1.41766    7.025
 6111.00    1.44223   1.41603    6.934
 6112.00    1.44812   1.41595    6.905
 6113.00    1.43710   1.41431    6.958
 6114.00    1.41389   1.41307    7.073
 6115.00    1.39141   1.41093    7.187
 6116.00    1.38270   1.40748    7.232
 6117.00    1.39372   1.40743    7.175
 6118.00    1.42296   1.40635    7.028
 6119.00    1.46306   1.40461    6.835
 6120.00    1.50291   1.40383    6.654
 6121.00    1.52814   1.40128    6.544
 6122.00    1.52721   1.40119    6.548
 6123.00    1.50141   1.40166    6.660
 6124.00    1.46646   1.40085    6.819
 6125.00    1.44452   1.40016    6.923
 6126.00    1.44636   1.39848    6.914
 6127.00    1.46700   1.39726    6.817
 6128.00    1.49021   1.39604    6.710
 6129.00    1.50285   1.39560    6.654
 6130.00    1.49967   1.39438    6.668
 6131.00    1.48268   1.39164    6.745
 6132.00    1.45785   1.39129    6.859
 6133.00    1.43355   1.39164    6.976
 6134.00    1.41966   1.39235    7.044
 6135.00    1.42214   1.39181    7.032
 6136.00    1.43950   1.39020    6.947
 6137.00    1.46326   1.39303    6.834
 6138.00    1.48351   1.39711    6.741
 6139.00    1.49381   1.39925    6.694
 6140.00    1.49149   1.39959    6.705
 6141.00    1.47673   1.39993    6.772
 6142.00    1.45146   1.40288    6.890
 6143.00    1.41919   1.40508    7.046
 6144.00    1.38431   1.40511    7.224
 6145.00    1.35095   1.40442    7.402
 6146.00    1.32276   1.40336    7.560
 6147.00    1.30265   1.40196    7.677
 6148.00    1.29204   1.39884    7.740
 6149.00    1.29075   1.39484    7.747
 6150.00    1.29694   1.39125    7.710
 6151.00    1.30709   1.38661    7.651
 6152.00    1.31598   1.38107    7.599
 6153.00    1.31777   1.37495    7.589
 6154.00    1.31074   1.36873    7.629
 6155.00    1.29952   1.36260    7.695
 6156.00    1.29347   1.35650    7.731
 6157.00    1.29644   1.35122    7.713
 6158.00    1.30015   1.34754    7.691
 6159.00    1.28552   1.34418    7.779
 6160.00    1.23728   1.33933    8.082
 6161.00    1.15679   1.33659    8.645
 6162.00    1.06207   1.33696    9.416
 6163.00    0.97575   1.33746   -1.000
 6164.00    0.91058   1.33863   -1.000
 6165.00    0.86792   1.34028   -1.000
 6166.00    0.84071   1.34309   -1.000
 6167.00    0.81816   1.34718   -1.000
 6168.00    0.78673   1.34941   -1.000
 6169.00    0.73599   1.35259   -1.000
 6170.00    0.67187   1.35825   -1.000
 6171.00    0.61958   1.36249   -1.000
 6172.00    0.61399   1.36578   -1.000
 6173.00    0.66995   1.36875   -1.000
 6174.00    0.77237   1.37125   -1.000
 6175.00    0.88406   1.37446   -1.000
 6176.00    0.97999   1.37613   -1.000
 6177.00    1.06309   1.37651    9.407
 6178.00    1.15941   1.37753    8.625
 6179.00    1.28529   1.37737    7.780
 6180.00    1.42668   1.37672    7.009
 6181.00    1.54166   1.37616   -2.000
 6182.00    1.59256   1.37366   -2.000
 6183.00    1.57356   1.37255   -2.000
 6184.00    1.51086   1.37249   -2.000
 6185.00    1.43548   1.36934   -2.000
 6186.00    1.35143   1.36803   -2.000
 6187.00    1.23340   1.36803   -2.000
 6188.00    1.05654   1.36778   -2.000
 6189.00    0.84413   1.36892   -2.000
 6190.00    0.67442   1.36714   -2.000
 6191.00    0.64242   1.36727   -2.000
 6192.00    0.77580   1.37122   -2.000
 6193.00    1.01544   1.37223   -1.000
 6194.00    1.24615   1.37309    8.025
 6195.00    1.38999   1.37482    7.194
 6196.00    1.43719   1.37622    6.958
 6197.00    1.43330   1.37881    6.977
 6198.00    1.42299   1.37929    7.027
 6199.00    1.42428   1.37868    7.021
 6200.00    1.43101   1.38024    6.988
 6201.00    1.43190   1.38052    6.984
 6202.00    1.42250   1.37943    7.030
 6203.00    1.40522   1.37865    7.116
 6204.00    1.38494   1.37603    7.221
 6205.00    1.36516   1.37393    7.325
 6206.00    1.34782   1.37202    7.419
 6207.00    1.33381   1.36796    7.497
 6208.00    1.32368   1.36575    7.555
 6209.00    1.31763   1.36274    7.589
 6210.00    1.31573   1.35827    7.600
 6211.00    1.31802   1.35660    7.587
 6212.00    1.32456   1.35326    7.550
 6213.00    1.33500   1.35024    7.491
 6214.00    1.34749   1.34913    7.421
 6215.00    1.35856   1.34634    7.361
 6216.00    1.36427   1.34575    7.330
 6217.00    1.36402   1.34547    7.331
 6218.00    1.36174   1.34297    7.344
 6219.00    1.36425   1.34268    7.330
 6220.00    1.37438   1.34257    7.276
 6221.00    1.38783   1.34152    7.205
 6222.00    1.39466   1.34170    7.170
 6223.00    1.38866   1.34085    7.201
 6224.00    1.37322   1.33991    7.282
 6225.00    1.36034   1.34047    7.351
 6226.00    1.35984   1.33990    7.354
 6227.00    1.37022   1.33984    7.298
 6228.00    1.37880   1.34029    7.253
 6229.00    1.37237   1.33868    7.287
 6230.00    1.34942   1.33862    7.411
 6231.00    1.32115   1.33906    7.569
 6232.00    1.30361   1.33869    7.671
 6233.00    1.30537   1.33922    7.661
 6234.00    1.32560   1.33806    7.544
 6235.00    1.35596   1.33770    7.375
 6236.00    1.38475   1.33753    7.222
 6237.00    1.39790   1.33568    7.154
 6238.00    1.38408   1.33528    7.225
 6239.00    1.34972   1.33414    7.409
 6240.00    1.32384   1.33339    7.554
 6241.00    1.34882   1.33326    7.414
 6242.00    1.44157   1.33076    6.937
 6243.00    1.57618   1.32949    6.344
 6244.00    1.69150   1.32886    5.912
 6245.00    1.73917   1.32713    5.750
 6246.00    1.71308   1.32644    5.837
 6247.00    1.64655   1.32536    6.073
 6248.00    1.57666   1.32423    6.343
 6249.00    1.51433   1.32383    6.604
 6250.00    1.44408   1.32324    6.925
 6251.00    1.34858   1.32304    7.415
 6252.00    1.23673   1.32295    8.086
 6253.00    1.14556   1.32421    8.729
 6254.00    1.11623   1.32696    8.959
 6255.00    1.15672   1.32830    8.645
 6256.00    1.23643   1.33007    8.088
 6257.00    1.30566   1.33288    7.659
 6258.00    1.33708   1.33628    7.479
 6259.00    1.33508   1.34053    7.490
 6260.00    1.32588   1.34316    7.542
 6261.00    1.32822   1.34607    7.529
 6262.00    1.34401   1.35055    7.440
 6263.00    1.36192   1.35331    7.343
 6264.00    1.37240   1.35528    7.287
 6265.00    1.37447   1.35772    7.276
 6266.00    1.37452   1.36012    7.275
 6267.00    1.37866   1.36244    7.253
 6268.00    1.38795   1.36328    7.205
 6269.00    1.39878   1.36415    7.149
 6270.00    1.40699   1.36550    7.107
 6271.00    1.41144   1.36573    7.085
 6272.00    1.41400   1.36665    7.072
 6273.00    1.41681   1.36704    7.058
 6274.00    1.41919   1.36717    7.046
 6275.00    1.41740   1.36846    7.055
 6276.00    1.40705   1.36829    7.107
 6277.00    1.38668   1.36910    7.211
 6278.00    1.35836   1.37054    7.362
 6279.00    1.32755   1.37029    7.533
 6280.00    1.30271   1.37170    0.000
 6281.00    1.29518   1.37266    0.000
 6282.00    1.31549   1.37305    0.000
 6283.00    1.36261   1.37441    0.000
 6284.00    1.42051   1.37382    0.000
 6285.00    1.46299   1.37412    0.000
 6286.00    1.47335   1.37492    0.000
 6287.00    1.45298   1.37354    0.000
 6288.00    1.41896   1.37278    0.000
 6289.00    1.38887   1.37187    0.000
 6290.00    1.37158   1.37074    0.000
 6291.00    1.36757   1.36995    0.000
 6292.00    1.37463   1.36777    0.000
 6293.00    1.39255   1.36663    0.000
 6294.00    1.42311   1.36669    0.000
 6295.00    1.46551   1.36578    0.000
 6296.00    1.51116   1.36477    0.000
 6297.00    1.54365   1.36446    0.000
 6298.00    1.54737   1.36549    0.000
 6299.00    1.52092   1.36663    0.000
 6300.00    1.47883   1.36626    0.000
 6301.00    1.44306   1.36653    0.000
 6302.00    1.42524   1.36781    0.000
 6303.00    1.42268   1.36893    0.000
 6304.00    1.42321   1.36987    0.000
 6305.00    1.41895   1.36942    0.000
 6306.00    1.41068   1.36918    0.000
 6307.00    1.40551   1.37072    0.000
 6308.00    1.40730   1.37038    0.000
 6309.00    1.41253   1.36873    0.000
 6310.00    1.41179   1.36876    0.000
 6311.00    1.39876   1.36912    0.000
 6312.00    1.37555   1.36976    0.000
 6313.00    1.35199   1.36946    0.000
 6314.00    1.33744   1.36874    0.000
 6315.00    1.33409   1.37075    0.000
 6316.00    1.33695   1.37262    0.000
 6317.00    1.33906   1.37273    0.000
 6318.00    1.33726   1.37358    0.000
 6319.00    1.33271   1.37626    0.000
 6320.00    1.32903   1.37867    0.000
 6321.00    1.32944   1.37910    7.522
 6322.00    1.33636   1.38035    7.483
 6323.00    1.35108   1.38200    7.401
 6324.00    1.37322   1.38325    7.282
 6325.00    1.40058   1.38423    7.140
 6326.00    1.42951   1.38261    6.995
 6327.00    1.45603   1.38238    6.868
 6328.00    1.47612   1.38374    6.775
 6329.00    1.48623   1.38230    6.728
 6330.00    1.48534   1.38117    6.732
 6331.00    1.47577   1.38094    6.776
 6332.00    1.46248   1.38027    6.838
 6333.00    1.44895   1.38033    6.902
 6334.00    1.43471   1.37867    6.970
 6335.00    1.41585   1.37694    7.063
 6336.00    1.39020   1.37864    7.193
 6337.00    1.36144   1.37912    7.345
 6338.00    1.33889   1.37791    7.469
 6339.00    1.33134   1.37896    7.511
 6340.00    1.34030   1.37961    7.461
 6341.00    1.35952   1.37981    7.356
 6342.00    1.37983   1.37998    7.247
 6343.00    1.39637   1.37904    7.161
 6344.00    1.40959   1.37980    7.094
 6345.00    1.42246   1.37999    7.030
 6346.00    1.43480   1.37774    6.970
 6347.00    1.44204   1.37731    6.935
 6348.00    1.43725   1.37694    6.958
 6349.00    1.41673   1.37423    7.059
 6350.00    1.38178   1.37199    7.237
 6351.00    1.33818   1.37048    7.473
 6352.00    1.29429   1.36864    7.726
 6353.00    1.26010   1.36641    7.936
 6354.00    1.24612   1.36393    8.025
 6355.00    1.25662   1.36315    7.958
 6356.00    1.28577   1.36336    7.777
 6357.00    1.31867   1.36209    7.583
 6358.00    1.34157   1.36159    7.454
 6359.00    1.34994   1.36351    7.408
 6360.00    1.34857   1.36511    7.415
 6361.00    1.34601   1.36615    7.429
 6362.00    1.34860   1.36824    7.415
 6363.00    1.35980   1.37141    7.354
 6364.00    1.37952   1.37475    7.249
 6365.00    1.40310   1.37721    7.127
 6366.00    1.42132   1.37957    7.036
 6367.00    1.42408   1.38277    7.022
 6368.00    1.40796   1.38545    7.102
 6369.00    1.37779   1.38685    7.258
 6370.00    1.34439   1.38840    7.438
 6371.00    1.31828   1.39026    7.586
 6372.00    1.30773   1.39130    7.647
 6373.00    1.31805   1.39198    7.587
 6374.00    1.34896   1.39231    7.413
 6375.00    1.39345   1.39226    7.176
 6376.00    1.43901   1.39236    6.949
 6377.00    1.47430   1.39185    6.783
 6378.00    1.49304   1.39136    6.698
 6379.00    1.49401   1.39110    6.693
 6380.00    1.47921   1.39019    6.760
 6381.00    1.45256   1.38945    6.884
 6382.00    1.41959   1.38911    7.044
 6383.00    1.38543   1.38805    7.218
 6384.00    1.35259   1.38639    7.393
 6385.00    1.32090   1.38577    7.571
 6386.00    1.29019   1.38569    7.751
 6387.00    1.26427   1.38436    7.910
 6388.00    1.25130   1.38317    7.992
 6389.00    1.25876   1.38303    7.944
 6390.00    1.28310   1.38242    7.794
 6391.00    1.30775   1.38137    7.647
 6392.00    1.31080   1.38106    7.629
 6393.00    1.28637   1.38130    7.774
 6394.00    1.25098   1.38239    7.994
 6395.00    1.23638   1.38270    8.088
 6396.00    1.26162   1.38199    7.926
 6397.00    1.32147   1.38404    7.567
 6398.00    1.39009   1.38479    7.194
 6399.00    1.44312   1.38275    6.929
 6400.00    1.47025   1.38503    6.802
 6401.00    1.47470   1.38708    6.781
 6402.00    1.46560   1.38617    6.823
 6403.00    1.45189   1.38708    6.888
 6404.00    1.44170   1.38729    6.936
 6405.00    1.43920   1.38770    6.948
 6406.00    1.44124   1.38839    6.938
 6407.00    1.43743   1.38672    6.957
 6408.00    1.41827   1.38755    7.051
 6409.00    1.38685   1.38931    7.211
 6410.00    1.36032   1.38801    7.351
 6411.00    1.36057   1.38797    7.350
 6412.00    1.39577   1.38901    7.165
 6413.00    1.45655   1.38924    6.866
 6414.00    1.51959   1.38992    6.581
 6415.00    1.55751   1.39042    6.421
 6416.00    1.54182   1.39093    6.486
 6417.00    1.45018   1.39202    6.896
 6418.00    1.29396   1.39245    7.728
 6419.00    1.12952   1.39279    8.853
 6420.00    1.04528   1.39354   -1.000
 6421.00    1.09024   1.39402    9.172
 6422.00    1.23350   1.39490    8.107
 6423.00    1.37322   1.39552    7.282
 6424.00    1.41985   1.39530    7.043
 6425.00    1.36053   1.39595    7.350
 6426.00    1.25824   1.39573    7.948
 6427.00    1.19385   1.39495    8.376
 6428.00    1.20498   1.39622    8.299
 6429.00    1.28113   1.39552    7.806
 6430.00    1.38471   1.39442    7.222
 6431.00    1.48117   1.39628    6.751
 6432.00    1.54352   1.39643    6.479
 6433.00    1.55605   1.39658    6.427
 6434.00    1.52174   1.39741    6.571
 6435.00    1.46368   1.39681    6.832
 6436.00    1.41442   1.39846    7.070
 6437.00    1.38753   1.39826    7.207
 6438.00    1.36918   1.39618    7.304
 6439.00    1.32842   1.39842    7.528
 6440.00    1.25607   1.39863    7.961
 6441.00    1.18064   1.39687    8.470
 6442.00    1.15875   1.39751    8.630
 6443.00    1.22238   1.39627    8.181
 6444.00    1.34922   1.39543    7.412
 6445.00    1.46857   1.39495    6.809
 6446.00    1.51607   1.39279    6.596
 6447.00    1.47554   1.39301    6.777
 6448.00    1.37901   1.39245    7.252
 6449.00    1.27625   1.39053    7.835
 6450.00    1.20286   1.39080    8.313
 6451.00    1.17727   1.39085    8.494
 6452.00    1.20116   1.39076    8.325
 6453.00    1.26012   1.39069    7.936
 6454.00    1.32412   1.39037    7.552
 6455.00    1.36033   1.39076    7.351
 6456.00    1.35805   1.39118    7.364
 6457.00    1.33355   1.39185    7.499
 6458.00    1.31840   1.39194    7.585
 6459.00    1.32790   1.39217    7.531
 6460.00    1.35194   1.39377    7.397
 6461.00    1.36334   1.39347    7.335
 6462.00    1.34891   1.39302    7.413
 6463.00    1.32210   1.39480    7.564
 6464.00    1.31688   1.39564    7.594
 6465.00    1.35406   1.39580    7.385
 6466.00    1.42261   1.39638    7.029
 6467.00    1.48335   1.39634    6.741
 6468.00    1.50258   1.39651    6.655
 6469.00    1.47766   1.39659    6.767
 6470.00    1.43632   1.39538    6.962
 6471.00    1.41104   1.39478    7.087
 6472.00    1.41259   1.39516    7.079
 6473.00    1.42823   1.39417    7.002
 6474.00    1.43627   1.39212    6.962
 6475.00    1.42637   1.39091    7.011
 6476.00    1.40224   1.38991    7.131
 6477.00    1.37583   1.38757    7.268
 6478.00    1.35614   1.38456    7.374
 6479.00    1.34691   1.38202    7.424
 6480.00    1.34757   1.37952    7.421
 6481.00    1.35568   1.37533    7.376
 6482.00    1.36760   1.37040    7.312
 6483.00    1.37897   1.36710    7.252
 6484.00    1.38623   1.36286    7.214
 6485.00    1.38727   1.35749    7.208
 6486.00    1.38130   1.35345    7.240
 6487.00    1.36821   1.34850    7.309
 6488.00    1.34825   1.34475    7.417
 6489.00    1.32224   1.34182    7.563
 6490.00    1.29348   1.33740    7.731
 6491.00    1.26922   1.33664    7.879
 6492.00    1.26010   1.33650    7.936
 6493.00    1.27303   1.33485    7.855
 6494.00    1.30395   1.33732    7.669
 6495.00    1.33767   1.33977    7.476
 6496.00    1.35795   1.34236    7.364
 6497.00    1.36144   1.34760    7.345
 6498.00    1.35938   1.35117    7.356
 6499.00    1.36879   1.35584    7.306
 6500.00    1.39576   1.36154    7.165
 6501.00    1.43216   1.36520    6.982
 6502.00    1.46178   1.36975    6.841
 6503.00    1.47636   1.37383    6.773
 6504.00    1.48014   1.37643    6.756
 6505.00    1.48579   1.37976    6.730
 6506.00    1.49944   1.38174    6.669
 6507.00    1.51481   1.38279    6.602
 6508.00    1.51590   1.38447    6.597
 6509.00    1.49216   1.38515    6.702
 6510.00    1.44662   1.38552    6.913
 6511.00    1.39460   1.38573    7.171
 6512.00    1.35195   1.38545    7.397
 6513.00    1.32618   1.38602    7.540
 6514.00    1.31637   1.38571    7.597
 6515.00    1.31732   1.38498    7.591
 6516.00    1.32375   1.38597    7.554
 6517.00    1.33079   1.38610    7.514
 6518.00    1.33530   1.38579    7.489
 6519.00    1.33768   1.38657    7.476
 6520.00    1.34199   1.38681    7.452
 6521.00    1.35327   1.38701    7.390
 6522.00    1.37224   1.38720    7.287
 6523.00    1.39439   1.38712    7.172
 6524.00    1.41219   1.38765    7.081
 6525.00    1.42108   1.38766    7.037
 6526.00    1.42111   1.38710    7.037
 6527.00    1.41582   1.38721    7.063
 6528.00    1.40816   1.38723    0.000
 6529.00    1.39887   1.38655    0.000
 6530.00    1.38707   1.38568    0.000
 6531.00    1.37344   1.38481    0.000
 6532.00    1.36190   1.38380    0.000
 6533.00    1.35915   1.38210    0.000
 6534.00    1.37072   1.37998    0.000
 6535.00    1.39805   1.37810    0.000
 6536.00    1.43853   1.37551    0.000
 6537.00    1.48778   1.37218    0.000
 6538.00    1.54195   1.36869    0.000
 6539.00    1.59787   1.36442    0.000
 6540.00    1.65231   1.36000    0.000
 6541.00    1.70092   1.35479    0.000
 6542.00    1.73821   1.34826    0.000
 6543.00    1.75836   1.34242    0.000
 6544.00    1.75701   1.33547    0.000
 6545.00    1.73159   1.32709    0.000
 6546.00    1.68373   1.31934    0.000
 6547.00    1.62527   1.30960    0.000
 6548.00    1.57995   1.29961    0.000
 6549.00    1.58003   1.29064    0.000
 6550.00    1.65428   1.27791    0.000
 6551.00    1.82329   1.26606    0.000
 6552.00    2.09756   1.25755    0.000
 6553.00    2.46847   1.24635    0.000
 6554.00    2.90341   1.23614    0.000
 6555.00    3.34823   1.22836    0.000
 6556.00    3.74665   1.22060    0.000
 6557.00    4.05425   1.21656    0.000
 6558.00    4.23942   1.21164    0.000
 6559.00    4.28429   1.20798    0.000
 6560.00    4.18563   1.21279    0.000
 6561.00    3.95484   1.21456    0.000
 6562.00    3.61633   1.21533    0.000
 6563.00    3.20541   1.22622    0.000
 6564.00    2.76766   1.23581    0.000
 6565.00    2.35114   1.24200    0.000
 6566.00    1.99191   1.25322    0.000
 6567.00    1.71123   1.26397    0.000
 6568.00    1.51718   1.27295    0.000
 6569.00    1.40873   1.28329    0.000
 6570.00    1.37687   1.29273    0.000
 6571.00    1.40684   1.30175    0.000
 6572.00    1.48573   1.31069    0.000
 6573.00    1.60550   1.31780    0.000
 6574.00    1.76138   1.32450    0.000
 6575.00    1.94405   1.33152    0.000
 6576.00    2.13541   1.33667    0.000
 6577.00    2.30982   1.34046    0.000
 6578.00    2.44367   1.34463    0.000
 6579.00    2.52235   1.34781    0.000
 6580.00    2.54044   1.34970    0.000
 6581.00    2.49952   1.35172    0.000
 6582.00    2.40607   1.35324    0.000
 6583.00    2.27122   1.35414    0.000
 6584.00    2.11029   1.35498    0.000
 6585.00    1.94203   1.35530    0.000
 6586.00    1.78837   1.35530    0.000
 6587.00    1.66861   1.35598    0.000
 6588.00    1.58883   1.35628    0.000
 6589.00    1.53999   1.35547    0.000
 6590.00    1.50385   1.35635    0.000
 6591.00    1.46814   1.35752    0.000
 6592.00    1.43057   1.35678    0.000
 6593.00    1.39657   1.35789    0.000
 6594.00    1.37096   1.35954    0.000
 6595.00    1.35486   1.35973    0.000
 6596.00    1.34630   1.36117    0.000
 6597.00    1.34375   1.36215    0.000
 6598.00    1.34794   1.36249    0.000
 6599.00    1.36141   1.36410    0.000
 6600.00    1.38507   1.36495    0.000
 6601.00    1.41574   1.36532    0.000
 6602.00    1.44635   1.36644    0.000
 6603.00    1.47011   1.36731    0.000
 6604.00    1.48449   1.36800    0.000
 6605.00    1.49141   1.36877    0.000
 6606.00    1.49444   1.36997    0.000
 6607.00    1.49504   1.37121    0.000
 6608.00    1.49214   1.37189    0.000
 6609.00    1.48396   1.37274    6.739
 6610.00    1.47129   1.37385    6.797
 6611.00    1.45811   1.37506    6.858
 6612.00    1.44955   1.37544    6.899
 6613.00    1.44702   1.37545    6.911
 6614.00    1.44689   1.37627    6.911
 6615.00    1.44228   1.37621    6.933
 6616.00    1.42946   1.37548    6.996
 6617.00    1.41017   1.37533    7.091
 6618.00    1.39075   1.37436    7.190
 6619.00    1.37742   1.37315    7.260
 6620.00    1.37393   1.37226    7.278
 6621.00    1.38135   1.37056    7.239
 6622.00    1.39803   1.36941    7.153
 6623.00    1.41943   1.36824    7.045
 6624.00    1.43841   1.36609    6.952
 6625.00    1.44825   1.36517    6.905
 6626.00    1.44554   1.36442    6.918
 6627.00    1.43043   1.36267    6.991
 6628.00    1.40604   1.36189    7.112
 6629.00    1.37779   1.36127    7.258
 6630.00    1.35316   1.36017    7.390
 6631.00    1.33904   1.36016    7.468
 6632.00    1.33681   1.35998    7.481
 6633.00    1.34148   1.35923    7.454
 6634.00    1.34492   1.35968    7.435
 6635.00    1.34357   1.36009    7.443
 6636.00    1.34061   1.35940    7.459
 6637.00    1.34377   1.35998    7.442
 6638.00    1.35805   1.36091    7.364
 6639.00    1.38300   1.35981    7.231
 6640.00    1.41343   1.36020    7.075
 6641.00    1.44281   1.36157    6.931
 6642.00    1.46511   1.36067    6.825
 6643.00    1.47506   1.36062    6.779
 6644.00    1.46962   1.36144    6.804
 6645.00    1.44906   1.36100    6.901
 6646.00    1.41692   1.36097    7.058
 6647.00    1.37910   1.36073    7.251
 6648.00    1.34289   1.36000    7.447
 6649.00    1.31683   1.35989    7.594
 6650.00    1.30803   1.35901    7.645
 6651.00    1.31885   1.35803    7.582
 6652.00    1.34647   1.35763    7.427
 6653.00    1.38431   1.35632    7.224
 6654.00    1.42448   1.35531    7.020
 6655.00    1.45824   1.35494    6.858
 6656.00    1.47737   1.35342    6.769
 6657.00    1.47736   1.35271    6.769
 6658.00    1.45829   1.35277    6.857
 6659.00    1.42454   1.35106    7.020
 6660.00    1.38397   1.35078    7.226
 6661.00    1.34754   1.35165    7.421
 6662.00    1.32771   1.35024    7.532
 6663.00    1.33038   1.35011    7.517
 6664.00    1.35091   1.35117    7.402
 6665.00    1.37549   1.35037    7.270
 6666.00    1.39155   1.35046    7.186
 6667.00    1.39503   1.35094    7.168
 6668.00    1.39028   1.35008    7.193
 6669.00    1.38557   1.35045    7.217
 6670.00    1.38880   1.35034    7.200
 6671.00    1.40692   1.34919    7.108
 6672.00    1.44250   1.34998    6.932
 6673.00    1.48939   1.34949    6.714
 6674.00    1.53246   1.34794    6.525
 6675.00    1.55537   1.34929    6.429
 6676.00    1.55424   1.34948    6.434
 6677.00    1.54002   1.34819    6.493
 6678.00    1.53090   1.34926    6.532
 6679.00    1.53419   1.35004    6.518
 6680.00    1.54154   1.34978    6.487
 6681.00    1.53467   1.35020    6.516
 6682.00    1.50450   1.35075    6.647
 6683.00    1.45812   1.35108    6.858
 6684.00    1.41537   1.35098    7.065
 6685.00    1.39195   1.35118    7.184
 6686.00    1.39102   1.35142    7.189
 6687.00    1.40412   1.35099    7.122
 6688.00    1.41941   1.35083    7.045
 6689.00    1.42732   1.35058    7.006
 6690.00    1.42115   1.35021    7.037
 6691.00    1.40011   1.34987    7.142
 6692.00    1.37209   1.34898    7.288
 6693.00    1.35331   1.34876    7.389
 6694.00    1.35780   1.34850    7.365
 6695.00    1.38421   1.34745    7.224
 6696.00    1.41462   1.34732    0.000
 6697.00    1.42758   1.34693    0.000
 6698.00    1.42082   1.34593    0.000
 6699.00    1.41503   1.34557    0.000
 6700.00    1.43985   1.34461    0.000
 6701.00    1.50032   1.34361    0.000
 6702.00    1.56833   1.34304    0.000
 6703.00    1.59694   1.34143    0.000
 6704.00    1.56783   1.34010    0.000
 6705.00    1.50842   1.33932    0.000
 6706.00    1.48073   1.33729    0.000
 6707.00    1.52812   1.33562    0.000
 6708.00    1.64885   1.33466    0.000
 6709.00    1.80081   1.33283    0.000
 6710.00    1.93878   1.33117    0.000
 6711.00    2.03986   1.33026    0.000
 6712.00    2.10322   1.32943    0.000
 6713.00    2.13522   1.32814    0.000
 6714.00    2.13558   1.32749    0.000
 6715.00    2.09689   1.32810    0.000
 6716.00    2.01470   1.32793    0.000
 6717.00    1.90025   1.32781    0.000
 6718.00    1.78154   1.32903    0.000
 6719.00    1.69117   1.32974    0.000
 6720.00    1.64542   1.33046    0.000
 6721.00    1.64058   1.33169    0.000
 6722.00    1.65989   1.33224    0.000
 6723.00    1.68985   1.33342    0.000
 6724.00    1.72436   1.33456    0.000
 6725.00    1.76308   1.33464    0.000
 6726.00    1.80607   1.33555    0.000
 6727.00    1.85181   1.33614    0.000
 6728.00    1.89669   1.33580    0.000
 6729.00    1.93253   1.33605    0.000
 6730.00    1.94544   1.33591    0.000
 6731.00    1.91830   1.33521    0.000
 6732.00    1.84750   1.33487    0.000
 6733.00    1.75424   1.33416    0.000
 6734.00    1.68172   1.33325    0.000
 6735.00    1.66213   1.33239    0.000
 6736.00    1.68629   1.33139    0.000
 6737.00    1.70371   1.33072    0.000
 6738.00    1.66003   1.32980    0.000
 6739.00    1.54378   1.32868    0.000
 6740.00    1.39100   1.32824    0.000
 6741.00    1.25743   1.32798    0.000
 6742.00    1.17115   1.32735    0.000
 6743.00    1.12451   1.32687    0.000
 6744.00    1.08817   1.32750    0.000
 6745.00    1.04405   1.32777    0.000
 6746.00    0.99359   1.32725    0.000
 6747.00    0.95252   1.32877    0.000
 6748.00    0.93377   1.32999    0.000
 6749.00    0.94142   1.32962    0.000
 6750.00    0.97165   1.33155    0.000
 6751.00    1.01716   1.33322    0.000
 6752.00    1.06945   1.33312    0.000
 6753.00    1.11934   1.33486    8.934
 6754.00    1.16007   1.33628    8.620
 6755.00    1.18936   1.33618    8.408
 6756.00    1.20927   1.33746    8.269
 6757.00    1.22341   1.33819    8.174
 6758.00    1.23442   1.33777    8.101
 6759.00    1.24378   1.33870    8.040
 6760.00    1.25132   1.33872    7.992
 6761.00    1.25469   1.33815    7.970
 6762.00    1.24939   1.33901    8.004
 6763.00    1.23142   1.33851    8.121
 6764.00    1.20173   1.33797    8.321
 6765.00    1.16694   1.33918    8.569
 6766.00    1.13691   1.33885    8.796
 6767.00    1.11899   1.33841    8.937
 6768.00    1.11660   1.33956    8.956
 6769.00    1.12945   1.33954    8.854
 6770.00    1.15423   1.33943    8.664
 6771.00    1.18487   1.34006    8.440
 6772.00    1.21338   1.33998    8.241
 6773.00    1.23374   1.33975    8.105
 6774.00    1.24371   1.33967    8.040
 6775.00    1.24471   1.33937    8.034
 6776.00    1.24063   1.33875    8.060
 6777.00    1.23696   1.33803    8.084
 6778.00    1.24042   1.33752    8.062
 6779.00    1.25536   1.33663    7.966
 6780.00    1.28051   1.33548    7.809
 6781.00    1.30903   1.33515    7.639
 6782.00    1.33200   1.33459    7.508
 6783.00    1.34284   1.33344    7.447
 6784.00    1.33782   1.33346    7.475
 6785.00    1.31707   1.33343    7.593
 6786.00    1.28618   1.33237    7.775
 6787.00    1.25640   1.33275    7.959
 6788.00    1.24092   1.33320    8.059
 6789.00    1.24625   1.33236    8.024
 6790.00    1.27015   1.33300    7.873
 6791.00    1.30368   1.33356    7.671
 6792.00    1.33751   1.33313    7.477
 6793.00    1.36424   1.33394    7.330
 6794.00    1.37843   1.33418    7.255
 6795.00    1.37697   1.33419    7.262
 6796.00    1.35919   1.33496    7.357
 6797.00    1.32682   1.33466    7.537
 6798.00    1.28349   1.33514    7.791
 6799.00    1.23442   1.33573    8.101
 6800.00    1.18620   1.33479    8.430
 6801.00    1.14545   1.33559    8.730
 6802.00    1.11748   1.33609    8.949
 6803.00    1.10619   1.33478    9.040
 6804.00    1.11355   1.33568    8.980
 6805.00    1.13902   1.33616    8.779
 6806.00    1.17947   1.33498    8.478
 6807.00    1.22978   1.33570    8.132
 6808.00    1.28386   1.33616    7.789
 6809.00    1.33479   1.33561    7.492
 6810.00    1.37550   1.33608    7.270
 6811.00    1.40020   1.33633    7.142
 6812.00    1.40477   1.33632    7.119
 6813.00    1.38781   1.33688    7.206
 6814.00    1.35377   1.33712    7.387
 6815.00    1.31411   1.33718    7.610
 6816.00    1.28473   1.33760    7.784
 6817.00    1.27479   1.33779    7.844
 6818.00    1.28139   1.33790    7.804
 6819.00    1.29157   1.33834    7.743
 6820.00    1.29533   1.33826    7.720
 6821.00    1.29422   1.33799    7.727
 6822.00    1.30021   1.33831    7.691
 6823.00    1.32214   1.33796    7.564
 6824.00    1.35376   1.33721    7.387
 6825.00    1.37380   1.33709    7.279
 6826.00    1.36026   1.33647    7.352
 6827.00    1.30760   1.33572    7.648
 6828.00    1.22838   1.33502    8.141
 6829.00    1.14619   1.33381    8.725
 6830.00    1.08408   1.33299    9.224
 6831.00    1.06244   1.33199    9.412
 6832.00    1.09405   1.33061    9.140
 6833.00    1.17302   1.32979    8.525
 6834.00    1.27220   1.32861    7.860
 6835.00    1.35198   1.32746    7.397
 6836.00    1.38774   1.32692    7.206
 6837.00    1.37905   1.32590    7.251
 6838.00    1.34561   1.32535    7.432
 6839.00    1.30866   1.32511    7.641
 6840.00    1.28232   1.32465    7.798
 6841.00    1.27339   1.32476    7.853
 6842.00    1.28196   1.32441    7.801
 6843.00    1.30168   1.32414    7.682
 6844.00    1.32065   1.32443    7.572
 6845.00    1.32861   1.32377    7.527
 6846.00    1.32326   1.32372    7.557
 6847.00    1.31036   1.32380    7.632
 6848.00    1.29749   1.32258    7.707
 6849.00    1.28676   1.32271    7.771
 6850.00    1.27416   1.32259    7.848
 6851.00    1.25380   1.32086    7.976
 6852.00    1.22485   1.32104    8.164
 6853.00    1.19265   1.32115    8.385
 6854.00    1.16680   1.31966    8.570
 6855.00    1.15688   1.31977    8.644
 6856.00    1.17139   1.32006    8.537
 6857.00    1.21496   1.31920    8.231
 6858.00    1.27955   1.31915    7.815
 6859.00    1.34161   1.31961    7.454
 6860.00    1.36837   1.31980    7.308
 6861.00    1.34497   1.31971    7.435
 6862.00    1.28708   1.31990    7.770
 6863.00    1.23587   1.32069    8.091
 6864.00    1.22467   1.32072    8.165
 6865.00    1.25783   1.32085    7.950
 6866.00    1.31217   1.32204    7.621
 6867.00    1.35860   1.32244    7.360
 6868.00    1.38085   1.32243    7.242
 6869.00    1.37607   1.32351    7.267
 6870.00    1.34446   1.32436    7.438
 6871.00    1.27695   1.32463    7.831
 6872.00    1.15529   1.32542    8.656
 6873.00    0.98384   1.32646   -1.000
 6874.00    0.84059   1.32717   -1.000
 6875.00    0.88342   1.32776   -1.000
 6876.00    1.26423   1.32878    7.910
 6877.00    1.93992   1.32982   -1.000
 6878.00    2.62921   1.33049   -1.000
 6879.00    2.92835   1.33143   -1.000
 6880.00    2.66345   1.33268   -1.000
 6881.00    2.00702   1.33385   -1.000
 6882.00    1.38373   1.33470    7.227
 6883.00    1.06241   1.33573    9.412
 6884.00    0.96914   1.33719   -1.000
 6885.00    0.78403   1.33809   -1.000
 6886.00    0.56281   1.33889   -1.000
 6887.00    1.12671   1.34017    8.876
 6888.00    3.95063   1.34094   -1.000
 6889.00    9.99879   1.34165   -1.000
 6890.00   18.72846   1.34249   -1.000
 6891.00   28.09674   1.34303   -1.000
 6892.00   35.64584   1.34375   -1.000
 6893.00   39.76947   1.34415   -1.000
 6894.00   39.85709   1.34452   -1.000
 6895.00   36.36805   1.34516   -1.000
 6896.00   30.94950   1.34527   -1.000
 6897.00   26.42353   1.34555   -1.000
 6898.00   25.58558   1.34578   -1.000
 6899.00   28.58721   1.34586   -1.000
 6900.00   32.34502   1.34619   -1.000
 6901.00   32.17352   1.34567   -1.000
 6902.00   26.70458   1.34577   -1.000
 6903.00   19.49464   1.34607   -1.000
 6904.00   17.38640   1.34472   -1.000
 6905.00   23.51451   1.34505   -1.000
 6906.00   34.13433   1.34516   -1.000
 6907.00   39.98116   1.34305   -1.000
 6908.00   34.97245   1.34371   -1.000
 6909.00   21.61157   1.34383   -1.000
 6910.00   10.23072   1.34145   -1.000
 6911.00   10.10856   1.34231   -1.000
 6912.00   21.94586   1.34259   -1.000
 6913.00   37.81139   1.34061   -1.000
 6914.00   47.71713   1.34149   -1.000
 6915.00   47.21414   1.34192   -1.000
 6916.00   38.09298   1.34063   -1.000
 6917.00   25.54357   1.34137   -1.000
 6918.00   13.67983   1.34191   -1.000
 6919.00    4.82328   1.34133   -1.000
 6920.00   -0.26310   1.34192   -2.000
 6921.00   -1.86924   1.34260    0.000
 6922.00   -1.21553   1.34253    0.000
 6923.00   -0.05918   1.34294    0.000
 6924.00    0.47553   1.34378    0.327
 6925.00    0.27617   1.34405    0.270
 6926.00    0.00976   1.34409   -2.000
 6927.00    0.00000   1.34497   -2.000
 6928.00    0.00000   1.34552   -2.000
 6929.00    0.00000   1.34522   -2.000
 6930.00    0.00000   1.34602   -2.000
 6931.00    0.00000   1.34663   -2.000
 6932.00    0.00000   1.34607   -2.000
 6933.00    0.00000   1.34678   -2.000
 6934.00    0.00000   1.34730   -2.000
 6935.00    0.00000   1.34643   -2.000
 6936.00    0.00000   1.34712   -2.000
 6937.00    0.00000   1.34760   -2.000
 6938.00    0.00000   1.34641   -2.000
 6939.00    0.00000   1.34717   -2.000
 6940.00    0.00000   1.34784   -2.000
 6941.00    0.00000   1.34663   -2.000
 6942.00    0.00000   1.34744   -2.000
 6943.00    0.00000   1.34834   -2.000
 6944.00    0.00000   1.34731   -2.000
 6945.00    0.00000   1.34817   -2.000
 6946.00    0.00000   1.34933   -2.000
 6947.00    0.00000   1.34866   -2.000
 6948.00    0.00000   1.34958   -2.000
 6949.00    0.00000   1.35091   -2.000
 6950.00    0.00000   1.35074   -2.000
 6951.00    0.00000   1.35172   -2.000
 6952.00    0.00000   1.35297   -2.000
 6953.00    0.00000   1.35311   -2.000
 6954.00    0.00000   1.35410   -2.000
 6955.00    0.00000   1.35517   -2.000
 6956.00    0.00000   1.35534   -2.000
 6957.00    0.00000   1.35611   -2.000
 6958.00    0.00000   1.35684   -2.000
 6959.00    0.00000   1.35667   -2.000
 6960.00    0.00000   1.35699   -2.000
 6961.00    0.00000   1.35736   -2.000
 6962.00    0.00000   1.35655   -2.000
 6963.00    0.00000   1.35626   -2.000
 6964.00    0.00000   1.35617   -2.000
 6965.00    0.00000   1.35457   -2.000
 6966.00    0.00000   1.35384   -2.000
 6967.00    0.00000   1.35370   -2.000
 6968.00    0.00000   1.35144   -2.000
 6969.00    0.00000   1.35041   -2.000
 6970.00    0.00000   1.35072   -2.000
 6971.00    0.00000   1.34852   -2.000
 6972.00    0.00000   1.34760   -2.000
 6973.00    0.00000   1.34874   -2.000
 6974.00    0.00000   1.34760   -2.000
 6975.00    0.00000   1.34722   -2.000
 6976.00    0.00000   1.34893   -2.000
 6977.00    0.00000   1.34896   -2.000
 6978.00    0.00000   1.34916   -2.000
 6979.00    0.00000   1.35108   -2.000
 6980.00    0.00000   1.35199   -2.000
 6981.00    0.00000   1.35246   -2.000
 6982.00    0.00000   1.35409   -2.000
 6983.00    0.00000   1.35519   -2.000
 6984.00    0.00000   1.35549   -2.000
 6985.00    0.00000   1.35654   -2.000
 6986.00    0.00000   1.35729   -2.000
 6987.00    0.00000   1.35702   -2.000
 6988.00    0.00000   1.35733   -2.000
 6989.00    0.00000   1.35750   -2.000
 6990.00    0.00000   1.35668   -2.000
 6991.00    0.00000   1.35637   -2.000
 6992.00    0.00000   1.35608   -2.000
 6993.00    0.00000   1.35491   -2.000
 6994.00    0.00000   1.35416   -2.000
 6995.00    0.00000   1.35372   -2.000
 6996.00    0.00000   1.35259   -2.000
 6997.00    0.00000   1.35163   -2.000
 6998.00    0.00000   1.35116   -2.000
 6999.00    0.00000   1.35034   -2.000
 7000.00    0.00000   1.34944   -2.000
 7001.00    0.00000   1.34907   -2.000
 7002.00    0.00000   1.34861   -2.000
 7003.00    0.00000   1.34780   -2.000
 7004.00    0.00000   1.34760   -2.000
 7005.00    0.00000   1.34755   -2.000
 7006.00    0.00000   1.34667   -2.000
 7007.00    0.00000   1.34661   -2.000
 7008.00    0.00000   1.34717   -2.000
 7009.00    0.00000   1.34638   -2.000
 7010.00    0.00000   1.34646   -2.000
 7011.00    0.00000   1.34748   -2.000
 7012.00    0.00000   1.34699   -2.000
 7013.00    0.00000   1.34729   -2.000
 7014.00    0.00000   1.34858   -2.000
 7015.00    0.00000   1.34858   -2.000
 7016.00    0.00000   1.34926   -2.000
 7017.00    0.00000   1.35079   -2.000
 7018.00    0.00000   1.35126   -2.000
 7019.00    0.00000   1.35217   -2.000
 7020.00    0.00000   1.35389   -2.000
 7021.00    0.00000   1.35487   -2.000
 7022.00    0.00000   1.35581   -2.000
 7023.00    0.00000   1.35773   -2.000
 7024.00    0.00000   1.35922   -2.000
 7025.00    0.00000   1.35997   -2.000
 7026.00    0.00000   1.36215   -2.000
 7027.00    0.00000   1.36428   -2.000
 7028.00    0.00000   1.36477   -2.000
 7029.00    0.00000   1.36709   -2.000
 7030.00    0.00000   1.36990   -2.000
 7031.00    0.00000   1.37032   -2.000
 7032.00    0.00000   1.37263   -2.000
 7033.00    0.00000   1.37576   -2.000
 7034.00    0.00000   1.37611   -2.000
 7035.00    0.00000   1.37813   -2.000
 7036.00    0.00000   1.38097   -2.000
 7037.00    0.00000   1.38099   -2.000
 7038.00    0.00000   1.38237   -2.000
 7039.00    0.00000   1.38408   -2.000
 7040.00    0.00000   1.38327   -2.000
 7041.00    0.00000   1.38359   -2.000
 7042.00    0.00000   1.38360   -2.000
 7043.00    0.00000   1.38159   -2.000
 7044.00    0.00000   1.38067   -2.000
 7045.00    0.00000   1.37896   -2.000
 7046.00    0.00000   1.37574   -2.000
 7047.00    0.00000   1.37367   -2.000
 7048.00    0.00000   1.37083   -2.000
 7049.00    0.00000   1.36693   -2.000
 7050.00    0.00000   1.36416   -2.000
 7051.00    0.00000   1.36113   -2.000
 7052.00    0.00000   1.35730   -2.000
 7053.00    0.00000   1.35437   -2.000
 7054.00    0.00000   1.35200   -2.000
 7055.00    0.00000   1.34895   -2.000
 7056.00    0.00000   1.34638   -2.000
 7057.00    0.00000   1.34514   -2.000
 7058.00    0.00000   1.34325   -2.000
 7059.00    0.00000   1.34135   -2.000
 7060.00    0.00000   1.34128   -2.000
 7061.00    0.00000   1.34055   -2.000
 7062.00    0.00000   1.33939   -2.000
 7063.00    0.00000   1.34012   -2.000
 7064.00    0.00000   1.34022   -2.000
 7065.00    0.00000   1.33955   -2.000
 7066.00    0.00000   1.34047   -2.000
 7067.00    0.00000   1.34083   -2.000
 7068.00    0.00000   1.34011   -2.000
 7069.00    0.00000   1.34048   -2.000
 7070.00    0.00000   1.34044   -2.000
 7071.00    0.00000   1.33902   -2.000
 7072.00    0.00000   1.33821   -2.000
 7073.00    0.00000   1.33731   -2.000
 7074.00    0.00000   1.33472   -2.000
 7075.00    0.00000   1.33251   -2.000
 7076.00    0.00000   1.33067   -2.000
 7077.00    0.00000   1.32693   -2.000
 7078.00    0.00000   1.32360   -2.000
 7079.00    0.00000   1.32123   -2.000
 7080.00    0.00000   1.31695   -2.000
 7081.00    0.00000   1.31320   -2.000
 7082.00    0.00000   1.31095   -2.000
 7083.00    0.00000   1.30709   -2.000
 7084.00    0.00000   1.30378   -2.000
 7085.00    0.00000   1.30225   -2.000
 7086.00    0.00000   1.29969   -2.000
 7087.00    0.00000   1.29745   -2.000
 7088.00    0.00000   1.29690   -2.000
 7089.00    0.00000   1.29608   -2.000
 7090.00    0.00000   1.29511   -2.000
 7091.00    0.00000   1.29542   -2.000
 7092.00    0.00000   1.29615   -2.000
 7093.00    0.00000   1.29623   -2.000
 7094.00    0.00000   1.29703   -2.000
 7095.00    0.00000   1.29870   -2.000
 7096.00    0.00000   1.29935   -2.000
 7097.00    0.00000   1.30024   -2.000
 7098.00    0.00000   1.30215   -2.000
 7099.00    0.00000   1.30292   -2.000
 7100.00    0.00000   1.30364   -2.000
 7101.00    0.00000   1.30526   -2.000
 7102.00    0.00000   1.30591   -2.000
 7103.00    0.00000   1.30639   -2.000
 7104.00    0.00000   1.30753   -2.000
 7105.00    0.00000   1.30795   -2.000
 7106.00    0.00000   1.30820   -2.000
 7107.00    0.00000   1.30890   -2.000
 7108.00    0.00000   1.30907   -2.000
 7109.00    0.00000   1.30901   -2.000
 7110.00    0.00000   1.30935   -2.000
 7111.00    0.00000   1.30921   -2.000
 7112.00    0.00000   1.30869   -2.000
 7113.00    0.00000   1.30866   -2.000
 7114.00    0.00000   1.30813   -2.000
 7115.00    0.00000   1.30705   -2.000
 7116.00    0.00000   1.30666   -2.000
 7117.00    0.00000   1.30571   -2.000
 7118.00    0.00000   1.30422   -2.000
 7119.00    0.00000   1.30361   -2.000
 7120.00    0.00000   1.30234   -2.000
 7121.00    0.00000   1.30089   -2.000
 7122.00    0.00000   1.30037   -2.000
 7123.00    0.00000   1.29901   -2.000
 7124.00    0.00000   1.29811   -2.000
 7125.00    0.00000   1.29806   -2.000
 7126.00    0.00000   1.29682   -2.000
 7127.00    0.00000   1.29681   -2.000
 7128.00    0.00000   1.29741   -2.000
 7129.00    0.00000   1.29632   -2.000
 7130.00    0.00000   1.29720   -2.000
 7131.00    0.00000   1.29837   -2.000
 7132.00    0.00000   1.29728   -2.000
 7133.00    0.00000   1.29876   -2.000
 7134.00    0.00000   1.30026   -2.000
 7135.00    0.00000   1.29898   -2.000
 7136.00    0.00000   1.30075   -2.000
 7137.00    0.00000   1.30242   -2.000
 7138.00    0.00000   1.30092   -2.000
 7139.00    0.00000   1.30277   -2.000
 7140.00    0.00000   1.30466   -2.000
 7141.00    0.00000   1.30314   -2.000
 7142.00    0.00000   1.30496   -2.000
 7143.00    0.00000   1.30717   -2.000
 7144.00    0.00000   1.30593   -2.000
 7145.00    0.00000   1.30757   -2.000
 7146.00    0.00000   1.31001   -2.000
 7147.00    0.00000   1.30922   -2.000
 7148.00    0.00000   1.31043   -2.000
 7149.00    0.00000   1.31274   -2.000
 7150.00    0.00000   1.31233   -2.000
 7151.00    0.00000   1.31288   -2.000
 7152.00    0.00000   1.31463   -2.000
 7153.00    0.00000   1.31443   -2.000
 7154.00    0.00000   1.31433   -2.000
 7155.00    0.00000   1.31533   -2.000
 7156.00    0.00000   1.31524   -2.000
 7157.00    0.00000   1.31479   -2.000
 7158.00    0.00000   1.31520   -2.000
 7159.00    0.00000   1.31528   -2.000
 7160.00    0.00000   1.31487   -2.000
 7161.00    0.00000   1.31504   -2.000
 7162.00    0.00000   1.31531   -2.000
 7163.00    0.00000   1.31512   -2.000
 7164.00    0.00000   1.31527   -2.000
 7165.00    0.00000   1.31561   -2.000
 7166.00    0.00000   1.31550   -2.000
 7167.00    0.00000   1.31562   -2.000
 7168.00    0.00000   1.31578   -2.000
 7169.00    0.00000   1.31542   -2.000
 7170.00    0.00000   1.31537   -2.000
 7171.00    0.00000   1.31511   -2.000
 7172.00    0.00000   1.31431   -2.000
 7173.00    0.00000   1.31404   -2.000
 7174.00    0.00000   1.31333   -2.000
 7175.00    0.00000   1.31219   -2.000
 7176.00    0.00000   1.31183   -2.000
 7177.00    0.00000   1.31078   -2.000
 7178.00    0.00000   1.30964   -2.000
 7179.00    0.00000   1.30943   -2.000
 7180.00    0.00000   1.30828   -2.000
 7181.00    0.00000   1.30747   -2.000
 7182.00    0.00000   1.30764   -2.000
 7183.00    0.00000   1.30659   -2.000
 7184.00    0.00000   1.30627   -2.000
 7185.00    0.00000   1.30693   -2.000
 7186.00    0.00000   1.30607   -2.000
 7187.00    0.00000   1.30616   -2.000
 7188.00    0.00000   1.30718   -2.000
 7189.00    0.00000   1.30651   -2.000
 7190.00    0.00000   1.30674   -2.000
 7191.00    0.00000   1.30786   -2.000
 7192.00    0.00000   1.30732   -2.000
 7193.00    0.00000   1.30742   -2.000
 7194.00    0.00000   1.30836   -2.000
 7195.00    0.00000   1.30802   -2.000
 7196.00    0.00000   1.30791   -2.000
 7197.00    0.00000   1.30852   -2.000
 7198.00    0.00000   1.30855   -2.000
 7199.00    0.00000   1.30845   -2.000
 7200.00    0.00000   1.30875   -2.000
 7201.00    0.00000   1.30942   -2.000
 7202.00    0.00000   1.30968   -2.000
 7203.00    0.00000   1.30988   -2.000
 7204.00    0.00000   1.31129   -2.000
 7205.00    0.00000   1.31223   -2.000
 7206.00    0.00000   1.31252   -2.000
 7207.00    0.00000   1.31459   -2.000
 7208.00    0.00000   1.31628   -2.000
 7209.00    0.00000   1.31680   -2.000
 7210.00    0.00000   1.31917   -2.000
 7211.00    0.00000   1.32149   -2.000
 7212.00    0.00000   1.32230   -2.000
 7213.00    0.00000   1.32457   -2.000
 7214.00    0.00000   1.32726   -2.000
 7215.00    0.00000   1.32837   -2.000
 7216.00    0.00000   1.33028   -2.000
 7217.00    0.00000   1.33304   -2.000
 7218.00    0.00000   1.33443   -2.000
