###################################################################
## OUTPUT of StarlightChains_v04.for    [Cid@UFSC - 01/Apr/2007] ##
###################################################################

## Some input info
2002jg.txt                               [arq_obs]
Base.CB07.vall.4m                        [arq_base]
Masks.EmLines.NEW.gm                     [arq_masks]
StCv04.C11.config                        [arq_config]
   66                                    [N_base]
    0                                    [N_YAV_components = # of components with extra extinction!]
    0                                    [i_FitPowerLaw (1/0 = Yes/No)]
-9.99                                    [alpha_PowerLaw]
CCM                                      [red_law_option]
 1.458241                                [q_norm = A(l_norm)/A(V)]

## (Re)Sampling Parameters
 3741.00                                 [l_ini (A)]
 7218.00                                 [l_fin (A)]
    1.00                                 [dl    (A)]     (OBS: dl_cushion =    50.00 A)

## Normalization info
 4020.00                                 [l_norm (A) - for base]
 4010.00                                 [llow_norm (A) - window for f_obs]
 4060.00                                 [lupp_norm (A) - window for f_obs]
2.238287E-16                             [fobs_norm (in input units)]

## S/N
 3691.00                                 [llow_SN (A) - window for S/N]
 7268.00                                 [lupp_SN (A) - window for S/N]
   4.795                                 [S/N in S/N window]
   6.697                                 [S/N in norm. window]
  19.125                                 [S/N_err in S/N window]
  26.711                                 [S/N_err in norm. window]
  1.0000                                 [fscale_chi2]

## etc...
    -2007268                             [idum_orig]
  2384                                   [NOl_eff]
  2381                                   [Nl_eff]
     3    NSIGMA                         [Ntot_cliped & clip_method]
   968310                                [Nglobal_steps]
   7                                     [N_chains]
  15                                     [NEX0s_base = N_base in EX0s-fits]
 0   0   1        1   2.0   6.216E+01    [Clip-Bug, RC-Crash & Burn-In warning-flags, n_censored_weights, wei_nsig_threshold & wei_limit]
    13     13.466     12.968      0.498  [idt_all, wdt_TotTime, wdt_UsrTime & wdt_SysTime (sec)]

## Synthesis Results - Best model ##

 3.82017E-01                             [chi2/Nl_eff]
     2.40508                             [adev (%)]

   102.93825                             [sum-of-x (%)]
 4.88068E-16                             [Flux_tot (units of input spectrum!)]
 5.08934E-13                             [Mini_tot (???)]
 3.36147E-13                             [Mcor_tot (???)]

  63.37                                  [v0_min  (km/s)]
 132.18                                  [vd_min  (km/s)]
 0.5589                                  [AV_min  (mag)]
 0.0000                                  [YAV_min (mag)]

# j     x_j(%)      Mini_j(%)     Mcor_j(%)     age_j(yr)     Z_j      (L/M)_j    YAV?  Mstars   component_j        a/Fe...       SSP_chi2r SSP_adev(%)   SSP_AV   SSP_x(%)
  1      0.0000     0.0000E+00    0.0000E+00    1.000000E+06  0.00400  1.094E-02    0   1.0000   age020_m42            0.0000     1.6326E+00     5.2712   2.2336    86.4157
  2      0.0000     0.0000E+00    0.0000E+00    3.160000E+06  0.00400  4.007E-02    0   0.9999   age045_m42            0.0000     8.6956E-01     3.6971   1.4812    93.6673
  3      0.0000     0.0000E+00    0.0000E+00    5.010000E+06  0.00400  2.539E-02    0   0.9488   age055_m42            0.0000     1.0742E+00     4.2231   1.8056    91.1279
  4      0.0000     0.0000E+00    0.0000E+00    6.610000E+06  0.00400  2.620E-02    0   0.9220   age061_m42            0.0000     7.3764E-01     3.3494   1.3949    94.4700
  5      0.9294     6.5499E-02    8.7882E-02    1.000000E+07  0.00400  1.322E-02    0   0.8862   age070_m42            0.0000     6.7414E-01     3.2289   1.0586    99.0420
  6      0.0218     2.5797E-03    3.3476E-03    1.445000E+07  0.00400  7.883E-03    0   0.8571   age078_m42            0.0000     8.2958E-01     3.6331   1.3991    95.8676
  7      7.0801     1.2561E+00    1.5546E+00    2.512000E+07  0.00400  5.251E-03    0   0.8174   age090_m42            0.0000     6.7915E-01     3.2461   0.9163   100.2086
  8      0.0130     3.3232E-03    3.9502E-03    4.000000E+07  0.00400  3.649E-03    0   0.7851   age104_m42            0.0000     5.8517E-01     2.9670   0.6914   100.9515
  9      6.5388     1.9663E+00    2.2712E+00    5.500000E+07  0.00400  3.098E-03    0   0.7629   age110_m42            0.0000     4.7404E-01     2.6037   0.8646   100.0260
 10     41.4987     1.7353E+01    1.8934E+01    1.015200E+08  0.00400  2.228E-03    0   0.7207   age116_m42            0.0000     4.5481E-01     2.5894   0.8957    99.7158
 11      0.0000     0.0000E+00    0.0000E+00    2.861200E+08  0.00400  1.093E-03    0   0.6648   age125_m42            0.0000     5.7444E-01     2.8384   0.3006   104.0546
 12      0.0000     0.0000E+00    0.0000E+00    5.088000E+08  0.00400  6.597E-04    0   0.6365   age130_m42            0.0000     5.5666E-01     2.9311   0.3159   103.6840
 13      0.0000     0.0000E+00    0.0000E+00    1.434000E+09  0.00400  2.132E-04    0   0.5798   age139_m42            0.0000     6.7142E-01     3.3532  -0.6307   104.5515
 14      0.0000     0.0000E+00    0.0000E+00    4.250000E+09  0.00400  5.895E-05    0   0.5377   age158_m42            0.0000     1.0493E+00     4.2512  -1.0000    97.1898
 15      0.0000     0.0000E+00    0.0000E+00    7.500000E+09  0.00400  3.510E-05    0   0.5212   age171_m42            0.0000     1.7203E+00     5.6789  -1.0000    88.8205
 16      0.0000     0.0000E+00    0.0000E+00    1.300000E+10  0.00400  2.005E-05    0   0.5034   age193_m42            0.0000     2.9087E+00     7.5748  -1.0000    81.9796
 17      0.0000     0.0000E+00    0.0000E+00    1.800000E+10  0.00400  1.525E-05    0   0.4967   age213_m42            0.0000     3.1091E+00     7.8795  -1.0000    80.7508
 18      0.0000     0.0000E+00    0.0000E+00    1.000000E+06  0.00800  1.238E-02    0   1.0000   age020_m52            0.0000     1.6293E+00     5.2731   2.2299    86.5832
 19      0.0000     0.0000E+00    0.0000E+00    3.160000E+06  0.00800  3.074E-02    0   0.9966   age045_m52            0.0000     1.5264E+00     5.1539   2.1514    87.4392
 20      0.0000     0.0000E+00    0.0000E+00    5.010000E+06  0.00800  2.668E-02    0   0.9443   age055_m52            0.0000     1.1335E+00     4.3970   1.8883    90.2819
 21      0.0000     0.0000E+00    0.0000E+00    6.610000E+06  0.00800  2.136E-02    0   0.9177   age061_m52            0.0000     7.8467E-01     3.4172   0.5801    99.1397
 22      0.0000     0.0000E+00    0.0000E+00    1.000000E+07  0.00800  1.215E-02    0   0.8827   age070_m52            0.0000     8.5739E-01     3.6510   1.2269    99.3132
 23      0.0000     0.0000E+00    0.0000E+00    1.445000E+07  0.00800  8.717E-03    0   0.8552   age078_m52            0.0000     7.5808E-01     3.4700   1.3593    97.4434
 24     12.0003     1.9993E+00    2.4706E+00    2.512000E+07  0.00800  5.592E-03    0   0.8162   age090_m52            0.0000     6.7570E-01     3.2401   0.9742   101.6833
 25      0.0000     0.0000E+00    0.0000E+00    4.000000E+07  0.00800  3.896E-03    0   0.7841   age104_m52            0.0000     5.6525E-01     2.8965   0.8938   102.1560
 26      0.0045     1.9656E-03    2.1504E-03    1.015200E+08  0.00800  2.148E-03    0   0.7226   age116_m52            0.0000     4.4687E-01     2.5097   0.8528   101.0216
 27      0.0000     0.0000E+00    0.0000E+00    2.861200E+08  0.00800  9.925E-04    0   0.6683   age125_m52            0.0000     5.1061E-01     2.8331   0.3777   104.8124
 28      0.0000     0.0000E+00    0.0000E+00    9.047900E+08  0.00800  3.141E-04    0   0.6138   age135_m52            0.0000     8.4773E-01     3.8480  -0.3716   106.7294
 29      0.0000     0.0000E+00    0.0000E+00    1.434000E+09  0.00800  1.719E-04    0   0.5853   age139_m52            0.0000     1.0791E+00     4.2429  -0.9354   103.7045
 30      0.0000     0.0000E+00    0.0000E+00    2.500000E+09  0.00800  7.872E-05    0   0.5600   age150_m52            0.0000     1.7299E+00     5.7795  -1.0000    92.1325
 31      0.0000     0.0000E+00    0.0000E+00    4.250000E+09  0.00800  4.336E-05    0   0.5426   age158_m52            0.0000     1.8141E+00     5.8760  -1.0000    90.6320
 32      0.0000     0.0000E+00    0.0000E+00    6.250000E+09  0.00800  3.159E-05    0   0.5319   age166_m52            0.0000     3.2876E+00     8.1415  -1.0000    82.7086
 33      0.0000     0.0000E+00    0.0000E+00    1.300000E+10  0.00800  1.361E-05    0   0.5073   age193_m52            0.0000     9.2679E+00    14.4742  -1.0000    65.9792
 34      0.0000     0.0000E+00    0.0000E+00    1.800000E+10  0.00800  9.886E-06    0   0.4990   age213_m52            0.0000     1.0924E+01    15.7782  -1.0000    62.3839
 35      0.0000     0.0000E+00    0.0000E+00    1.000000E+06  0.02000  1.544E-02    0   1.0000   age020_m62            0.0000     1.6473E+00     5.3249   2.2268    86.7474
 36      0.0000     0.0000E+00    0.0000E+00    3.160000E+06  0.02000  3.762E-02    0   0.9858   age045_m62            0.0000     1.5944E+00     5.2898   2.1641    87.5802
 37      0.0000     0.0000E+00    0.0000E+00    5.010000E+06  0.02000  3.296E-02    0   0.9342   age055_m62            0.0000     9.3723E-01     3.9025   1.7649    92.3063
 38      0.0000     0.0000E+00    0.0000E+00    8.710000E+06  0.02000  1.154E-02    0   0.8861   age067_m62            0.0000     2.8940E+00     6.8463   0.5914   106.4537
 39      0.0000     0.0000E+00    0.0000E+00    1.445000E+07  0.02000  7.663E-03    0   0.8472   age078_m62            0.0000     1.2900E+00     4.4018   0.8446   103.0103
 40      0.0000     0.0000E+00    0.0000E+00    2.512000E+07  0.02000  4.532E-03    0   0.8099   age090_m62            0.0000     1.3535E+00     4.6053   0.8249   103.3417
 41      0.0009     3.2363E-04    3.7214E-04    5.500000E+07  0.02000  2.733E-03    0   0.7595   age110_m62            0.0000     5.8428E-01     2.9734   0.8774   101.3595
 42      0.0001     8.3267E-05    8.8058E-05    1.609000E+08  0.02000  1.369E-03    0   0.6985   age120_m62            0.0000     4.3700E-01     2.5734   0.7317   103.4613
 43      0.0000     0.0000E+00    0.0000E+00    2.861200E+08  0.02000  9.013E-04    0   0.6714   age125_m62            0.0000     5.2047E-01     2.8947   0.4900   106.0294
 44      0.0000     0.0000E+00    0.0000E+00    5.088000E+08  0.02000  5.028E-04    0   0.6449   age130_m62            0.0000     7.6891E-01     3.6964   0.1585   106.5573
 45      0.0000     0.0000E+00    0.0000E+00    9.047900E+08  0.02000  2.428E-04    0   0.6179   age135_m62            0.0000     9.6476E-01     4.1351  -0.3880   103.9948
 46      0.0000     0.0000E+00    0.0000E+00    1.434000E+09  0.02000  1.263E-04    0   0.5908   age139_m62            0.0000     1.2762E+00     4.6939  -0.8077   101.2842
 47      0.0000     0.0000E+00    0.0000E+00    2.500000E+09  0.02000  5.985E-05    0   0.5673   age150_m62            0.0000     2.0660E+00     6.2748  -1.0000    92.4319
 48      0.0000     0.0000E+00    0.0000E+00    4.250000E+09  0.02000  3.271E-05    0   0.5468   age158_m62            0.0000     4.4618E+00     9.5764  -1.0000    79.8136
 49      0.0000     0.0000E+00    0.0000E+00    1.000000E+10  0.02000  1.360E-05    0   0.5167   age181_m62            0.0000     8.9628E+00    14.0910  -1.0000    67.5654
 50      0.0000     0.0000E+00    0.0000E+00    1.800000E+10  0.02000  7.124E-06    0   0.5013   age213_m62            0.0000     1.2297E+01    16.7235  -1.0000    60.6729
 51      0.0000     0.0000E+00    0.0000E+00    1.000000E+06  0.05000  2.592E-02    0   0.9998   age020_m72            0.0000     1.7257E+00     5.4679   2.2181    86.7651
 52      0.0000     0.0000E+00    0.0000E+00    3.160000E+06  0.05000  4.845E-02    0   0.9577   age045_m72            0.0000     1.3398E+00     4.8233   2.0422    88.9974
 53      0.0000     0.0000E+00    0.0000E+00    5.010000E+06  0.05000  3.072E-02    0   0.9147   age055_m72            0.0000     1.3227E+00     4.5362   1.4795    96.7861
 54      0.0000     0.0000E+00    0.0000E+00    6.610000E+06  0.05000  1.455E-02    0   0.8877   age061_m72            0.0000     5.9433E+00     9.4441   0.6050   109.3277
 55      0.0000     0.0000E+00    0.0000E+00    1.000000E+07  0.05000  9.074E-03    0   0.8524   age070_m72            0.0000     2.0442E+00     5.3189   1.6658    96.5193
 56      0.0000     0.0000E+00    0.0000E+00    2.512000E+07  0.05000  4.250E-03    0   0.7902   age090_m72            0.0000     1.2892E+00     4.2661   1.3406    99.4626
 57      0.0000     0.0000E+00    0.0000E+00    4.000000E+07  0.05000  3.087E-03    0   0.7618   age104_m72            0.0000     1.2903E+00     4.1886   1.0939   102.0473
 58      0.0000     0.0000E+00    0.0000E+00    1.015200E+08  0.05000  1.700E-03    0   0.7096   age116_m72            0.0000     5.2498E-01     2.7545   0.8554   103.9288
 59     14.7946     1.8666E+01    1.8745E+01    2.861200E+08  0.05000  7.384E-04    0   0.6633   age125_m72            0.0000     6.3239E-01     3.2600   0.3801   106.3748
 60     16.9265     4.1291E+01    3.9835E+01    5.088000E+08  0.05000  3.819E-04    0   0.6372   age130_m72            0.0000     8.6123E-01     3.9435  -0.0617   105.5837
 61      3.1292     1.7394E+01    1.6091E+01    9.047900E+08  0.05000  1.676E-04    0   0.6110   age135_m72            0.0000     1.6544E+00     5.4666  -0.6800   100.0487
 62      0.0000     0.0000E+00    0.0000E+00    1.434000E+09  0.05000  8.837E-05    0   0.5874   age139_m72            0.0000     2.2710E+00     6.5874  -1.0000    93.7498
 63      0.0000     0.0000E+00    0.0000E+00    2.500000E+09  0.05000  4.233E-05    0   0.5598   age150_m72            0.0000     4.6295E+00     9.7637  -1.0000    80.4660
 64      0.0000     0.0000E+00    0.0000E+00    6.250000E+09  0.05000  1.435E-05    0   0.5249   age166_m72            0.0000     1.0526E+01    15.3651  -1.0000    64.2535
 65      0.0000     0.0000E+00    0.0000E+00    1.300000E+10  0.05000  6.513E-06    0   0.5036   age193_m72            0.0000     1.5398E+01    18.7873  -1.0000    56.7077
 66      0.0000     0.0000E+00    0.0000E+00    1.800000E+10  0.05000  4.527E-06    0   0.4945   age213_m72            0.0000     1.8471E+01    20.6265  -1.0000    52.3376


## Synthesis Results - Average & Chains ##

# j      x_j: min, <> & last-chain-values for 1 ...  7 chains
  1      0.0000      0.1084      0.0000      0.0000      0.7484      0.0000      0.0000      0.0000      0.0000
  2      0.0000      0.5386      1.3128      0.0000      0.0000      0.0000      0.0000      0.0000      0.0105
  3      0.0000      0.7363      1.8257      1.1114      0.0000      0.0000      3.0142      0.0000      0.0000
  4      0.0000      1.0972      0.0980      0.3935      0.0000      1.7461      0.0000      0.0000      0.0000
  5      0.9294      3.1856      3.4585      3.9756      4.1714      3.7702      4.9410      0.6943      6.0678
  6      0.0218      0.5602      0.0000      0.4067      0.0000      1.4557      1.4608      0.0000      1.3892
  7      7.0801      2.7805      5.4686      4.7539      5.0614      2.5419      2.1597      0.6595      2.1225
  8      0.0130      3.0741      3.3487      4.3927      2.9599      0.0000      1.5920      2.8760      2.8076
  9      6.5388     10.3325      8.3518     12.9351      9.6504      8.5681      6.3516     12.6100     14.1580
 10     41.4987     14.1348     12.4322     15.5180     15.8405     15.2822     22.7179     15.5998     15.9486
 11      0.0000      0.1626      0.0000      0.0000      0.0000      0.0000      0.2435      0.0000      0.0000
 12      0.0000      0.2788      0.0000      0.0000      0.0000      0.0000      0.0000      0.0000      0.0000
 13      0.0000      0.0560      0.0000      0.0000      0.0000      0.0312      0.0000      0.0000      0.0000
 14      0.0000      0.0076      0.0000      0.0000      0.0000      0.0000      0.0000      0.0000      0.0000
 15      0.0000      0.0040      0.0000      0.0000      0.0000      0.0000      0.0000      0.0000      0.0000
 16      0.0000      0.0074      0.0000      0.0000      0.0000      0.0000      0.0000      0.0000      0.0000
 17      0.0000      0.0056      0.0000      0.0000      0.0000      0.0022      0.0000      0.0000      0.0000
 18      0.0000      0.0516      0.0000      0.0000      0.0000      0.0000      0.5728      0.0000      0.0000
 19      0.0000      0.1417      0.0000      0.0000      0.0145      0.0000      0.0000      0.0000      0.0000
 20      0.0000      0.2338      0.0000      0.6269      0.0000      0.2402      0.1393      0.1826      0.1531
 21      0.0000      2.5276      0.2125      1.7525      2.6706      3.2522      0.0000      5.9799      0.0000
 22      0.0000      0.4374      0.0000      0.0000      0.0000      0.0000      0.0000      0.0000      4.2945
 23      0.0000      0.2057      0.0000      0.0057      0.0000      0.0000      0.0248      0.8954      0.1642
 24     12.0003      3.0417      5.0223      2.0155      5.3244      5.2875      6.4114      8.5563      2.2889
 25      0.0000      2.0464      3.1169      4.1678      0.0000      1.4645      0.0000      0.0000      0.0609
 26      0.0045      4.4676      8.5602      3.5515      4.1415      6.8881      1.6276      4.9482      4.8396
 27      0.0000      0.5739      0.0000      0.0000      0.0000      0.0000      0.2612      0.0000      0.0000
 28      0.0000      0.0528      0.0000      0.0000      0.0000      0.0000      0.0000      0.0000      0.0000
 29      0.0000      0.0042      0.0000      0.0000      0.0000      0.0000      0.0000      0.0000      0.0000
 30      0.0000      0.0183      0.0000      0.0000      0.0000      0.0000      0.0000      0.0000      0.0000
 31      0.0000      0.0065      0.0000      0.0000      0.0000      0.0000      0.0000      0.0000      0.0000
 32      0.0000      0.0043      0.0000      0.0000      0.0000      0.0000      0.0000      0.0521      0.0000
 33      0.0000      0.0010      0.0000      0.0000      0.0000      0.0000      0.0000      0.0000      0.0000
 34      0.0000      0.0004      0.0000      0.0000      0.0000      0.0000      0.0000      0.0000      0.0000
 35      0.0000      0.1499      0.3687      0.0000      0.0000      0.3721      0.0000      0.0000      0.7887
 36      0.0000      0.1170      0.0000      0.0000      0.0000      0.0000      0.1142      1.4861      0.0000
 37      0.0000      0.6204      0.0000      0.0000      1.8419      0.9515      0.0000      0.0000      0.0000
 38      0.0000      0.3920      0.0000      0.0000      0.0000      0.0000      0.0000      0.0000      0.0143
 39      0.0000      0.4724      0.1839      0.0000      0.0000      1.6184      0.0000      0.0000      0.0000
 40      0.0000      0.3806      0.0000      0.0000      0.0000      0.0000      0.0000      0.0000      0.0000
 41      0.0009      1.1299      1.2668      0.0000      0.4466      0.4174      2.8121      0.0000      0.0000
 42      0.0001      2.7834      0.6953      2.7148      0.0000      5.1313      7.2236      3.1950      0.8987
 43      0.0000     12.4917     14.5509     11.3965     14.5066     14.7381      9.7212     11.0938     12.6576
 44      0.0000      0.7330      1.3173      0.6606      0.2307      0.0000      0.0000      0.0000      1.0933
 45      0.0000      0.0634      0.0000      0.0000      0.0000      0.0000      0.0000      0.0000      0.0000
 46      0.0000      0.0403      0.0000      0.0000      0.0000      0.0000      0.0000      0.5123      0.0000
 47      0.0000      0.0205      0.0000      0.0000      0.0000      0.0029      0.0000      0.0000      0.0000
 48      0.0000      0.0141      0.0000      0.0000      0.0000      0.0000      0.0000      0.0000      0.0000
 49      0.0000      0.0019      0.0000      0.0000      0.0000      0.0000      0.0000      0.0000      0.0000
 50      0.0000      0.0046      0.0000      0.0688      0.0000      0.0000      0.0000      0.0000      0.0000
 51      0.0000      0.3451      0.0000      0.4873      0.9668      0.0000      0.0000      0.0000      0.0000
 52      0.0000      0.4993      0.3538      0.0000      0.9180      0.0000      0.0000      1.5272      0.0000
 53      0.0000      0.1301      0.0000      0.0000      0.0159      0.0000      0.0000      0.0000      0.0000
 54      0.0000      0.0271      0.0000      0.0000      0.0000      0.0000      0.0000      0.0000      0.0000
 55      0.0000      0.0652      0.0000      0.2479      0.0000      0.0000      0.0000      0.0000      0.0000
 56      0.0000      0.0905      0.0000      0.0000      0.0000      0.0000      0.0000      0.0000      0.0000
 57      0.0000      0.0879      0.0000      0.0000      0.0000      0.0000      0.0000      0.0000      0.6667
 58      0.0000      0.7061      0.3097      0.1429      0.0000      0.0058      0.0000      0.2126      0.0000
 59     14.7946     22.8125     22.4778     23.4997     23.8997     20.4282     20.0634     23.1625     22.0094
 60     16.9265      7.1766      7.3457      7.1293      9.0312      6.8924      9.1626      8.9670      9.6582
 61      3.1292      1.1813      1.3384      1.2833      0.9799      2.2177      2.5499      0.1505      1.3524
 62      0.0000      0.0081      0.0000      0.0000      0.0000      0.0000      0.0000      0.0000      0.0000
 63      0.0000      0.0025      0.0000      0.0000      0.0000      0.0000      0.0000      0.0000      0.0000
 64      0.0000      0.0060      0.0000      0.0000      0.0000      0.0000      0.0000      0.0000      0.0000
 65      0.0000      0.0011      0.0000      0.0000      0.0000      0.0000      0.0000      0.0000      0.0000
 66      0.0000      0.0017      0.0000      0.0000      0.0000      0.0000      0.0000      0.0000      0.0000

# j      m_j: min, <> & last-chain-values for 1 ...  7 chains
  1  0.0000E+00  1.5481E-02  0.0000E+00  0.0000E+00  1.0858E-01  0.0000E+00  0.0000E+00  0.0000E+00  0.0000E+00
  2  0.0000E+00  2.0994E-02  5.2017E-02  0.0000E+00  0.0000E+00  0.0000E+00  0.0000E+00  0.0000E+00  4.0422E-04
  3  0.0000E+00  4.2978E-02  1.0833E-01  6.2895E-02  0.0000E+00  0.0000E+00  1.6970E-01  0.0000E+00  0.0000E+00
  4  0.0000E+00  6.0314E-02  5.4756E-03  2.0969E-02  0.0000E+00  9.6742E-02  0.0000E+00  0.0000E+00  0.0000E+00
  5  8.7882E-02  3.3357E-01  3.6813E-01  4.0360E-01  4.4384E-01  3.9790E-01  4.9902E-01  7.5284E-02  6.2801E-01
  6  3.3476E-03  9.5146E-02  0.0000E+00  6.6974E-02  0.0000E+00  2.4918E-01  2.3930E-01  0.0000E+00  2.3320E-01
  7  1.5546E+00  6.7611E-01  1.3517E+00  1.1207E+00  1.2506E+00  6.2297E-01  5.0652E-01  1.6604E-01  5.1012E-01
  8  3.9502E-03  1.0331E+00  1.1440E+00  1.4313E+00  1.0108E+00  0.0000E+00  5.1607E-01  1.0009E+00  9.3267E-01
  9  2.2712E+00  3.9745E+00  3.2656E+00  4.8239E+00  3.7720E+00  3.3219E+00  2.3566E+00  5.0226E+00  5.3830E+00
 10  1.8934E+01  7.1421E+00  6.3855E+00  7.6018E+00  8.1329E+00  7.7828E+00  1.1072E+01  8.1618E+00  7.9652E+00
 11  0.0000E+00  1.5452E-01  0.0000E+00  0.0000E+00  0.0000E+00  0.0000E+00  2.2317E-01  0.0000E+00  0.0000E+00
 12  0.0000E+00  4.2011E-01  0.0000E+00  0.0000E+00  0.0000E+00  0.0000E+00  0.0000E+00  0.0000E+00  0.0000E+00
 13  0.0000E+00  2.3788E-01  0.0000E+00  0.0000E+00  0.0000E+00  1.3377E-01  0.0000E+00  0.0000E+00  0.0000E+00
 14  0.0000E+00  1.0819E-01  0.0000E+00  0.0000E+00  0.0000E+00  0.0000E+00  0.0000E+00  0.0000E+00  0.0000E+00
 15  0.0000E+00  9.3175E-02  0.0000E+00  0.0000E+00  0.0000E+00  0.0000E+00  0.0000E+00  0.0000E+00  0.0000E+00
 16  0.0000E+00  2.8973E-01  0.0000E+00  0.0000E+00  0.0000E+00  0.0000E+00  0.0000E+00  0.0000E+00  0.0000E+00
 17  0.0000E+00  2.8376E-01  0.0000E+00  0.0000E+00  0.0000E+00  1.1094E-01  0.0000E+00  0.0000E+00  0.0000E+00
 18  0.0000E+00  6.5163E-03  0.0000E+00  0.0000E+00  0.0000E+00  0.0000E+00  6.9714E-02  0.0000E+00  0.0000E+00
 19  0.0000E+00  7.1780E-03  0.0000E+00  0.0000E+00  7.4406E-04  0.0000E+00  0.0000E+00  0.0000E+00  0.0000E+00
 20  0.0000E+00  1.2926E-02  0.0000E+00  3.3601E-02  0.0000E+00  1.3385E-02  7.4280E-03  1.0456E-02  8.3684E-03
 21  0.0000E+00  1.6963E-01  1.4497E-02  1.1402E-01  1.8212E-01  2.1998E-01  0.0000E+00  4.1555E-01  0.0000E+00
 22  0.0000E+00  4.9640E-02  0.0000E+00  0.0000E+00  0.0000E+00  0.0000E+00  0.0000E+00  0.0000E+00  4.8171E-01
 23  0.0000E+00  3.1526E-02  0.0000E+00  8.5240E-04  0.0000E+00  0.0000E+00  3.6671E-03  1.4208E-01  2.4875E-02
 24  2.4706E+00  6.9349E-01  1.1640E+00  4.4551E-01  1.2335E+00  1.2150E+00  1.4099E+00  2.0200E+00  5.1582E-01
 25  0.0000E+00  6.4335E-01  9.9604E-01  1.2703E+00  0.0000E+00  4.6404E-01  0.0000E+00  0.0000E+00  1.8918E-02
 26  2.1504E-03  2.3476E+00  4.5725E+00  1.8093E+00  2.2114E+00  3.6482E+00  8.2493E-01  2.6924E+00  2.5137E+00
 27  0.0000E+00  6.0359E-01  0.0000E+00  0.0000E+00  0.0000E+00  0.0000E+00  2.6494E-01  0.0000E+00  0.0000E+00
 28  0.0000E+00  1.6129E-01  0.0000E+00  0.0000E+00  0.0000E+00  0.0000E+00  0.0000E+00  0.0000E+00  0.0000E+00
 29  0.0000E+00  2.2560E-02  0.0000E+00  0.0000E+00  0.0000E+00  0.0000E+00  0.0000E+00  0.0000E+00  0.0000E+00
 30  0.0000E+00  2.0311E-01  0.0000E+00  0.0000E+00  0.0000E+00  0.0000E+00  0.0000E+00  0.0000E+00  0.0000E+00
 31  0.0000E+00  1.2678E-01  0.0000E+00  0.0000E+00  0.0000E+00  0.0000E+00  0.0000E+00  0.0000E+00  0.0000E+00
 32  0.0000E+00  1.1182E-01  0.0000E+00  0.0000E+00  0.0000E+00  0.0000E+00  0.0000E+00  1.4182E+00  0.0000E+00
 33  0.0000E+00  5.8362E-02  0.0000E+00  0.0000E+00  0.0000E+00  0.0000E+00  0.0000E+00  0.0000E+00  0.0000E+00
 34  0.0000E+00  3.0300E-02  0.0000E+00  0.0000E+00  0.0000E+00  0.0000E+00  0.0000E+00  0.0000E+00  0.0000E+00
 35  0.0000E+00  1.5168E-02  3.7917E-02  0.0000E+00  0.0000E+00  3.7947E-02  0.0000E+00  0.0000E+00  7.8869E-02
 36  0.0000E+00  4.7878E-03  0.0000E+00  0.0000E+00  0.0000E+00  0.0000E+00  4.5079E-03  6.2984E-02  0.0000E+00
 37  0.0000E+00  2.7470E-02  0.0000E+00  0.0000E+00  8.2863E-02  4.2461E-02  0.0000E+00  0.0000E+00  0.0000E+00
 38  0.0000E+00  4.7020E-02  0.0000E+00  0.0000E+00  0.0000E+00  0.0000E+00  0.0000E+00  0.0000E+00  1.6934E-03
 39  0.0000E+00  8.1584E-02  3.2275E-02  0.0000E+00  0.0000E+00  2.8170E-01  0.0000E+00  0.0000E+00  0.0000E+00
 40  0.0000E+00  1.0625E-01  0.0000E+00  0.0000E+00  0.0000E+00  0.0000E+00  0.0000E+00  0.0000E+00  0.0000E+00
 41  3.7214E-04  4.9049E-01  5.5897E-01  0.0000E+00  1.9698E-01  1.8263E-01  1.1774E+00  0.0000E+00  0.0000E+00
 42  8.8058E-05  2.2184E+00  5.6327E-01  2.0977E+00  0.0000E+00  4.1219E+00  5.5530E+00  2.6367E+00  7.0796E-01
 43  0.0000E+00  1.4535E+01  1.7211E+01  1.2857E+01  1.7152E+01  1.7285E+01  1.0910E+01  1.3367E+01  1.4558E+01
 44  0.0000E+00  1.4685E+00  2.6828E+00  1.2832E+00  4.6961E-01  0.0000E+00  0.0000E+00  0.0000E+00  2.1651E+00
 45  0.0000E+00  2.5215E-01  0.0000E+00  0.0000E+00  0.0000E+00  0.0000E+00  0.0000E+00  0.0000E+00  0.0000E+00
 46  0.0000E+00  2.9450E-01  0.0000E+00  0.0000E+00  0.0000E+00  0.0000E+00  0.0000E+00  3.8759E+00  0.0000E+00
 47  0.0000E+00  3.0315E-01  0.0000E+00  0.0000E+00  0.0000E+00  4.3523E-02  0.0000E+00  0.0000E+00  0.0000E+00
 48  0.0000E+00  3.6716E-01  0.0000E+00  0.0000E+00  0.0000E+00  0.0000E+00  0.0000E+00  0.0000E+00  0.0000E+00
 49  0.0000E+00  1.1031E-01  0.0000E+00  0.0000E+00  0.0000E+00  0.0000E+00  0.0000E+00  0.0000E+00  0.0000E+00
 50  0.0000E+00  5.0030E-01  0.0000E+00  7.3350E+00  0.0000E+00  0.0000E+00  0.0000E+00  0.0000E+00  0.0000E+00
 51  0.0000E+00  2.0796E-02  0.0000E+00  2.8467E-02  5.9191E-02  0.0000E+00  0.0000E+00  0.0000E+00  0.0000E+00
 52  0.0000E+00  1.5416E-02  1.1105E-02  0.0000E+00  2.8801E-02  0.0000E+00  0.0000E+00  4.8827E-02  0.0000E+00
 53  0.0000E+00  6.0512E-03  0.0000E+00  0.0000E+00  7.5241E-04  0.0000E+00  0.0000E+00  0.0000E+00  0.0000E+00
 54  0.0000E+00  2.5795E-03  0.0000E+00  0.0000E+00  0.0000E+00  0.0000E+00  0.0000E+00  0.0000E+00  0.0000E+00
 55  0.0000E+00  9.5637E-03  0.0000E+00  3.5268E-02  0.0000E+00  0.0000E+00  0.0000E+00  0.0000E+00  0.0000E+00
 56  0.0000E+00  2.6284E-02  0.0000E+00  0.0000E+00  0.0000E+00  0.0000E+00  0.0000E+00  0.0000E+00  0.0000E+00
 57  0.0000E+00  3.3902E-02  0.0000E+00  0.0000E+00  0.0000E+00  0.0000E+00  0.0000E+00  0.0000E+00  2.5403E-01
 58  0.0000E+00  4.6042E-01  2.0523E-01  9.0311E-02  0.0000E+00  3.7871E-03  0.0000E+00  1.4356E-01  0.0000E+00
 59  1.8745E+01  3.2010E+01  3.2061E+01  3.1969E+01  3.4076E+01  2.8891E+01  2.7154E+01  3.3654E+01  3.0526E+01
 60  3.9835E+01  1.8704E+01  1.9461E+01  1.8014E+01  2.3917E+01  1.8105E+01  2.3033E+01  2.4199E+01  2.4881E+01
 61  1.6091E+01  6.7267E+00  7.7476E+00  7.0850E+00  5.6699E+00  1.2728E+01  1.4005E+01  8.8738E-01  7.6124E+00
 62  0.0000E+00  8.3820E-02  0.0000E+00  0.0000E+00  0.0000E+00  0.0000E+00  0.0000E+00  0.0000E+00  0.0000E+00
 63  0.0000E+00  5.1743E-02  0.0000E+00  0.0000E+00  0.0000E+00  0.0000E+00  0.0000E+00  0.0000E+00  0.0000E+00
 64  0.0000E+00  3.4177E-01  0.0000E+00  0.0000E+00  0.0000E+00  0.0000E+00  0.0000E+00  0.0000E+00  0.0000E+00
 65  0.0000E+00  1.3851E-01  0.0000E+00  0.0000E+00  0.0000E+00  0.0000E+00  0.0000E+00  0.0000E+00  0.0000E+00
 66  0.0000E+00  2.8404E-01  0.0000E+00  0.0000E+00  0.0000E+00  0.0000E+00  0.0000E+00  0.0000E+00  0.0000E+00

# AV, chi2 & Mass for <> & i_chain = 1 ...  7 solutions
AV       0.5589      0.6045      0.6083      0.6052      0.6031      0.6021      0.6057      0.6022      0.5978
chi2 3.8202E-01  3.9355E-01  3.9167E-01  3.9107E-01  3.8997E-01  3.9137E-01  3.8920E-01  3.9124E-01  3.9052E-01
Mass 3.3615E-13  3.2272E-13  3.1911E-13  3.3320E-13  3.1700E-13  3.1918E-13  3.3514E-13  3.1073E-13  3.2359E-13
  63.37                                  [v0_min (km/s) before EX0s...]
 132.18                                  [vd_min (km/s) before EX0s...]


## Synthetic spectrum (Best Model) ##l_obs f_obs f_syn wei
 3478    [Nl_obs]
 3741.00    0.58775   0.67835    0.000
 3742.00    0.59107   0.69425    0.000
 3743.00    0.60450   0.69512    0.000
 3744.00    0.64128   0.68315    0.000
 3745.00    0.67322   0.66029   14.854
 3746.00    0.66959   0.62770   14.934
 3747.00    0.62792   0.58686   15.926
 3748.00    0.56514   0.54139   17.695
 3749.00    0.50680   0.49914   19.732
 3750.00    0.46741   0.47125   21.395
 3751.00    0.44151   0.46766   22.650
 3752.00    0.43009   0.49087   23.251
 3753.00    0.45226   0.53443   22.111
 3754.00    0.51132   0.58684   19.557
 3755.00    0.58090   0.63693   17.215
 3756.00    0.64447   0.67710   15.517
 3757.00    0.71097   0.70432   14.065
 3758.00    0.77859   0.72039   12.844
 3759.00    0.82278   0.73012   12.154
 3760.00    0.83259   0.73772   12.011
 3761.00    0.82302   0.74412   12.150
 3762.00    0.80873   0.74734   12.365
 3763.00    0.79222   0.74438   12.623
 3764.00    0.76679   0.73291   13.041
 3765.00    0.72106   0.71169   13.869
 3766.00    0.65074   0.68027   15.367
 3767.00    0.56281   0.63956   17.768
 3768.00    0.47345   0.59251   21.121
 3769.00    0.40331   0.54489   -1.000
 3770.00    0.36475   0.50565   -1.000
 3771.00    0.35986   0.48522   -1.000
 3772.00    0.38833   0.49054   25.751
 3773.00    0.44609   0.52041   22.417
 3774.00    0.51374   0.56611   19.465
 3775.00    0.56412   0.61714   17.727
 3776.00    0.59223   0.66649   16.885
 3777.00    0.61240   0.71156   16.329
 3778.00    0.62945   0.75169   15.887
 3779.00    0.64239   0.78657   15.567
 3780.00    0.67128   0.81563   14.897
 3781.00    0.74163   0.83831   13.484
 3782.00    0.83599   0.85446   11.962
 3783.00    0.90594   0.86426   11.038
 3784.00    0.92101   0.86771   10.858
 3785.00    0.88103   0.86435   11.350
 3786.00    0.81830   0.85426   12.220
 3787.00    0.77291   0.83909   12.938
 3788.00    0.74778   0.82145   13.373
 3789.00    0.72280   0.80306   13.835
 3790.00    0.69290   0.78363   14.432
 3791.00    0.66437   0.76111   15.052
 3792.00    0.63834   0.73261   15.666
 3793.00    0.61123   0.69570   16.361
 3794.00    0.57957   0.64979   17.254
 3795.00    0.54422   0.59711   18.375
 3796.00    0.51462   0.54300   19.432
 3797.00    0.49984   0.49572   20.006
 3798.00    0.49670   0.46560   20.133
 3799.00    0.49952   0.46153   20.019
 3800.00    0.51336   0.48580   19.480
 3801.00    0.54664   0.53216   18.294
 3802.00    0.60081   0.58929   16.644
 3803.00    0.66950   0.64640   14.936
 3804.00    0.73908   0.69652   13.530
 3805.00    0.79062   0.73704   12.648
 3806.00    0.80405   0.76907   12.437
 3807.00    0.77913   0.79624   12.835
 3808.00    0.75115   0.82223   13.313
 3809.00    0.75428   0.84820   13.258
 3810.00    0.78975   0.87195   12.662
 3811.00    0.84245   0.88950   11.870
 3812.00    0.89674   0.89790   11.152
 3813.00    0.93574   0.89756   10.687
 3814.00    0.94269   0.89235   10.608
 3815.00    0.92055   0.88699   10.863
 3816.00    0.90008   0.88359   11.110
 3817.00    0.89728   0.88039   11.145
 3818.00    0.89048   0.87367   11.230
 3819.00    0.86161   0.86220   11.606
 3820.00    0.82095   0.85003   12.181
 3821.00    0.79175   0.84319   12.630
 3822.00    0.79595   0.84306   12.564
 3823.00    0.83078   0.84441   12.037
 3824.00    0.86359   0.84000   11.580
 3825.00    0.86983   0.82680   11.497
 3826.00    0.85095   0.80672   11.752
 3827.00    0.82368   0.78284   12.141
 3828.00    0.80750   0.75640   12.384
 3829.00    0.79536   0.72655   12.573
 3830.00    0.75400   0.69147   13.263
 3831.00    0.67947   0.64950   14.717
 3832.00    0.60721   0.60022   16.469
 3833.00    0.55929   0.54658   17.880
 3834.00    0.52964   0.49557   18.881
 3835.00    0.50773   0.45703   19.695
 3836.00    0.49034   0.44024   20.394
 3837.00    0.48962   0.44924   20.424
 3838.00    0.52350   0.48069   19.102
 3839.00    0.57797   0.52658   17.302
 3840.00    0.61594   0.57854   16.235
 3841.00    0.63802   0.63111   15.673
 3842.00    0.67768   0.68149   14.756
 3843.00    0.73860   0.72768   13.539
 3844.00    0.79461   0.76797   12.585
 3845.00    0.83462   0.80154   11.981
 3846.00    0.86693   0.82894   11.535
 3847.00    0.90074   0.85144    0.000
 3848.00    0.93875   0.86990    0.000
 3849.00    0.97125   0.88495    0.000
 3850.00    0.98371   0.89778    0.000
 3851.00    0.97494   0.91007    0.000
 3852.00    0.95741   0.92206    0.000
 3853.00    0.94967   0.93200    0.000
 3854.00    0.96474   0.93795    0.000
 3855.00    0.99223   0.93973    0.000
 3856.00    1.00978   0.93930    0.000
 3857.00    1.00783   0.93930    0.000
 3858.00    0.99177   0.94073    0.000
 3859.00    0.97786   0.94312    0.000
 3860.00    0.97959   0.94630    0.000
 3861.00    0.98919   0.95066    0.000
 3862.00    0.99042   0.95584    0.000
 3863.00    0.97980   0.96046    0.000
 3864.00    0.96364   0.96306    0.000
 3865.00    0.94991   0.96281    0.000
 3866.00    0.94344   0.96032    0.000
 3867.00    0.94171   0.95711    0.000
 3868.00    0.94121   0.95437    0.000
 3869.00    0.94446   0.95148    0.000
 3870.00    0.95025   0.94578    0.000
 3871.00    0.94402   0.93540    0.000
 3872.00    0.91630   0.92188    0.000
 3873.00    0.88049   0.90962    0.000
 3874.00    0.85637   0.90175    0.000
 3875.00    0.85278   0.89685    0.000
 3876.00    0.86430   0.89003    0.000
 3877.00    0.87190   0.87715    0.000
 3878.00    0.86298   0.85809    0.000
 3879.00    0.84540   0.83629    0.000
 3880.00    0.82817   0.81466    0.000
 3881.00    0.80780   0.79243   12.379
 3882.00    0.78296   0.76653   12.772
 3883.00    0.76266   0.73439   13.112
 3884.00    0.74596   0.69501   13.406
 3885.00    0.71261   0.64837   14.033
 3886.00    0.65306   0.59571   15.312
 3887.00    0.58438   0.54126   17.112
 3888.00    0.52977   0.49295   18.876
 3889.00    0.50469   0.46110   19.814
 3890.00    0.50985   0.45449   19.614
 3891.00    0.53165   0.47500   18.809
 3892.00    0.56187   0.51625   17.798
 3893.00    0.60427   0.56736   16.549
 3894.00    0.65732   0.61859   15.213
 3895.00    0.70940   0.66500   14.096
 3896.00    0.75481   0.70565   13.248
 3897.00    0.79778   0.74108   12.535
 3898.00    0.83845   0.77161   11.927
 3899.00    0.86961   0.79778   11.499
 3900.00    0.88681   0.82093   11.276
 3901.00    0.89318   0.84236   11.196
 3902.00    0.90167   0.86197   11.091
 3903.00    0.92700   0.87830   10.788
 3904.00    0.95738   0.89058   10.445
 3905.00    0.96223   0.89967   10.393
 3906.00    0.94526   0.90811   10.579
 3907.00    0.94112   0.91898   10.626
 3908.00    0.95682   0.93337   10.451
 3909.00    0.97096   0.94953   10.299
 3910.00    0.97923   0.96417   10.212
 3911.00    0.99473   0.97435   10.053
 3912.00    1.01685   0.97900    9.834
 3913.00    1.03118   0.97896    9.698
 3914.00    1.02872   0.97640    9.721
 3915.00    1.01078   0.97365    9.893
 3916.00    0.98900   0.97146   10.111
 3917.00    0.97796   0.96931   10.225
 3918.00    0.98018   0.96653   10.202
 3919.00    0.98823   0.96313   10.119
 3920.00    0.99493   0.96044   10.051
 3921.00    0.99705   0.96001   10.030
 3922.00    0.99797   0.96228   10.020
 3923.00    1.00079   0.96553    9.992
 3924.00    0.99676   0.96682   10.033
 3925.00    0.97535   0.96367   10.253
 3926.00    0.94276   0.95529   10.607
 3927.00    0.91320   0.94320   10.950
 3928.00    0.89198   0.92917   11.211
 3929.00    0.87641   0.91295   11.410
 3930.00    0.86079   0.89268   11.617
 3931.00    0.84135   0.86636   11.886
 3932.00    0.82140   0.83484   12.174
 3933.00    0.80763   0.80409   12.382
 3934.00    0.80475   0.78434   12.426
 3935.00    0.81501   0.78450   12.270
 3936.00    0.83793   0.80522   11.934
 3937.00    0.86657   0.83874   11.540
 3938.00    0.88516   0.87436   11.297
 3939.00    0.88567   0.90423   11.291
 3940.00    0.88261   0.92557   11.330
 3941.00    0.89377   0.93844   11.189
 3942.00    0.92150   0.94419   10.852
 3943.00    0.95582   0.94533   10.462
 3944.00    0.98016   0.94489   10.202
 3945.00    0.98545   0.94557   10.148
 3946.00    0.97966   0.94782   10.208
 3947.00    0.97479   0.94961   10.259
 3948.00    0.97659   0.94898   10.240
 3949.00    0.98602   0.94576   10.142
 3950.00    1.00075   0.94122    9.993
 3951.00    1.01488   0.93642    9.853
 3952.00    1.02003   0.93157    9.804
 3953.00    1.01346   0.92627    9.867
 3954.00    1.00085   0.91986    9.992
 3955.00    0.98311   0.91108   10.172
 3956.00    0.95175   0.89898   10.507
 3957.00    0.90602   0.88437   11.037
 3958.00    0.85902   0.86863   11.641
 3959.00    0.82037   0.85168   12.190
 3960.00    0.78903   0.83142    0.000
 3961.00    0.76177   0.80532    0.000
 3962.00    0.73683   0.77287    0.000
 3963.00    0.71083   0.73531    0.000
 3964.00    0.67752   0.69336    0.000
 3965.00    0.62880   0.64655    0.000
 3966.00    0.56008   0.59422    0.000
 3967.00    0.48879   0.53733    0.000
 3968.00    0.44923   0.48072    0.000
 3969.00    0.44977   0.43322    0.000
 3970.00    0.46803   0.40497    0.000
 3971.00    0.48686   0.40315    0.000
 3972.00    0.50477   0.42799    0.000
 3973.00    0.52971   0.47275    0.000
 3974.00    0.57165   0.52776    0.000
 3975.00    0.62781   0.58466    0.000
 3976.00    0.68416   0.63831    0.000
 3977.00    0.73091   0.68677    0.000
 3978.00    0.76733   0.72983    0.000
 3979.00    0.80226   0.76736    0.000
 3980.00    0.84605   0.79893    0.000
 3981.00    0.89208   0.82421   11.122
 3982.00    0.92146   0.84376   11.100
 3983.00    0.92316   0.85979   11.067
 3984.00    0.90384   0.87463   10.172
 3985.00    0.89713   0.88957    9.076
 3986.00    0.93376   0.90447    8.629
 3987.00    0.98329   0.91836    8.756
 3988.00    0.98954   0.93063    9.076
 3989.00    0.95244   0.94094    9.481
 3990.00    0.91449   0.94956   10.063
 3991.00    0.91240   0.95737   10.710
 3992.00    0.95443   0.96473   11.109
 3993.00    1.00037   0.97100   11.120
 3994.00    1.00410   0.97483   10.917
 3995.00    0.97815   0.97522   10.872
 3996.00    0.96395   0.97291   11.171
 3997.00    0.97872   0.97027   11.379
 3998.00    1.01348   0.97006   11.044
 3999.00    1.04124   0.97388   10.662
 4000.00    1.04002   0.98072   10.771
 4001.00    1.01768   0.98760   11.121
 4002.00    0.99608   0.99149   11.190
 4003.00    0.98918   0.99086   10.957
 4004.00    0.99381   0.98602   10.714
 4005.00    0.98569   0.97891   10.681
 4006.00    0.95624   0.97286   10.885
 4007.00    0.94310   0.97058   11.089
 4008.00    0.97116   0.97233   11.080
 4009.00    1.00269   0.97667   11.000
 4010.00    1.00154   0.98203   11.031
 4011.00    0.98647   0.98757   11.127
 4012.00    0.98386   0.99281   11.166
 4013.00    0.98943   0.99758   11.086
 4014.00    0.99336   1.00177   10.909
 4015.00    1.00000   1.00515   10.721
 4016.00    1.01850   1.00787   10.580
 4017.00    1.05382   1.01020   10.474
 4018.00    1.09716   1.01252   10.398
 4019.00    1.12449   1.01502   10.380
 4020.00    1.12469   1.01655   10.438
 4021.00    1.11212   1.01489   10.548
 4022.00    1.09777   1.00832   10.662
 4023.00    1.07571   0.99650   10.740
 4024.00    1.04279   0.98101   10.821
 4025.00    1.00833   0.96577   11.026
 4026.00    0.98703   0.95569   11.345
 4027.00    0.99074   0.95392   11.558
 4028.00    1.00843   0.95922   11.581
 4029.00    1.00795   0.96650   11.600
 4030.00    0.98378   0.97097   11.742
 4031.00    0.96573   0.97145   11.952
 4032.00    0.96866   0.97068   12.127
 4033.00    0.97827   0.97214   12.198
 4034.00    0.97725   0.97774   12.219
 4035.00    0.95920   0.98728   12.308
 4036.00    0.93988   0.99894   12.341
 4037.00    0.94792   1.01045   12.042
 4038.00    0.98230   1.01934   11.632
 4039.00    1.01298   1.02385   11.608
 4040.00    1.02617   1.02400   11.885
 4041.00    1.03052   1.02092   11.886
 4042.00    1.03380   1.01568   11.596
 4043.00    1.03510   1.00827   11.511
 4044.00    1.02327   0.99834   11.670
 4045.00    0.98903   0.98761   11.730
 4046.00    0.95477   0.98010   11.684
 4047.00    0.95536   0.97956   11.810
 4048.00    0.97785   0.98582   12.084
 4049.00    0.98217   0.99483   12.224
 4050.00    0.97555   1.00234   12.147
 4051.00    0.99330   1.00569   12.002
 4052.00    1.02785   1.00443   11.924
 4053.00    1.04406   1.00007   11.968
 4054.00    1.03515   0.99446   12.080
 4055.00    1.01834   0.98930   12.155
 4056.00    1.00748   0.98597   12.137
 4057.00    1.00474   0.98464   12.065
 4058.00    0.99571   0.98501   12.073
 4059.00    0.96508   0.98673   12.276
 4060.00    0.92156   0.98830   12.587
 4061.00    0.89195   0.98736   12.767
 4062.00    0.90520   0.98244   12.611
 4063.00    0.96142   0.97449   12.193
 4064.00    0.99818   0.96694   11.981
 4065.00    0.96632   0.96332   12.261
 4066.00    0.92409   0.96399   12.578
 4067.00    0.94147   0.96690   12.366
 4068.00    0.98005   0.97013   11.986
 4069.00    0.97758   0.97204   11.953
 4070.00    0.95188   0.97119   12.164
 4071.00    0.94322   0.96750   12.336
 4072.00    0.94603   0.96250   12.468
 4073.00    0.93854   0.95809   12.635
 4074.00    0.91737   0.95404   12.719
 4075.00    0.89178   0.94800   12.641
 4076.00    0.87458   0.93861   12.576
 4077.00    0.87319   0.92762   12.678
 4078.00    0.88299   0.91975   12.885
 4079.00    0.89082   0.91892   13.103
 4080.00    0.88112   0.92442   13.358
 4081.00    0.85911   0.93183   13.618
 4082.00    0.86010   0.93595   13.665
 4083.00    0.89447   0.93392   13.445
 4084.00    0.91908   0.92665   13.253
 4085.00    0.90662   0.91722   13.277
 4086.00    0.88420   0.90863   13.401
 4087.00    0.88303   0.90212   13.465
 4088.00    0.90717   0.89657   13.419
 4089.00    0.94052   0.88953   13.296
 4090.00    0.95632   0.87884   13.168
 4091.00    0.94161   0.86379   13.107
 4092.00    0.90545   0.84467    0.000
 4093.00    0.85583   0.82197    0.000
 4094.00    0.79226   0.79575    0.000
 4095.00    0.72685   0.76516    0.000
 4096.00    0.68606   0.72957    0.000
 4097.00    0.67595   0.68920    0.000
 4098.00    0.67435   0.64438    0.000
 4099.00    0.66101   0.59615    0.000
 4100.00    0.63192   0.54774    0.000
 4101.00    0.60514   0.50555    0.000
 4102.00    0.60934   0.47888    0.000
 4103.00    0.63840   0.47594    0.000
 4104.00    0.65406   0.49765    0.000
 4105.00    0.64644   0.53749    0.000
 4106.00    0.64220   0.58566    0.000
 4107.00    0.66748   0.63308    0.000
 4108.00    0.72964   0.67482    0.000
 4109.00    0.80049   0.71000    0.000
 4110.00    0.83465   0.73971    0.000
 4111.00    0.82935   0.76599    0.000
 4112.00    0.82139   0.79061    0.000
 4113.00    0.83992   0.81429   11.708
 4114.00    0.88963   0.83667   11.884
 4115.00    0.94110   0.85656   12.488
 4116.00    0.95350   0.87252   12.929
 4117.00    0.92668   0.88344   13.114
 4118.00    0.89145   0.88909   13.452
 4119.00    0.86740   0.89104   13.923
 4120.00    0.85997   0.89205   14.122
 4121.00    0.87122   0.89458   13.928
 4122.00    0.89914   0.90003   13.549
 4123.00    0.93314   0.90811   13.189
 4124.00    0.96073   0.91723   12.971
 4125.00    0.97923   0.92508   12.957
 4126.00    0.98994   0.92923   13.135
 4127.00    0.98713   0.92863   13.376
 4128.00    0.97143   0.92418   13.428
 4129.00    0.96930   0.91856   13.018
 4130.00    0.99864   0.91403   12.285
 4131.00    1.02253   0.91149   11.977
 4132.00    0.99904   0.91186   12.569
 4133.00    0.94856   0.91598   13.512
 4134.00    0.91916   0.92399   13.789
 4135.00    0.93546   0.93489   13.578
 4136.00    0.98543   0.94667   13.592
 4137.00    1.01743   0.95692   13.851
 4138.00    1.00036   0.96438   14.051
 4139.00    0.97857   0.96859   14.042
 4140.00    0.99489   0.96806   13.910
 4141.00    1.01797   0.96118   13.932
 4142.00    1.00775   0.94802   14.240
 4143.00    0.97599   0.93186   14.559
 4144.00    0.94793   0.91945   14.609
 4145.00    0.92797   0.91700   14.519
 4146.00    0.91866   0.92453   14.455
 4147.00    0.93443   0.93679   14.328
 4148.00    0.97553   0.94797   14.107
 4149.00    1.01284   0.95444   13.993
 4150.00    1.02244   0.95631   14.090
 4151.00    1.00895   0.95588   14.227
 4152.00    0.99561   0.95451   14.191
 4153.00    1.01026   0.95250   13.938
 4154.00    1.04498   0.95001   13.720
 4155.00    1.04638   0.94779   13.995
 4156.00    0.99652   0.94707   14.773
 4157.00    0.94537   0.94857   15.244
 4158.00    0.93650   0.95219   14.927
 4159.00    0.96964   0.95691   14.444
 4160.00    1.01666   0.96125   14.301
 4161.00    1.03959   0.96438   14.480
 4162.00    1.03112   0.96651   14.700
 4163.00    1.02052   0.96827   14.597
 4164.00    1.02006   0.96964   14.257
 4165.00    1.01188   0.97014   14.176
 4166.00    0.98914   0.96941   14.457
 4167.00    0.96636   0.96734   14.711
 4168.00    0.95481   0.96444   14.743
 4169.00    0.95422   0.96087   14.731
 4170.00    0.95755   0.95572   14.708
 4171.00    0.95553   0.94790   14.521
 4172.00    0.94525   0.93804   14.315
 4173.00    0.93186   0.92909   14.444
 4174.00    0.92483   0.92430   14.849
 4175.00    0.93286   0.92437   15.058
 4176.00    0.95340   0.92718   14.856
 4177.00    0.97382   0.92983   14.466
 4178.00    0.98268   0.93128   14.204
 4179.00    0.97693   0.93282   14.259
 4180.00    0.97141   0.93600   14.465
 4181.00    0.98307   0.94051   14.461
 4182.00    0.99141   0.94477   14.291
 4183.00    0.96408   0.94802   14.254
 4184.00    0.92868   0.95018   14.301
 4185.00    0.93725   0.95121   14.205
 4186.00    0.96758   0.95104   14.108
 4187.00    0.96199   0.94956   14.295
 4188.00    0.93388   0.94798   14.623
 4189.00    0.93494   0.94833   14.716
 4190.00    0.96491   0.95108   14.602
 4191.00    0.98961   0.95526   14.545
 4192.00    0.99548   0.95981   14.567
 4193.00    0.98633   0.96367   14.571
 4194.00    0.96514   0.96517   14.635
 4195.00    0.93601   0.96266   14.876
 4196.00    0.91038   0.95605   15.193
 4197.00    0.89778   0.94720   15.374
 4198.00    0.89340   0.93842   15.349
 4199.00    0.89111   0.93189   15.188
 4200.00    0.90017   0.92905   15.023
 4201.00    0.92555   0.92908   14.974
 4202.00    0.94537   0.93018   15.096
 4203.00    0.94212   0.93206   15.334
 4204.00    0.93607   0.93491   15.479
 4205.00    0.94803   0.93860   15.409
 4206.00    0.96116   0.94338   15.334
 4207.00    0.95669   0.94872   15.469
 4208.00    0.94849   0.95333   15.742
 4209.00    0.95487   0.95655   15.945
 4210.00    0.97195   0.95852   15.933
 4211.00    0.98477   0.95991   15.749
 4212.00    0.97992   0.96073   15.660
 4213.00    0.95695   0.95976   15.819
 4214.00    0.93353   0.95605   16.067
 4215.00    0.92164   0.95037   16.202
 4216.00    0.91334   0.94565   16.203
 4217.00    0.90600   0.94544   16.173
 4218.00    0.91514   0.95024   16.257
 4219.00    0.94075   0.95731   16.515
 4220.00    0.95342   0.96324   16.854
 4221.00    0.94379   0.96548   17.085
 4222.00    0.94294   0.96260   17.005
 4223.00    0.96629   0.95410   16.606
 4224.00    0.98994   0.94079   16.129
 4225.00    0.99558   0.92489   15.849
 4226.00    0.99122   0.91055   15.947
 4227.00    0.99270   0.90294   16.253
 4228.00    1.01046   0.90574   16.249
 4229.00    1.03395   0.91784   15.967
 4230.00    1.03528   0.93292   16.090
 4231.00    1.01333   0.94422   16.667
 4232.00    0.99906   0.94794   16.856
 4233.00    1.00191   0.94437   16.382
 4234.00    1.00016   0.93793   15.945
 4235.00    0.98470   0.93319   15.948
 4236.00    0.96781   0.93122   16.288
 4237.00    0.95617   0.93164   16.692
 4238.00    0.94465   0.93387   16.881
 4239.00    0.92747   0.93680   16.915
 4240.00    0.90426   0.94034   17.105
 4241.00    0.88655   0.94488   17.338
 4242.00    0.89031   0.94962   17.167
 4243.00    0.91065   0.95359   16.756
 4244.00    0.92726   0.95616   16.667
 4245.00    0.93642   0.95619   16.834
 4246.00    0.94882   0.95271   16.755
 4247.00    0.96388   0.94641   16.503
 4248.00    0.97040   0.93938   16.520
 4249.00    0.96260   0.93346   16.669
 4250.00    0.94425   0.92916   16.469
 4251.00    0.92917   0.92680   16.076
 4252.00    0.92955   0.92690   15.987
 4253.00    0.93378   0.92867   16.238
 4254.00    0.92361   0.93089   16.511
 4255.00    0.91235   0.93347   16.524
 4256.00    0.92617   0.93647   16.210
 4257.00    0.96053   0.93869   15.819
 4258.00    0.99093   0.93816   15.642
 4259.00    1.00238   0.93445   15.694
 4260.00    0.99295   0.92957   15.867
 4261.00    0.97156   0.92676   16.168
 4262.00    0.95355   0.92891   16.555
 4263.00    0.95409   0.93617   16.638
 4264.00    0.97543   0.94534   16.159
 4265.00    0.99321   0.95257   15.639
 4266.00    0.98179   0.95529   15.610
 4267.00    0.94667   0.95252   15.944
 4268.00    0.91388   0.94525   16.246
 4269.00    0.91102   0.93540   16.352
 4270.00    0.94049   0.92424   16.319
 4271.00    0.95817   0.91296   16.289
 4272.00    0.93257   0.90378   16.364
 4273.00    0.90079   0.89934   16.503
 4274.00    0.90489   0.90035   16.577
 4275.00    0.93123   0.90569   16.453
 4276.00    0.95451   0.91424   16.153
 4277.00    0.97796   0.92410   15.918
 4278.00    1.00318   0.93237   15.927
 4279.00    1.00697   0.93708   16.117
 4280.00    0.97842   0.93774   16.330
 4281.00    0.94401   0.93532   16.423
 4282.00    0.92920   0.93162   16.366
 4283.00    0.93168   0.92807   16.275
 4284.00    0.93974   0.92537   16.260
 4285.00    0.94580   0.92305   16.328
 4286.00    0.94535   0.91990   -2.000
 4287.00    0.93730   0.91501   -2.000
 4288.00    0.93281   0.90794   -2.000
 4289.00    0.95352   0.89954   -2.000
 4290.00    0.99316   0.89243   -2.000
 4291.00    1.00839   0.88994   -2.000
 4292.00    0.98163   0.89305   -2.000
 4293.00    0.94325   0.89883   -2.000
 4294.00    0.91869   0.90306   -2.000
 4295.00    0.90669   0.90369   -2.000
 4296.00    0.90064   0.90060   -2.000
 4297.00    0.89778   0.89409   -2.000
 4298.00    0.89489   0.88482   -2.000
 4299.00    0.88712   0.87361   -2.000
 4300.00    0.87093   0.86219   -2.000
 4301.00    0.84670   0.85370   -2.000
 4302.00    0.82320   0.84979   17.692
 4303.00    0.81414   0.84975   18.113
 4304.00    0.82130   0.85247   18.240
 4305.00    0.83426   0.85565   18.306
 4306.00    0.84793   0.85658   18.352
 4307.00    0.86382   0.85480   18.204
 4308.00    0.87732   0.85176   17.973
 4309.00    0.87920   0.85011   17.980
 4310.00    0.87043   0.85203   18.232
 4311.00    0.86200   0.85692   18.442
 4312.00    0.86376   0.86227   18.477
 4313.00    0.87922   0.86622   18.422
 4314.00    0.90052   0.86901   18.401
 4315.00    0.91512   0.87277   18.498
 4316.00    0.92302   0.87930   18.678
 4317.00    0.93184   0.88745   18.831
 4318.00    0.93877   0.89366   18.889
 4319.00    0.93559   0.89533   18.845
 4320.00    0.92554   0.89188   18.735
 4321.00    0.91736   0.88392   18.650
 4322.00    0.90856   0.87274   18.794
 4323.00    0.89106   0.85896   19.320
 4324.00    0.86582   0.84254   20.039
 4325.00    0.84119   0.82509   20.471
 4326.00    0.82608   0.81027   20.252
 4327.00    0.82315   0.80143   19.540
 4328.00    0.82146   0.79841   19.136
 4329.00    0.81088   0.79695   19.548
 4330.00    0.80233   0.79233    0.000
 4331.00    0.80507   0.78242    0.000
 4332.00    0.79601   0.76765    0.000
 4333.00    0.75358   0.74887    0.000
 4334.00    0.70090   0.72590    0.000
 4335.00    0.66857   0.69773    0.000
 4336.00    0.64883   0.66266    0.000
 4337.00    0.62451   0.61976    0.000
 4338.00    0.60337   0.57180    0.000
 4339.00    0.59774   0.52552    0.000
 4340.00    0.60184   0.48896    0.000
 4341.00    0.60418   0.47014    0.000
 4342.00    0.60110   0.47442    0.000
 4343.00    0.59557   0.49951    0.000
 4344.00    0.59454   0.53739    0.000
 4345.00    0.60320   0.58061    0.000
 4346.00    0.62102   0.62352    0.000
 4347.00    0.64669   0.66212    0.000
 4348.00    0.68118   0.69475    0.000
 4349.00    0.72159   0.72087    0.000
 4350.00    0.75793   0.73975    0.000
 4351.00    0.78338   0.75199   19.439
 4352.00    0.79983   0.76116   19.401
 4353.00    0.80866   0.77235   19.247
 4354.00    0.80720   0.78800   19.093
 4355.00    0.80393   0.80640   19.008
 4356.00    0.82047   0.82459   18.908
 4357.00    0.85367   0.84014   18.830
 4358.00    0.86635   0.85140   18.982
 4359.00    0.84766   0.85905   19.280
 4360.00    0.83209   0.86576   19.246
 4361.00    0.83966   0.87363   18.847
 4362.00    0.85560   0.88273   18.661
 4363.00    0.87125   0.89189   18.833
 4364.00    0.89569   0.89988   18.882
 4365.00    0.92618   0.90543   18.536
 4366.00    0.94237   0.90730   18.026
 4367.00    0.93332   0.90524   17.651
 4368.00    0.90628   0.90104   17.604
 4369.00    0.87918   0.89747   17.940
 4370.00    0.87042   0.89615   18.557
 4371.00    0.87502   0.89661   19.082
 4372.00    0.87090   0.89728   19.025
 4373.00    0.86276   0.89640   18.608
 4374.00    0.87666   0.89346   18.561
 4375.00    0.90396   0.89057   19.008
 4376.00    0.90772   0.89125   19.486
 4377.00    0.88488   0.89689   19.688
 4378.00    0.86589   0.90511   19.670
 4379.00    0.86952   0.91168   19.585
 4380.00    0.89258   0.91303   19.554
 4381.00    0.91469   0.90744   19.576
 4382.00    0.91358   0.89511   19.574
 4383.00    0.89522   0.87810   19.540
 4384.00    0.88301   0.86094   19.521
 4385.00    0.88174   0.84931   19.555
 4386.00    0.88147   0.84598   19.656
 4387.00    0.87953   0.84908   19.827
 4388.00    0.87979   0.85534   20.044
 4389.00    0.88355   0.86330   20.232
 4390.00    0.88865   0.87205   20.293
 4391.00    0.89097   0.88018   20.190
 4392.00    0.88876   0.88724   20.021
 4393.00    0.88853   0.89288   20.091
 4394.00    0.89655   0.89612   20.551
 4395.00    0.90568   0.89772   20.864
 4396.00    0.90442   0.90014   20.487
 4397.00    0.89216   0.90420   20.050
 4398.00    0.87864   0.90781   20.216
 4399.00    0.87944   0.90871   20.384
 4400.00    0.89922   0.90671   19.887
 4401.00    0.91430   0.90334   19.569
 4402.00    0.90093   0.90054   20.276
 4403.00    0.86817   0.89853   21.382
 4404.00    0.84155   0.89581   21.679
 4405.00    0.84071   0.89256   21.192
 4406.00    0.86479   0.89112   20.690
 4407.00    0.88388   0.89234   20.649
 4408.00    0.87652   0.89521   21.041
 4409.00    0.86163   0.89959   21.215
 4410.00    0.86333   0.90570   20.795
 4411.00    0.87964   0.91190   20.434
 4412.00    0.89740   0.91582   20.618
 4413.00    0.90702   0.91584   20.943
 4414.00    0.90718   0.91088   20.960
 4415.00    0.90604   0.90204   20.854
 4416.00    0.90916   0.89361   20.908
 4417.00    0.91238   0.88973   21.104
 4418.00    0.91173   0.89151   21.267
 4419.00    0.90943   0.89777   21.221
 4420.00    0.90749   0.90556   21.035
 4421.00    0.90459   0.91115   21.059
 4422.00    0.90233   0.91283   21.308
 4423.00    0.90706   0.91189   21.260
 4424.00    0.91932   0.91083   20.766
 4425.00    0.93012   0.91073   20.371
 4426.00    0.93171   0.91102   20.410
 4427.00    0.92286   0.91101   20.732
 4428.00    0.90739   0.91051   21.066
 4429.00    0.89181   0.90958   21.203
 4430.00    0.87901   0.90794   21.162
 4431.00    0.86751   0.90565   21.180
 4432.00    0.86010   0.90323   21.382
 4433.00    0.86450   0.90015   21.678
 4434.00    0.88243   0.89600   21.891
 4435.00    0.90696   0.89242   21.852
 4436.00    0.92831   0.89202   21.562
 4437.00    0.93858   0.89606   21.185
 4438.00    0.93952   0.90328   20.862
 4439.00    0.93908   0.91038   20.664
 4440.00    0.93289   0.91363   20.626
 4441.00    0.90896   0.91094   20.745
 4442.00    0.87752   0.90360   20.923
 4443.00    0.86467   0.89560   20.991
 4444.00    0.87200   0.89125   20.876
 4445.00    0.87936   0.89299   20.642
 4446.00    0.87961   0.89949   20.462
 4447.00    0.88074   0.90665   20.488
 4448.00    0.88942   0.91157   20.600
 4449.00    0.90425   0.91367   20.555
 4450.00    0.91032   0.91302   20.450
 4451.00    0.89214   0.91036   20.575
 4452.00    0.86136   0.90702   20.918
 4453.00    0.84381   0.90294   21.241
 4454.00    0.84424   0.89723   21.445
 4455.00    0.85154   0.89048   21.584
 4456.00    0.86020   0.88486   21.725
 4457.00    0.86956   0.88184   21.871
 4458.00    0.87597   0.88055   21.886
 4459.00    0.87504   0.87962   21.667
 4460.00    0.86721   0.87877   21.407
 4461.00    0.85751   0.87817    0.000
 4462.00    0.85362   0.87833    0.000
 4463.00    0.85931   0.88033    0.000
 4464.00    0.86658   0.88387    0.000
 4465.00    0.86647   0.88656    0.000
 4466.00    0.86345   0.88659    0.000
 4467.00    0.86585   0.88344    0.000
 4468.00    0.87253   0.87705    0.000
 4469.00    0.87808   0.86856    0.000
 4470.00    0.88019   0.86056    0.000
 4471.00    0.87835   0.85596    0.000
 4472.00    0.87197   0.85715    0.000
 4473.00    0.86375   0.86537    0.000
 4474.00    0.86221   0.87865    0.000
 4475.00    0.87244   0.89258    0.000
 4476.00    0.88816   0.90360    0.000
 4477.00    0.89939   0.90972    0.000
 4478.00    0.89967   0.90945    0.000
 4479.00    0.88629   0.90202    0.000
 4480.00    0.86045   0.88892    0.000
 4481.00    0.83124   0.87459    0.000
 4482.00    0.81641   0.86588   23.263
 4483.00    0.82670   0.86776   23.087
 4484.00    0.85602   0.87878   22.853
 4485.00    0.89060   0.89281   22.795
 4486.00    0.91653   0.90424   22.823
 4487.00    0.92627   0.90961   22.810
 4488.00    0.92146   0.90833   22.758
 4489.00    0.90710   0.90284   22.750
 4490.00    0.88817   0.89720   22.893
 4491.00    0.86986   0.89435   23.181
 4492.00    0.85782   0.89460   23.456
 4493.00    0.85787   0.89627   23.584
 4494.00    0.87345   0.89731   23.567
 4495.00    0.89501   0.89735   23.507
 4496.00    0.90129   0.89787   23.535
 4497.00    0.88626   0.89999   23.611
 4498.00    0.86581   0.90340   23.539
 4499.00    0.85578   0.90700   23.401
 4500.00    0.86244   0.90952   23.527
 4501.00    0.88179   0.91080   23.776
 4502.00    0.90230   0.91261   23.568
 4503.00    0.91446   0.91692   23.095
 4504.00    0.91514   0.92295   23.191
 4505.00    0.90978   0.92775   23.805
 4506.00    0.90875   0.92947   23.967
 4507.00    0.91460   0.92807   23.456
 4508.00    0.92193   0.92491   22.961
 4509.00    0.92869   0.92212   22.703
 4510.00    0.93564   0.92109   22.450
 4511.00    0.93637   0.92105   22.295
 4512.00    0.92260   0.92003   22.557
 4513.00    0.90381   0.91707   23.106
 4514.00    0.89873   0.91267   23.454
 4515.00    0.90465   0.90793   23.553
 4516.00    0.90321   0.90434   23.708
 4517.00    0.88870   0.90281   23.837
 4518.00    0.86974   0.90264   23.634
 4519.00    0.85925   0.90266   23.294
 4520.00    0.86444   0.90231   23.257
 4521.00    0.87256   0.90100   23.565
 4522.00    0.86595   0.89821   23.924
 4523.00    0.85264   0.89395   23.993
 4524.00    0.85219   0.88936   23.674
 4525.00    0.86377   0.88505   23.422
 4526.00    0.87334   0.88043   23.712
 4527.00    0.87303   0.87542   24.296
 4528.00    0.86516   0.87070   24.543
 4529.00    0.86288   0.86718   24.268
 4530.00    0.87600   0.86570   23.774
 4531.00    0.89289   0.86622   23.560
 4532.00    0.89616   0.86751   23.857
 4533.00    0.88510   0.86828   24.187
 4534.00    0.87060   0.86839   23.993
 4535.00    0.86498   0.86984   23.561
 4536.00    0.87103   0.87498   23.440
 4537.00    0.87315   0.88359   23.778
 4538.00    0.86115   0.89260   24.356
 4539.00    0.85319   0.89854   24.640
 4540.00    0.86539   0.90026   24.328
 4541.00    0.88305   0.89903   23.888
 4542.00    0.89000   0.89721   23.797
 4543.00    0.89509   0.89629   23.973
 4544.00    0.90713   0.89578   24.177
 4545.00    0.91424   0.89430   24.346
 4546.00    0.90628   0.89148   24.434
 4547.00    0.89194   0.88739   24.296
 4548.00    0.88149   0.88184   24.010
 4549.00    0.87418   0.87523   24.001
 4550.00    0.86726   0.86960    0.000
 4551.00    0.86220   0.86739    0.000
 4552.00    0.86041   0.86807    0.000
 4553.00    0.86092   0.86878    0.000
 4554.00    0.86486   0.86836    0.000
 4555.00    0.87603   0.86777    0.000
 4556.00    0.88793   0.86886    0.000
 4557.00    0.88238   0.87313    0.000
 4558.00    0.86166   0.87995    0.000
 4559.00    0.85606   0.88704    0.000
 4560.00    0.87513   0.89282    0.000
 4561.00    0.89280   0.89635    0.000
 4562.00    0.89319   0.89670    0.000
 4563.00    0.88612   0.89375    0.000
 4564.00    0.87957   0.88896    0.000
 4565.00    0.87099   0.88533    0.000
 4566.00    0.86242   0.88531    0.000
 4567.00    0.86273   0.88886    0.000
 4568.00    0.87223   0.89378    0.000
 4569.00    0.88130   0.89722    0.000
 4570.00    0.88610   0.89755    0.000
 4571.00    0.89084   0.89490    0.000
 4572.00    0.89659   0.89109    0.000
 4573.00    0.89964   0.88914    0.000
 4574.00    0.89812   0.89024    0.000
 4575.00    0.89307   0.89247    0.000
 4576.00    0.88580   0.89377    0.000
 4577.00    0.87659   0.89354    0.000
 4578.00    0.86353   0.89151    0.000
 4579.00    0.84681   0.88741    0.000
 4580.00    0.83948   0.88164    0.000
 4581.00    0.85567   0.87556    0.000
 4582.00    0.87830   0.87051    0.000
 4583.00    0.87706   0.86701    0.000
 4584.00    0.86193   0.86537    0.000
 4585.00    0.86485   0.86629    0.000
 4586.00    0.88037   0.86966    0.000
 4587.00    0.88198   0.87405    0.000
 4588.00    0.87450   0.87809    0.000
 4589.00    0.87881   0.88086    0.000
 4590.00    0.88862   0.88192    0.000
 4591.00    0.88436   0.88120    0.000
 4592.00    0.86813   0.87924    0.000
 4593.00    0.85572   0.87731    0.000
 4594.00    0.85544   0.87648    0.000
 4595.00    0.86541   0.87673    0.000
 4596.00    0.87489   0.87754    0.000
 4597.00    0.87433   0.87875    0.000
 4598.00    0.86798   0.88010    0.000
 4599.00    0.86538   0.88105    0.000
 4600.00    0.86882   0.88124    0.000
 4601.00    0.87476   0.88074    0.000
 4602.00    0.87775   0.88033    0.000
 4603.00    0.87437   0.88060    0.000
 4604.00    0.86693   0.88147    0.000
 4605.00    0.86189   0.88289    0.000
 4606.00    0.86712   0.88517    0.000
 4607.00    0.88447   0.88873    0.000
 4608.00    0.90414   0.89325    0.000
 4609.00    0.91570   0.89757    0.000
 4610.00    0.91806   0.90019    0.000
 4611.00    0.91351   0.90032    0.000
 4612.00    0.90280   0.89847    0.000
 4613.00    0.89028   0.89587    0.000
 4614.00    0.88647   0.89346    0.000
 4615.00    0.89270   0.89158    0.000
 4616.00    0.89325   0.88987    0.000
 4617.00    0.88109   0.88781    0.000
 4618.00    0.87191   0.88566    0.000
 4619.00    0.87520   0.88376    0.000
 4620.00    0.87890   0.88286    0.000
 4621.00    0.87419   0.88412    0.000
 4622.00    0.86817   0.88711    0.000
 4623.00    0.86663   0.89023    0.000
 4624.00    0.86573   0.89234    0.000
 4625.00    0.86175   0.89284    0.000
 4626.00    0.85631   0.89159    0.000
 4627.00    0.85482   0.88936    0.000
 4628.00    0.86357   0.88697    0.000
 4629.00    0.88066   0.88469    0.000
 4630.00    0.89487   0.88317    0.000
 4631.00    0.89882   0.88315    0.000
 4632.00    0.89392   0.88376    0.000
 4633.00    0.88662   0.88309    0.000
 4634.00    0.88437   0.88072    0.000
 4635.00    0.88671   0.87787    0.000
 4636.00    0.88605   0.87563    0.000
 4637.00    0.88174   0.87414    0.000
 4638.00    0.88001   0.87318    0.000
 4639.00    0.87808   0.87289    0.000
 4640.00    0.86675   0.87349    0.000
 4641.00    0.85365   0.87483    0.000
 4642.00    0.85772   0.87644    0.000
 4643.00    0.87437   0.87706    0.000
 4644.00    0.88053   0.87553    0.000
 4645.00    0.87381   0.87176    0.000
 4646.00    0.87027   0.86644    0.000
 4647.00    0.87337   0.86103    0.000
 4648.00    0.87412   0.85780    0.000
 4649.00    0.86912   0.85809    0.000
 4650.00    0.86199   0.86156    0.000
 4651.00    0.85708   0.86657    0.000
 4652.00    0.85769   0.87098    0.000
 4653.00    0.86530   0.87335    0.000
 4654.00    0.87814   0.87324    0.000
 4655.00    0.88916   0.87131    0.000
 4656.00    0.89178   0.86960    0.000
 4657.00    0.88993   0.87016    0.000
 4658.00    0.89075   0.87372    0.000
 4659.00    0.89014   0.87928    0.000
 4660.00    0.88119   0.88423    0.000
 4661.00    0.86976   0.88603    0.000
 4662.00    0.86582   0.88371    0.000
 4663.00    0.86812   0.87795    0.000
 4664.00    0.86924   0.87023    0.000
 4665.00    0.86527   0.86180    0.000
 4666.00    0.85748   0.85320    0.000
 4667.00    0.85230   0.84503    0.000
 4668.00    0.85385   0.83938    0.000
 4669.00    0.85620   0.83852    0.000
 4670.00    0.85489   0.84246    0.000
 4671.00    0.85897   0.84921    0.000
 4672.00    0.87410   0.85649    0.000
 4673.00    0.88618   0.86250    0.000
 4674.00    0.88295   0.86676    0.000
 4675.00    0.87419   0.86982    0.000
 4676.00    0.87243   0.87199    0.000
 4677.00    0.87509   0.87281    0.000
 4678.00    0.87385   0.87157    0.000
 4679.00    0.86439   0.86844    0.000
 4680.00    0.85073   0.86485    0.000
 4681.00    0.84593   0.86230    0.000
 4682.00    0.85444   0.86156    0.000
 4683.00    0.86233   0.86276    0.000
 4684.00    0.86023   0.86519    0.000
 4685.00    0.85649   0.86753    0.000
 4686.00    0.85659   0.86888    0.000
 4687.00    0.85251   0.86913    0.000
 4688.00    0.84225   0.86847    0.000
 4689.00    0.83802   0.86740    0.000
 4690.00    0.84440   0.86633    0.000
 4691.00    0.85009   0.86546    0.000
 4692.00    0.85075   0.86516    0.000
 4693.00    0.85646   0.86593    0.000
 4694.00    0.86838   0.86755    0.000
 4695.00    0.87239   0.86923    0.000
 4696.00    0.86341   0.87001    0.000
 4697.00    0.85226   0.86887    0.000
 4698.00    0.84698   0.86534    0.000
 4699.00    0.84671   0.86018    0.000
 4700.00    0.85037   0.85512    0.000
 4701.00    0.85776   0.85125    0.000
 4702.00    0.86014   0.84846    0.000
 4703.00    0.84427   0.84663    0.000
 4704.00    0.81748   0.84609    0.000
 4705.00    0.80489   0.84698    0.000
 4706.00    0.81316   0.84821    0.000
 4707.00    0.82705   0.84853    0.000
 4708.00    0.83496   0.84788    0.000
 4709.00    0.83484   0.84727    0.000
 4710.00    0.82836   0.84745    0.000
 4711.00    0.81943   0.84836    0.000
 4712.00    0.81453   0.84911    0.000
 4713.00    0.81903   0.84862    0.000
 4714.00    0.82826   0.84764    0.000
 4715.00    0.83313   0.84814    0.000
 4716.00    0.83719   0.85140    0.000
 4717.00    0.85021   0.85690    0.000
 4718.00    0.86679   0.86300    0.000
 4719.00    0.87182   0.86820    0.000
 4720.00    0.86034   0.87193    0.000
 4721.00    0.83996   0.87404    0.000
 4722.00    0.82713   0.87467    0.000
 4723.00    0.83429   0.87433    0.000
 4724.00    0.84983   0.87358    0.000
 4725.00    0.85320   0.87220    0.000
 4726.00    0.84426   0.86913    0.000
 4727.00    0.83495   0.86368    0.000
 4728.00    0.82970   0.85656    0.000
 4729.00    0.82656   0.84979    0.000
 4730.00    0.82294   0.84523    0.000
 4731.00    0.81833   0.84341    0.000
 4732.00    0.81631   0.84410    0.000
 4733.00    0.82118   0.84684    0.000
 4734.00    0.83338   0.85033    0.000
 4735.00    0.84857   0.85324    0.000
 4736.00    0.85810   0.85495    0.000
 4737.00    0.85678   0.85544    0.000
 4738.00    0.85069   0.85585    0.000
 4739.00    0.84824   0.85705    0.000
 4740.00    0.85072   0.85839    0.000
 4741.00    0.85532   0.85924    0.000
 4742.00    0.85908   0.85994    0.000
 4743.00    0.85986   0.86087    0.000
 4744.00    0.85705   0.86193    0.000
 4745.00    0.85191   0.86276    0.000
 4746.00    0.84749   0.86341    0.000
 4747.00    0.84625   0.86416    0.000
 4748.00    0.84831   0.86472    0.000
 4749.00    0.85167   0.86474    0.000
 4750.00    0.85325   0.86428    0.000
 4751.00    0.85290   0.86323    0.000
 4752.00    0.85508   0.86116    0.000
 4753.00    0.86138   0.85812    0.000
 4754.00    0.86706   0.85479    0.000
 4755.00    0.86933   0.85187    0.000
 4756.00    0.87096   0.84995    0.000
 4757.00    0.87256   0.84932    0.000
 4758.00    0.86958   0.84989    0.000
 4759.00    0.86031   0.85091    0.000
 4760.00    0.84906   0.85111    0.000
 4761.00    0.84079   0.84940   29.983
 4762.00    0.83804   0.84540   29.906
 4763.00    0.83936   0.83993   29.748
 4764.00    0.84019   0.83477   30.019
 4765.00    0.83952   0.83130   30.650
 4766.00    0.84112   0.83020   30.839
 4767.00    0.84749   0.83174   30.471
 4768.00    0.85708   0.83539   30.341
 4769.00    0.86379   0.83988   30.642
 4770.00    0.86016   0.84391   30.802
 4771.00    0.84877   0.84654   30.683
 4772.00    0.84084   0.84780   30.726
 4773.00    0.83933   0.84886   31.002
 4774.00    0.83824   0.85073   31.136
 4775.00    0.83635   0.85323   31.034
 4776.00    0.83793   0.85542   30.958
 4777.00    0.84307   0.85667   31.047
 4778.00    0.84762   0.85691   31.229
 4779.00    0.85000   0.85602   31.337
 4780.00    0.85145   0.85407   31.224
 4781.00    0.85234   0.85174   30.982
 4782.00    0.85255   0.84943   30.878
 4783.00    0.85430   0.84700   31.124
 4784.00    0.85931   0.84448   31.700
 4785.00    0.86169   0.84235   32.025
 4786.00    0.85381   0.84063   31.506
 4787.00    0.84021   0.83909   30.808
 4788.00    0.83216   0.83825   30.935
 4789.00    0.83293   0.83845   31.588
 4790.00    0.83776   0.83947   31.817
 4791.00    0.83887   0.84158   31.734
 4792.00    0.83263   0.84489   32.000
 4793.00    0.82887   0.84901   32.441
 4794.00    0.83841   0.85327   32.465
 4795.00    0.85305   0.85656   32.118
 4796.00    0.85712   0.85763   31.821
 4797.00    0.84758   0.85606   31.762
 4798.00    0.83057   0.85253   31.918
 4799.00    0.81334   0.84843   32.148
 4800.00    0.80281   0.84523   32.274
 4801.00    0.80484   0.84391   32.192
 4802.00    0.81951   0.84427   31.954
 4803.00    0.83661   0.84503   31.812
 4804.00    0.84516   0.84473   31.886
 4805.00    0.84365   0.84290   31.875
 4806.00    0.83558   0.84031   31.566
 4807.00    0.82403   0.83823   31.324
 4808.00    0.81264   0.83711   31.430
 4809.00    0.80654   0.83679   31.554
 4810.00    0.80723   0.83708   31.435
 4811.00    0.80909   0.83764   31.440
 4812.00    0.80957   0.83822   31.704
 4813.00    0.81607   0.83889   31.537
 4814.00    0.83315   0.83990   30.767
 4815.00    0.85316   0.84130   30.483
 4816.00    0.86358   0.84297   31.211
 4817.00    0.85446   0.84467   31.977
 4818.00    0.82906   0.84602   31.966
 4819.00    0.80708   0.84636   31.797
 4820.00    0.80032   0.84508   32.020
 4821.00    0.80062   0.84169   32.245
 4822.00    0.80059   0.83632   31.993
 4823.00    0.80399   0.82969   31.289
 4824.00    0.81272   0.82325   30.635
 4825.00    0.82093   0.81910   30.705
 4826.00    0.82353   0.81821   31.440
 4827.00    0.82074   0.81921   31.818
 4828.00    0.81787   0.82014   31.458
 4829.00    0.82202   0.81995   31.195
 4830.00    0.82835   0.81859   31.366
 4831.00    0.82070   0.81659   31.417
 4832.00    0.79914   0.81433   31.165
 4833.00    0.78368   0.81229   31.104
 4834.00    0.78382   0.81093   31.420
 4835.00    0.79125   0.80992   31.792
 4836.00    0.79763   0.80835   32.016
 4837.00    0.80002   0.80573   32.166
 4838.00    0.79652   0.80208   32.246
 4839.00    0.78621   0.79749   32.126
 4840.00    0.77342   0.79230   31.769
 4841.00    0.76586   0.78730   31.319
 4842.00    0.76511   0.78309   31.127
 4843.00    0.76671   0.77943   31.527
 4844.00    0.76792   0.77575   32.225
 4845.00    0.76822   0.77163   32.490
 4846.00    0.76492   0.76644   32.377
 4847.00    0.75444   0.75933   32.546
 4848.00    0.73806   0.75020    0.000
 4849.00    0.72135   0.73988    0.000
 4850.00    0.70969   0.72947    0.000
 4851.00    0.70575   0.71902    0.000
 4852.00    0.70651   0.70716    0.000
 4853.00    0.70507   0.69253    0.000
 4854.00    0.69533   0.67456    0.000
 4855.00    0.67492   0.65325    0.000
 4856.00    0.64853   0.62927    0.000
 4857.00    0.62671   0.60350    0.000
 4858.00    0.62233   0.57588    0.000
 4859.00    0.64060   0.54600    0.000
 4860.00    0.66532   0.51568    0.000
 4861.00    0.67514   0.48981    0.000
 4862.00    0.67025   0.47507    0.000
 4863.00    0.66141   0.47672    0.000
 4864.00    0.65008   0.49420    0.000
 4865.00    0.63484   0.52185    0.000
 4866.00    0.62259   0.55343    0.000
 4867.00    0.62058   0.58423    0.000
 4868.00    0.62557   0.61109    0.000
 4869.00    0.63166   0.63272    0.000
 4870.00    0.64014   0.64930    0.000
 4871.00    0.65411   0.66190    0.000
 4872.00    0.67175   0.67246    0.000
 4873.00    0.68835   0.68342    0.000
 4874.00    0.69943   0.69585    0.000
 4875.00    0.70620   0.70896   32.220
 4876.00    0.71881   0.72164   32.577
 4877.00    0.74212   0.73353   32.130
 4878.00    0.76498   0.74457   31.761
 4879.00    0.77659   0.75448   32.143
 4880.00    0.77952   0.76277   32.511
 4881.00    0.78061   0.76858   32.144
 4882.00    0.78307   0.77159   31.574
 4883.00    0.78505   0.77257   31.507
 4884.00    0.78043   0.77260   32.109
 4885.00    0.76834   0.77226   33.007
 4886.00    0.75764   0.77206   33.317
 4887.00    0.75442   0.77245   32.735
 4888.00    0.75553   0.77334   32.091
 4889.00    0.75705   0.77421   31.902
 4890.00    0.75895   0.77490   31.865
 4891.00    0.76159   0.77616   31.751
 4892.00    0.76418   0.77970   31.779
 4893.00    0.76677   0.78709   32.049
 4894.00    0.77118   0.79759   32.331
 4895.00    0.78030   0.80860   32.439
 4896.00    0.79619   0.81764   32.386
 4897.00    0.81423   0.82313   32.202
 4898.00    0.82368   0.82474   31.880
 4899.00    0.82103   0.82329   31.555
 4900.00    0.81305   0.82004   31.466
 4901.00    0.80704   0.81663   31.604
 4902.00    0.80627   0.81446   31.686
 4903.00    0.80792   0.81382   31.572
 4904.00    0.80596   0.81445   31.340
 4905.00    0.80270   0.81621   31.043
 4906.00    0.80712   0.81848   30.696
 4907.00    0.81769   0.81975   30.494
 4908.00    0.82308   0.81864   30.706
 4909.00    0.81975   0.81506   31.201
 4910.00    0.81349   0.81033   31.511
 4911.00    0.80904   0.80650   31.495
 4912.00    0.80786   0.80531   31.409
 4913.00    0.80979   0.80717   31.457
 4914.00    0.81343   0.81073   31.657
 4915.00    0.81606   0.81376   31.783
 4916.00    0.81462   0.81408   31.586
 4917.00    0.80791   0.80994   31.317
 4918.00    0.79616   0.80082   31.486
 4919.00    0.77916   0.78806   32.223
 4920.00    0.75831   0.77468   33.211
 4921.00    0.74115   0.76409   33.752
 4922.00    0.73687   0.75871   33.306
 4923.00    0.74668   0.75934   32.500
 4924.00    0.76507   0.76508   32.262
 4925.00    0.78470   0.77444   32.495
 4926.00    0.79952   0.78613   32.639
 4927.00    0.80806   0.79861   32.724
 4928.00    0.81177   0.80983   32.979
 4929.00    0.81171   0.81822   33.021
 4930.00    0.80887   0.82309   32.496
 4931.00    0.80514   0.82411   32.073
 4932.00    0.80356   0.82163   32.410
 4933.00    0.80814   0.81667   32.957
 4934.00    0.81855   0.81065   32.916
 4935.00    0.82474   0.80537   32.702
 4936.00    0.81722   0.80176   33.043
 4937.00    0.79889   0.79922   33.840
 4938.00    0.77926   0.79706   34.507
 4939.00    0.76678   0.79598   34.515
 4940.00    0.76558   0.79745    0.000
 4941.00    0.77338   0.80211    0.000
 4942.00    0.78526   0.80878    0.000
 4943.00    0.79730   0.81527    0.000
 4944.00    0.80684   0.82008    0.000
 4945.00    0.81233   0.82281    0.000
 4946.00    0.81317   0.82381    0.000
 4947.00    0.80963   0.82408    0.000
 4948.00    0.80380   0.82459    0.000
 4949.00    0.79986   0.82547    0.000
 4950.00    0.80022   0.82622    0.000
 4951.00    0.80312   0.82633    0.000
 4952.00    0.80483   0.82540    0.000
 4953.00    0.80172   0.82305    0.000
 4954.00    0.79360   0.81911    0.000
 4955.00    0.78521   0.81367    0.000
 4956.00    0.78272   0.80706    0.000
 4957.00    0.79052   0.80025    0.000
 4958.00    0.80548   0.79528    0.000
 4959.00    0.81633   0.79479    0.000
 4960.00    0.81601   0.79952    0.000
 4961.00    0.80664   0.80690    0.000
 4962.00    0.79314   0.81337    0.000
 4963.00    0.78013   0.81699    0.000
 4964.00    0.77172   0.81745    0.000
 4965.00    0.77089   0.81526    0.000
 4966.00    0.77678   0.81145    0.000
 4967.00    0.78477   0.80757    0.000
 4968.00    0.79112   0.80492    0.000
 4969.00    0.79414   0.80401    0.000
 4970.00    0.79212   0.80483    0.000
 4971.00    0.78445   0.80707    0.000
 4972.00    0.77765   0.81023    0.000
 4973.00    0.78227   0.81363    0.000
 4974.00    0.79778   0.81645    0.000
 4975.00    0.81264   0.81794    0.000
 4976.00    0.81836   0.81759    0.000
 4977.00    0.81298   0.81517    0.000
 4978.00    0.79921   0.81086    0.000
 4979.00    0.78265   0.80494    0.000
 4980.00    0.76884   0.79775    0.000
 4981.00    0.76143   0.78970    0.000
 4982.00    0.75975   0.78140    0.000
 4983.00    0.76011   0.77418    0.000
 4984.00    0.75996   0.77003    0.000
 4985.00    0.75919   0.77042    0.000
 4986.00    0.76083   0.77500    0.000
 4987.00    0.76773   0.78197    0.000
 4988.00    0.77617   0.78902    0.000
 4989.00    0.78032   0.79414    0.000
 4990.00    0.78198   0.79650    0.000
 4991.00    0.78615   0.79671    0.000
 4992.00    0.79106   0.79609    0.000
 4993.00    0.79221   0.79583    0.000
 4994.00    0.79120   0.79637    0.000
 4995.00    0.79148   0.79745    0.000
 4996.00    0.79072   0.79857    0.000
 4997.00    0.78497   0.79879    0.000
 4998.00    0.77556   0.79715    0.000
 4999.00    0.76589   0.79342    0.000
 5000.00    0.75637   0.78814    0.000
 5001.00    0.74923   0.78247    0.000
 5002.00    0.75389   0.77759    0.000
 5003.00    0.77550   0.77403    0.000
 5004.00    0.80269   0.77157    0.000
 5005.00    0.82277   0.76971    0.000
 5006.00    0.83775   0.76842    0.000
 5007.00    0.85138   0.76850    0.000
 5008.00    0.85613   0.77064    0.000
 5009.00    0.84603   0.77413    0.000
 5010.00    0.82811   0.77678    0.000
 5011.00    0.81119   0.77661    0.000
 5012.00    0.79608   0.77311    0.000
 5013.00    0.78050   0.76717    0.000
 5014.00    0.76410   0.76050    0.000
 5015.00    0.75116   0.75475    0.000
 5016.00    0.75047   0.75088    0.000
 5017.00    0.76150   0.74907    0.000
 5018.00    0.76799   0.74896    0.000
 5019.00    0.76009   0.75026    0.000
 5020.00    0.74679   0.75319    0.000
 5021.00    0.74091   0.75777    0.000
 5022.00    0.74856   0.76308    0.000
 5023.00    0.76496   0.76819    0.000
 5024.00    0.77544   0.77276    0.000
 5025.00    0.77243   0.77657    0.000
 5026.00    0.76217   0.77910    0.000
 5027.00    0.75252   0.78023    0.000
 5028.00    0.74716   0.78063    0.000
 5029.00    0.74817   0.78145   35.956
 5030.00    0.75693   0.78352   35.854
 5031.00    0.77233   0.78653   35.884
 5032.00    0.79002   0.78941   35.896
 5033.00    0.80281   0.79118   35.718
 5034.00    0.80328   0.79101   35.283
 5035.00    0.79258   0.78836   34.822
 5036.00    0.78023   0.78336   34.745
 5037.00    0.77157   0.77698   35.132
 5038.00    0.76500   0.77026   35.684
 5039.00    0.75794   0.76353   36.102
 5040.00    0.74915   0.75702   36.271
 5041.00    0.73984   0.75216   36.368
 5042.00    0.73347   0.75114   36.673
 5043.00    0.73453   0.75545   36.980
 5044.00    0.74618   0.76414   36.770
 5045.00    0.76524   0.77387   36.232
 5046.00    0.78301   0.78118   36.055
 5047.00    0.79103   0.78423   36.376
 5048.00    0.78499   0.78292   36.832
 5049.00    0.77032   0.77872   37.153
 5050.00    0.75830   0.77410   37.249
 5051.00    0.75500   0.77115   37.065
 5052.00    0.75967   0.77061   36.649
 5053.00    0.76675   0.77215   36.318
 5054.00    0.77043   0.77499   36.362
 5055.00    0.77214   0.77823   36.508
 5056.00    0.77703   0.78119   36.270
 5057.00    0.78522   0.78387   35.758
 5058.00    0.79255   0.78681   35.450
 5059.00    0.79449   0.79009   35.643
 5060.00    0.78955   0.79300   36.339
 5061.00    0.78315   0.79462   37.144
 5062.00    0.78128   0.79435   37.518
 5063.00    0.78101   0.79182   37.352
 5064.00    0.77672   0.78719   36.968
 5065.00    0.76997   0.78143   36.870
 5066.00    0.76544   0.77606   37.277
 5067.00    0.76416   0.77250   37.646
 5068.00    0.76384   0.77098   37.380
 5069.00    0.76052   0.77073   36.820
 5070.00    0.75279   0.77096   36.633
 5071.00    0.74578   0.77124   37.080
 5072.00    0.74540   0.77115   37.852
 5073.00    0.75218   0.77053   37.931
 5074.00    0.76212   0.76980   36.903
 5075.00    0.76876   0.76923   36.040
 5076.00    0.76808   0.76834   36.319
 5077.00    0.76231   0.76649   37.200
 5078.00    0.75538   0.76342   37.678
 5079.00    0.74878   0.75917   37.372
 5080.00    0.74244   0.75442   36.672
 5081.00    0.73598   0.75074   36.456
 5082.00    0.73075   0.74975   37.061
 5083.00    0.73069   0.75169   37.765
 5084.00    0.73818   0.75549   37.889
 5085.00    0.75114   0.75999   37.682
 5086.00    0.76400   0.76442   37.645
 5087.00    0.76976   0.76819   37.993
 5088.00    0.76798   0.77103   38.531
 5089.00    0.76735   0.77321   38.681
 5090.00    0.77222   0.77522   38.267
 5091.00    0.77695   0.77722   37.836
 5092.00    0.77697   0.77903   37.740
 5093.00    0.77396   0.78028   37.804
 5094.00    0.77143   0.78035   37.806
 5095.00    0.77173   0.77847   37.697
 5096.00    0.77306   0.77422   37.524
 5097.00    0.76995   0.76810   37.375
 5098.00    0.76044   0.76144   37.316
 5099.00    0.74823   0.75593   37.377
 5100.00    0.73821   0.75301   37.556
 5101.00    0.73431   0.75330   37.811
 5102.00    0.73876   0.75618   38.007
 5103.00    0.75055   0.75996   37.983
 5104.00    0.76150   0.76283   37.847
 5105.00    0.76009   0.76384   37.919
 5106.00    0.74819   0.76301   38.238
 5107.00    0.74011   0.76099   38.489
 5108.00    0.74331   0.75860   38.275
 5109.00    0.75451   0.75679   37.464
 5110.00    0.76583   0.75638   36.697
 5111.00    0.76975   0.75759   36.812
 5112.00    0.76694   0.76016   37.482
 5113.00    0.76414   0.76367   37.533
 5114.00    0.76380   0.76740   36.851
 5115.00    0.76411   0.77072   36.286
 5116.00    0.76480   0.77347   36.186
 5117.00    0.76706   0.77549   36.312
 5118.00    0.77014   0.77646   36.172
 5119.00    0.77169   0.77594   35.440
 5120.00    0.76991   0.77347   34.591
 5121.00    0.76425   0.76903   34.300
 5122.00    0.75584   0.76316   34.460
 5123.00    0.74612   0.75677   34.619
 5124.00    0.73446   0.75084   34.937
 5125.00    0.72112   0.74621   35.784
 5126.00    0.71236   0.74339   36.751
 5127.00    0.71373   0.74226   37.141
 5128.00    0.71916   0.74226   37.269
 5129.00    0.72057   0.74293   37.817
 5130.00    0.72300   0.74422   38.543
 5131.00    0.73471   0.74616   38.729
 5132.00    0.75146   0.74867   38.228
 5133.00    0.76361   0.75134   37.466
 5134.00    0.76731   0.75358   37.087
 5135.00    0.76346   0.75494   37.429
 5136.00    0.75483   0.75509   38.083
 5137.00    0.74573   0.75376   38.444
 5138.00    0.74157   0.75094   38.450
 5139.00    0.74501   0.74751   38.241
 5140.00    0.75236   0.74458   37.733
 5141.00    0.75845   0.74268   37.199
 5142.00    0.76134   0.74188   37.599
 5143.00    0.76107   0.74155   38.708
 5144.00    0.75810   0.74114   37.746
 5145.00    0.75327   0.74090   35.738
 5146.00    0.74771   0.74084   39.856
 5147.00    0.74189   0.74054   50.217
 5148.00    0.73496   0.74013   35.639
 5149.00    0.72601   0.73992   18.713
 5150.00    0.71538   0.73982   13.505
 5151.00    0.70695   0.73953   13.275
 5152.00    0.70818   0.73885   14.312
 5153.00    0.71990   0.73815   14.212
 5154.00    0.73194   0.73830   13.588
 5155.00    0.73672   0.73999   13.455
 5156.00    0.73660   0.74345   13.617
 5157.00    0.73802   0.74826   13.635
 5158.00    0.74652   0.75323   13.344
 5159.00    0.75926   0.75702   13.032
 5160.00    0.76457   0.75876   13.203
 5161.00    0.75796   0.75810   13.561
 5162.00    0.74738   0.75509   13.008
 5163.00    0.74079   0.74963   12.519
 5164.00    0.73999   0.74146   15.127
 5165.00    0.73970   0.73058   26.306
 5166.00    0.73031   0.71740   48.812
 5167.00    0.70978   0.70332   45.560
 5168.00    0.68595   0.69090   37.293
 5169.00    0.66745   0.68251   38.599
 5170.00    0.65933   0.67906   41.977
 5171.00    0.66047   0.67973   41.608
 5172.00    0.66492   0.68285   39.855
 5173.00    0.66877   0.68764   38.918
 5174.00    0.67196   0.69485   38.488
 5175.00    0.67660   0.70538   38.151
 5176.00    0.68542   0.71796   37.863
 5177.00    0.69879   0.72943   37.651
 5178.00    0.71406   0.73719   37.511
 5179.00    0.72635   0.74020   37.353
 5180.00    0.73075   0.73822   37.124
 5181.00    0.72714   0.73154   37.100
 5182.00    0.71969   0.72152   37.668
 5183.00    0.71294   0.71076   38.677
 5184.00    0.70970   0.70247   39.533
 5185.00    0.70877   0.69955   39.908
 5186.00    0.70741   0.70328   39.920
 5187.00    0.70717   0.71193   39.944
 5188.00    0.71137   0.72155   40.243
 5189.00    0.71859   0.72876   40.405
 5190.00    0.72471   0.73219    0.000
 5191.00    0.72858   0.73222    0.000
 5192.00    0.73168   0.73002    0.000
 5193.00    0.73601   0.72692    0.000
 5194.00    0.74219   0.72470    0.000
 5195.00    0.74730   0.72456    0.000
 5196.00    0.74767   0.72628    0.000
 5197.00    0.74317   0.72910    0.000
 5198.00    0.73678   0.73263    0.000
 5199.00    0.73313   0.73639    0.000
 5200.00    0.73494   0.73960    0.000
 5201.00    0.73923   0.74134    0.000
 5202.00    0.74143   0.74074    0.000
 5203.00    0.74052   0.73743    0.000
 5204.00    0.73710   0.73176    0.000
 5205.00    0.73075   0.72476    0.000
 5206.00    0.72229   0.71782    0.000
 5207.00    0.71591   0.71249    0.000
 5208.00    0.71458   0.71007    0.000
 5209.00    0.71607   0.71095    0.000
 5210.00    0.71701   0.71474    0.000
 5211.00    0.71678   0.72081   40.685
 5212.00    0.71668   0.72794   40.056
 5213.00    0.71873   0.73439   39.508
 5214.00    0.72349   0.73874   39.715
 5215.00    0.72881   0.74055   40.299
 5216.00    0.73223   0.74057   40.667
 5217.00    0.73286   0.74038   40.678
 5218.00    0.73162   0.74155   40.505
 5219.00    0.73107   0.74456   40.431
 5220.00    0.73359   0.74844   40.562
 5221.00    0.73992   0.75137   40.708
 5222.00    0.74746   0.75162   40.643
 5223.00    0.75016   0.74821   40.317
 5224.00    0.74341   0.74112   40.028
 5225.00    0.72730   0.73151   40.294
 5226.00    0.70905   0.72168   40.837
 5227.00    0.70098   0.71440   40.457
 5228.00    0.70527   0.71180   39.376
 5229.00    0.71081   0.71436   39.406
 5230.00    0.71264   0.72043   40.565
 5231.00    0.71721   0.72679   40.534
 5232.00    0.72653   0.73074   39.153
 5233.00    0.73427   0.73172   39.002
 5234.00    0.73756   0.73099   40.263
 5235.00    0.73955   0.73062   40.227
 5236.00    0.74124   0.73227   38.554
 5237.00    0.74039   0.73616   37.811
 5238.00    0.73869   0.74130   38.530
 5239.00    0.74133   0.74630   39.090
 5240.00    0.74821   0.75023   38.783
 5241.00    0.75391   0.75284   38.414
 5242.00    0.75616   0.75430   38.332
 5243.00    0.75637   0.75483   38.206
 5244.00    0.75411   0.75444   37.957
 5245.00    0.74708   0.75298   37.856
 5246.00    0.73520   0.75034   38.121
 5247.00    0.72098   0.74657   38.795
 5248.00    0.70762   0.74209   39.657
 5249.00    0.69834   0.73785   40.249
 5250.00    0.69583   0.73483   40.140
 5251.00    0.70123   0.73332   39.215
 5252.00    0.71229   0.73303   37.942
 5253.00    0.72444   0.73371   37.001
 5254.00    0.73351   0.73517   36.779
 5255.00    0.73736   0.73724   37.301
 5256.00    0.73761   0.73988   38.067
 5257.00    0.73758   0.74302   38.435
 5258.00    0.73832   0.74607   38.562
 5259.00    0.73912   0.74760   38.952
 5260.00    0.73935   0.74602   39.368
 5261.00    0.73845   0.74048   39.300
 5262.00    0.73525   0.73138   38.990
 5263.00    0.72868   0.72018   38.931
 5264.00    0.71873   0.70884   38.986
 5265.00    0.70660   0.69925   38.805
 5266.00    0.69461   0.69252   38.481
 5267.00    0.68521   0.68873   38.263
 5268.00    0.67982   0.68714   38.124
 5269.00    0.67905   0.68698   37.855
 5270.00    0.68313   0.68791   37.252
 5271.00    0.69078   0.69017   36.500
 5272.00    0.69845   0.69427   36.374
 5273.00    0.70409   0.70006   37.125
 5274.00    0.71049   0.70631   37.490
 5275.00    0.71978   0.71190   36.537
 5276.00    0.72853   0.71696   35.502
 5277.00    0.73433   0.72217   35.512
 5278.00    0.74104   0.72756   36.140
 5279.00    0.75052   0.73223   36.677
 5280.00    0.75669   0.73481   37.157
 5281.00    0.75539   0.73462   37.734
 5282.00    0.75137   0.73244   38.124
 5283.00    0.75072   0.73014   38.133
 5284.00    0.75508   0.72961   38.052
 5285.00    0.76185   0.73191   38.075
 5286.00    0.76534   0.73693   37.988
 5287.00    0.76240   0.74354   37.762
 5288.00    0.75502   0.75004   37.794
 5289.00    0.74562   0.75495   38.188
 5290.00    0.73478   0.75768   38.444
 5291.00    0.72505   0.75850   38.292
 5292.00    0.72182   0.75779   38.055
 5293.00    0.72684   0.75566   37.912
 5294.00    0.73577   0.75203   37.662
 5295.00    0.74313   0.74695   37.429
 5296.00    0.74513   0.74078   37.718
 5297.00    0.74138   0.73431   38.269
 5298.00    0.73502   0.72869   37.959
 5299.00    0.73010   0.72513   36.928
 5300.00    0.72969   0.72436   36.660
 5301.00    0.73250   0.72630   37.436
 5302.00    0.73363   0.73010   38.081
 5303.00    0.73156   0.73464   38.078
 5304.00    0.72938   0.73917   38.080
 5305.00    0.73006   0.74325   38.208
 5306.00    0.73459   0.74650   37.894
 5307.00    0.74139   0.74867   37.286
 5308.00    0.74726   0.74993   37.170
 5309.00    0.75055   0.75075   37.638
 5310.00    0.75175   0.75140   38.067
 5311.00    0.75250   0.75172   38.018
 5312.00    0.75385   0.75117   37.561
 5313.00    0.75281   0.74928   37.218
 5314.00    0.74582   0.74608   37.500
 5315.00    0.73873   0.74208   38.029
 5316.00    0.74178   0.73810   37.949
 5317.00    0.75341   0.73508   37.524
 5318.00    0.76333   0.73365   37.662
 5319.00    0.76656   0.73380   38.271
 5320.00    0.76333   0.73490   38.637
 5321.00    0.75330   0.73573   38.855
 5322.00    0.73704   0.73501   39.531
 5323.00    0.72070   0.73219   40.602
 5324.00    0.71122   0.72742   41.437
 5325.00    0.70709   0.72113   41.591
 5326.00    0.70281   0.71390   41.154
 5327.00    0.69814   0.70666   40.869
 5328.00    0.69583   0.70080   41.370
 5329.00    0.69617   0.69781   42.219
 5330.00    0.69802   0.69870   42.580
 5331.00    0.70131   0.70362   42.519
 5332.00    0.70653   0.71136   42.513
 5333.00    0.71364   0.71957   42.487
 5334.00    0.72225   0.72613   42.146
 5335.00    0.73186   0.73016   41.528
 5336.00    0.74145   0.73177   40.950
 5337.00    0.74893   0.73131   40.837
 5338.00    0.75195   0.72917   41.262
 5339.00    0.74889   0.72603   41.538
 5340.00    0.74034   0.72298   41.187
 5341.00    0.73010   0.72115   40.919
 5342.00    0.72169   0.72115   41.352
 5343.00    0.71524   0.72282   41.945
 5344.00    0.71009   0.72535   42.060
 5345.00    0.70722   0.72755   41.991
 5346.00    0.70850   0.72859   42.021
 5347.00    0.71554   0.72852   41.694
 5348.00    0.72666   0.72809   40.858
 5349.00    0.73560   0.72819   40.267
 5350.00    0.73833   0.72942   40.347
 5351.00    0.73740   0.73186   40.601
 5352.00    0.73708   0.73531   40.621
 5353.00    0.73992   0.73938   40.661
 5354.00    0.74720   0.74357   40.625
 5355.00    0.75874   0.74738   39.731
 5356.00    0.77002   0.75053   38.300
 5357.00    0.77252   0.75280   37.955
 5358.00    0.76475   0.75386   39.027
 5359.00    0.75573   0.75339   39.830
 5360.00    0.75156   0.75125   39.351
 5361.00    0.74985   0.74757   38.647
 5362.00    0.74661   0.74278   38.425
 5363.00    0.73991   0.73752   38.318
 5364.00    0.73069   0.73249   38.328
 5365.00    0.72208   0.72819   39.079
 5366.00    0.71593   0.72464   40.310
 5367.00    0.71193   0.72145   40.584
 5368.00    0.71043   0.71805   39.720
 5369.00    0.71259   0.71428   39.172
 5370.00    0.71706   0.71065   39.495
 5371.00    0.71983   0.70829   40.082
 5372.00    0.71801   0.70851   40.570
 5373.00    0.71167   0.71197   -2.000
 5374.00    0.70568   0.71814   -2.000
 5375.00    0.70697   0.72546   -2.000
 5376.00    0.71529   0.73197   -2.000
 5377.00    0.72334   0.73627   -2.000
 5378.00    0.72458   0.73801   -2.000
 5379.00    0.71672   0.73759   -2.000
 5380.00    0.70472   0.73579   -2.000
 5381.00    0.69702   0.73338   -2.000
 5382.00    0.69507   0.73108   -2.000
 5383.00    0.69491   0.72946   -2.000
 5384.00    0.69626   0.72890   -2.000
 5385.00    0.70167   0.72930   -2.000
 5386.00    0.71068   0.73013   -2.000
 5387.00    0.72001   0.73062   -2.000
 5388.00    0.72649   0.73014   40.664
 5389.00    0.72837   0.72841   41.044
 5390.00    0.72659   0.72567   41.440
 5391.00    0.72389   0.72242   41.880
 5392.00    0.72295   0.71915   42.017
 5393.00    0.72400   0.71608   41.670
 5394.00    0.72194   0.71316   41.677
 5395.00    0.71197   0.71029   42.665
 5396.00    0.69810   0.70755   43.122
 5397.00    0.68835   0.70540   41.295
 5398.00    0.68632   0.70442   38.565
 5399.00    0.69036   0.70487   36.869
 5400.00    0.69422   0.70629   36.441
 5401.00    0.69294   0.70764   36.760
 5402.00    0.68937   0.70773   37.135
 5403.00    0.68887   0.70576   37.213
 5404.00    0.69247   0.70191   37.560
 5405.00    0.69705   0.69739   38.728
 5406.00    0.69677   0.69366   40.180
 5407.00    0.68895   0.69176   40.994
 5408.00    0.67908   0.69197   41.042
 5409.00    0.67410   0.69390   40.743
 5410.00    0.67594   0.69693   40.503
 5411.00    0.68334   0.70058   40.487
 5412.00    0.69403   0.70460   40.537
 5413.00    0.70559   0.70877   40.513
 5414.00    0.71605   0.71284   40.533
 5415.00    0.72347   0.71651   40.638
 5416.00    0.72595   0.71956   40.582
 5417.00    0.72427   0.72188   40.234
 5418.00    0.72291   0.72338   39.830
 5419.00    0.72509   0.72393   39.748
 5420.00    0.72959   0.72344   40.288
 5421.00    0.73272   0.72203   41.175
 5422.00    0.73037   0.72005   41.384
 5423.00    0.72231   0.71795   40.797
 5424.00    0.71343   0.71620   40.756
 5425.00    0.70734   0.71509   41.640
 5426.00    0.70355   0.71455   42.076
 5427.00    0.70091   0.71409   41.605
 5428.00    0.69948   0.71301   41.643
 5429.00    0.70034   0.71095   42.592
 5430.00    0.70459   0.70813   43.058
 5431.00    0.70967   0.70520   42.655
 5432.00    0.70981   0.70279   42.790
 5433.00    0.70424   0.70122   43.906
 5434.00    0.69861   0.70065   44.833
 5435.00    0.69712   0.70130   44.771
 5436.00    0.70004   0.70349   44.141
 5437.00    0.70591   0.70748   43.670
 5438.00    0.71272   0.71297   43.828
 5439.00    0.71899   0.71906   44.365
 5440.00    0.72399   0.72450   44.462
 5441.00    0.72734   0.72819   43.876
 5442.00    0.72886   0.72937   43.140
 5443.00    0.72854   0.72778   42.909
 5444.00    0.72655   0.72364   43.569
 5445.00    0.72343   0.71781   44.618
 5446.00    0.71996   0.71177   44.925
 5447.00    0.71701   0.70726   44.324
 5448.00    0.71527   0.70559   43.582
 5449.00    0.71505   0.70699   43.064
 5450.00    0.71569   0.71035   42.689
 5451.00    0.71481   0.71380   42.392
 5452.00    0.71028   0.71556   42.174
 5453.00    0.70462   0.71477   42.027
 5454.00    0.70189   0.71182   41.919
 5455.00    0.70047   0.70814   41.790
 5456.00    0.69679   0.70549   41.586
 5457.00    0.69446   0.70507   41.314
 5458.00    0.69957   0.70690   40.883
 5459.00    0.71040   0.70983   39.914
 5460.00    0.71984   0.71223   38.436
 5461.00    0.72194   0.71297   37.644
 5462.00    0.71556   0.71191   38.480
 5463.00    0.70779   0.70986   39.970
 5464.00    0.70690   0.70806   40.397
 5465.00    0.71236   0.70737   40.039
 5466.00    0.71961   0.70797   40.104
 5467.00    0.72743   0.70940   40.633
 5468.00    0.73513   0.71094   41.005
 5469.00    0.73851   0.71196   40.849
 5470.00    0.73407   0.71202   40.410
 5471.00    0.72415   0.71094   40.629
 5472.00    0.71404   0.70873   41.963
 5473.00    0.70831   0.70547   43.189
 5474.00    0.70817   0.70139   43.125
 5475.00    0.70964   0.69690   42.899
 5476.00    0.70839   0.69272   43.630
 5477.00    0.70395   0.68969   44.346
 5478.00    0.69715   0.68845   43.940
 5479.00    0.68798   0.68912   43.122
 5480.00    0.67883   0.69115   42.723
 5481.00    0.67640   0.69381   42.489
 5482.00    0.68468   0.69661   42.198
 5483.00    0.70016   0.69943   -2.000
 5484.00    0.71568   0.70222   -2.000
 5485.00    0.72412   0.70469   -2.000
 5486.00    0.72278   0.70639   -2.000
 5487.00    0.71703   0.70702   -2.000
 5488.00    0.72533   0.70676   -2.000
 5489.00    0.77551   0.70617   -2.000
 5490.00    0.86645   0.70583   -2.000
 5491.00    0.95258   0.70595   -2.000
 5492.00    0.97978   0.70638   -2.000
 5493.00    0.91630   0.70680   -2.000
 5494.00    0.80594   0.70695   -2.000
 5495.00    0.76889   0.70677   -2.000
 5496.00    0.88534   0.70635   -2.000
 5497.00    1.12839   0.70587   -2.000
 5498.00    1.31899   0.70544   -2.000
 5499.00    1.20471   0.70503   -2.000
 5500.00    0.84297   0.70441   -2.000
 5501.00    0.60882   0.70335   -2.000
 5502.00    0.63802   0.70180   -2.000
 5503.00    0.72792   0.69997   -2.000
 5504.00    0.74831   0.69817   -2.000
 5505.00    0.73908   0.69664   -2.000
 5506.00    0.73639   0.69550   -2.000
 5507.00    0.72984   0.69481   13.972
 5508.00    0.71498   0.69455   14.413
 5509.00    0.70257   0.69453   13.432
 5510.00    0.69658   0.69442   13.236
 5511.00    0.69220   0.69397   18.480
 5512.00    0.68786   0.69322   37.262
 5513.00    0.68608   0.69261   32.269
 5514.00    0.68747   0.69275   16.591
 5515.00    0.69045   0.69407   13.114
 5516.00    0.69411   0.69662   13.926
 5517.00    0.69860   0.70003   14.864
 5518.00    0.70441   0.70370   14.360
 5519.00    0.71166   0.70696   13.853
 5520.00    0.71902   0.70932   13.846
 5521.00    0.72437   0.71053   13.922
 5522.00    0.72633   0.71053   13.818
 5523.00    0.72469   0.70938   13.630
 5524.00    0.72062   0.70716   13.785
 5525.00    0.71607   0.70394   14.419
 5526.00    0.71282   0.70001   14.250
 5527.00    0.71128   0.69594   12.898
 5528.00    0.70906   0.69261   13.568
 5529.00    0.70388   0.69080   21.853
 5530.00    0.69786   0.69081   43.829
 5531.00    0.69509   0.69223   26.878
 5532.00    0.69752   0.69412   14.756
 5533.00    0.70396   0.69558   12.830
 5534.00    0.70991   0.69625   14.002
 5535.00    0.71155   0.69639   14.597
 5536.00    0.71023   0.69664   14.096
 5537.00    0.70943   0.69755   13.909
 5538.00    0.71078   0.69925   14.069
 5539.00    0.71355   0.70140   14.087
 5540.00    0.71479   0.70343   13.988
 5541.00    0.71243   0.70474   13.995
 5542.00    0.70796   0.70501   14.129
 5543.00    0.70372   0.70432   14.272
 5544.00    0.70050   0.70312   14.263
 5545.00    0.70035   0.70206   14.128
 5546.00    0.70796   0.70173   14.171
 5547.00    0.72237   0.70239   14.247
 5548.00    0.73210   0.70391   13.512
 5549.00    0.73068   0.70581   12.671
 5550.00    0.72627   0.70748   14.391
 5551.00    0.72593   0.70840   23.296
 5552.00    0.72571   0.70831   46.012
 5553.00    0.72152   0.70731   49.842
 5554.00    0.71570   0.70579   39.241
 5555.00    0.71172   0.70425   38.804
 5556.00    0.71075   0.70305   42.232
 5557.00    0.71229   0.70231   42.405
 5558.00    0.71483   0.70187   41.117
 5559.00    0.71751   0.70145   41.118
 5560.00    0.72040   0.70077   41.504
 5561.00    0.72198   0.69964   41.483
 5562.00    0.71895   0.69805   41.834
 5563.00    0.71104   0.69616   42.883
 5564.00    0.70228   0.69418   43.772
 5565.00    0.69689   0.69237   43.914
 5566.00    0.69696   0.69087   43.688
 5567.00    0.70087   0.68972   43.714
 5568.00    0.70392   0.68891   44.376
 5569.00    0.70294   0.68838   45.344
 5570.00    0.69819   0.68811   45.662
 5571.00    0.69364   0.68805   45.222
 5572.00    0.69459   0.68821   44.906
 5573.00    0.69987   0.68865   45.118
 5574.00    0.70261   0.68943   45.546
 5575.00    0.70023   0.69057   45.709
 5576.00    0.69603   0.69197   45.323
 5577.00    0.69472   0.69345   44.794
 5578.00    0.69932   0.69479   44.767
 5579.00    0.70684   0.69582   44.809
 5580.00    0.71073   0.69641   43.904
 5581.00    0.70987   0.69643   42.456
 5582.00    0.70788   0.69571   41.693
 5583.00    0.70646   0.69405   41.850
 5584.00    0.70496   0.69122   42.315
 5585.00    0.70273   0.68714   42.300
 5586.00    0.69950   0.68206   41.466
 5587.00    0.69478   0.67667   40.757
 5588.00    0.68823   0.67200   41.232
 5589.00    0.68019   0.66904   42.128
 5590.00    0.67187   0.66826   41.898
 5591.00    0.66519   0.66949   41.099
 5592.00    0.66225   0.67198   41.056
 5593.00    0.66453   0.67494   41.114
 5594.00    0.67215   0.67778   39.998
 5595.00    0.68305   0.68024   38.391
 5596.00    0.69345   0.68212   37.573
 5597.00    0.69892   0.68319   37.662
 5598.00    0.69834   0.68320   38.042
 5599.00    0.69844   0.68212   37.870
 5600.00    0.70545   0.68032   36.831
 5601.00    0.71462   0.67851   35.836
 5602.00    0.71796   0.67755   35.679
 5603.00    0.71475   0.67816   35.920
 5604.00    0.70981   0.68065   35.901
 5605.00    0.70970   0.68478   35.873
 5606.00    0.71692   0.68977   36.334
 5607.00    0.72511   0.69462   37.251
 5608.00    0.72702   0.69850   38.343
 5609.00    0.72236   0.70098   39.427
 5610.00    0.71473   0.70200   40.426
 5611.00    0.70786   0.70161   41.332
 5612.00    0.70287   0.69979   42.212
 5613.00    0.69676   0.69648   43.181
 5614.00    0.68729   0.69190   44.201
 5615.00    0.67658   0.68676   44.932
 5616.00    0.66874   0.68220   45.063
 5617.00    0.66744   0.67928   44.652
 5618.00    0.67282   0.67845   44.101
 5619.00    0.68027   0.67936   43.957
 5620.00    0.68526   0.68109   44.263
 5621.00    0.68654   0.68264   44.333
 5622.00    0.68569   0.68327   43.876
 5623.00    0.68616   0.68276   43.504
 5624.00    0.68995   0.68141   43.485
 5625.00    0.69605   0.67996   43.301
 5626.00    0.70212   0.67930   42.702
 5627.00    0.70562   0.68004   42.115
 5628.00    0.70505   0.68224   41.923
 5629.00    0.70069   0.68541   42.165
 5630.00    0.69542   0.68874   42.532
 5631.00    0.69387   0.69143   42.505
 5632.00    0.69733   0.69294   42.116
 5633.00    0.70255   0.69308   41.962
 5634.00    0.70599   0.69197   42.045
 5635.00    0.70560   0.68994   41.726
 5636.00    0.70132   0.68744   41.150
 5637.00    0.69481   0.68491   41.203
 5638.00    0.68832   0.68268   41.800
 5639.00    0.68373   0.68097   41.885
 5640.00    0.68119   0.67983   41.460
 5641.00    0.68008   0.67923   41.608
 5642.00    0.68343   0.67914   42.482
 5643.00    0.69614   0.67951   42.171
 5644.00    0.71666   0.68030   36.506
 5645.00    0.73699   0.68138   27.167
 5646.00    0.74904   0.68256   21.176
 5647.00    0.74822   0.68363   19.806
 5648.00    0.73783   0.68444   21.033
 5649.00    0.72541   0.68495   22.050
 5650.00    0.71244   0.68523   23.195
 5651.00    0.69657   0.68530   28.258
 5652.00    0.68124   0.68510   39.554
 5653.00    0.67358   0.68442   48.219
 5654.00    0.67605   0.68299   45.937
 5655.00    0.68579   0.68062   43.687
 5656.00    0.69674   0.67738   44.735
 5657.00    0.70238   0.67359   46.198
 5658.00    0.69986   0.66985   46.289
 5659.00    0.69036   0.66686   45.245
 5660.00    0.67848   0.66515   44.096
 5661.00    0.66932   0.66491   43.675
 5662.00    0.66439   0.66594   43.972
 5663.00    0.66306   0.66784   44.527
 5664.00    0.66550   0.67016   44.954
 5665.00    0.67184   0.67248   45.009
 5666.00    0.68069   0.67446   44.597
 5667.00    0.68994   0.67588   43.797
 5668.00    0.69799   0.67677   42.842
 5669.00    0.70366   0.67745   41.998
 5670.00    0.70600   0.67834   41.471
 5671.00    0.70533   0.67975   41.354
 5672.00    0.70425   0.68167   41.584
 5673.00    0.70547   0.68381   41.981
 5674.00    0.70954   0.68576   42.283
 5675.00    0.71455   0.68714   42.252
 5676.00    0.71643   0.68777   41.805
 5677.00    0.71295   0.68765   41.135
 5678.00    0.70692   0.68684   40.691
 5679.00    0.70264   0.68544   40.524
 5680.00    0.70254   0.68352   39.955
 5681.00    0.70505   0.68119   38.696
 5682.00    0.70411   0.67867   37.474
 5683.00    0.69677   0.67621   36.874
 5684.00    0.68768   0.67409   36.831
 5685.00    0.68162   0.67244   37.223
 5686.00    0.67865   0.67131   38.163
 5687.00    0.67687   0.67071   39.644
 5688.00    0.67461   0.67077   41.268
 5689.00    0.67204   0.67164   42.586
 5690.00    0.67157   0.67336   43.445
 5691.00    0.67564   0.67573   43.906
 5692.00    0.68510   0.67830   44.122
 5693.00    0.69777   0.68055   44.237
 5694.00    0.70849   0.68205   44.328
 5695.00    0.71321   0.68258   44.422
 5696.00    0.71086   0.68215   44.505
 5697.00    0.70299   0.68085   44.534
 5698.00    0.69276   0.67888   44.429
 5699.00    0.68161   0.67646   43.982
 5700.00    0.66885   0.67389   42.972
 5701.00    0.65578   0.67151   41.611
 5702.00    0.64621   0.66954   40.433
 5703.00    0.64253   0.66805   39.648
 5704.00    0.64433   0.66680   39.125
 5705.00    0.64894   0.66538   38.741
 5706.00    0.65260   0.66343   38.505
 5707.00    0.65338   0.66085   38.620
 5708.00    0.65155   0.65794   39.342
 5709.00    0.64777   0.65534   40.465
 5710.00    0.64322   0.65372   41.371
 5711.00    0.64135   0.65362   41.927
 5712.00    0.64641   0.65519   42.446
 5713.00    0.65811   0.65821   42.596
 5714.00    0.67170   0.66215   41.757
 5715.00    0.68140   0.66635   40.638
 5716.00    0.68339   0.67024   40.538
 5717.00    0.68033   0.67351   41.576
 5718.00    0.67848   0.67613   42.848
 5719.00    0.67973   0.67824   43.302
 5720.00    0.68242   0.68004   42.539
 5721.00    0.68632   0.68162   41.687
 5722.00    0.69206   0.68293   42.032
 5723.00    0.69829   0.68381   42.951
 5724.00    0.70228   0.68406   42.954
 5725.00    0.70196   0.68357   42.409
 5726.00    0.69725   0.68245   42.608
 5727.00    0.69160   0.68094   43.535
 5728.00    0.68915   0.67939   44.302
 5729.00    0.69020   0.67807   44.345
 5730.00    0.69273   0.67713   43.839
 5731.00    0.69540   0.67660   43.734
 5732.00    0.69744   0.67650   44.620
 5733.00    0.69798   0.67685   45.399
 5734.00    0.69668   0.67756   44.723
 5735.00    0.69443   0.67844   43.346
 5736.00    0.69275   0.67919   42.629
 5737.00    0.69285   0.67957   42.856
 5738.00    0.69475   0.67949   43.513
 5739.00    0.69663   0.67907   43.540
 5740.00    0.69690   0.67847    0.000
 5741.00    0.69628   0.67785    0.000
 5742.00    0.69704   0.67734    0.000
 5743.00    0.70173   0.67703    0.000
 5744.00    0.70960   0.67688    0.000
 5745.00    0.71430   0.67678    0.000
 5746.00    0.71041   0.67655    0.000
 5747.00    0.69879   0.67603    0.000
 5748.00    0.68434   0.67520    0.000
 5749.00    0.67346   0.67414    0.000
 5750.00    0.66925   0.67292    0.000
 5751.00    0.66902   0.67152    0.000
 5752.00    0.66949   0.66991    0.000
 5753.00    0.67022   0.66828    0.000
 5754.00    0.67120   0.66706    0.000
 5755.00    0.67165   0.66676    0.000
 5756.00    0.67188   0.66754    0.000
 5757.00    0.67397   0.66908    0.000
 5758.00    0.67880   0.67065    0.000
 5759.00    0.68460   0.67146    0.000
 5760.00    0.68801   0.67112    0.000
 5761.00    0.68584   0.66984    0.000
 5762.00    0.68030   0.66831    0.000
 5763.00    0.67952   0.66739    0.000
 5764.00    0.68840   0.66766    0.000
 5765.00    0.70506   0.66917    0.000
 5766.00    0.72352   0.67146    0.000
 5767.00    0.73637   0.67378    0.000
 5768.00    0.74009   0.67551    0.000
 5769.00    0.73597   0.67630    0.000
 5770.00    0.72544   0.67616    0.000
 5771.00    0.70940   0.67531    0.000
 5772.00    0.69142   0.67408    0.000
 5773.00    0.67725   0.67279    0.000
 5774.00    0.66965   0.67167    0.000
 5775.00    0.66741   0.67080    0.000
 5776.00    0.66762   0.67005    0.000
 5777.00    0.66740   0.66909    0.000
 5778.00    0.66671   0.66749    0.000
 5779.00    0.66739   0.66493    0.000
 5780.00    0.66864   0.66141    0.000
 5781.00    0.66774   0.65733    0.000
 5782.00    0.66459   0.65336    0.000
 5783.00    0.66156   0.65021    0.000
 5784.00    0.66093   0.64836    0.000
 5785.00    0.66375   0.64799    0.000
 5786.00    0.66889   0.64900    0.000
 5787.00    0.67425   0.65103    0.000
 5788.00    0.67947   0.65361    0.000
 5789.00    0.68440   0.65619    0.000
 5790.00    0.68568   0.65840    0.000
 5791.00    0.67993   0.66013    0.000
 5792.00    0.67012   0.66150    0.000
 5793.00    0.66263   0.66271    0.000
 5794.00    0.66093   0.66385    0.000
 5795.00    0.66590   0.66481    0.000
 5796.00    0.67787   0.66543    0.000
 5797.00    0.69546   0.66573   -2.000
 5798.00    0.71373   0.66596   -2.000
 5799.00    0.72581   0.66644   -2.000
 5800.00    0.72537   0.66733   -2.000
 5801.00    0.70901   0.66845   -2.000
 5802.00    0.67884   0.66935   -2.000
 5803.00    0.64433   0.66959   -2.000
 5804.00    0.62285   0.66901   -2.000
 5805.00    0.62555   0.66785   -2.000
 5806.00    0.64352   0.66659   -2.000
 5807.00    0.66162   0.66571   -2.000
 5808.00    0.67344   0.66548   -2.000
 5809.00    0.67817   0.66590   -2.000
 5810.00    0.67644   0.66670   -2.000
 5811.00    0.67029   0.66751   -2.000
 5812.00    0.66332   0.66801   -2.000
 5813.00    0.65864   0.66799   -2.000
 5814.00    0.65729   0.66746   -2.000
 5815.00    0.65897   0.66668   -2.000
 5816.00    0.66273   0.66608    0.000
 5817.00    0.66756   0.66605    0.000
 5818.00    0.67256   0.66676    0.000
 5819.00    0.67615   0.66809    0.000
 5820.00    0.67591   0.66964    0.000
 5821.00    0.67165   0.67098    0.000
 5822.00    0.66668   0.67180    0.000
 5823.00    0.66382   0.67209    0.000
 5824.00    0.66334   0.67201    0.000
 5825.00    0.66479   0.67179    0.000
 5826.00    0.66781   0.67163    0.000
 5827.00    0.67092   0.67158    0.000
 5828.00    0.67164   0.67163    0.000
 5829.00    0.67034   0.67167    0.000
 5830.00    0.67087   0.67161    0.000
 5831.00    0.67495   0.67136    0.000
 5832.00    0.68045   0.67086    0.000
 5833.00    0.68443   0.67014    0.000
 5834.00    0.68504   0.66929    0.000
 5835.00    0.68365   0.66847    0.000
 5836.00    0.68438   0.66783    0.000
 5837.00    0.68933   0.66750    0.000
 5838.00    0.69751   0.66752    0.000
 5839.00    0.70672   0.66788    0.000
 5840.00    0.71456   0.66849    0.000
 5841.00    0.71906   0.66918    0.000
 5842.00    0.71905   0.66970    0.000
 5843.00    0.71450   0.66981    0.000
 5844.00    0.70634   0.66934    0.000
 5845.00    0.69590   0.66829    0.000
 5846.00    0.68467   0.66684    0.000
 5847.00    0.67433   0.66523    0.000
 5848.00    0.66648   0.66371    0.000
 5849.00    0.66201   0.66231    0.000
 5850.00    0.66076   0.66091    0.000
 5851.00    0.66120   0.65932    0.000
 5852.00    0.66089   0.65739    0.000
 5853.00    0.65767   0.65515    0.000
 5854.00    0.65108   0.65276    0.000
 5855.00    0.64446   0.65044    0.000
 5856.00    0.64249   0.64837    0.000
 5857.00    0.64613   0.64675    0.000
 5858.00    0.65296   0.64577    0.000
 5859.00    0.65950   0.64564    0.000
 5860.00    0.66289   0.64640    0.000
 5861.00    0.66286   0.64788    0.000
 5862.00    0.66089   0.64972    0.000
 5863.00    0.65844   0.65154    0.000
 5864.00    0.65623   0.65307    0.000
 5865.00    0.65365   0.65421    0.000
 5866.00    0.65064   0.65506    0.000
 5867.00    0.64993   0.65578    0.000
 5868.00    0.65404   0.65654    0.000
 5869.00    0.66160   0.65735    0.000
 5870.00    0.66970   0.65806    0.000
 5871.00    0.67710   0.65836    0.000
 5872.00    0.68394   0.65794    0.000
 5873.00    0.69087   0.65665    0.000
 5874.00    0.69737   0.65462    0.000
 5875.00    0.70041   0.65223    0.000
 5876.00    0.69792   0.64998    0.000
 5877.00    0.69171   0.64828    0.000
 5878.00    0.68497   0.64731    0.000
 5879.00    0.67981   0.64695    0.000
 5880.00    0.67710   0.64694    0.000
 5881.00    0.67655   0.64698    0.000
 5882.00    0.67713   0.64681    0.000
 5883.00    0.67745   0.64620    0.000
 5884.00    0.67653   0.64476    0.000
 5885.00    0.67410   0.64192    0.000
 5886.00    0.66919   0.63702    0.000
 5887.00    0.65947   0.62952    0.000
 5888.00    0.64369   0.61957    0.000
 5889.00    0.62316   0.60832    0.000
 5890.00    0.60187   0.59773    0.000
 5891.00    0.58566   0.58978    0.000
 5892.00    0.57815   0.58551    0.000
 5893.00    0.57878   0.58450    0.000
 5894.00    0.58418   0.58542    0.000
 5895.00    0.58975   0.58706    0.000
 5896.00    0.59320   0.58918    0.000
 5897.00    0.59592   0.59243    0.000
 5898.00    0.60095   0.59763    0.000
 5899.00    0.61120   0.60492    0.000
 5900.00    0.62592   0.61355    0.000
 5901.00    0.64054   0.62225   45.210
 5902.00    0.65139   0.62985   45.513
 5903.00    0.65740   0.63574   45.278
 5904.00    0.65926   0.63986   44.707
 5905.00    0.65866   0.64254   44.640
 5906.00    0.65705   0.64428   45.144
 5907.00    0.65537   0.64547   45.447
 5908.00    0.65421   0.64638   45.163
 5909.00    0.65397   0.64706   44.575
 5910.00    0.65509   0.64742   44.092
 5911.00    0.65780   0.64727   43.969
 5912.00    0.66164   0.64648   44.038
 5913.00    0.66537   0.64510   43.880
 5914.00    0.66737   0.64340   43.426
 5915.00    0.66640   0.64181   42.950
 5916.00    0.66301   0.64080   42.725
 5917.00    0.65889   0.64062   42.875
 5918.00    0.65456   0.64125   43.249
 5919.00    0.64999   0.64239   43.523
 5920.00    0.64654   0.64368   43.518
 5921.00    0.64622   0.64481   43.276
 5922.00    0.64929   0.64566   43.012
 5923.00    0.65402   0.64626   42.920
 5924.00    0.65725   0.64665   42.883
 5925.00    0.65682   0.64684   42.755
 5926.00    0.65540   0.64676   42.879
 5927.00    0.65719   0.64631   43.553
 5928.00    0.66199   0.64549   44.082
 5929.00    0.66597   0.64446   43.890
 5930.00    0.66442   0.64349   44.370
 5931.00    0.65689   0.64283   46.105
 5932.00    0.65288   0.64259   44.470
 5933.00    0.66339   0.64268   36.637
 5934.00    0.68898   0.64298   28.327
 5935.00    0.71980   0.64336   22.878
 5936.00    0.73840   0.64380   20.117
 5937.00    0.73319   0.64425   19.469
 5938.00    0.71221   0.64461   20.683
 5939.00    0.69071   0.64472   23.919
 5940.00    0.67675   0.64448   29.375
 5941.00    0.67120   0.64395   36.417
 5942.00    0.66972   0.64335   42.502
 5943.00    0.66772   0.64294   44.770
 5944.00    0.66448   0.64282   44.543
 5945.00    0.66041   0.64290   44.479
 5946.00    0.65461   0.64294   44.729
 5947.00    0.64758   0.64268   44.684
 5948.00    0.64291   0.64204   44.531
 5949.00    0.64263   0.64113   44.560
 5950.00    0.64425   0.64017   44.633
 5951.00    0.64518   0.63936   44.612
 5952.00    0.64576   0.63877   44.645
 5953.00    0.64740   0.63837   44.823
 5954.00    0.65114   0.63808   44.966
 5955.00    0.65695   0.63785   44.849
 5956.00    0.66338   0.63770   44.401
 5957.00    0.66782   0.63774   43.941
 5958.00    0.66728   0.63811   44.082
 5959.00    0.66208   0.63894   44.743
 5960.00    0.65674   0.64024   44.909
 5961.00    0.65464   0.64181   44.422
 5962.00    0.65575   0.64335   44.473
 5963.00    0.65876   0.64455   45.415
 5964.00    0.66214   0.64525   46.193
 5965.00    0.66390   0.64547   46.383
 5966.00    0.66194   0.64544   46.844
 5967.00    0.65602   0.64543   47.783
 5968.00    0.64832   0.64568   48.294
 5969.00    0.64282   0.64621   48.180
 5970.00    0.64388   0.64690   48.249
 5971.00    0.65247   0.64747   48.400
 5972.00    0.66557   0.64763   47.607
 5973.00    0.67831   0.64713   46.168
 5974.00    0.68587   0.64587   45.455
 5975.00    0.68683   0.64395   45.693
 5976.00    0.68274   0.64166   46.056
 5977.00    0.67430   0.63942   46.183
 5978.00    0.66162   0.63767   46.351
 5979.00    0.64811   0.63660   46.621
 5980.00    0.63937   0.63614   46.710
 5981.00    0.63796   0.63592   46.311
 5982.00    0.64213   0.63553   45.423
 5983.00    0.64613   0.63474   44.755
 5984.00    0.64376   0.63364   45.113
 5985.00    0.63583   0.63258   46.186
 5986.00    0.62815   0.63198   46.909
 5987.00    0.62441   0.63204   46.964
 5988.00    0.62508   0.63270   46.669
 5989.00    0.62851   0.63370   45.890
 5990.00    0.63235   0.63476   44.743
 5991.00    0.63560   0.63569   44.856
 5992.00    0.63838   0.63644   47.224
 5993.00    0.64075   0.63702   47.994
 5994.00    0.64243   0.63736   44.556
 5995.00    0.64272   0.63737   45.681
 5996.00    0.64108   0.63696   57.640
 5997.00    0.63795   0.63616   49.475
 5998.00    0.63420   0.63516   25.154
 5999.00    0.63023   0.63417   16.216
 6000.00    0.62660   0.63336   14.779
 6001.00    0.62475   0.63275   15.931
 6002.00    0.62549   0.63227   16.493
 6003.00    0.62723   0.63177   15.961
 6004.00    0.62794   0.63111   15.632
 6005.00    0.62750   0.63026   15.935
 6006.00    0.62655   0.62925   16.437
 6007.00    0.62500   0.62826   15.970
 6008.00    0.62223   0.62749   14.947
 6009.00    0.61747   0.62712   16.399
 6010.00    0.61146   0.62720   25.211
 6011.00    0.60749   0.62754   49.173
 6012.00    0.60783   0.62787   57.112
 6013.00    0.61100   0.62795   44.546
 6014.00    0.61447   0.62771   42.643
 6015.00    0.61702   0.62724   45.506
 6016.00    0.61828   0.62666   45.041
 6017.00    0.61826   0.62605   43.471
 6018.00    0.61761   0.62543   44.195
 6019.00    0.61769   0.62479   45.522
 6020.00    0.61956   0.62416   45.176
 6021.00    0.62331   0.62365   43.731
 6022.00    0.62743   0.62345   42.680
 6023.00    0.62899   0.62367   42.909
 6024.00    0.62665   0.62435   44.338
 6025.00    0.62209   0.62546   45.768
 6026.00    0.61881   0.62687   46.334
 6027.00    0.62045   0.62843   46.495
 6028.00    0.62615   0.63000   46.810
 6029.00    0.63011   0.63151   47.282
 6030.00    0.62973   0.63290   47.805
 6031.00    0.62827   0.63413   48.315
 6032.00    0.62942   0.63518   48.474
 6033.00    0.63454   0.63605   47.827
 6034.00    0.64195   0.63674   46.950
 6035.00    0.64766   0.63722   47.122
 6036.00    0.64951   0.63746   48.138
 6037.00    0.64819   0.63743   48.228
 6038.00    0.64542   0.63712   47.128
 6039.00    0.64317   0.63656   46.351
 6040.00    0.64304   0.63588   46.234
 6041.00    0.64576   0.63525   45.886
 6042.00    0.65000   0.63484   45.216
 6043.00    0.65293   0.63475   44.892
 6044.00    0.65276   0.63499   44.699
 6045.00    0.64948   0.63547   43.899
 6046.00    0.64491   0.63602   43.146
 6047.00    0.64204   0.63653   43.647
 6048.00    0.64315   0.63689   44.440
 6049.00    0.64824   0.63701   43.408
 6050.00    0.65246   0.63681   41.762
 6051.00    0.64966   0.63624   42.112
 6052.00    0.64098   0.63529   44.023
 6053.00    0.63290   0.63400   44.946
 6054.00    0.62939   0.63252   44.533
 6055.00    0.63043   0.63111   44.434
 6056.00    0.63226   0.63000   45.029
 6057.00    0.63130   0.62937   45.746
 6058.00    0.63048   0.62925   46.565
 6059.00    0.63546   0.62947   47.619
 6060.00    0.64648   0.62975   47.939
 6061.00    0.65896   0.62973   46.689
 6062.00    0.66673   0.62915   45.330
 6063.00    0.66547   0.62801   45.580
 6064.00    0.65678   0.62662   47.140
 6065.00    0.64595   0.62542   48.524
 6066.00    0.63813   0.62490   48.567
 6067.00    0.63628   0.62534   47.235
 6068.00    0.63953   0.62674   45.786
 6069.00    0.64445   0.62876   45.251
 6070.00    0.64719   0.63096   45.351
 6071.00    0.64555   0.63291   45.505
 6072.00    0.64081   0.63435   45.847
 6073.00    0.63551   0.63514   46.522
 6074.00    0.63107   0.63522   46.897
 6075.00    0.62821   0.63458   46.452
 6076.00    0.62755   0.63325   45.708
 6077.00    0.62881   0.63139   45.067
 6078.00    0.63010   0.62917   44.016
 6079.00    0.62941   0.62685   42.706
 6080.00    0.62589   0.62468   42.707
 6081.00    0.62041   0.62286   44.591
 6082.00    0.61550   0.62146   46.289
 6083.00    0.61267   0.62049   46.173
 6084.00    0.61079   0.61997   46.159
 6085.00    0.60877   0.61983   47.654
 6086.00    0.60734   0.61995   49.030
 6087.00    0.60749   0.62016   49.039
 6088.00    0.60948   0.62031   49.293
 6089.00    0.61333   0.62027   50.662
 6090.00    0.61887   0.62004   51.366
 6091.00    0.62411   0.61973   50.299
 6092.00    0.62518   0.61958   48.914
 6093.00    0.62115   0.61973   48.412
 6094.00    0.61572   0.62025   48.724
 6095.00    0.61282   0.62102   49.318
 6096.00    0.61423   0.62186   49.571
 6097.00    0.61837   0.62249   49.187
 6098.00    0.62098   0.62259   48.346
 6099.00    0.61946   0.62187   47.313
 6100.00    0.61447   0.62021   46.290
 6101.00    0.60856   0.61786   45.530
 6102.00    0.60496   0.61529   45.292
 6103.00    0.60538   0.61314   45.493
 6104.00    0.60931   0.61196   45.713
 6105.00    0.61486   0.61203   45.606
 6106.00    0.61946   0.61323   45.100
 6107.00    0.62137   0.61510   44.432
 6108.00    0.62005   0.61709   43.995
 6109.00    0.61607   0.61877   43.977
 6110.00    0.61103   0.62001   44.300
 6111.00    0.60763   0.62083   44.660
 6112.00    0.60843   0.62136   44.761
 6113.00    0.61274   0.62167   44.943
 6114.00    0.61752   0.62181   45.886
 6115.00    0.62174   0.62175   47.460
 6116.00    0.62609   0.62139   48.743
 6117.00    0.63011   0.62060   49.191
 6118.00    0.63206   0.61923   48.980
 6119.00    0.63026   0.61723   48.669
 6120.00    0.62437   0.61474   48.775
 6121.00    0.61701   0.61217   49.230
 6122.00    0.61215   0.60997   49.660
 6123.00    0.61144   0.60855   50.075
 6124.00    0.61428   0.60811   50.482
 6125.00    0.61920   0.60854   49.968
 6126.00    0.62433   0.60952   47.886
 6127.00    0.62783   0.61068   45.629
 6128.00    0.62869   0.61183   44.707
 6129.00    0.62782   0.61288   44.894
 6130.00    0.62732   0.61384   45.267
 6131.00    0.62914   0.61458   45.507
 6132.00    0.63397   0.61478   45.696
 6133.00    0.63999   0.61392   45.798
 6134.00    0.64394   0.61164   45.861
 6135.00    0.64272   0.60802   46.324
 6136.00    0.63549   0.60379   47.428
 6137.00    0.62559   0.59991   48.447
 6138.00    0.61798   0.59724   48.160
 6139.00    0.61597   0.59627   45.959
 6140.00    0.61923   0.59706   42.574
 6141.00    0.62264   0.59919   39.629
 6142.00    0.62180   0.60207   37.947
 6143.00    0.61804   0.60510   37.225
 6144.00    0.61510   0.60787   37.128
 6145.00    0.61551   0.61007   37.861
 6146.00    0.61880   0.61149   39.533
 6147.00    0.62086   0.61205   41.550
 6148.00    0.61825   0.61189   43.197
 6149.00    0.61156   0.61134   44.464
 6150.00    0.60407   0.61074   45.595
 6151.00    0.60008   0.61035   46.530
 6152.00    0.60125   0.61020   47.115
 6153.00    0.60483   0.61017   47.333
 6154.00    0.60763   0.61007   47.401
 6155.00    0.60840   0.60968   47.717
 6156.00    0.60670   0.60891   48.401
 6157.00    0.60224   0.60762   49.091
 6158.00    0.59589   0.60561   49.544
 6159.00    0.58992   0.60265   49.852
 6160.00    0.58697   0.59882   49.466
 6161.00    0.58896   0.59456   47.200
 6162.00    0.59532   0.59060   43.442
 6163.00    0.60266   0.58772   39.932
 6164.00    0.60752   0.58647   37.597
 6165.00    0.60781   0.58690   36.569
 6166.00    0.60365   0.58842   36.898
 6167.00    0.59747   0.59019   38.662
 6168.00    0.59315   0.59160   41.294
 6169.00    0.59427   0.59249   43.204
 6170.00    0.59957   0.59303   43.725
 6171.00    0.60332   0.59362   44.005
 6172.00    0.60247   0.59462   44.812
 6173.00    0.59852   0.59611   45.918
 6174.00    0.59516   0.59790   46.937
 6175.00    0.59600   0.59970   47.657
 6176.00    0.60021   0.60133   48.083
 6177.00    0.60327   0.60267   48.415
 6178.00    0.60259   0.60377   48.900
 6179.00    0.59865   0.60479   49.565
 6180.00    0.59354   0.60580   49.620
 6181.00    0.58942   0.60679   48.275
 6182.00    0.58567   0.60767   46.884
 6183.00    0.58025   0.60828   47.330
 6184.00    0.57411   0.60840   48.697
 6185.00    0.57001   0.60789   48.429
 6186.00    0.56785   0.60672   47.172
 6187.00    0.56533   0.60493   47.347
 6188.00    0.56127   0.60259   48.750
 6189.00    0.55633   0.59990   49.264
 6190.00    0.55280   0.59732   47.891
 6191.00    0.55275   0.59538   45.306
 6192.00    0.55495   0.59445   42.678
 6193.00    0.55652   0.59472   40.800
 6194.00    0.55661   0.59611   39.765
 6195.00    0.55610   0.59821   39.545
 6196.00    0.55636   0.60036   40.564
 6197.00    0.55862   0.60195   43.150
 6198.00    0.56329   0.60274   46.275
 6199.00    0.56977   0.60284   48.301
 6200.00    0.57645   0.60263   49.787
 6201.00    0.58240   0.60251   51.072
 6202.00    0.58917   0.60280   -2.000
 6203.00    0.59846   0.60357   -2.000
 6204.00    0.60906   0.60468   -2.000
 6205.00    0.61633   0.60587   -2.000
 6206.00    0.61278   0.60686   -2.000
 6207.00    0.59559   0.60745   -2.000
 6208.00    0.57340   0.60749   -2.000
 6209.00    0.55796   0.60689   -2.000
 6210.00    0.55548   0.60558   -2.000
 6211.00    0.56396   0.60347   -2.000
 6212.00    0.57286   0.60066   -2.000
 6213.00    0.57429   0.59745   39.031
 6214.00    0.57146   0.59425   38.819
 6215.00    0.57056   0.59154   39.086
 6216.00    0.57408   0.58957   40.668
 6217.00    0.58104   0.58838   43.937
 6218.00    0.58783   0.58786   48.178
 6219.00    0.59116   0.58788   50.802
 6220.00    0.59012   0.58828   48.732
 6221.00    0.58688   0.58894   46.431
 6222.00    0.58617   0.58979   54.203
 6223.00    0.59031   0.59080   62.165
 6224.00    0.59695   0.59188   41.061
 6225.00    0.60289   0.59281   21.141
 6226.00    0.60638   0.59332   15.668
 6227.00    0.60707   0.59307   15.612
 6228.00    0.60570   0.59186   16.843
 6229.00    0.60284   0.58987   16.953
 6230.00    0.59852   0.58757   16.536
 6231.00    0.59372   0.58557   16.600
 6232.00    0.59034   0.58450   17.152
 6233.00    0.58882   0.58469   17.410
 6234.00    0.58777   0.58597   16.517
 6235.00    0.58646   0.58778   16.019
 6236.00    0.58534   0.58940   19.199
 6237.00    0.58436   0.59021   30.818
 6238.00    0.58277   0.58993   49.800
 6239.00    0.58049   0.58872   50.718
 6240.00    0.57822   0.58690   46.492
 6241.00    0.57610   0.58482   48.953
 6242.00    0.57374   0.58289   51.511
 6243.00    0.57132   0.58134   50.333
 6244.00    0.56958   0.58021   49.519
 6245.00    0.56870   0.57964   50.415
 6246.00    0.56834   0.57973   50.910
 6247.00    0.56836   0.58043   50.328
 6248.00    0.56909   0.58154   49.826
 6249.00    0.57136   0.58264   49.679
 6250.00    0.57571   0.58326   49.304
 6251.00    0.58090   0.58309   48.597
 6252.00    0.58410   0.58210   47.923
 6253.00    0.58222   0.58042   47.512
 6254.00    0.57403   0.57833   47.496
 6255.00    0.56355   0.57617   48.155
 6256.00    0.55749   0.57427   49.511
 6257.00    0.55935   0.57299   50.339
 6258.00    0.56849   0.57257   49.222
 6259.00    0.58057   0.57311   47.094
 6260.00    0.58982   0.57463   45.591
 6261.00    0.59258   0.57699   44.717
 6262.00    0.58874   0.57974   43.996
 6263.00    0.58280   0.58239   43.968
 6264.00    0.58009   0.58465   45.079
 6265.00    0.58133   0.58637   45.931
 6266.00    0.58435   0.58745   44.542
 6267.00    0.58729   0.58801   41.211
 6268.00    0.58896   0.58826   37.743
 6269.00    0.58896   0.58844   35.687
 6270.00    0.58746   0.58871   35.652
 6271.00    0.58499   0.58914   37.296
 6272.00    0.58246   0.58969   40.052
 6273.00    0.58096   0.59032   43.706
 6274.00    0.58130   0.59092   47.850
 6275.00    0.58342   0.59137   50.914
 6276.00    0.58532   0.59151   51.528
 6277.00    0.58266   0.59124   50.855
 6278.00    0.57326   0.59051   50.745
 6279.00    0.56072   0.58948   51.849
 6280.00    0.55087   0.58840    0.000
 6281.00    0.54830   0.58752    0.000
 6282.00    0.55332   0.58706    0.000
 6283.00    0.56064   0.58712    0.000
 6284.00    0.56540   0.58772    0.000
 6285.00    0.56731   0.58879    0.000
 6286.00    0.56829   0.59013    0.000
 6287.00    0.57052   0.59147    0.000
 6288.00    0.57510   0.59254    0.000
 6289.00    0.58137   0.59314    0.000
 6290.00    0.58715   0.59319    0.000
 6291.00    0.58952   0.59274    0.000
 6292.00    0.58821   0.59195    0.000
 6293.00    0.58646   0.59093    0.000
 6294.00    0.58672   0.58968    0.000
 6295.00    0.58882   0.58825    0.000
 6296.00    0.59234   0.58672    0.000
 6297.00    0.59778   0.58516    0.000
 6298.00    0.60624   0.58359    0.000
 6299.00    0.61848   0.58203    0.000
 6300.00    0.63165   0.58064    0.000
 6301.00    0.63942   0.57967    0.000
 6302.00    0.63746   0.57926    0.000
 6303.00    0.62585   0.57944    0.000
 6304.00    0.60908   0.58024    0.000
 6305.00    0.59437   0.58165    0.000
 6306.00    0.58608   0.58345    0.000
 6307.00    0.58400   0.58531    0.000
 6308.00    0.58457   0.58686    0.000
 6309.00    0.58286   0.58782    0.000
 6310.00    0.57726   0.58807    0.000
 6311.00    0.56979   0.58762    0.000
 6312.00    0.56315   0.58646    0.000
 6313.00    0.55957   0.58472    0.000
 6314.00    0.56025   0.58270    0.000
 6315.00    0.56508   0.58055    0.000
 6316.00    0.57254   0.57839    0.000
 6317.00    0.58001   0.57656    0.000
 6318.00    0.58449   0.57538    0.000
 6319.00    0.58370   0.57498    0.000
 6320.00    0.57794   0.57539    0.000
 6321.00    0.56994   0.57657   51.842
 6322.00    0.56375   0.57837   51.449
 6323.00    0.56275   0.58049   50.447
 6324.00    0.56663   0.58263   49.732
 6325.00    0.57242   0.58448   50.010
 6326.00    0.57723   0.58592   50.731
 6327.00    0.57976   0.58691   50.891
 6328.00    0.58166   0.58738   50.701
 6329.00    0.58512   0.58741   50.905
 6330.00    0.58896   0.58717   51.348
 6331.00    0.59025   0.58671   51.497
 6332.00    0.58737   0.58591   51.477
 6333.00    0.58075   0.58460   51.686
 6334.00    0.57316   0.58282   52.110
 6335.00    0.56763   0.58084   52.456
 6336.00    0.56507   0.57900   52.436
 6337.00    0.56500   0.57758   52.039
 6338.00    0.56682   0.57686   51.725
 6339.00    0.56946   0.57688   51.890
 6340.00    0.57119   0.57738   52.353
 6341.00    0.57121   0.57790   52.644
 6342.00    0.57118   0.57806   52.388
 6343.00    0.57215   0.57772   51.742
 6344.00    0.57214   0.57683   51.553
 6345.00    0.56982   0.57565   52.122
 6346.00    0.56756   0.57465   52.359
 6347.00    0.56834   0.57429   51.589
 6348.00    0.57296   0.57471   50.929
 6349.00    0.58026   0.57584   51.298
 6350.00    0.58767   0.57743   52.197
 6351.00    0.59294   0.57901   52.684
 6352.00    0.59538   0.58012   52.229
 6353.00    0.59554   0.58046   51.038
 6354.00    0.59468   0.58006   49.951
 6355.00    0.59303   0.57900   49.601
 6356.00    0.58917   0.57736   50.098
 6357.00    0.58249   0.57533   51.076
 6358.00    0.57446   0.57317   51.773
 6359.00    0.56718   0.57102   51.964
 6360.00    0.56241   0.56898   52.320
 6361.00    0.56099   0.56726   52.995
 6362.00    0.56262   0.56611   53.093
 6363.00    0.56666   0.56570   52.001
 6364.00    0.57246   0.56609   50.077
 6365.00    0.57907   0.56723   48.138
 6366.00    0.58523   0.56893   46.871
 6367.00    0.58977   0.57081   45.990
 6368.00    0.59179   0.57246   44.547
 6369.00    0.59095   0.57371   42.673
 6370.00    0.58748   0.57468   41.432
 6371.00    0.58194   0.57556   41.215
 6372.00    0.57530   0.57650   41.690
 6373.00    0.56937   0.57756   42.447
 6374.00    0.56645   0.57875   43.221
 6375.00    0.56756   0.57992   44.129
 6376.00    0.57190   0.58081   45.550
 6377.00    0.57689   0.58123   47.370
 6378.00    0.57935   0.58115   48.904
 6379.00    0.57872   0.58069   49.817
 6380.00    0.57674   0.58006   50.310
 6381.00    0.57431   0.57946   50.438
 6382.00    0.57142   0.57902   50.210
 6383.00    0.56875   0.57882   50.276
 6384.00    0.56738   0.57894   51.390
 6385.00    0.56758   0.57933   52.869
 6386.00    0.56909   0.57986   53.131
 6387.00    0.57235   0.58039   52.292
 6388.00    0.57771   0.58078   51.641
 6389.00    0.58334   0.58082   51.402
 6390.00    0.58625   0.58028   51.099
 6391.00    0.58471   0.57905   50.741
 6392.00    0.57891   0.57737   50.721
 6393.00    0.57124   0.57573   51.328
 6394.00    0.56505   0.57448   52.527
 6395.00    0.56273   0.57378   53.622
 6396.00    0.56515   0.57354   53.647
 6397.00    0.57132   0.57339   52.317
 6398.00    0.57887   0.57303   49.968
 6399.00    0.58478   0.57257   47.054
 6400.00    0.58679   0.57231   44.110
 6401.00    0.58510   0.57240   41.772
 6402.00    0.58171   0.57291   40.545
 6403.00    0.57941   0.57378   40.766
 6404.00    0.58054   0.57477   42.458
 6405.00    0.58579   0.57549   44.860
 6406.00    0.59369   0.57566   46.795
 6407.00    0.60048   0.57530   47.730
 6408.00    0.60230   0.57456   47.878
 6409.00    0.59755   0.57349   47.802
 6410.00    0.58829   0.57237   48.076
 6411.00    0.58072   0.57155   49.041
 6412.00    0.57926   0.57113   50.381
 6413.00    0.58192   0.57103   50.790
 6414.00    0.58402   0.57114   49.895
 6415.00    0.58177   0.57133   49.514
 6416.00    0.57413   0.57146   50.634
 6417.00    0.56351   0.57134   51.738
 6418.00    0.55300   0.57087   51.798
 6419.00    0.54445   0.57018   52.468
 6420.00    0.53936   0.56964   54.482
 6421.00    0.53929   0.56964   55.384
 6422.00    0.54391   0.57031   53.692
 6423.00    0.55039   0.57160   51.610
 6424.00    0.55645   0.57335   50.718
 6425.00    0.56183   0.57527   50.572
 6426.00    0.56623   0.57692   50.553
 6427.00    0.56863   0.57785   50.613
 6428.00    0.56969   0.57773   50.808
 6429.00    0.57203   0.57654   51.080
 6430.00    0.57606   0.57471   51.385
 6431.00    0.57879   0.57281   51.618
 6432.00    0.57740   0.57135   51.073
 6433.00    0.57115   0.57058   48.841
 6434.00    0.56212   0.57047   45.827
 6435.00    0.55443   0.57073   43.908
 6436.00    0.54984   0.57089   43.254
 6437.00    0.54735   0.57070   42.828
 6438.00    0.54711   0.57033   42.966
 6439.00    0.55092   0.57014   45.255
 6440.00    0.55874   0.57032   49.249
 6441.00    0.56821   0.57103   51.289
 6442.00    0.57661   0.57229   50.212
 6443.00    0.58188   0.57391   49.023
 6444.00    0.58338   0.57550   48.874
 6445.00    0.58177   0.57660   48.770
 6446.00    0.57809   0.57673   48.245
 6447.00    0.57314   0.57548   47.729
 6448.00    0.56693   0.57295   47.715
 6449.00    0.55931   0.56986   48.552
 6450.00    0.55192   0.56703   50.386
 6451.00    0.54756   0.56490   52.705
 6452.00    0.54781   0.56361   53.147
 6453.00    0.55210   0.56298   49.722
 6454.00    0.55687   0.56281   45.320
 6455.00    0.55777   0.56301   43.110
 6456.00    0.55407   0.56361   42.616
 6457.00    0.54835   0.56448   42.361
 6458.00    0.54442   0.56537   42.979
 6459.00    0.54527   0.56600   45.807
 6460.00    0.55038   0.56607   49.356
 6461.00    0.55683   0.56558   50.008
 6462.00    0.56177   0.56491   48.043
 6463.00    0.56337   0.56438   46.223
 6464.00    0.56174   0.56420   45.179
 6465.00    0.55828   0.56454   44.550
 6466.00    0.55465   0.56542   44.554
 6467.00    0.55263   0.56661   45.439
 6468.00    0.55378   0.56776   46.633
 6469.00    0.55772   0.56854   47.397
 6470.00    0.56041   0.56883   47.974
 6471.00    0.55876   0.56872   48.871
 6472.00    0.55564   0.56842   49.798
 6473.00    0.55518   0.56810   50.429
 6474.00    0.55756   0.56790   51.358
 6475.00    0.56086   0.56796   52.582
 6476.00    0.56344   0.56819   51.936
 6477.00    0.56431   0.56839   48.506
 6478.00    0.56326   0.56834   44.949
 6479.00    0.56075   0.56784   43.207
 6480.00    0.55773   0.56675   43.196
 6481.00    0.55519   0.56529   44.291
 6482.00    0.55385   0.56390   45.832
 6483.00    0.55409   0.56289   47.287
 6484.00    0.55612   0.56239   48.492
 6485.00    0.56018   0.56244   49.323
 6486.00    0.56654   0.56290   49.481
 6487.00    0.57355   0.56341   49.248
 6488.00    0.57712   0.56352   49.677
 6489.00    0.57485   0.56281   50.931
 6490.00    0.56805   0.56096   51.551
 6491.00    0.55891   0.55775   51.125
 6492.00    0.54882   0.55314   51.447
 6493.00    0.53904   0.54754   53.102
 6494.00    0.53091   0.54177   54.146
 6495.00    0.52552   0.53670   53.588
 6496.00    0.52327   0.53307   53.021
 6497.00    0.52339   0.53137   53.278
 6498.00    0.52406   0.53174   53.475
 6499.00    0.52429   0.53404   53.152
 6500.00    0.52443   0.53781   52.920
 6501.00    0.52524   0.54243   53.086
 6502.00    0.52746   0.54720   53.239
 6503.00    0.53180   0.55157   52.777
 6504.00    0.53849   0.55525   51.327
 6505.00    0.54572   0.55809   49.290
 6506.00    0.55022   0.56008   47.582
 6507.00    0.55086   0.56131   46.915
 6508.00    0.54921   0.56195   47.626
 6509.00    0.54766   0.56221   49.255
 6510.00    0.54788   0.56218   50.605
 6511.00    0.54836   0.56190   51.084
 6512.00    0.54581   0.56136   51.115
 6513.00    0.54073   0.56048   51.376
 6514.00    0.53702   0.55920   52.290
 6515.00    0.53750   0.55765   53.393
 6516.00    0.54262   0.55603   53.729
 6517.00    0.55025   0.55454   53.493
 6518.00    0.55676   0.55350   53.626
 6519.00    0.55928   0.55312   54.017
 6520.00    0.55709   0.55336   53.946
 6521.00    0.55311   0.55402   53.773
 6522.00    0.55160   0.55488   54.356
 6523.00    0.55334   0.55566   55.370
 6524.00    0.55631   0.55607   55.773
 6525.00    0.55848   0.55594   55.429
 6526.00    0.55877   0.55537   54.795
 6527.00    0.55767   0.55453   53.795
 6528.00    0.55646   0.55358    0.000
 6529.00    0.55583   0.55260    0.000
 6530.00    0.55607   0.55159    0.000
 6531.00    0.55747   0.55057    0.000
 6532.00    0.55944   0.54960    0.000
 6533.00    0.55932   0.54882    0.000
 6534.00    0.55470   0.54822    0.000
 6535.00    0.54639   0.54770    0.000
 6536.00    0.53703   0.54720    0.000
 6537.00    0.52914   0.54677    0.000
 6538.00    0.52507   0.54637    0.000
 6539.00    0.52706   0.54582    0.000
 6540.00    0.53518   0.54489    0.000
 6541.00    0.54546   0.54341    0.000
 6542.00    0.55329   0.54135    0.000
 6543.00    0.55689   0.53869    0.000
 6544.00    0.55827   0.53546    0.000
 6545.00    0.56308   0.53188    0.000
 6546.00    0.57458   0.52833    0.000
 6547.00    0.58896   0.52502    0.000
 6548.00    0.60005   0.52199    0.000
 6549.00    0.60350   0.51909    0.000
 6550.00    0.59767   0.51609    0.000
 6551.00    0.58394   0.51269    0.000
 6552.00    0.56593   0.50863    0.000
 6553.00    0.54835   0.50370    0.000
 6554.00    0.53419   0.49781    0.000
 6555.00    0.52356   0.49101    0.000
 6556.00    0.51813   0.48330    0.000
 6557.00    0.52378   0.47449    0.000
 6558.00    0.54998   0.46429    0.000
 6559.00    0.60718   0.45235    0.000
 6560.00    0.69589   0.43843    0.000
 6561.00    0.80172   0.42352    0.000
 6562.00    0.90004   0.41024    0.000
 6563.00    0.96180   0.40129    0.000
 6564.00    0.96877   0.39800    0.000
 6565.00    0.92020   0.40059    0.000
 6566.00    0.83071   0.40855    0.000
 6567.00    0.72613   0.42045    0.000
 6568.00    0.63168   0.43440    0.000
 6569.00    0.56498   0.44866    0.000
 6570.00    0.52888   0.46149    0.000
 6571.00    0.51267   0.47173    0.000
 6572.00    0.50559   0.47949    0.000
 6573.00    0.50171   0.48564    0.000
 6574.00    0.50030   0.49100    0.000
 6575.00    0.50406   0.49612    0.000
 6576.00    0.51405   0.50125    0.000
 6577.00    0.52918   0.50631    0.000
 6578.00    0.54942   0.51108    0.000
 6579.00    0.57660   0.51541    0.000
 6580.00    0.61427   0.51919    0.000
 6581.00    0.66444   0.52241    0.000
 6582.00    0.72033   0.52505    0.000
 6583.00    0.76791   0.52715    0.000
 6584.00    0.79386   0.52885    0.000
 6585.00    0.78985   0.53032    0.000
 6586.00    0.75737   0.53175    0.000
 6587.00    0.70683   0.53315    0.000
 6588.00    0.65328   0.53438    0.000
 6589.00    0.61072   0.53519    0.000
 6590.00    0.58335   0.53531    0.000
 6591.00    0.56769   0.53463    0.000
 6592.00    0.55912   0.53348    0.000
 6593.00    0.55406   0.53247    0.000
 6594.00    0.55132   0.53190    0.000
 6595.00    0.55090   0.53183    0.000
 6596.00    0.55174   0.53233    0.000
 6597.00    0.55222   0.53343    0.000
 6598.00    0.55127   0.53511    0.000
 6599.00    0.54885   0.53725    0.000
 6600.00    0.54627   0.53943    0.000
 6601.00    0.54490   0.54120    0.000
 6602.00    0.54463   0.54237    0.000
 6603.00    0.54434   0.54297    0.000
 6604.00    0.54274   0.54304    0.000
 6605.00    0.53989   0.54265    0.000
 6606.00    0.53829   0.54183    0.000
 6607.00    0.53972   0.54072    0.000
 6608.00    0.54212   0.53968    0.000
 6609.00    0.54272   0.53914   51.723
 6610.00    0.54122   0.53926   52.687
 6611.00    0.53828   0.53984   52.043
 6612.00    0.53428   0.54073   51.539
 6613.00    0.53081   0.54188   52.630
 6614.00    0.53158   0.54323   53.766
 6615.00    0.53768   0.54459   53.270
 6616.00    0.54464   0.54579   52.087
 6617.00    0.54836   0.54673   51.669
 6618.00    0.54939   0.54747   52.427
 6619.00    0.55003   0.54804   53.693
 6620.00    0.55201   0.54838   53.795
 6621.00    0.55501   0.54834   52.520
 6622.00    0.55638   0.54782   52.049
 6623.00    0.55442   0.54690   53.201
 6624.00    0.55018   0.54584   54.051
 6625.00    0.54572   0.54485   53.264
 6626.00    0.54271   0.54400   52.034
 6627.00    0.54067   0.54329   51.496
 6628.00    0.53702   0.54269   51.649
 6629.00    0.53176   0.54211   52.085
 6630.00    0.52872   0.54147   52.329
 6631.00    0.53043   0.54063   52.133
 6632.00    0.53600   0.53956   51.632
 6633.00    0.54241   0.53850   51.331
 6634.00    0.54606   0.53784   51.848
 6635.00    0.54614   0.53772   53.104
 6636.00    0.54510   0.53810   54.149
 6637.00    0.54535   0.53883   54.159
 6638.00    0.54765   0.53971   53.130
 6639.00    0.55044   0.54060   52.141
 6640.00    0.55082   0.54133   52.517
 6641.00    0.54854   0.54155   53.783
 6642.00    0.54598   0.54117   53.944
 6643.00    0.54432   0.54055   52.977
 6644.00    0.54311   0.54005   52.707
 6645.00    0.54255   0.53977   53.260
 6646.00    0.54345   0.53974   53.196
 6647.00    0.54583   0.53997   52.156
 6648.00    0.54866   0.54047   51.073
 6649.00    0.55064   0.54121   50.773
 6650.00    0.55080   0.54200   51.555
 6651.00    0.54965   0.54264   52.805
 6652.00    0.54899   0.54306   53.382
 6653.00    0.55092   0.54332   53.123
 6654.00    0.55665   0.54345   52.722
 6655.00    0.56471   0.54340   52.534
 6656.00    0.57171   0.54321   52.572
 6657.00    0.57449   0.54288   52.912
 6658.00    0.57163   0.54237   53.533
 6659.00    0.56534   0.54161   53.910
 6660.00    0.55925   0.54056   53.556
 6661.00    0.55437   0.53921   53.028
 6662.00    0.55014   0.53766   53.088
 6663.00    0.54690   0.53625   53.378
 6664.00    0.54525   0.53517   53.236
 6665.00    0.54472   0.53444   53.082
 6666.00    0.54388   0.53416   53.552
 6667.00    0.54090   0.53439   54.187
 6668.00    0.53585   0.53513   54.219
 6669.00    0.53293   0.53627   53.832
 6670.00    0.53518   0.53750   53.585
 6671.00    0.53845   0.53851   53.564
 6672.00    0.53755   0.53917   53.624
 6673.00    0.53326   0.53938   53.708
 6674.00    0.52933   0.53894   53.699
 6675.00    0.52853   0.53761   53.292
 6676.00    0.53179   0.53536   52.524
 6677.00    0.53779   0.53278   52.125
 6678.00    0.54377   0.53070   52.551
 6679.00    0.54668   0.52954   53.294
 6680.00    0.54565   0.52931   53.763
 6681.00    0.54352   0.52997   54.055
 6682.00    0.54291   0.53144   54.246
 6683.00    0.54344   0.53355   53.862
 6684.00    0.54413   0.53591   52.875
 6685.00    0.54523   0.53796   52.178
 6686.00    0.54696   0.53938   52.255
 6687.00    0.54866   0.54021   52.566
 6688.00    0.54961   0.54071   52.526
 6689.00    0.54950   0.54096   52.159
 6690.00    0.54884   0.54101   51.952
 6691.00    0.54876   0.54089   52.521
 6692.00    0.54948   0.54059   53.434
 6693.00    0.54955   0.54008   52.995
 6694.00    0.54676   0.53928   51.421
 6695.00    0.53952   0.53825   51.263
 6696.00    0.53076   0.53717    0.000
 6697.00    0.52765   0.53624    0.000
 6698.00    0.53179   0.53560    0.000
 6699.00    0.53700   0.53530    0.000
 6700.00    0.53866   0.53524    0.000
 6701.00    0.53724   0.53529    0.000
 6702.00    0.53543   0.53535    0.000
 6703.00    0.53608   0.53532    0.000
 6704.00    0.53861   0.53523    0.000
 6705.00    0.53954   0.53507    0.000
 6706.00    0.53857   0.53484    0.000
 6707.00    0.53858   0.53459    0.000
 6708.00    0.53914   0.53437    0.000
 6709.00    0.53703   0.53417    0.000
 6710.00    0.53368   0.53399    0.000
 6711.00    0.53549   0.53366    0.000
 6712.00    0.54821   0.53304    0.000
 6713.00    0.57412   0.53213    0.000
 6714.00    0.60917   0.53097    0.000
 6715.00    0.64461   0.52957    0.000
 6716.00    0.67255   0.52815    0.000
 6717.00    0.68748   0.52710    0.000
 6718.00    0.68641   0.52666    0.000
 6719.00    0.66938   0.52677    0.000
 6720.00    0.64048   0.52732    0.000
 6721.00    0.60750   0.52825    0.000
 6722.00    0.58050   0.52949    0.000
 6723.00    0.56699   0.53081    0.000
 6724.00    0.56385   0.53188    0.000
 6725.00    0.56298   0.53251    0.000
 6726.00    0.56319   0.53286    0.000
 6727.00    0.56944   0.53314    0.000
 6728.00    0.58796   0.53341    0.000
 6729.00    0.62053   0.53364    0.000
 6730.00    0.65745   0.53380    0.000
 6731.00    0.68408   0.53391    0.000
 6732.00    0.69146   0.53396    0.000
 6733.00    0.67755   0.53390    0.000
 6734.00    0.64702   0.53370    0.000
 6735.00    0.60952   0.53335    0.000
 6736.00    0.57718   0.53279    0.000
 6737.00    0.55804   0.53201    0.000
 6738.00    0.54925   0.53117    0.000
 6739.00    0.54391   0.53044    0.000
 6740.00    0.53908   0.52976    0.000
 6741.00    0.53465   0.52900    0.000
 6742.00    0.53140   0.52824    0.000
 6743.00    0.53028   0.52766    0.000
 6744.00    0.53177   0.52729    0.000
 6745.00    0.53521   0.52702    0.000
 6746.00    0.53855   0.52670    0.000
 6747.00    0.54005   0.52629    0.000
 6748.00    0.53969   0.52587    0.000
 6749.00    0.53843   0.52556    0.000
 6750.00    0.53740   0.52535    0.000
 6751.00    0.53680   0.52520    0.000
 6752.00    0.53549   0.52519    0.000
 6753.00    0.53283   0.52550   51.553
 6754.00    0.52970   0.52609   51.271
 6755.00    0.52677   0.52689   51.337
 6756.00    0.52378   0.52790   51.925
 6757.00    0.52281   0.52900   51.557
 6758.00    0.52844   0.53010   47.545
 6759.00    0.53898   0.53115   41.067
 6760.00    0.54388   0.53192   35.699
 6761.00    0.53580   0.53234   32.536
 6762.00    0.51652   0.53248   31.206
 6763.00    0.49437   0.53229   31.373
 6764.00    0.48083   0.53170   32.897
 6765.00    0.48186   0.53068   35.406
 6766.00    0.49515   0.52935   37.845
 6767.00    0.51527   0.52802   38.967
 6768.00    0.53638   0.52692   38.343
 6769.00    0.55432   0.52600   36.922
 6770.00    0.56720   0.52529   36.215
 6771.00    0.57470   0.52503   36.886
 6772.00    0.57744   0.52536   38.777
 6773.00    0.57559   0.52624   41.249
 6774.00    0.56925   0.52739   43.180
 6775.00    0.56066   0.52855   43.857
 6776.00    0.55361   0.52962   43.537
 6777.00    0.54942   0.53062   42.885
 6778.00    0.54693   0.53139   42.541
 6779.00    0.54587   0.53170   42.938
 6780.00    0.54656   0.53147   44.239
 6781.00    0.54693   0.53073   46.073
 6782.00    0.54390   0.52956   47.508
 6783.00    0.53833   0.52820   47.714
 6784.00    0.53337   0.52691   46.500
 6785.00    0.52831   0.52584   44.521
 6786.00    0.52045   0.52514   42.699
 6787.00    0.51166   0.52487   41.543
 6788.00    0.50728   0.52494   41.224
 6789.00    0.51123   0.52530   41.746
 6790.00    0.52363   0.52579   42.893
 6791.00    0.53850   0.52614   44.011
 6792.00    0.54781   0.52619   44.370
 6793.00    0.54894   0.52598   44.135
 6794.00    0.54453   0.52564   43.739
 6795.00    0.54006   0.52531   42.630
 6796.00    0.53950   0.52509   40.457
 6797.00    0.53973   0.52498   38.504
 6798.00    0.53704   0.52502   37.963
 6799.00    0.53647   0.52524   38.605
 6800.00    0.54262   0.52557   39.847
 6801.00    0.54692   0.52586   42.015
 6802.00    0.54062   0.52599   45.491
 6803.00    0.53148   0.52596   48.722
 6804.00    0.53078   0.52582   49.447
 6805.00    0.53702   0.52554   48.504
 6806.00    0.54397   0.52513   47.495
 6807.00    0.55070   0.52471   45.688
 6808.00    0.55721   0.52427   42.574
 6809.00    0.55966   0.52385   39.628
 6810.00    0.55401   0.52355   38.180
 6811.00    0.54003   0.52332   38.664
 6812.00    0.52214   0.52311   41.025
 6813.00    0.50905   0.52288   44.426
 6814.00    0.50697   0.52267   47.386
 6815.00    0.51453   0.52267   48.577
 6816.00    0.52589   0.52286   47.069
 6817.00    0.53427   0.52303   42.802
 6818.00    0.53817   0.52311   37.753
 6819.00    0.54389   0.52320   34.333
 6820.00    0.55349   0.52346   33.010
 6821.00    0.55872   0.52388   32.970
 6822.00    0.55444   0.52426   33.911
 6823.00    0.54559   0.52453   36.639
 6824.00    0.53693   0.52474   41.195
 6825.00    0.52780   0.52486   44.484
 6826.00    0.51777   0.52474   44.218
 6827.00    0.50920   0.52434   43.449
 6828.00    0.50394   0.52384   44.482
 6829.00    0.50202   0.52343   46.600
 6830.00    0.50358   0.52312   48.588
 6831.00    0.50912   0.52287   49.939
 6832.00    0.51649   0.52274   50.158
 6833.00    0.52090   0.52282   48.646
 6834.00    0.52092   0.52297   45.692
 6835.00    0.51981   0.52288   42.400
 6836.00    0.52105   0.52233   39.828
 6837.00    0.52602   0.52132   38.667
 6838.00    0.53230   0.51994   39.104
 6839.00    0.53485   0.51827   40.981
 6840.00    0.53207   0.51642   43.718
 6841.00    0.52666   0.51469   45.920
 6842.00    0.52198   0.51347   45.626
 6843.00    0.52043   0.51300   42.111
 6844.00    0.52230   0.51323   37.676
 6845.00    0.52560   0.51401   34.790
 6846.00    0.52653   0.51520   33.909
 6847.00    0.52167   0.51666   34.729
 6848.00    0.51268   0.51812   37.215
 6849.00    0.50539   0.51928   41.504
 6850.00    0.50457   0.51998   47.020
 6851.00    0.51139   0.52026   51.643
 6852.00    0.52085   0.52014   53.177
 6853.00    0.52569   0.51953   51.697
 6854.00    0.52523   0.51851   49.599
 6855.00    0.52383   0.51738   48.884
 6856.00    0.52438   0.51633   48.872
 6857.00    0.52683   0.51541   47.869
 6858.00    0.52799   0.51466   46.286
 6859.00    0.52466   0.51407   45.516
 6860.00    0.51864   0.51370   45.791
 6861.00    0.51379   0.51372   46.506
 6862.00    0.51012   0.51413   46.852
 6863.00    0.50614   0.51470   46.350
 6864.00    0.50341   0.51519   45.514
 6865.00    0.50444   0.51544   44.985
 6866.00    0.50899   0.51550   44.479
 6867.00    0.51460   0.51549   43.836
 6868.00    0.51816   0.51542   44.233
 6869.00    0.51850   0.51516   46.587
 6870.00    0.51882   0.51468   49.278
 6871.00    0.52219   0.51414   49.249
 6872.00    0.52651   0.51386   45.961
 6873.00    0.52865   0.51392   41.608
 6874.00    0.52920   0.51413   38.540
 6875.00    0.52977   0.51439   37.651
 6876.00    0.53008   0.51473   38.578
 6877.00    0.52993   0.51516   40.633
 6878.00    0.53078   0.51554   43.044
 6879.00    0.53216   0.51566   45.114
 6880.00    0.52926   0.51543   46.667
 6881.00    0.52025   0.51495   47.671
 6882.00    0.51125   0.51446   47.798
 6883.00    0.50736   0.51411   47.295
 6884.00    0.50655   0.51391   47.390
 6885.00    0.50601   0.51390   48.645
 6886.00    0.50652   0.51426   50.022
 6887.00    0.50931   0.51510   50.471
 6888.00    0.51385   0.51622   50.301
 6889.00    0.51802   0.51733   50.222
 6890.00    0.51897   0.51825   50.577
 6891.00    0.51677   0.51894   51.219
 6892.00    0.51546   0.51940   51.564
 6893.00    0.51692   0.51955   51.429
 6894.00    0.51852   0.51934   51.278
 6895.00    0.51767   0.51892   50.976
 6896.00    0.51414   0.51850   49.630
 6897.00    0.50954   0.51812   47.594
 6898.00    0.50645   0.51777   46.385
 6899.00    0.50603   0.51746   46.197
 6900.00    0.50742   0.51736   45.832
 6901.00    0.50953   0.51748   45.109
 6902.00    0.51196   0.51764   45.061
 6903.00    0.51589   0.51772   45.363
 6904.00    0.52290   0.51774   44.321
 6905.00    0.52982   0.51783   42.321
 6906.00    0.52964   0.51800   41.439
 6907.00    0.52060   0.51805   42.083
 6908.00    0.50767   0.51794   43.144
 6909.00    0.49749   0.51769   44.225
 6910.00    0.49498   0.51727   45.978
 6911.00    0.49866   0.51668   48.418
 6912.00    0.50204   0.51582   50.571
 6913.00    0.50124   0.51475   51.868
 6914.00    0.49663   0.51378   52.533
 6915.00    0.49184   0.51302   52.575
 6916.00    0.49133   0.51251   51.844
 6917.00    0.49573   0.51240   50.943
 6918.00    0.50158   0.51269   50.715
 6919.00    0.50342   0.51333   51.030
 6920.00    0.49725   0.51411   51.119
 6921.00    0.48633   0.51471   50.714
 6922.00    0.47819   0.51494   50.080
 6923.00    0.47670   0.51471   49.557
 6924.00    0.48123   0.51411   49.338
 6925.00    0.48799   0.51340   49.284
 6926.00    0.49313   0.51278   49.187
 6927.00    0.49718   0.51229   49.219
 6928.00    0.50233   0.51198   49.553
 6929.00    0.50716   0.51195   49.693
 6930.00    0.50850   0.51217   49.267
 6931.00    0.50542   0.51241   49.259
 6932.00    0.49902   0.51247   50.546
 6933.00    0.49133   0.51248   51.787
 6934.00    0.48500   0.51253   51.122
 6935.00    0.48284   0.51257   49.411
 6936.00    0.48628   0.51260   48.283
 6937.00    0.49358   0.51271   47.772
 6938.00    0.50098   0.51301   47.333
 6939.00    0.50450   0.51336   46.849
 6940.00    0.50242   0.51352   46.231
 6941.00    0.49750   0.51336   45.034
 6942.00    0.49340   0.51286   43.347
 6943.00    0.49119   0.51205   42.258
 6944.00    0.49120   0.51108   42.351
 6945.00    0.49481   0.51024   42.856
 6946.00    0.50214   0.50963   43.044
 6947.00    0.51029   0.50922   43.412
 6948.00    0.51582   0.50903   44.373
 6949.00    0.51698   0.50901   45.205
 6950.00    0.51459   0.50910   45.423
 6951.00    0.51206   0.50922   45.893
 6952.00    0.51144   0.50923   47.237
 6953.00    0.51130   0.50907   48.703
 6954.00    0.51069   0.50890   49.284
 6955.00    0.51113   0.50888   48.845
 6956.00    0.51199   0.50912   48.106
 6957.00    0.50887   0.50951   48.100
 6958.00    0.50128   0.50996   48.675
 6959.00    0.49543   0.51042   48.176
 6960.00    0.49526   0.51091   46.480
 6961.00    0.49852   0.51131   45.635
 6962.00    0.50185   0.51158   46.194
 6963.00    0.50324   0.51177   46.560
 6964.00    0.50137   0.51182   46.251
 6965.00    0.49567   0.51178   46.796
 6966.00    0.48847   0.51179   48.238
 6967.00    0.48438   0.51188   48.318
 6968.00    0.48397   0.51191   46.781
 6969.00    0.48341   0.51175   46.032
 6970.00    0.48256   0.51141   46.720
 6971.00    0.48554   0.51111   47.338
 6972.00    0.49177   0.51073   47.051
 6973.00    0.49541   0.50987   46.445
 6974.00    0.49399   0.50845   45.938
 6975.00    0.48983   0.50667   45.489
 6976.00    0.48511   0.50468   45.325
 6977.00    0.48078   0.50247   45.880
 6978.00    0.47770   0.50044   47.050
 6979.00    0.47691   0.49920   48.078
 6980.00    0.47941   0.49892   48.059
 6981.00    0.48532   0.49942   46.651
 6982.00    0.49205   0.50061   44.903
 6983.00    0.49661   0.50242   44.205
 6984.00    0.50166   0.50456   44.640
 6985.00    0.51223   0.50647   45.375
 6986.00    0.52580   0.50785   45.751
 6987.00    0.53438   0.50870   45.684
 6988.00    0.53318   0.50907   45.882
 6989.00    0.52281   0.50917   47.068
 6990.00    0.50979   0.50926   48.462
 6991.00    0.50146   0.50939   48.595
 6992.00    0.49721   0.50945   48.008
 6993.00    0.49281   0.50938   48.127
 6994.00    0.49007   0.50932   48.642
 6995.00    0.49249   0.50931   48.373
 6996.00    0.49654   0.50912   47.313
 6997.00    0.49670   0.50854   46.313
 6998.00    0.49438   0.50758   46.111
 6999.00    0.49435   0.50652   46.920
 7000.00    0.49815   0.50566   47.980
 7001.00    0.50357   0.50494   -2.000
 7002.00    0.50544   0.50412   -2.000
 7003.00    0.50059   0.50325   -2.000
 7004.00    0.49319   0.50268   -2.000
 7005.00    0.48870   0.50255   -2.000
 7006.00    0.48686   0.50266   -2.000
 7007.00    0.48541   0.50281   -2.000
 7008.00    0.48446   0.50301   -2.000
 7009.00    0.48484   0.50332   -2.000
 7010.00    0.48601   0.50358   -2.000
 7011.00    0.48702   0.50368   -2.000
 7012.00    0.48748   0.50361   -2.000
 7013.00    0.48791   0.50319   -2.000
 7014.00    0.48964   0.50220   -2.000
 7015.00    0.49226   0.50084   -2.000
 7016.00    0.49217   0.49977   -2.000
 7017.00    0.48720   0.49940   -2.000
 7018.00    0.47980   0.49941   -2.000
 7019.00    0.47429   0.49956   -2.000
 7020.00    0.47441   0.49998   -2.000
 7021.00    0.47999   0.50066   -2.000
 7022.00    0.48607   0.50127   -2.000
 7023.00    0.48981   0.50144   -2.000
 7024.00    0.49339   0.50135   -2.000
 7025.00    0.49601   0.50126   -2.000
 7026.00    0.49145   0.50120   -2.000
 7027.00    0.47971   0.50125   -2.000
 7028.00    0.47051   0.50163   -2.000
 7029.00    0.46958   0.50237   -2.000
 7030.00    0.47346   0.50321   -2.000
 7031.00    0.47770   0.50378   -2.000
 7032.00    0.48086   0.50405   -2.000
 7033.00    0.48454   0.50411   -2.000
 7034.00    0.49155   0.50408   -2.000
 7035.00    0.49885   0.50401   -2.000
 7036.00    0.49835   0.50372   -2.000
 7037.00    0.49012   0.50326   -2.000
 7038.00    0.48343   0.50316   -2.000
 7039.00    0.48270   0.50381   -2.000
 7040.00    0.48490   0.50493   -2.000
 7041.00    0.48743   0.50608   -2.000
 7042.00    0.48994   0.50721   -2.000
 7043.00    0.49168   0.50847   -2.000
 7044.00    0.49123   0.50971   -2.000
 7045.00    0.48816   0.51064   -2.000
 7046.00    0.48387   0.51120   -2.000
 7047.00    0.48282   0.51141   -2.000
 7048.00    0.48924   0.51130   -2.000
 7049.00    0.49892   0.51095   -2.000
 7050.00    0.50337   0.51040   -2.000
 7051.00    0.50377   0.50945   -2.000
 7052.00    0.50725   0.50806   -2.000
 7053.00    0.51209   0.50657   -2.000
 7054.00    0.51069   0.50517   -2.000
 7055.00    0.50174   0.50400   -2.000
 7056.00    0.49017   0.50305   -2.000
 7057.00    0.48216   0.50239   -2.000
 7058.00    0.48150   0.50198   -2.000
 7059.00    0.48518   0.50165   -2.000
 7060.00    0.48695   0.50143   -2.000
 7061.00    0.48433   0.50124   -2.000
 7062.00    0.47792   0.50099   -2.000
 7063.00    0.46867   0.50075   -2.000
 7064.00    0.45869   0.50055   -2.000
 7065.00    0.45270   0.50031   -2.000
 7066.00    0.45419   0.49988   -2.000
 7067.00    0.46041   0.49925   -2.000
 7068.00    0.46705   0.49878   -2.000
 7069.00    0.47458   0.49861   -2.000
 7070.00    0.48337   0.49860   -2.000
 7071.00    0.48775   0.49881   -2.000
 7072.00    0.48269   0.49940   -2.000
 7073.00    0.47157   0.50037   -2.000
 7074.00    0.46081   0.50142   -2.000
 7075.00    0.45364   0.50216   -2.000
 7076.00    0.45109   0.50256   -2.000
 7077.00    0.45326   0.50275   -2.000
 7078.00    0.45852   0.50267   -2.000
 7079.00    0.46288   0.50231   -2.000
 7080.00    0.46204   0.50166   -2.000
 7081.00    0.45369   0.50058   -2.000
 7082.00    0.44257   0.49898   -2.000
 7083.00    0.44187   0.49681   -2.000
 7084.00    0.45543   0.49446   -2.000
 7085.00    0.46763   0.49229   -2.000
 7086.00    0.46500   0.49023   -2.000
 7087.00    0.45042   0.48830   -2.000
 7088.00    0.43409   0.48671   -2.000
 7089.00    0.42601   0.48568   -2.000
 7090.00    0.42886   0.48525   -2.000
 7091.00    0.43596   0.48500   -2.000
 7092.00    0.44276   0.48473   -2.000
 7093.00    0.45143   0.48461   -2.000
 7094.00    0.46142   0.48472   -2.000
 7095.00    0.46608   0.48507   -2.000
 7096.00    0.46213   0.48560   -2.000
 7097.00    0.45319   0.48626   -2.000
 7098.00    0.44419   0.48732   -2.000
 7099.00    0.43876   0.48848   -2.000
 7100.00    0.43947   0.48951   -2.000
 7101.00    0.44711   0.49037   -2.000
 7102.00    0.45715   0.49115   -2.000
 7103.00    0.46098   0.49196   -2.000
 7104.00    0.45567   0.49245   -2.000
 7105.00    0.44590   0.49246   -2.000
 7106.00    0.43789   0.49210   -2.000
 7107.00    0.43669   0.49169   -2.000
 7108.00    0.44472   0.49131   -2.000
 7109.00    0.46060   0.49063   -2.000
 7110.00    0.47708   0.48963   -2.000
 7111.00    0.48433   0.48868   -2.000
 7112.00    0.48019   0.48817   -2.000
 7113.00    0.46990   0.48795   -2.000
 7114.00    0.45782   0.48779   -2.000
 7115.00    0.44682   0.48781   -2.000
 7116.00    0.44218   0.48807   -2.000
 7117.00    0.44765   0.48841   -2.000
 7118.00    0.45453   0.48860   -2.000
 7119.00    0.45011   0.48857   -2.000
 7120.00    0.44005   0.48839   -2.000
 7121.00    0.43977   0.48803   -2.000
 7122.00    0.44821   0.48773   -2.000
 7123.00    0.45377   0.48762   -2.000
 7124.00    0.45464   0.48747   -2.000
 7125.00    0.45636   0.48719   -2.000
 7126.00    0.46103   0.48692   -2.000
 7127.00    0.46769   0.48685   -2.000
 7128.00    0.47605   0.48665   -2.000
 7129.00    0.48579   0.48599   -2.000
 7130.00    0.49478   0.48527   -2.000
 7131.00    0.49900   0.48503   -2.000
 7132.00    0.49318   0.48527   -2.000
 7133.00    0.47721   0.48571   -2.000
 7134.00    0.46334   0.48625   -2.000
 7135.00    0.46238   0.48716   -2.000
 7136.00    0.46656   0.48846   -2.000
 7137.00    0.46330   0.48962   -2.000
 7138.00    0.45309   0.49027   -2.000
 7139.00    0.44189   0.49059   -2.000
 7140.00    0.43127   0.49090   -2.000
 7141.00    0.42187   0.49105   -2.000
 7142.00    0.41752   0.49083   -2.000
 7143.00    0.41961   0.49035   -2.000
 7144.00    0.42239   0.48990   -2.000
 7145.00    0.42253   0.48941   -2.000
 7146.00    0.42617   0.48850   -2.000
 7147.00    0.43314   0.48726   -2.000
 7148.00    0.42750   0.48633   -2.000
 7149.00    0.41194   0.48590   -2.000
 7150.00    0.42429   0.48581   -2.000
 7151.00    0.45605   0.48607   -2.000
 7152.00    0.41594   0.48683   -2.000
 7153.00    0.29808   0.48805   -2.000
 7154.00    0.25975   0.48925   -2.000
 7155.00    0.36815   0.49028   -2.000
 7156.00    0.47697   0.49129   -2.000
 7157.00    0.48125   0.49195   -2.000
 7158.00    0.44561   0.49198   -2.000
 7159.00    0.43914   0.49161   -2.000
 7160.00    0.45140   0.49123   -2.000
 7161.00    0.45960   0.49083   -2.000
 7162.00    0.46285   0.48994   -2.000
 7163.00    0.46722   0.48852   -2.000
 7164.00    0.47691   0.48720   -2.000
 7165.00    0.49160   0.48654   -2.000
 7166.00    0.50551   0.48654   -2.000
 7167.00    0.50865   0.48681   -2.000
 7168.00    0.49108   0.48731   -2.000
 7169.00    0.45714   0.48835   -2.000
 7170.00    0.42654   0.48994   -2.000
 7171.00    0.41760   0.49161   -2.000
 7172.00    0.43757   0.49287   -2.000
 7173.00    0.47185   0.49359   -2.000
 7174.00    0.49195   0.49383   -2.000
 7175.00    0.49119   0.49367   -2.000
 7176.00    0.48523   0.49332   -2.000
 7177.00    0.47931   0.49280   -2.000
 7178.00    0.46602   0.49189   -2.000
 7179.00    0.44674   0.49052   -2.000
 7180.00    0.43198   0.48912   -2.000
 7181.00    0.42638   0.48822   -2.000
 7182.00    0.42763   0.48773   -2.000
 7183.00    0.43357   0.48716   -2.000
 7184.00    0.44322   0.48642   -2.000
 7185.00    0.45505   0.48579   -2.000
 7186.00    0.46569   0.48521   -2.000
 7187.00    0.46830   0.48455   -2.000
 7188.00    0.45738   0.48375   -2.000
 7189.00    0.43849   0.48297   -2.000
 7190.00    0.42413   0.48246   -2.000
 7191.00    0.42244   0.48219   -2.000
 7192.00    0.43333   0.48224   -2.000
 7193.00    0.44594   0.48278   -2.000
 7194.00    0.44812   0.48371   -2.000
 7195.00    0.44169   0.48455   -2.000
 7196.00    0.43644   0.48500   -2.000
 7197.00    0.43730   0.48546   -2.000
 7198.00    0.44336   0.48613   -2.000
 7199.00    0.44948   0.48669   -2.000
 7200.00    0.45048   0.48680   -2.000
 7201.00    0.44636   0.48663   -2.000
 7202.00    0.44292   0.48664   -2.000
 7203.00    0.45090   0.48676   -2.000
 7204.00    0.47551   0.48652   -2.000
 7205.00    0.50542   0.48569   -2.000
 7206.00    0.52279   0.48453   -2.000
 7207.00    0.51579   0.48369   -2.000
 7208.00    0.48330   0.48321   -2.000
 7209.00    0.43762   0.48285   -2.000
 7210.00    0.39850   0.48268   -2.000
 7211.00    0.38558   0.48287   -2.000
 7212.00    0.40419   0.48353   -2.000
 7213.00    0.43574   0.48441   -2.000
 7214.00    0.45874   0.48522   -2.000
 7215.00    0.46654   0.48586   -2.000
 7216.00    0.46422   0.48631   -2.000
 7217.00    0.46316   0.48668   -2.000
 7218.00    0.46574   0.48697   -2.000
