###################################################################
## OUTPUT of StarlightChains_v04.for    [Cid@UFSC - 01/Apr/2007] ##
###################################################################

## Some input info
2002ha.txt                               [arq_obs]
Base.CB07.vall.4m                        [arq_base]
Masks.EmLines.NEW.gm                     [arq_masks]
StCv04.C11.config                        [arq_config]
   66                                    [N_base]
    0                                    [N_YAV_components = # of components with extra extinction!]
    0                                    [i_FitPowerLaw (1/0 = Yes/No)]
-9.99                                    [alpha_PowerLaw]
CCM                                      [red_law_option]
 1.458241                                [q_norm = A(l_norm)/A(V)]

## (Re)Sampling Parameters
 3741.00                                 [l_ini (A)]
 7218.00                                 [l_fin (A)]
    1.00                                 [dl    (A)]     (OBS: dl_cushion =    50.00 A)

## Normalization info
 4020.00                                 [l_norm (A) - for base]
 4010.00                                 [llow_norm (A) - window for f_obs]
 4060.00                                 [lupp_norm (A) - window for f_obs]
3.864440E-17                             [fobs_norm (in input units)]

## S/N
 3691.00                                 [llow_SN (A) - window for S/N]
 7268.00                                 [lupp_SN (A) - window for S/N]
   4.884                                 [S/N in S/N window]
   4.712                                 [S/N in norm. window]
   3.850                                 [S/N_err in S/N window]
   3.714                                 [S/N_err in norm. window]
  1.0000                                 [fscale_chi2]

## etc...
    -2007266                             [idum_orig]
  2361                                   [NOl_eff]
  2358                                   [Nl_eff]
     3    NSIGMA                         [Ntot_cliped & clip_method]
  1302910                                [Nglobal_steps]
   7                                     [N_chains]
  26                                     [NEX0s_base = N_base in EX0s-fits]
 0   0   1       40   2.0   7.771E+00    [Clip-Bug, RC-Crash & Burn-In warning-flags, n_censored_weights, wei_nsig_threshold & wei_limit]
    14     14.023     13.526      0.496  [idt_all, wdt_TotTime, wdt_UsrTime & wdt_SysTime (sec)]

## Synthesis Results - Best model ##

 3.64201E-01                             [chi2/Nl_eff]
    18.46389                             [adev (%)]

   103.39904                             [sum-of-x (%)]
 4.39990E-17                             [Flux_tot (units of input spectrum!)]
 1.34804E-12                             [Mini_tot (???)]
 7.03601E-13                             [Mcor_tot (???)]

-163.97                                  [v0_min  (km/s)]
 159.56                                  [vd_min  (km/s)]
 0.0717                                  [AV_min  (mag)]
 0.0000                                  [YAV_min (mag)]

# j     x_j(%)      Mini_j(%)     Mcor_j(%)     age_j(yr)     Z_j      (L/M)_j    YAV?  Mstars   component_j        a/Fe...       SSP_chi2r SSP_adev(%)   SSP_AV   SSP_x(%)
  1      3.4456     9.9420E-03    1.9048E-02    1.000000E+06  0.00400  1.094E-02    0   1.0000   age020_m42            0.0000     4.4290E-01    21.5276   3.2550    88.7618
  2      0.0000     0.0000E+00    0.0000E+00    3.160000E+06  0.00400  4.007E-02    0   0.9999   age045_m42            0.0000     4.2991E-01    20.4119   2.5269    95.0023
  3      0.0000     0.0000E+00    0.0000E+00    5.010000E+06  0.00400  2.539E-02    0   0.9488   age055_m42            0.0000     4.3226E-01    20.8421   2.8411    92.9037
  4      0.0000     0.0000E+00    0.0000E+00    6.610000E+06  0.00400  2.620E-02    0   0.9220   age061_m42            0.0000     4.2590E-01    20.3308   2.4397    95.8202
  5      0.0000     0.0000E+00    0.0000E+00    1.000000E+07  0.00400  1.322E-02    0   0.8862   age070_m42            0.0000     4.1790E-01    21.2859   2.0636   102.2643
  6      0.0000     0.0000E+00    0.0000E+00    1.445000E+07  0.00400  7.883E-03    0   0.8571   age078_m42            0.0000     4.2330E-01    21.5200   2.3999    99.2267
  7      0.0000     0.0000E+00    0.0000E+00    2.512000E+07  0.00400  5.251E-03    0   0.8174   age090_m42            0.0000     4.1908E-01    21.4573   1.9157   103.7201
  8      0.0000     0.0000E+00    0.0000E+00    4.000000E+07  0.00400  3.649E-03    0   0.7851   age104_m42            0.0000     4.1502E-01    21.1143   1.6986   104.0843
  9      0.0000     0.0000E+00    0.0000E+00    5.500000E+07  0.00400  3.098E-03    0   0.7629   age110_m42            0.0000     4.1580E-01    20.4156   1.8942   102.0626
 10      0.0000     0.0000E+00    0.0000E+00    1.015200E+08  0.00400  2.228E-03    0   0.7207   age116_m42            0.0000     4.1562E-01    19.9430   1.9394   101.0830
 11      0.0000     0.0000E+00    0.0000E+00    2.861200E+08  0.00400  1.093E-03    0   0.6648   age125_m42            0.0000     4.1742E-01    20.0763   1.3268   106.1966
 12      0.0000     0.0000E+00    0.0000E+00    5.088000E+08  0.00400  6.597E-04    0   0.6365   age130_m42            0.0000     4.0800E-01    19.2211   1.3615   104.9107
 13      0.0000     0.0000E+00    0.0000E+00    1.434000E+09  0.00400  2.132E-04    0   0.5798   age139_m42            0.0000     3.8257E-01    18.6346   0.4183   105.6777
 14      0.0000     0.0000E+00    0.0000E+00    4.250000E+09  0.00400  5.895E-05    0   0.5377   age158_m42            0.0000     3.7645E-01    18.4984   0.0462    98.4463
 15      0.0000     0.0000E+00    0.0000E+00    7.500000E+09  0.00400  3.510E-05    0   0.5212   age171_m42            0.0000     3.7418E-01    18.2686  -0.1162    96.6669
 16      0.0001     1.5603E-04    1.5049E-04    1.300000E+10  0.00400  2.005E-05    0   0.5034   age193_m42            0.0000     3.7362E-01    18.1069  -0.2585    95.1569
 17      0.0000     0.0000E+00    0.0000E+00    1.800000E+10  0.00400  1.525E-05    0   0.4967   age213_m42            0.0000     3.7492E-01    18.2164  -0.2881    95.0034
 18      0.0000     0.0000E+00    0.0000E+00    1.000000E+06  0.00800  1.238E-02    0   1.0000   age020_m52            0.0000     4.4236E-01    21.5313   3.2513    88.9387
 19      0.0000     0.0000E+00    0.0000E+00    3.160000E+06  0.00800  3.074E-02    0   0.9966   age045_m52            0.0000     4.4116E-01    21.4195   3.1793    89.5449
 20      0.0000     0.0000E+00    0.0000E+00    5.010000E+06  0.00800  2.668E-02    0   0.9443   age055_m52            0.0000     4.3158E-01    21.0455   2.9202    92.2230
 21      6.0743     8.9768E-03    1.5783E-02    6.610000E+06  0.00800  2.136E-02    0   0.9177   age061_m52            0.0000     3.9977E-01    21.1149   1.5786   102.7460
 22      1.7048     4.4293E-03    7.4907E-03    1.000000E+07  0.00800  1.215E-02    0   0.8827   age070_m52            0.0000     4.2094E-01    21.8721   2.2135   103.4333
 23      0.9079     3.2878E-03    5.3871E-03    1.445000E+07  0.00800  8.717E-03    0   0.8552   age078_m52            0.0000     4.1886E-01    21.4406   2.3615   100.7898
 24      0.0000     0.0000E+00    0.0000E+00    2.512000E+07  0.00800  5.592E-03    0   0.8162   age090_m52            0.0000     4.1694E-01    21.4816   1.9719   105.3190
 25      1.6525     1.3389E-02    2.0114E-02    4.000000E+07  0.00800  3.896E-03    0   0.7841   age104_m52            0.0000     4.1497E-01    21.0102   1.9024   105.2388
 26      1.9592     2.8791E-02    3.9860E-02    1.015200E+08  0.00800  2.148E-03    0   0.7226   age116_m52            0.0000     4.1126E-01    20.2268   1.8832   103.0263
 27      4.8650     1.5473E-01    1.9812E-01    2.861200E+08  0.00800  9.925E-04    0   0.6683   age125_m52            0.0000     4.0279E-01    19.2148   1.4228   106.0787
 28      0.0000     0.0000E+00    0.0000E+00    9.047900E+08  0.00800  3.141E-04    0   0.6138   age135_m52            0.0000     3.8649E-01    18.2984   0.6814   107.6487
 29      0.0000     0.0000E+00    0.0000E+00    1.434000E+09  0.00800  1.719E-04    0   0.5853   age139_m52            0.0000     3.7811E-01    18.4694   0.1088   105.0696
 30      0.0000     0.0000E+00    0.0000E+00    2.500000E+09  0.00800  7.872E-05    0   0.5600   age150_m52            0.0000     3.6963E-01    17.8794  -0.0856    98.9032
 31      0.0000     0.0000E+00    0.0000E+00    4.250000E+09  0.00800  4.336E-05    0   0.5426   age158_m52            0.0000     3.7080E-01    17.9291  -0.0946    97.6976
 32      0.0000     0.0000E+00    0.0000E+00    6.250000E+09  0.00800  3.159E-05    0   0.5319   age166_m52            0.0000     3.7118E-01    17.5595  -0.2607    96.1217
 33      0.0000     0.0000E+00    0.0000E+00    1.300000E+10  0.00800  1.361E-05    0   0.5073   age193_m52            0.0000     3.7507E-01    17.1698  -0.6819    93.4945
 34      0.0204     6.5044E-02    6.2185E-02    1.800000E+10  0.00800  9.886E-06    0   0.4990   age213_m52            0.0000     3.8085E-01    16.9699  -0.7500    91.3913
 35      0.0000     0.0000E+00    0.0000E+00    1.000000E+06  0.02000  1.544E-02    0   1.0000   age020_m62            0.0000     4.4261E-01    21.5672   3.2477    89.1338
 36      2.1998     1.8458E-03    3.4863E-03    3.160000E+06  0.02000  3.762E-02    0   0.9858   age045_m62            0.0000     4.4287E-01    21.5262   3.1888    89.8220
 37      0.0000     0.0000E+00    0.0000E+00    5.010000E+06  0.02000  3.296E-02    0   0.9342   age055_m62            0.0000     4.3024E-01    20.5342   2.8115    93.6063
 38      0.4672     1.2778E-03    2.1694E-03    8.710000E+06  0.02000  1.154E-02    0   0.8861   age067_m62            0.0000     4.6662E-01    25.5528   1.4886   115.5601
 39      1.1715     4.8257E-03    7.8329E-03    1.445000E+07  0.02000  7.663E-03    0   0.8472   age078_m62            0.0000     4.2830E-01    22.8118   1.8011   108.7399
 40      0.0000     0.0000E+00    0.0000E+00    2.512000E+07  0.02000  4.532E-03    0   0.8099   age090_m62            0.0000     4.3387E-01    22.9000   1.7819   109.0275
 41      0.0000     0.0000E+00    0.0000E+00    5.500000E+07  0.02000  2.733E-03    0   0.7595   age110_m62            0.0000     4.1122E-01    21.0096   1.8846   104.5036
 42      0.0000     0.0000E+00    0.0000E+00    1.609000E+08  0.02000  1.369E-03    0   0.6985   age120_m62            0.0000     4.0713E-01    19.7655   1.7709   105.0527
 43      0.0000     0.0000E+00    0.0000E+00    2.861200E+08  0.02000  9.013E-04    0   0.6714   age125_m62            0.0000     4.0149E-01    19.0149   1.5448   106.8732
 44      0.0000     0.0000E+00    0.0000E+00    5.088000E+08  0.02000  5.028E-04    0   0.6449   age130_m62            0.0000     3.9474E-01    18.1353   1.2305   106.5721
 45      0.0000     0.0000E+00    0.0000E+00    9.047900E+08  0.02000  2.428E-04    0   0.6179   age135_m62            0.0000     3.7893E-01    17.9941   0.6767   104.4161
 46      0.0188     4.6942E-03    5.3135E-03    1.434000E+09  0.02000  1.263E-04    0   0.5908   age139_m62            0.0000     3.7236E-01    17.9824   0.2529   101.9314
 47      0.0000     0.0000E+00    0.0000E+00    2.500000E+09  0.02000  5.985E-05    0   0.5673   age150_m62            0.0000     3.7168E-01    17.5752  -0.0565    97.9880
 48      7.1482     6.8982E+00    7.2267E+00    4.250000E+09  0.02000  3.271E-05    0   0.5468   age158_m62            0.0000     3.7630E-01    17.1322  -0.3045    94.7098
 49      0.0000     0.0000E+00    0.0000E+00    1.000000E+10  0.02000  1.360E-05    0   0.5167   age181_m62            0.0000     3.8715E-01    16.8441  -0.5936    91.8669
 50      8.6910     3.8510E+01    3.6987E+01    1.800000E+10  0.02000  7.124E-06    0   0.5013   age213_m62            0.0000     3.9887E-01    16.7555  -0.7531    89.1081
 51      0.0000     0.0000E+00    0.0000E+00    1.000000E+06  0.05000  2.592E-02    0   0.9998   age020_m72            0.0000     4.4335E-01    21.7395   3.2358    89.3035
 52      0.0000     0.0000E+00    0.0000E+00    3.160000E+06  0.05000  4.845E-02    0   0.9577   age045_m72            0.0000     4.3943E-01    21.0702   3.0806    90.6576
 53      0.0000     0.0000E+00    0.0000E+00    5.010000E+06  0.05000  3.072E-02    0   0.9147   age055_m72            0.0000     4.3464E-01    22.3078   2.4501   101.5321
 54      0.0000     0.0000E+00    0.0000E+00    6.610000E+06  0.05000  1.455E-02    0   0.8877   age061_m72            0.0000     6.0428E-01    28.4745   1.4488   121.3793
 55      1.7139     5.9622E-03    9.7370E-03    1.000000E+07  0.05000  9.074E-03    0   0.8524   age070_m72            0.0000     4.8006E-01    22.8410   2.6223   101.7546
 56      5.1997     3.8620E-02    5.8470E-02    2.512000E+07  0.05000  4.250E-03    0   0.7902   age090_m72            0.0000     4.4936E-01    22.0645   2.3200   103.7795
 57      4.5055     4.6072E-02    6.7244E-02    4.000000E+07  0.05000  3.087E-03    0   0.7618   age104_m72            0.0000     4.5147E-01    22.0621   2.0746   106.3648
 58      0.0000     0.0000E+00    0.0000E+00    1.015200E+08  0.05000  1.700E-03    0   0.7096   age116_m72            0.0000     4.1605E-01    20.3433   1.8810   106.1616
 59      0.0000     0.0000E+00    0.0000E+00    2.861200E+08  0.05000  7.384E-04    0   0.6633   age125_m72            0.0000     3.9514E-01    18.5128   1.4420   106.8930
 60      0.0393     3.2491E-03    3.9665E-03    5.088000E+08  0.05000  3.819E-04    0   0.6372   age130_m72            0.0000     3.8244E-01    17.9214   1.0117   105.6185
 61     11.0732     2.0856E+00    2.4414E+00    9.047900E+08  0.05000  1.676E-04    0   0.6110   age135_m72            0.0000     3.7612E-01    17.5748   0.4014    99.8356
 62     10.4234     3.7233E+00    4.1902E+00    1.434000E+09  0.05000  8.837E-05    0   0.5874   age139_m72            0.0000     3.7173E-01    17.5191  -0.0526    99.2342
 63     21.0317     1.5684E+01    1.6821E+01    2.500000E+09  0.05000  4.233E-05    0   0.5598   age150_m72            0.0000     3.7965E-01    17.0436  -0.2865    94.7211
 64      6.4217     1.4126E+01    1.4206E+01    6.250000E+09  0.05000  1.435E-05    0   0.5249   age166_m72            0.0000     3.9279E-01    16.8510  -0.6718    90.7131
 65      0.0000     0.0000E+00    0.0000E+00    1.300000E+10  0.05000  6.513E-06    0   0.5036   age193_m72            0.0000     4.1064E-01    16.8499  -0.8905    89.0897
 66      2.6643     1.8578E+01    1.7601E+01    1.800000E+10  0.05000  4.527E-06    0   0.4945   age213_m72            0.0000     4.2451E-01    16.9321  -1.0000    86.8601


## Synthesis Results - Average & Chains ##

# j      x_j: min, <> & last-chain-values for 1 ...  7 chains
  1      3.4456      0.3898      2.1705      0.0000      0.0000      0.0000      0.0000      1.3348      1.2969
  2      0.0000      0.3746      0.2995      0.0000      0.0000      2.3806      0.0000      0.0000      1.1052
  3      0.0000      0.6930      0.0000      0.0000      0.0000      0.0000      0.0000      0.0000      0.0000
  4      0.0000      0.2929      0.0000      0.0000      0.0000      0.0000      0.0000      3.2588      0.0000
  5      0.0000      0.1998      0.0000      0.6115      0.0000      1.3756      0.0000      0.0000      0.0000
  6      0.0000      0.4127      0.0000      0.0000      0.0000      0.0000      0.0000      0.0000      0.0000
  7      0.0000      0.5531      0.0000      1.6294      1.1132      2.5761      0.9449      3.1302      0.0000
  8      0.0000      0.8032      0.0000      0.0000      5.2344      0.0000      0.7439      0.0000      0.0000
  9      0.0000      0.5713      0.0000      0.0000      0.7663      0.0000      0.0000      0.0000      0.0000
 10      0.0000      0.5207      0.5804      2.1776      0.0000      0.0000      0.0000      0.0000      0.0000
 11      0.0000      0.6929      0.0000      0.0000      0.0000      0.0000      3.0843      0.0000      0.0000
 12      0.0000      0.8913      0.1106      2.0342      1.3429      0.0000      0.0000      0.0000      0.9519
 13      0.0000      5.1376      0.0000      0.0000      1.4057      0.0000      0.0000      0.0000      1.5491
 14      0.0000      1.3472      0.0000      0.1352      0.0000      0.0000      2.3557      0.0000      0.0000
 15      0.0000      0.7541      0.0000      0.0000      0.0000      1.8275      0.0000      0.0000      0.0000
 16      0.0001      0.7536      1.1751      5.6742      0.0000      0.0000      0.0000      0.0000      3.5488
 17      0.0000      1.1059      0.0000      0.0000      0.0000      0.0000      0.3836      0.0000      0.0000
 18      0.0000      0.2385      0.0000      0.8763      1.3175      0.0000      0.1669      0.0000      0.0000
 19      0.0000      0.2837      0.0000      0.0000      0.0000      0.0000      0.0000      0.0000      0.0000
 20      0.0000      0.3714      0.1345      0.0000      2.1423      0.0000      0.0000      0.0000      0.0000
 21      6.0743      0.7181      1.0900      0.0000      1.9952      0.0000      2.4180      0.0000      0.0000
 22      1.7048      0.6576      0.9547      4.1468      0.0000      3.6428      0.0000      0.0000      0.0000
 23      0.9079      0.6353      3.0859      3.3132      0.8830      0.0000      3.0190      0.0000      0.0000
 24      0.0000      0.4909      0.0000      0.0000      1.3850      0.0000      1.0925      3.9701      0.0000
 25      1.6525      0.3384      0.6894      0.0000      0.0000      0.0000      0.0000      0.0000      0.0000
 26      1.9592      0.5532      0.7575      0.0000      0.0000      0.0000      0.0000      2.4553      0.0000
 27      4.8650      0.8773      2.6166      3.4678      0.0000      2.2420      0.0000      0.0000      1.6267
 28      0.0000      3.2627      0.0000      0.0000      0.0000      0.0000      4.5564      0.0000      0.0000
 29      0.0000      3.8734      0.0000      0.0000      1.8966      3.9362      5.4011      0.0000      7.9994
 30      0.0000      2.4558     14.3189      1.1996      0.0000      0.8274      0.0000      3.5470      0.0000
 31      0.0000      1.7629      3.8097      0.6904      1.4097      9.2924      0.0000      0.0000      0.0000
 32      0.0000      1.1114      0.0000      2.0754      4.5402      0.0000      0.0000      0.0000      2.2490
 33      0.0000      0.3995      0.0000      0.0000      2.5009      0.5809      0.0000      0.0000      0.0000
 34      0.0204      0.2213      2.6658      0.0000      0.0000      1.2136      1.0233      0.0000      0.6938
 35      0.0000      0.2114      0.0000      0.0000      1.0194      1.8645      2.0494      0.0000      0.0000
 36      2.1998      0.5303      6.2374      0.0000      0.0000      0.0000      1.0997      0.0000      0.0000
 37      0.0000      0.6346      0.0000      0.5523      0.0000      2.6964      0.0000      0.3006      2.9727
 38      0.4672      0.8424      3.3490      3.1276      0.8277      0.0000      3.7794      0.0000      0.0000
 39      1.1715      0.6053      0.8550      0.0000      0.0000      3.3890      0.0000      5.4566      0.0000
 40      0.0000      0.8899      0.1800      0.7893      3.1841      0.0000      0.0000      0.0000      0.0000
 41      0.0000      1.0463      0.0000      4.5168      0.0000      0.0000      0.3648      0.0000      1.9401
 42      0.0000      0.7987      0.0000      0.0000      0.4239      0.0000      0.0000      0.0334      0.0000
 43      0.0000      0.5036      0.0000      0.0000      1.9513      4.0505      0.0000      0.0000      0.0000
 44      0.0000      0.5678      0.0000      0.0000      0.0000      0.0000      0.0000      0.0000      0.0000
 45      0.0000      4.1064      0.0000      4.1338      0.0000      0.0000      0.0000      0.0000      8.0676
 46      0.0188      9.7164      5.9909      0.4620      2.9533      9.5281      1.1506      6.7723      0.0000
 47      0.0000      1.5113      0.1189      0.8979      1.7547      2.3545      1.5029      0.0000      0.0000
 48      7.1482      2.7930      5.5240      7.0164      0.0000      2.5659      3.8724      7.4064      3.4756
 49      0.0000      0.7375      0.0000      1.2840      2.3887      0.0000      0.1811      4.6714      0.0000
 50      8.6910      0.9158      7.0947      2.3189      1.6359      0.0396      0.0000      0.0000      1.2578
 51      0.0000      0.2853      0.0000      0.0000      0.0000      0.0000      0.0000      0.0000      2.0207
 52      0.0000      0.4049      0.0000      0.0000      1.2391      0.0000      1.9549      0.0000      0.8066
 53      0.0000      1.2787      0.4831      0.0000      3.2986      0.0000      0.2161      0.0000      4.1860
 54      0.0000      1.0345      0.0000      3.0927      0.0000      0.0000      0.7348      2.6164      0.0000
 55      1.7139      0.4419      2.5029      0.0000      2.2956      0.0000      0.0000      0.0000      0.0000
 56      5.1997      0.3162      1.3729      0.0000      0.0000      0.0000      0.0000      1.1573      0.0000
 57      4.5055      0.5371      4.2645      0.0000      0.0000      0.0000      0.0000      0.0000      0.0000
 58      0.0000      0.6099      0.0000      1.0397      0.0000      0.0000      0.0000      0.3222      3.7301
 59      0.0000      0.5411      0.0000      0.9508      0.0000      4.3462      0.0000      0.0000      1.9216
 60      0.0393      2.6449      8.4920      1.2999      7.3918      1.5377      0.5865     13.4796      1.8014
 61     11.0732     27.1875      6.2822     34.2236     33.4546     30.6185     46.1696     28.5975     36.3722
 62     10.4234      2.4305      5.2677      6.5378      0.0000      0.0000      0.0000      2.4970      3.7009
 63     21.0317      5.4808     10.7623      1.4186      8.4750     10.8124     10.6690     11.7954      8.8538
 64      6.4217      0.9468      1.6010      3.0635      4.1142      0.0000      2.0278      0.5264      0.0000
 65      0.0000      0.1637      0.0000      0.0000      0.0000      0.0000      0.9048      0.0000      0.8737
 66      2.6643      0.0671      0.9119      0.0000      0.0000      0.5846      0.0000      0.0000      0.0000

# j      m_j: min, <> & last-chain-values for 1 ...  7 chains
  1  1.9048E-02  5.4083E-03  1.5121E-02  0.0000E+00  0.0000E+00  0.0000E+00  0.0000E+00  1.7941E-02  1.6656E-02
  2  0.0000E+00  1.4188E-03  5.6955E-04  0.0000E+00  0.0000E+00  8.6214E-03  0.0000E+00  0.0000E+00  3.8752E-03
  3  0.0000E+00  3.9311E-03  0.0000E+00  0.0000E+00  0.0000E+00  0.0000E+00  0.0000E+00  0.0000E+00  0.0000E+00
  4  0.0000E+00  1.5645E-03  0.0000E+00  0.0000E+00  0.0000E+00  0.0000E+00  0.0000E+00  1.6863E-02  0.0000E+00
  5  0.0000E+00  2.0333E-03  0.0000E+00  4.7853E-03  0.0000E+00  1.3383E-02  0.0000E+00  0.0000E+00  0.0000E+00
  6  0.0000E+00  6.8119E-03  0.0000E+00  0.0000E+00  0.0000E+00  0.0000E+00  0.0000E+00  0.0000E+00  0.0000E+00
  7  0.0000E+00  1.3070E-02  0.0000E+00  2.9610E-02  2.0708E-02  5.8199E-02  2.2215E-02  7.1650E-02  0.0000E+00
  8  0.0000E+00  2.6232E-02  0.0000E+00  0.0000E+00  1.3458E-01  0.0000E+00  2.4173E-02  0.0000E+00  0.0000E+00
  9  0.0000E+00  2.1358E-02  0.0000E+00  0.0000E+00  2.2551E-02  0.0000E+00  0.0000E+00  0.0000E+00  0.0000E+00
 10  0.0000E+00  2.5570E-02  1.4308E-02  8.2232E-02  0.0000E+00  0.0000E+00  0.0000E+00  0.0000E+00  0.0000E+00
 11  0.0000E+00  6.3976E-02  0.0000E+00  0.0000E+00  0.0000E+00  0.0000E+00  2.8334E-01  0.0000E+00  0.0000E+00
 12  0.0000E+00  1.3054E-01  8.1292E-03  2.2912E-01  1.5483E-01  0.0000E+00  0.0000E+00  0.0000E+00  1.2905E-01
 13  0.0000E+00  2.1209E+00  0.0000E+00  0.0000E+00  4.5684E-01  0.0000E+00  0.0000E+00  0.0000E+00  5.9193E-01
 14  0.0000E+00  1.8654E+00  0.0000E+00  1.4402E-01  0.0000E+00  0.0000E+00  3.2454E+00  0.0000E+00  0.0000E+00
 15  0.0000E+00  1.6999E+00  0.0000E+00  0.0000E+00  0.0000E+00  3.9383E+00  0.0000E+00  0.0000E+00  0.0000E+00
 16  1.5049E-04  2.8723E+00  2.2485E+00  1.6631E+01  0.0000E+00  0.0000E+00  0.0000E+00  0.0000E+00  1.2519E+01
 17  0.0000E+00  5.4678E+00  0.0000E+00  0.0000E+00  0.0000E+00  0.0000E+00  1.8868E+00  0.0000E+00  0.0000E+00
 18  0.0000E+00  2.9249E-03  0.0000E+00  8.2638E-03  1.2717E-02  0.0000E+00  2.0361E-03  0.0000E+00  0.0000E+00
 19  0.0000E+00  1.3961E-03  0.0000E+00  0.0000E+00  0.0000E+00  0.0000E+00  0.0000E+00  0.0000E+00  0.0000E+00
 20  0.0000E+00  1.9957E-03  3.6280E-04  0.0000E+00  9.0610E-03  0.0000E+00  0.0000E+00  0.0000E+00  0.0000E+00
 21  1.5783E-02  4.6833E-03  3.5689E-03  0.0000E+00  1.0244E-02  0.0000E+00  1.5691E-02  0.0000E+00  0.0000E+00
 22  7.4907E-03  7.2519E-03  5.2861E-03  3.5171E-02  0.0000E+00  3.8409E-02  0.0000E+00  0.0000E+00  0.0000E+00
 23  5.3871E-03  9.4620E-03  2.3074E-02  3.7947E-02  1.0352E-02  0.0000E+00  4.4735E-02  0.0000E+00  0.0000E+00
 24  0.0000E+00  1.0876E-02  0.0000E+00  0.0000E+00  2.4158E-02  0.0000E+00  2.4085E-02  8.5208E-02  0.0000E+00
 25  2.0114E-02  1.0339E-02  1.0575E-02  0.0000E+00  0.0000E+00  0.0000E+00  0.0000E+00  0.0000E+00  0.0000E+00
 26  3.9860E-02  2.8251E-02  1.9422E-02  0.0000E+00  0.0000E+00  0.0000E+00  0.0000E+00  1.2146E-01  0.0000E+00
 27  1.9812E-01  8.9670E-02  1.3428E-01  2.7260E-01  0.0000E+00  2.1909E-01  0.0000E+00  0.0000E+00  1.5390E-01
 28  0.0000E+00  9.6787E-01  0.0000E+00  0.0000E+00  0.0000E+00  0.0000E+00  1.3448E+00  0.0000E+00  0.0000E+00
 29  0.0000E+00  2.0020E+00  0.0000E+00  0.0000E+00  7.7172E-01  1.9451E+00  2.7776E+00  0.0000E+00  3.8270E+00
 30  0.0000E+00  2.6519E+00  7.7633E+00  9.9621E-01  0.0000E+00  8.5418E-01  0.0000E+00  3.7104E+00  0.0000E+00
 31  0.0000E+00  3.3489E+00  3.6334E+00  1.0085E+00  2.1080E+00  1.6876E+01  0.0000E+00  0.0000E+00  0.0000E+00
 32  0.0000E+00  2.8408E+00  0.0000E+00  4.0795E+00  9.1354E+00  0.0000E+00  0.0000E+00  0.0000E+00  5.3207E+00
 33  0.0000E+00  2.2605E+00  0.0000E+00  0.0000E+00  1.1140E+01  3.1426E+00  0.0000E+00  0.0000E+00  0.0000E+00
 34  6.2185E-02  1.6957E+00  1.0255E+01  0.0000E+00  0.0000E+00  8.8904E+00  7.8014E+00  0.0000E+00  4.9202E+00
 35  0.0000E+00  2.0780E-03  0.0000E+00  0.0000E+00  7.8900E-03  1.7526E-02  2.0047E-02  0.0000E+00  0.0000E+00
 36  3.4863E-03  2.1095E-03  1.2457E-02  0.0000E+00  0.0000E+00  0.0000E+00  4.3525E-03  0.0000E+00  0.0000E+00
 37  0.0000E+00  2.7304E-03  0.0000E+00  1.8276E-03  0.0000E+00  1.1092E-02  0.0000E+00  1.2528E-03  1.1839E-02
 38  2.1694E-03  9.8192E-03  1.9599E-02  2.8036E-02  7.5950E-03  0.0000E+00  4.3831E-02  0.0000E+00  0.0000E+00
 39  7.8329E-03  1.0158E-02  7.2039E-03  0.0000E+00  0.0000E+00  5.4376E-02  0.0000E+00  8.8709E-02  0.0000E+00
 40  0.0000E+00  2.4142E-02  2.4509E-03  1.6466E-02  6.7997E-02  0.0000E+00  0.0000E+00  0.0000E+00  0.0000E+00
 41  0.0000E+00  4.4140E-02  0.0000E+00  1.4654E-01  0.0000E+00  0.0000E+00  1.5313E-02  0.0000E+00  7.5756E-02
 42  0.0000E+00  6.1865E-02  0.0000E+00  0.0000E+00  2.5844E-02  0.0000E+00  0.0000E+00  2.5044E-03  0.0000E+00
 43  0.0000E+00  5.6949E-02  0.0000E+00  0.0000E+00  1.7370E-01  4.3790E-01  0.0000E+00  0.0000E+00  0.0000E+00
 44  0.0000E+00  1.1056E-01  0.0000E+00  0.0000E+00  0.0000E+00  0.0000E+00  0.0000E+00  0.0000E+00  0.0000E+00
 45  0.0000E+00  1.5864E+00  0.0000E+00  1.2281E+00  0.0000E+00  0.0000E+00  0.0000E+00  0.0000E+00  2.8848E+00
 46  5.3135E-03  6.8995E+00  2.1358E+00  2.5232E-01  1.6509E+00  6.4684E+00  8.1290E-01  4.6583E+00  0.0000E+00
 47  0.0000E+00  2.1745E+00  8.5883E-02  9.9354E-01  1.9876E+00  3.2389E+00  2.1516E+00  0.0000E+00  0.0000E+00
 48  7.2267E+00  7.0876E+00  7.0378E+00  1.3693E+01  0.0000E+00  6.2251E+00  9.7773E+00  1.8206E+01  8.1634E+00
 49  0.0000E+00  4.2535E+00  0.0000E+00  5.6951E+00  1.0845E+01  0.0000E+00  1.0389E+00  2.6098E+01  0.0000E+00
 50  3.6987E+01  9.7827E+00  3.8049E+01  1.9049E+01  1.3756E+01  4.0425E-01  0.0000E+00  0.0000E+00  1.2436E+01
 51  0.0000E+00  1.6705E-03  0.0000E+00  0.0000E+00  0.0000E+00  0.0000E+00  0.0000E+00  0.0000E+00  1.0952E-02
 52  0.0000E+00  1.2150E-03  0.0000E+00  0.0000E+00  2.9269E-03  0.0000E+00  5.8364E-03  0.0000E+00  2.2404E-03
 53  0.0000E+00  5.7796E-03  1.0962E-03  0.0000E+00  1.1737E-02  0.0000E+00  9.7173E-04  0.0000E+00  1.7513E-02
 54  0.0000E+00  9.5807E-03  0.0000E+00  2.2028E-02  0.0000E+00  0.0000E+00  6.7711E-03  2.3473E-02  0.0000E+00
 55  9.7370E-03  6.3016E-03  1.7919E-02  0.0000E+00  2.5770E-02  0.0000E+00  0.0000E+00  0.0000E+00  0.0000E+00
 56  5.8470E-02  8.9251E-03  1.9454E-02  0.0000E+00  0.0000E+00  0.0000E+00  0.0000E+00  3.1641E-02  0.0000E+00
 57  6.7244E-02  2.0120E-02  8.0205E-02  0.0000E+00  0.0000E+00  0.0000E+00  0.0000E+00  0.0000E+00  0.0000E+00
 58  0.0000E+00  3.8644E-02  0.0000E+00  5.0666E-02  0.0000E+00  0.0000E+00  0.0000E+00  1.9775E-02  2.1877E-01
 59  0.0000E+00  7.3785E-02  0.0000E+00  9.9705E-02  0.0000E+00  5.6661E-01  0.0000E+00  0.0000E+00  2.4253E-01
 60  3.9665E-03  6.6991E-01  1.0799E+00  2.5321E-01  1.4738E+00  3.7236E-01  1.4781E-01  3.3072E+00  4.2230E-01
 61  2.4414E+00  1.5046E+01  1.7455E+00  1.4565E+01  1.4574E+01  1.6200E+01  2.5422E+01  1.5330E+01  1.8631E+01
 62  4.1902E+00  2.4524E+00  2.6686E+00  5.0733E+00  0.0000E+00  0.0000E+00  0.0000E+00  2.4407E+00  3.4565E+00
 63  1.6821E+01  1.1003E+01  1.0847E+01  2.1902E+00  1.3394E+01  2.0752E+01  2.1311E+01  2.2938E+01  1.6452E+01
 64  1.4206E+01  5.2572E+00  4.4632E+00  1.3082E+01  1.7984E+01  0.0000E+00  1.1203E+01  2.8311E+00  0.0000E+00
 65  0.0000E+00  1.9209E+00  0.0000E+00  0.0000E+00  0.0000E+00  0.0000E+00  1.0566E+01  0.0000E+00  9.4920E+00
 66  1.7601E+01  1.1134E+00  7.5920E+00  0.0000E+00  0.0000E+00  9.2678E+00  0.0000E+00  0.0000E+00  0.0000E+00

# AV, chi2 & Mass for <> & i_chain = 1 ...  7 solutions
AV       0.0717      0.3707      0.1698      0.3405      0.3665      0.3462      0.3529      0.3700      0.3731
chi2 3.6420E-01  3.6998E-01  3.6726E-01  3.6840E-01  3.6835E-01  3.6907E-01  3.6845E-01  3.6808E-01  3.6897E-01
Mass 7.0360E-13  4.1884E-13  6.3693E-13  5.2299E-13  5.2902E-13  4.2391E-13  4.1103E-13  4.3197E-13  4.5397E-13
-163.97                                  [v0_min (km/s) before EX0s...]
 159.56                                  [vd_min (km/s) before EX0s...]


## Synthetic spectrum (Best Model) ##l_obs f_obs f_syn wei
 3478    [Nl_obs]
 3741.00    0.30762   0.63212    0.000
 3742.00    0.38091   0.60462    0.000
 3743.00    0.40547   0.57263    0.000
 3744.00    0.44707   0.53989    0.000
 3745.00    0.60505   0.51035    0.857
 3746.00    0.79554   0.48838    0.842
 3747.00    0.79537   0.48165    0.838
 3748.00    0.63530   0.49674    0.842
 3749.00    0.57650   0.53216    0.840
 3750.00    0.63426   0.57895    0.834
 3751.00    0.58933   0.62629    0.834
 3752.00    0.45305   0.66425    0.837
 3753.00    0.44500   0.68482    0.828
 3754.00    0.56230   0.68541    0.817
 3755.00    0.62646   0.67186    0.825
 3756.00    0.70118   0.65620    0.846
 3757.00    0.99989   0.64808    0.857
 3758.00    1.41504   0.64884    0.848
 3759.00    1.62764   0.65422    0.838
 3760.00    1.60155   0.65899    0.841
 3761.00    1.52796   0.65953    0.861
 3762.00    1.47401   0.65488    0.887
 3763.00    1.37197   0.64461    0.902
 3764.00    1.15003   0.62886    0.910
 3765.00    0.81895   0.61180    0.929
 3766.00    0.57358   0.59845    0.956
 3767.00    0.61914   0.59103    0.977
 3768.00    0.84811   0.59217    0.989
 3769.00    0.98082   0.60504    1.002
 3770.00    0.88572   0.62768    1.016
 3771.00    0.61992   0.65379    1.025
 3772.00    0.39969   0.67888    1.026
 3773.00    0.40333   0.70209    1.024
 3774.00    0.50712   0.72402    1.017
 3775.00    0.45481   0.74520    1.006
 3776.00    0.13976   0.76616    0.999
 3777.00   -0.33009   0.78676    0.000
 3778.00   -0.61772   0.80463    0.000
 3779.00   -0.43788   0.81661    0.000
 3780.00    0.11794   0.82141    0.990
 3781.00    0.72478   0.81828    0.963
 3782.00    1.04497   0.80533    0.959
 3783.00    0.95365   0.78194    0.993
 3784.00    0.71641   0.75282    1.026
 3785.00    0.60267   0.72529    1.021
 3786.00    0.51577   0.70327    1.013
 3787.00    0.30197   0.68757    1.034
 3788.00    0.05133   0.67685    1.052
 3789.00   -0.07673   0.66649    0.000
 3790.00   -0.03517   0.65055    0.000
 3791.00    0.05519   0.62673    1.004
 3792.00   -0.08073   0.59729    0.000
 3793.00   -0.48918   0.56659    0.000
 3794.00   -0.76857   0.53946    0.000
 3795.00   -0.65273   0.52192    0.000
 3796.00   -0.38071   0.52124    0.000
 3797.00   -0.22525   0.54109    0.000
 3798.00   -0.17521   0.57758    0.000
 3799.00   -0.08424   0.62205    0.000
 3800.00    0.19519   0.66577    1.158
 3801.00    0.65669   0.70157    1.180
 3802.00    1.09432   0.72509    1.207
 3803.00    1.35349   0.73709    1.219
 3804.00    1.45041   0.74324    1.229
 3805.00    1.43629   0.75064    1.247
 3806.00    1.32905   0.76232    1.262
 3807.00    1.15157   0.77490    1.267
 3808.00    0.93665   0.78193    1.270
 3809.00    0.65625   0.77817    1.280
 3810.00    0.24337   0.76258    1.298
 3811.00   -0.17351   0.73950    0.000
 3812.00   -0.27751   0.71608    0.000
 3813.00   -0.00489   0.69763    0.000
 3814.00    0.35719   0.68566    1.379
 3815.00    0.50035   0.67709    1.330
 3816.00    0.27970   0.66712    1.322
 3817.00   -0.10719   0.65555    0.000
 3818.00   -0.22025   0.64723    0.000
 3819.00    0.08917   0.64486    1.372
 3820.00    0.59047   0.64427    1.282
 3821.00    0.97563   0.63921    1.202
 3822.00    1.02639   0.62816    1.201
 3823.00    0.80330   0.61431    1.263
 3824.00    0.57504   0.60116    1.299
 3825.00    0.47599   0.59008    1.287
 3826.00    0.46134   0.57997    1.288
 3827.00    0.44374   0.56790    1.319
 3828.00    0.35539   0.55030    1.352
 3829.00    0.20576   0.52573    1.386
 3830.00    0.06083   0.49731    1.440
 3831.00   -0.03465   0.47128    0.000
 3832.00   -0.05921   0.45344    0.000
 3833.00    0.01814   0.44709    1.427
 3834.00    0.19716   0.45205    1.428
 3835.00    0.35654   0.46588    1.479
 3836.00    0.35980   0.48670    1.533
 3837.00    0.27906   0.51399    1.564
 3838.00    0.28258   0.54728    1.573
 3839.00    0.36888   0.58490    1.566
 3840.00    0.43300   0.62259    1.552
 3841.00    0.45018   0.65545    1.545
 3842.00    0.44140   0.68073    1.557
 3843.00    0.37687   0.69833    1.581
 3844.00    0.23623   0.70975    1.599
 3845.00    0.11215   0.71614    1.604
 3846.00    0.13016   0.71811    1.589
 3847.00    0.31837   0.71801    0.000
 3848.00    0.59067   0.71942    0.000
 3849.00    0.75785   0.72287    0.000
 3850.00    0.67312   0.72519    0.000
 3851.00    0.39874   0.72379    0.000
 3852.00    0.11787   0.71839    0.000
 3853.00    0.00393   0.70994    0.000
 3854.00    0.10922   0.70036    0.000
 3855.00    0.27716   0.69102    0.000
 3856.00    0.31911   0.68350    0.000
 3857.00    0.20335   0.68158    0.000
 3858.00    0.08387   0.68862    0.000
 3859.00    0.26518   0.70351    0.000
 3860.00    0.76645   0.72075    0.000
 3861.00    1.03247   0.73455    0.000
 3862.00    0.77108   0.74188    0.000
 3863.00    0.55256   0.74269    0.000
 3864.00    0.83531   0.73869    0.000
 3865.00    1.26436   0.73163    0.000
 3866.00    1.42366   0.72226    0.000
 3867.00    1.37216   0.71062    0.000
 3868.00    1.25202   0.69828    0.000
 3869.00    1.02440   0.68914    0.000
 3870.00    0.67628   0.68752    0.000
 3871.00    0.34414   0.69421    0.000
 3872.00    0.18180   0.70426    0.000
 3873.00    0.26307   0.71029    0.000
 3874.00    0.51610   0.70775    0.000
 3875.00    0.73641   0.69753    0.000
 3876.00    0.84089   0.68496    0.000
 3877.00    0.94869   0.67407    0.000
 3878.00    1.09775   0.66411    0.000
 3879.00    1.14231   0.65369    0.000
 3880.00    0.95901   0.64277    0.000
 3881.00    0.55038   0.62942    1.901
 3882.00    0.05230   0.60948    1.949
 3883.00   -0.31132   0.58275    0.000
 3884.00   -0.41634   0.55520    0.000
 3885.00   -0.29630   0.53420    0.000
 3886.00   -0.05959   0.52616    0.000
 3887.00    0.16817   0.53585    1.809
 3888.00    0.32636   0.56238    1.789
 3889.00    0.43189   0.59851    1.765
 3890.00    0.51973   0.63506    1.754
 3891.00    0.61658   0.66578    1.771
 3892.00    0.72519   0.68907    1.782
 3893.00    0.82352   0.70689    1.735
 3894.00    0.87773   0.72147    1.673
 3895.00    0.88002   0.73303    1.687
 3896.00    0.93776   0.74222    1.751
 3897.00    1.18574   0.75085    1.744
 3898.00    1.50102   0.75950    1.679
 3899.00    1.60137   0.76553    1.664
 3900.00    1.46320   0.76677    1.687
 3901.00    1.27300   0.76470    1.666
 3902.00    1.08118   0.76175    1.631
 3903.00    0.84763   0.76206    1.675
 3904.00    0.70749   0.77033    1.768
 3905.00    0.84098   0.78684    1.786
 3906.00    1.10459   0.80750    1.729
 3907.00    1.19039   0.82708    1.696
 3908.00    1.06253   0.84227    1.721
 3909.00    0.89508   0.85142    1.782
 3910.00    0.81179   0.85382    1.844
 3911.00    0.82974   0.85060    1.878
 3912.00    0.85038   0.84351    1.913
 3913.00    0.77622   0.83292    1.987
 3914.00    0.68777   0.81930    2.055
 3915.00    0.73135   0.80305    2.032
 3916.00    0.91619   0.78470    1.945
 3917.00    1.13305   0.76644    1.872
 3918.00    1.22874   0.75161    1.852
 3919.00    1.13356   0.74242    1.880
 3920.00    0.99867   0.73758    1.912
 3921.00    0.99449   0.73323    1.908
 3922.00    1.05568   0.72419    1.900
 3923.00    1.02875   0.70705    1.931
 3924.00    0.87399   0.68167    1.984
 3925.00    0.64896   0.64965    2.021
 3926.00    0.46161   0.61392    2.026
 3927.00    0.40749   0.57731    2.015
 3928.00    0.50999   0.54224    2.016
 3929.00    0.71199   0.51124    2.036
 3930.00    0.88329   0.48754    2.034
 3931.00    0.91724   0.47516    1.995
 3932.00    0.81375   0.47702    1.992
 3933.00    0.64911   0.49338    2.056
 3934.00    0.53630   0.52176    2.096
 3935.00    0.55444   0.55766    2.036
 3936.00    0.69726   0.59571    1.954
 3937.00    0.89210   0.63042    1.926
 3938.00    1.02881   0.65787    1.945
 3939.00    1.04463   0.67751    1.979
 3940.00    0.97617   0.69141    2.002
 3941.00    0.91499   0.70382    1.986
 3942.00    0.95434   0.71948    1.912
 3943.00    1.05654   0.73868    1.826
 3944.00    1.02220   0.75740    1.821
 3945.00    0.77780   0.77334    1.907
 3946.00    0.49708   0.78731    1.967
 3947.00    0.34201   0.79956    1.938
 3948.00    0.33318   0.80859    1.924
 3949.00    0.43322   0.81346    1.953
 3950.00    0.58701   0.81597    1.906
 3951.00    0.69459   0.81737    1.791
 3952.00    0.63829   0.81528    1.761
 3953.00    0.45927   0.80850    1.830
 3954.00    0.36015   0.79907    1.850
 3955.00    0.38882   0.78779    1.777
 3956.00    0.38525   0.77189    1.744
 3957.00    0.29731   0.74713    1.795
 3958.00    0.24769   0.71216    1.857
 3959.00    0.31339   0.67049    1.881
 3960.00    0.45914   0.62617    0.000
 3961.00    0.59907   0.58061    0.000
 3962.00    0.64192   0.53383    0.000
 3963.00    0.56096   0.48619    0.000
 3964.00    0.39935   0.43983    0.000
 3965.00    0.21738   0.39965    0.000
 3966.00    0.07006   0.37231    0.000
 3967.00   -0.00872   0.36393    0.000
 3968.00   -0.01030   0.37714    0.000
 3969.00    0.05011   0.40970    0.000
 3970.00    0.14800   0.45616    0.000
 3971.00    0.28341   0.51055    0.000
 3972.00    0.46839   0.56760    0.000
 3973.00    0.67915   0.62304    0.000
 3974.00    0.86631   0.67472    0.000
 3975.00    1.00155   0.72173    0.000
 3976.00    1.08709   0.76256    0.000
 3977.00    1.15257   0.79499    0.000
 3978.00    1.23136   0.81733    0.000
 3979.00    1.31793   0.83092    0.000
 3980.00    1.38203   0.83978    0.000
 3981.00    1.40909   0.84787   -1.000
 3982.00    1.40729   0.85762   -1.000
 3983.00    1.40570   0.86922   -1.000
 3984.00    1.42994   0.88196    3.428
 3985.00    1.46676   0.89439    1.960
 3986.00    1.50643   0.90414    1.648
 3987.00    1.60654   0.91132    1.638
 3988.00    1.76687   0.91770    1.559
 3989.00    1.76038   0.92343    1.404
 3990.00    1.41465   0.92703    1.296
 3991.00    0.98573   0.92662    1.256
 3992.00    0.80563   0.92196    1.276
 3993.00    0.80882   0.91511    1.369
 3994.00    0.78330   0.91003    1.542
 3995.00    0.71540   0.91150    1.719
 3996.00    0.65350   0.92146    1.785
 3997.00    0.53065   0.93640    1.815
 3998.00    0.30726   0.95045    1.934
 3999.00    0.11842   0.95878    2.073
 4000.00    0.08918   0.95772    2.082
 4001.00    0.15777   0.94609    1.994
 4002.00    0.22225   0.92859    1.917
 4003.00    0.27806   0.91453    1.879
 4004.00    0.33091   0.91038    1.877
 4005.00    0.32794   0.91622    1.908
 4006.00    0.28520   0.92853    1.950
 4007.00    0.36571   0.94325    1.955
 4008.00    0.65893   0.95717    1.909
 4009.00    1.03229   0.96869    1.880
 4010.00    1.29553   0.97792    1.906
 4011.00    1.33639   0.98545    1.949
 4012.00    1.19777   0.99163    1.959
 4013.00    1.08236   0.99587    1.930
 4014.00    1.09222   0.99836    1.900
 4015.00    1.10493   1.00088    1.929
 4016.00    1.01085   1.00368    2.026
 4017.00    0.84435   1.00442    2.103
 4018.00    0.71050   1.00129    2.087
 4019.00    0.71618   0.99402    2.020
 4020.00    0.84738   0.98354    1.968
 4021.00    0.95017   0.97251    1.967
 4022.00    0.93809   0.96521    2.006
 4023.00    0.86970   0.96424    2.033
 4024.00    0.83615   0.96762    2.032
 4025.00    0.89532   0.96922    2.045
 4026.00    1.02193   0.96219    2.090
 4027.00    1.11600   0.94429    2.137
 4028.00    1.11543   0.92028    2.172
 4029.00    1.03898   0.89825    2.216
 4030.00    0.97356   0.88582    2.255
 4031.00    1.01710   0.88821    2.235
 4032.00    1.10629   0.90604    2.181
 4033.00    1.05120   0.93506    2.182
 4034.00    0.83892   0.96735    2.257
 4035.00    0.64800   0.99422    2.341
 4036.00    0.58619   1.00993    2.362
 4037.00    0.64003   1.01330    2.302
 4038.00    0.76771   1.00643    2.213
 4039.00    0.91698   0.99095    2.168
 4040.00    1.00000   0.96664    2.168
 4041.00    0.94966   0.93572    2.163
 4042.00    0.87138   0.90653    2.133
 4043.00    0.94315   0.89043    2.094
 4044.00    1.09903   0.89364    2.062
 4045.00    1.12948   0.91330    2.039
 4046.00    1.06101   0.94110    2.002
 4047.00    1.06816   0.96729    1.935
 4048.00    1.12257   0.98382    1.887
 4049.00    1.07974   0.98765    1.910
 4050.00    0.98340   0.98050    1.950
 4051.00    0.97472   0.96678    1.913
 4052.00    1.02382   0.95160    1.856
 4053.00    1.00154   0.93841    1.884
 4054.00    0.88475   0.92915    1.976
 4055.00    0.76239   0.92548    2.031
 4056.00    0.78100   0.92690    2.013
 4057.00    1.00359   0.92913    1.962
 4058.00    1.22518   0.92623    1.928
 4059.00    1.20066   0.91541    1.938
 4060.00    0.99371   0.90064    1.983
 4061.00    0.82118   0.88986    2.031
 4062.00    0.78245   0.88781    2.048
 4063.00    0.84878   0.89449    2.024
 4064.00    0.90283   0.90774    2.001
 4065.00    0.85898   0.92317    2.017
 4066.00    0.79030   0.93439    2.061
 4067.00    0.82172   0.93707    2.093
 4068.00    0.99465   0.93291    2.080
 4069.00    1.24256   0.92745    2.031
 4070.00    1.39494   0.92322    2.005
 4071.00    1.33467   0.91814    2.041
 4072.00    1.13805   0.90907    2.113
 4073.00    0.94300   0.89615    2.174
 4074.00    0.81972   0.88474    2.215
 4075.00    0.79893   0.88233    2.242
 4076.00    0.89980   0.89305    2.239
 4077.00    1.08135   0.91461    2.207
 4078.00    1.21631   0.93893    2.178
 4079.00    1.20946   0.95733    2.173
 4080.00    1.08294   0.96607    2.175
 4081.00    0.92668   0.96728    2.184
 4082.00    0.84623   0.96684    2.243
 4083.00    0.88009   0.97046    2.361
 4084.00    0.96086   0.97983    2.450
 4085.00    1.01176   0.99177    2.444
 4086.00    1.00921   1.00122    2.405
 4087.00    0.97867   1.00435    2.398
 4088.00    0.97986   0.99974    2.418
 4089.00    1.04931   0.98865    2.438
 4090.00    1.17100   0.97234    2.429
 4091.00    1.29129   0.95028    2.390
 4092.00    1.34177   0.92258    0.000
 4093.00    1.30660   0.89077    0.000
 4094.00    1.23335   0.85629    0.000
 4095.00    1.13317   0.81989    0.000
 4096.00    0.96649   0.78187    0.000
 4097.00    0.77926   0.74440    0.000
 4098.00    0.71241   0.71418    0.000
 4099.00    0.80452   0.69938    0.000
 4100.00    0.94739   0.70444    0.000
 4101.00    1.02405   0.72878    0.000
 4102.00    0.97596   0.76633    0.000
 4103.00    0.84543   0.80736    0.000
 4104.00    0.75453   0.84320    0.000
 4105.00    0.78964   0.86904    0.000
 4106.00    0.95547   0.88475    0.000
 4107.00    1.15767   0.89403    0.000
 4108.00    1.25595   0.90198    0.000
 4109.00    1.22712   0.91260    0.000
 4110.00    1.15634   0.92683    0.000
 4111.00    1.08469   0.94279    0.000
 4112.00    1.00517   0.95718    0.000
 4113.00    0.95859   0.96596    2.037
 4114.00    1.00031   0.96638    2.058
 4115.00    1.06599   0.95978    2.100
 4116.00    1.04116   0.95047    2.153
 4117.00    0.98245   0.94227    2.180
 4118.00    1.03910   0.93773    2.148
 4119.00    1.18918   0.93814    2.095
 4120.00    1.29037   0.94299    2.090
 4121.00    1.28806   0.94964    2.147
 4122.00    1.22759   0.95439    2.238
 4123.00    1.19654   0.95450    2.307
 4124.00    1.24663   0.94916    2.302
 4125.00    1.28530   0.93953    2.247
 4126.00    1.20552   0.92729    2.201
 4127.00    1.11518   0.91392    2.179
 4128.00    1.15803   0.90137    2.181
 4129.00    1.19951   0.89282    2.221
 4130.00    1.04735   0.89150    2.305
 4131.00    0.82170   0.89963    2.364
 4132.00    0.77260   0.91646    2.325
 4133.00    0.96541   0.93793    2.239
 4134.00    1.27239   0.95945    2.196
 4135.00    1.43255   0.97645    2.211
 4136.00    1.30693   0.98466    2.254
 4137.00    1.14367   0.98097    2.277
 4138.00    1.21599   0.96434    2.258
 4139.00    1.40771   0.93852    2.249
 4140.00    1.47686   0.91258    2.298
 4141.00    1.37177   0.89590    2.371
 4142.00    1.16549   0.89280    2.419
 4143.00    0.95686   0.90155    2.461
 4144.00    0.83130   0.91572    2.518
 4145.00    0.83060   0.92786    2.529
 4146.00    0.93430   0.93395    2.464
 4147.00    1.05270   0.93406    2.405
 4148.00    1.08799   0.93010    2.418
 4149.00    0.99023   0.92423    2.473
 4150.00    0.79777   0.91805    2.520
 4151.00    0.65074   0.91285    2.547
 4152.00    0.68122   0.90993    2.552
 4153.00    0.92773   0.91104    2.530
 4154.00    1.30269   0.91758    2.486
 4155.00    1.60088   0.92901    2.451
 4156.00    1.67273   0.94323    2.441
 4157.00    1.52564   0.95796    2.451
 4158.00    1.26037   0.97139    2.474
 4159.00    1.01318   0.98168    2.513
 4160.00    0.86705   0.98746    2.560
 4161.00    0.81728   0.98827    2.581
 4162.00    0.84902   0.98410    2.564
 4163.00    0.96393   0.97632    2.541
 4164.00    1.10417   0.96760    2.532
 4165.00    1.15000   0.95961    2.535
 4166.00    1.08363   0.95129    2.549
 4167.00    1.02266   0.93996    2.585
 4168.00    1.03201   0.92421    2.631
 4169.00    1.06341   0.90592    2.651
 4170.00    1.05073   0.88945    2.621
 4171.00    0.95774   0.87886    2.556
 4172.00    0.80273   0.87560    2.503
 4173.00    0.64647   0.87826    2.510
 4174.00    0.51887   0.88447    2.573
 4175.00    0.41162   0.89231    2.630
 4176.00    0.34148   0.90040    2.633
 4177.00    0.34464   0.90788    2.587
 4178.00    0.39330   0.91468    2.538
 4179.00    0.41376   0.92119    2.535
 4180.00    0.41423   0.92773    2.568
 4181.00    0.47364   0.93353    2.580
 4182.00    0.60779   0.93684    2.549
 4183.00    0.76075   0.93709    2.502
 4184.00    0.88002   0.93582    2.468
 4185.00    0.94183   0.93532    2.464
 4186.00    0.96247   0.93762    2.475
 4187.00    0.98276   0.94392    2.472
 4188.00    1.02717   0.95354    2.450
 4189.00    1.08301   0.96320    2.426
 4190.00    1.07952   0.96838    2.433
 4191.00    0.95288   0.96579    2.485
 4192.00    0.77905   0.95452    2.529
 4193.00    0.71035   0.93622    2.481
 4194.00    0.80881   0.91540    2.347
 4195.00    1.02740   0.89738    2.211
 4196.00    1.23650   0.88525    2.168
 4197.00    1.30823   0.87970    2.263
 4198.00    1.24327   0.88045    2.391
 4199.00    1.12970   0.88648    2.385
 4200.00    1.04633   0.89682    2.327
 4201.00    1.02737   0.91100    2.374
 4202.00    1.03659   0.92809    2.474
 4203.00    1.02345   0.94613    2.479
 4204.00    1.00040   0.96244    2.421
 4205.00    0.99071   0.97488    2.402
 4206.00    0.95494   0.98297    2.410
 4207.00    0.87530   0.98719    2.400
 4208.00    0.85622   0.98787    2.403
 4209.00    0.97623   0.98470    2.452
 4210.00    1.12145   0.97729    2.487
 4211.00    1.14496   0.96745    2.456
 4212.00    1.04991   0.95972    2.431
 4213.00    0.93664   0.95865    2.481
 4214.00    0.92094   0.96670    2.558
 4215.00    1.02343   0.98241    2.584
 4216.00    1.09584   1.00006    2.569
 4217.00    1.03923   1.01171    2.550
 4218.00    0.97733   1.01082    2.518
 4219.00    1.03461   0.99408    2.473
 4220.00    1.15433   0.96164    2.449
 4221.00    1.21199   0.91793    2.467
 4222.00    1.12395   0.87252    2.500
 4223.00    0.91771   0.83792    2.533
 4224.00    0.74983   0.82423    2.603
 4225.00    0.70702   0.83506    2.716
 4226.00    0.70022   0.86570    2.781
 4227.00    0.67856   0.90415    2.740
 4228.00    0.73860   0.93723    2.661
 4229.00    0.91604   0.95697    2.615
 4230.00    1.08511   0.96195    2.612
 4231.00    1.13271   0.95634    2.641
 4232.00    1.05656   0.94698    2.681
 4233.00    0.93655   0.93933    2.712
 4234.00    0.88789   0.93635    2.721
 4235.00    0.92079   0.93937    2.712
 4236.00    0.91314   0.94832    2.705
 4237.00    0.80955   0.96194    2.719
 4238.00    0.68807   0.97876    2.767
 4239.00    0.63348   0.99693    2.834
 4240.00    0.68050   1.01334    2.878
 4241.00    0.82068   1.02429    2.869
 4242.00    1.00430   1.02677    2.812
 4243.00    1.13434   1.01953    2.760
 4244.00    1.10234   1.00363    2.779
 4245.00    0.92066   0.98267    2.867
 4246.00    0.72446   0.96213    2.943
 4247.00    0.61638   0.94655    2.944
 4248.00    0.61889   0.93754    2.876
 4249.00    0.69668   0.93442    2.802
 4250.00    0.78455   0.93581    2.782
 4251.00    0.84504   0.94033    2.792
 4252.00    0.88224   0.94657    2.746
 4253.00    0.93037   0.95256    2.630
 4254.00    1.02890   0.95571    2.502
 4255.00    1.16855   0.95394    2.412
 4256.00    1.29430   0.94830    2.380
 4257.00    1.34788   0.94380    2.385
 4258.00    1.28395   0.94670    2.398
 4259.00    1.08318   0.96068    2.444
 4260.00    0.78893   0.98391    2.575
 4261.00    0.57335   1.00938    2.740
 4262.00    0.60631   1.02849    2.794
 4263.00    0.77435   1.03499    2.736
 4264.00    0.82659   1.02642    2.691
 4265.00    0.75028   1.00376    2.724
 4266.00    0.70672   0.97094    2.817
 4267.00    0.79076   0.93403    2.858
 4268.00    0.98444   0.89963    2.754
 4269.00    1.15818   0.87406    2.631
 4270.00    1.18464   0.86241    2.634
 4271.00    1.10860   0.86672    2.700
 4272.00    1.04682   0.88527    2.697
 4273.00    1.00812   0.91304    2.659
 4274.00    0.95962   0.94298    2.678
 4275.00    0.94807   0.96814    2.702
 4276.00    1.02008   0.98390    2.656
 4277.00    1.10532   0.98933    2.623
 4278.00    1.11438   0.98716    2.691
 4279.00    1.06946   0.98125    2.759
 4280.00    1.03016   0.97445    2.702
 4281.00    0.99480   0.96741    2.622
 4282.00    0.94069   0.95885    2.632
 4283.00    0.87706   0.94691    2.663
 4284.00    0.82836   0.93101    2.622
 4285.00    0.81232   0.91286    2.566
 4286.00    0.84400   0.89618    2.562
 4287.00    0.93705   0.88554    2.568
 4288.00    1.06019   0.88410    2.540
 4289.00    1.11242   0.89160    2.522
 4290.00    1.04873   0.90362   -2.000
 4291.00    0.96580   0.91349   -2.000
 4292.00    0.92260   0.91546   -2.000
 4293.00    0.82273   0.90654   -2.000
 4294.00    0.63947   0.88703   -2.000
 4295.00    0.54858   0.86003   -2.000
 4296.00    0.63928   0.83048   -2.000
 4297.00    0.74589   0.80418   -2.000
 4298.00    0.71360   0.78588   -2.000
 4299.00    0.56596   0.77701   -2.000
 4300.00    0.41523   0.77536   -2.000
 4301.00    0.38049   0.77649   -2.000
 4302.00    0.47060   0.77606   -2.000
 4303.00    0.55412   0.77216   -2.000
 4304.00    0.55079   0.76625   -2.000
 4305.00    0.51088   0.76252   -2.000
 4306.00    0.48147   0.76585    2.516
 4307.00    0.45026   0.77943    2.564
 4308.00    0.41313   0.80342    2.573
 4309.00    0.40196   0.83588    2.587
 4310.00    0.45779   0.87453    2.625
 4311.00    0.60795   0.91741    2.661
 4312.00    0.82539   0.96265    2.656
 4313.00    1.02921   1.00693    2.592
 4314.00    1.15198   1.04493    2.518
 4315.00    1.16766   1.07095    2.511
 4316.00    1.09341   1.08125    2.577
 4317.00    0.97895   1.07493    2.645
 4318.00    0.86976   1.05351    2.671
 4319.00    0.79487   1.02020    2.676
 4320.00    0.76957   0.98000    2.681
 4321.00    0.78648   0.94053    2.692
 4322.00    0.78769   0.91125    2.728
 4323.00    0.70046   0.90047    2.812
 4324.00    0.55719   0.91101    2.900
 4325.00    0.47538   0.93806    2.897
 4326.00    0.51625   0.97145    2.813
 4327.00    0.66603   1.00100    2.744
 4328.00    0.88499   1.02119    2.738
 4329.00    1.11871   1.03117    2.786
 4330.00    1.29576   1.03161    0.000
 4331.00    1.35457   1.02184    0.000
 4332.00    1.30077   0.99926    0.000
 4333.00    1.18305   0.96163    0.000
 4334.00    1.02027   0.91069    0.000
 4335.00    0.81986   0.85390    0.000
 4336.00    0.63957   0.80267    0.000
 4337.00    0.54703   0.76850    0.000
 4338.00    0.52946   0.75872    0.000
 4339.00    0.54264   0.77366    0.000
 4340.00    0.61630   0.80742    0.000
 4341.00    0.78479   0.85123    0.000
 4342.00    0.95586   0.89681    0.000
 4343.00    1.00242   0.93809    0.000
 4344.00    0.92543   0.97100    0.000
 4345.00    0.81469   0.99269    0.000
 4346.00    0.75874   1.00134    0.000
 4347.00    0.80552   0.99736    0.000
 4348.00    0.92903   0.98520    0.000
 4349.00    1.05586   0.97280    0.000
 4350.00    1.10677   0.96811    0.000
 4351.00    1.04885   0.97494    2.732
 4352.00    0.94483   0.99127    2.666
 4353.00    0.89035   1.01125    2.679
 4354.00    0.93821   1.02904    2.739
 4355.00    1.07964   1.04194    2.770
 4356.00    1.23833   1.05128    2.776
 4357.00    1.32714   1.06059    2.782
 4358.00    1.30521   1.07262    2.773
 4359.00    1.19718   1.08733    2.738
 4360.00    1.09565   1.10197    2.704
 4361.00    1.06756   1.11257    2.703
 4362.00    1.08436   1.11571    2.743
 4363.00    1.10647   1.11015    2.804
 4364.00    1.14902   1.09758    2.848
 4365.00    1.23483   1.08193    2.847
 4366.00    1.35255   1.06721    2.823
 4367.00    1.43584   1.05527    2.805
 4368.00    1.37247   1.04510    2.806
 4369.00    1.15020   1.03441    2.832
 4370.00    0.92377   1.02225    2.883
 4371.00    0.82774   1.01081    2.945
 4372.00    0.86192   1.00455    2.983
 4373.00    0.92400   1.00683    2.974
 4374.00    0.86782   1.01667    2.921
 4375.00    0.69415   1.02788    2.876
 4376.00    0.59688   1.03171    2.906
 4377.00    0.66968   1.02101    3.004
 4378.00    0.79500   0.99372    3.048
 4379.00    0.84902   0.95442    2.985
 4380.00    0.80241   0.91329    2.908
 4381.00    0.70908   0.88231    2.897
 4382.00    0.67198   0.86982    2.969
 4383.00    0.73112   0.87687    3.083
 4384.00    0.83816   0.89738    3.144
 4385.00    0.94364   0.92243    3.110
 4386.00    1.02512   0.94518    3.035
 4387.00    1.05831   0.96305    2.981
 4388.00    1.01862   0.97684    2.983
 4389.00    0.92391   0.98832    3.041
 4390.00    0.83250   0.99894    3.120
 4391.00    0.78870   1.00979    3.172
 4392.00    0.80485   1.02156    3.158
 4393.00    0.86322   1.03390    3.092
 4394.00    0.92329   1.04465    3.031
 4395.00    0.94035   1.05055    3.031
 4396.00    0.89217   1.04925    3.112
 4397.00    0.83232   1.04087    3.197
 4398.00    0.84919   1.02733    3.156
 4399.00    0.93131   1.01071    3.049
 4400.00    0.99483   0.99260    3.037
 4401.00    1.02524   0.97500    3.102
 4402.00    1.05942   0.96132    3.114
 4403.00    1.07424   0.95557    3.072
 4404.00    1.02292   0.96046    3.071
 4405.00    0.95754   0.97606    3.094
 4406.00    0.97290   0.99962    3.059
 4407.00    1.05239   1.02613    3.009
 4408.00    1.10781   1.04922    3.030
 4409.00    1.10513   1.06278    3.091
 4410.00    1.06494   1.06358    3.102
 4411.00    1.02331   1.05353    3.077
 4412.00    1.01313   1.03945    3.079
 4413.00    1.04531   1.02998    3.081
 4414.00    1.10622   1.03085    3.033
 4415.00    1.15997   1.04194    2.985
 4416.00    1.17864   1.05773    3.003
 4417.00    1.18121   1.07097    3.055
 4418.00    1.18834   1.07691    3.078
 4419.00    1.16069   1.07538    3.102
 4420.00    1.07049   1.07000    3.161
 4421.00    0.99201   1.06505    3.170
 4422.00    0.99120   1.06298    3.069
 4423.00    0.99531   1.06363    2.989
 4424.00    0.92878   1.06520    3.045
 4425.00    0.86626   1.06571    3.156
 4426.00    0.89649   1.06397    3.180
 4427.00    0.97366   1.05968    3.099
 4428.00    1.00593   1.05302    3.003
 4429.00    0.95557   1.04445    2.992
 4430.00    0.84205   1.03513    3.086
 4431.00    0.73125   1.02763    3.153
 4432.00    0.68455   1.02578    3.093
 4433.00    0.71721   1.03265    3.023
 4434.00    0.81148   1.04785    3.052
 4435.00    0.93223   1.06641    3.141
 4436.00    1.04707   1.08076    3.179
 4437.00    1.13820   1.08514    3.081
 4438.00    1.18349   1.07921    2.903
 4439.00    1.15109   1.06841    2.811
 4440.00    1.05861   1.06075    2.858
 4441.00    0.99657   1.06208    2.926
 4442.00    1.02312   1.07307    2.905
 4443.00    1.10561   1.08952    2.826
 4444.00    1.17541   1.10538    2.757
 4445.00    1.17150   1.11595    2.727
 4446.00    1.08897   1.11922    2.719
 4447.00    0.99252   1.11528    2.682
 4448.00    0.95201   1.10491    2.609
 4449.00    1.00534   1.08883    2.552
 4450.00    1.14695   1.06806    2.546
 4451.00    1.32570   1.04470    2.576
 4452.00    1.45879   1.02203    2.601
 4453.00    1.46259   1.00334    2.570
 4454.00    1.35240   0.99041    2.512
 4455.00    1.24394   0.98296    2.517
 4456.00    1.19111   0.97970    2.600
 4457.00    1.14958   0.97996    2.679
 4458.00    1.08866   0.98426    2.697
 4459.00    1.02304   0.99340    2.681
 4460.00    0.97141   1.00690    2.685
 4461.00    0.94355   1.02228    0.000
 4462.00    0.94810   1.03583    0.000
 4463.00    0.98843   1.04457    0.000
 4464.00    1.04245   1.04771    0.000
 4465.00    1.07510   1.04711    0.000
 4466.00    1.09115   1.04647    0.000
 4467.00    1.13009   1.04982    0.000
 4468.00    1.21144   1.05989    0.000
 4469.00    1.31788   1.07693    0.000
 4470.00    1.39322   1.09865    0.000
 4471.00    1.38318   1.12124    0.000
 4472.00    1.32886   1.14062    0.000
 4473.00    1.31259   1.15331    0.000
 4474.00    1.29275   1.15659    0.000
 4475.00    1.16658   1.14915    0.000
 4476.00    0.97386   1.13225    0.000
 4477.00    0.84933   1.11083    0.000
 4478.00    0.84719   1.09258    0.000
 4479.00    0.94101   1.08476    0.000
 4480.00    1.08733   1.09041    0.000
 4481.00    1.22341   1.10640    0.000
 4482.00    1.24702   1.12503    2.721
 4483.00    1.10159   1.13790    2.813
 4484.00    0.91110   1.14011    3.032
 4485.00    0.84975   1.13215    3.143
 4486.00    0.91735   1.11886    3.123
 4487.00    1.01006   1.10615    3.112
 4488.00    1.06875   1.09755    3.101
 4489.00    1.08330   1.09301    3.040
 4490.00    1.06869   1.09038    3.012
 4491.00    1.04273   1.08831    3.101
 4492.00    1.00350   1.08781    3.241
 4493.00    0.94931   1.09130    3.299
 4494.00    0.90457   1.10025    3.266
 4495.00    0.90770   1.11371    3.206
 4496.00    0.99124   1.12912    3.140
 4497.00    1.14475   1.14441    3.082
 4498.00    1.28542   1.15937    3.075
 4499.00    1.33678   1.17494    3.141
 4500.00    1.30471   1.19124    3.240
 4501.00    1.23601   1.20635    3.305
 4502.00    1.17173   1.21724    3.305
 4503.00    1.12938   1.22198    3.267
 4504.00    1.09523   1.22105    3.257
 4505.00    1.06336   1.21678    3.298
 4506.00    1.06339   1.21136    3.311
 4507.00    1.12251   1.20539    3.249
 4508.00    1.23260   1.19793    3.188
 4509.00    1.33452   1.18801    3.191
 4510.00    1.32589   1.17602    3.230
 4511.00    1.18094   1.16386    3.262
 4512.00    1.01024   1.15399    3.278
 4513.00    0.92121   1.14816    3.285
 4514.00    0.93304   1.14683    3.292
 4515.00    1.01777   1.14921    3.291
 4516.00    1.13034   1.15354    3.258
 4517.00    1.22314   1.15721    3.215
 4518.00    1.25891   1.15730    3.239
 4519.00    1.23804   1.15139    3.343
 4520.00    1.20159   1.13845    3.429
 4521.00    1.17710   1.11912    3.416
 4522.00    1.15800   1.09535    3.324
 4523.00    1.13457   1.07001    3.245
 4524.00    1.10296   1.04655    3.275
 4525.00    1.04073   1.02834    3.377
 4526.00    0.91499   1.01776    3.382
 4527.00    0.75692   1.01515    3.286
 4528.00    0.66552   1.01861    3.281
 4529.00    0.70716   1.02523    3.404
 4530.00    0.87660   1.03308    3.483
 4531.00    1.10016   1.04254    3.424
 4532.00    1.26629   1.05551    3.317
 4533.00    1.31870   1.07307    3.268
 4534.00    1.27623   1.09341    3.329
 4535.00    1.19545   1.11225    3.448
 4536.00    1.14299   1.12528    3.487
 4537.00    1.15259   1.13098    3.423
 4538.00    1.21266   1.13098    3.361
 4539.00    1.26882   1.12819    3.355
 4540.00    1.25437   1.12468    3.396
 4541.00    1.16386   1.12089    3.454
 4542.00    1.05080   1.11633    3.493
 4543.00    0.97579   1.11064    3.487
 4544.00    0.97496   1.10402    3.437
 4545.00    1.02058   1.09723    3.382
 4546.00    1.05381   1.09126    3.376
 4547.00    1.07071   1.08690    3.432
 4548.00    1.11018   1.08432    3.516
 4549.00    1.19369   1.08324    3.522
 4550.00    1.31169   1.08372    0.000
 4551.00    1.42257   1.08686    0.000
 4552.00    1.47863   1.09447    0.000
 4553.00    1.47106   1.10769    0.000
 4554.00    1.43063   1.12551    0.000
 4555.00    1.41351   1.14475    0.000
 4556.00    1.45460   1.16120    0.000
 4557.00    1.50377   1.17131    0.000
 4558.00    1.48666   1.17330    0.000
 4559.00    1.40437   1.16772    0.000
 4560.00    1.31122   1.15740    0.000
 4561.00    1.26254   1.14685    0.000
 4562.00    1.26597   1.14070    0.000
 4563.00    1.23644   1.14143    0.000
 4564.00    1.10531   1.14809    0.000
 4565.00    0.94894   1.15676    0.000
 4566.00    0.88394   1.16316    0.000
 4567.00    0.93420   1.16527    0.000
 4568.00    1.04451   1.16430    0.000
 4569.00    1.11816   1.16324    0.000
 4570.00    1.10929   1.16434    0.000
 4571.00    1.09964   1.16733    0.000
 4572.00    1.18321   1.16974    0.000
 4573.00    1.35433   1.16854    0.000
 4574.00    1.53288   1.16175    0.000
 4575.00    1.60447   1.14946    0.000
 4576.00    1.50506   1.13373    0.000
 4577.00    1.28201   1.11782    0.000
 4578.00    1.04165   1.10495    0.000
 4579.00    0.89604   1.09709    0.000
 4580.00    0.89789   1.09465    0.000
 4581.00    1.00302   1.09705    0.000
 4582.00    1.12480   1.10350    0.000
 4583.00    1.18234   1.11322    0.000
 4584.00    1.15794   1.12486    0.000
 4585.00    1.11666   1.13607    0.000
 4586.00    1.11021   1.14383    0.000
 4587.00    1.12570   1.14583    0.000
 4588.00    1.13266   1.14170    0.000
 4589.00    1.11580   1.13323    0.000
 4590.00    1.09755   1.12340    0.000
 4591.00    1.13447   1.11496    0.000
 4592.00    1.24480   1.10952    0.000
 4593.00    1.37759   1.10735    0.000
 4594.00    1.44047   1.10779    0.000
 4595.00    1.34591   1.10968    0.000
 4596.00    1.14707   1.11193    0.000
 4597.00    1.03423   1.11392    0.000
 4598.00    1.08108   1.11570    0.000
 4599.00    1.18776   1.11784    0.000
 4600.00    1.26852   1.12119    0.000
 4601.00    1.30639   1.12679    0.000
 4602.00    1.28094   1.13569    0.000
 4603.00    1.16712   1.14845    0.000
 4604.00    1.02010   1.16428    0.000
 4605.00    0.95832   1.18063    0.000
 4606.00    1.02146   1.19394    0.000
 4607.00    1.15061   1.20142    0.000
 4608.00    1.26616   1.20256    0.000
 4609.00    1.31484   1.19933    0.000
 4610.00    1.32995   1.19494    0.000
 4611.00    1.39555   1.19196    0.000
 4612.00    1.51341   1.19121    0.000
 4613.00    1.60599   1.19191    0.000
 4614.00    1.60935   1.19284    0.000
 4615.00    1.51207   1.19338    0.000
 4616.00    1.38714   1.19382    0.000
 4617.00    1.33249   1.19487    0.000
 4618.00    1.33305   1.19680    0.000
 4619.00    1.30264   1.19899    0.000
 4620.00    1.22558   1.20037    0.000
 4621.00    1.14941   1.20009    0.000
 4622.00    1.11666   1.19807    0.000
 4623.00    1.14745   1.19495    0.000
 4624.00    1.23237   1.19166    0.000
 4625.00    1.33476   1.18897    0.000
 4626.00    1.39845   1.18712    0.000
 4627.00    1.38361   1.18569    0.000
 4628.00    1.31768   1.18365    0.000
 4629.00    1.25549   1.17984    0.000
 4630.00    1.21085   1.17359    0.000
 4631.00    1.16544   1.16508    0.000
 4632.00    1.09621   1.15520    0.000
 4633.00    1.00086   1.14510    0.000
 4634.00    0.92257   1.13590    0.000
 4635.00    0.90418   1.12866    0.000
 4636.00    0.93226   1.12428    0.000
 4637.00    0.97478   1.12284    0.000
 4638.00    1.02898   1.12310    0.000
 4639.00    1.09406   1.12248    0.000
 4640.00    1.14005   1.11818    0.000
 4641.00    1.14647   1.10876    0.000
 4642.00    1.14075   1.09532    0.000
 4643.00    1.16074   1.08146    0.000
 4644.00    1.21361   1.07191    0.000
 4645.00    1.25415   1.07031    0.000
 4646.00    1.18488   1.07752    0.000
 4647.00    0.99938   1.09116    0.000
 4648.00    0.87356   1.10671    0.000
 4649.00    0.93005   1.11961    0.000
 4650.00    1.07279   1.12728    0.000
 4651.00    1.18342   1.13032    0.000
 4652.00    1.26203   1.13201    0.000
 4653.00    1.33251   1.13640    0.000
 4654.00    1.37637   1.14591    0.000
 4655.00    1.37215   1.15952    0.000
 4656.00    1.32396   1.17302    0.000
 4657.00    1.26302   1.18105    0.000
 4658.00    1.23871   1.17967    0.000
 4659.00    1.26792   1.16785    0.000
 4660.00    1.31502   1.14733    0.000
 4661.00    1.34015   1.12132    0.000
 4662.00    1.32439   1.09363    0.000
 4663.00    1.26064   1.06844    0.000
 4664.00    1.15308   1.05027    0.000
 4665.00    1.03863   1.04289    0.000
 4666.00    0.97674   1.04766    0.000
 4667.00    0.96182   1.06243    0.000
 4668.00    0.92084   1.08243    0.000
 4669.00    0.86337   1.10245    0.000
 4670.00    0.89762   1.11906    0.000
 4671.00    1.04966   1.13110    0.000
 4672.00    1.22663   1.13866    0.000
 4673.00    1.34477   1.14181    0.000
 4674.00    1.37210   1.14037    0.000
 4675.00    1.30826   1.13467    0.000
 4676.00    1.17862   1.12635    0.000
 4677.00    1.03907   1.11825    0.000
 4678.00    0.96127   1.11323    0.000
 4679.00    0.98505   1.11284    0.000
 4680.00    1.09560   1.11659    0.000
 4681.00    1.20311   1.12243    0.000
 4682.00    1.20138   1.12788    0.000
 4683.00    1.13002   1.13120    0.000
 4684.00    1.12105   1.13189    0.000
 4685.00    1.16648   1.13058    0.000
 4686.00    1.15628   1.12842    0.000
 4687.00    1.09626   1.12671    0.000
 4688.00    1.08289   1.12654    0.000
 4689.00    1.13975   1.12857    0.000
 4690.00    1.21504   1.13261    0.000
 4691.00    1.25079   1.13726    0.000
 4692.00    1.21807   1.14021    0.000
 4693.00    1.15348   1.13907    0.000
 4694.00    1.11258   1.13262    0.000
 4695.00    1.07774   1.12160    0.000
 4696.00    1.00135   1.10837    0.000
 4697.00    0.90349   1.09585    0.000
 4698.00    0.84135   1.08628    0.000
 4699.00    0.83644   1.08070    0.000
 4700.00    0.88426   1.07896    0.000
 4701.00    0.98369   1.07997    0.000
 4702.00    1.11115   1.08216    0.000
 4703.00    1.18401   1.08424    0.000
 4704.00    1.13926   1.08589    0.000
 4705.00    1.03659   1.08789    0.000
 4706.00    0.98574   1.09137    0.000
 4707.00    1.04028   1.09666    0.000
 4708.00    1.17543   1.10288    0.000
 4709.00    1.28628   1.10876    0.000
 4710.00    1.29963   1.11392    0.000
 4711.00    1.28393   1.11960    0.000
 4712.00    1.32342   1.12789    0.000
 4713.00    1.38654   1.14015    0.000
 4714.00    1.40739   1.15578    0.000
 4715.00    1.37433   1.17249    0.000
 4716.00    1.31836   1.18738    0.000
 4717.00    1.29106   1.19836    0.000
 4718.00    1.32093   1.20467    0.000
 4719.00    1.38266   1.20658    0.000
 4720.00    1.43644   1.20445    0.000
 4721.00    1.46064   1.19793    0.000
 4722.00    1.44737   1.18615    0.000
 4723.00    1.39711   1.16885    0.000
 4724.00    1.31553   1.14764    0.000
 4725.00    1.21328   1.12619    0.000
 4726.00    1.11830   1.10906    0.000
 4727.00    1.07737   1.09969    0.000
 4728.00    1.11584   1.09895    0.000
 4729.00    1.21331   1.10511    0.000
 4730.00    1.30953   1.11494    0.000
 4731.00    1.32426   1.12523    0.000
 4732.00    1.24077   1.13408    0.000
 4733.00    1.13287   1.14114    0.000
 4734.00    1.07100   1.14709    0.000
 4735.00    1.07595   1.15262    0.000
 4736.00    1.13505   1.15792    0.000
 4737.00    1.21532   1.16280    0.000
 4738.00    1.28271   1.16710    0.000
 4739.00    1.31379   1.17104    0.000
 4740.00    1.30795   1.17502    0.000
 4741.00    1.28512   1.17933    0.000
 4742.00    1.25790   1.18389    0.000
 4743.00    1.22785   1.18834    0.000
 4744.00    1.21263   1.19198    0.000
 4745.00    1.23933   1.19397    0.000
 4746.00    1.28829   1.19347    0.000
 4747.00    1.30091   1.18993    0.000
 4748.00    1.26693   1.18339    0.000
 4749.00    1.22703   1.17461    0.000
 4750.00    1.19459   1.16509    0.000
 4751.00    1.15158   1.15663    0.000
 4752.00    1.10526   1.15080    0.000
 4753.00    1.08647   1.14829    0.000
 4754.00    1.10179   1.14852    0.000
 4755.00    1.12826   1.14969    0.000
 4756.00    1.13302   1.14931    0.000
 4757.00    1.09013   1.14516    0.000
 4758.00    1.00702   1.13628    0.000
 4759.00    0.92224   1.12351    0.000
 4760.00    0.88587   1.10938    0.000
 4761.00    0.92670   1.09721    4.336
 4762.00    0.99707   1.09014    4.269
 4763.00    1.02523   1.09002    4.314
 4764.00    1.03367   1.09686    4.420
 4765.00    1.08311   1.10882    4.462
 4766.00    1.13398   1.12294    4.414
 4767.00    1.10685   1.13648    4.348
 4768.00    1.02406   1.14808    4.320
 4769.00    0.97041   1.15799    4.343
 4770.00    0.99238   1.16722    4.361
 4771.00    1.08153   1.17637    4.327
 4772.00    1.17707   1.18507    4.317
 4773.00    1.22141   1.19212    4.401
 4774.00    1.23373   1.19624    4.450
 4775.00    1.26042   1.19662    4.334
 4776.00    1.29831   1.19310    4.227
 4777.00    1.31721   1.18616    4.304
 4778.00    1.30034   1.17672    4.424
 4779.00    1.24912   1.16607    4.379
 4780.00    1.18313   1.15556    4.287
 4781.00    1.13929   1.14632    4.314
 4782.00    1.16716   1.13912    4.385
 4783.00    1.28494   1.13432    4.361
 4784.00    1.43974   1.13213    4.262
 4785.00    1.55996   1.13285    4.196
 4786.00    1.60895   1.13694    4.252
 4787.00    1.57638   1.14485    4.440
 4788.00    1.46782   1.15663    4.609
 4789.00    1.31804   1.17132    4.602
 4790.00    1.19716   1.18672    4.473
 4791.00    1.15923   1.19971    4.344
 4792.00    1.20358   1.20730    4.267
 4793.00    1.29990   1.20791    4.249
 4794.00    1.41060   1.20234    4.275
 4795.00    1.49971   1.19357    4.312
 4796.00    1.53969   1.18541    4.318
 4797.00    1.52081   1.18073    4.283
 4798.00    1.45636   1.18005    4.244
 4799.00    1.37717   1.18157    4.224
 4800.00    1.32177   1.18242    4.209
 4801.00    1.30038   1.18038    4.207
 4802.00    1.28284   1.17514    4.275
 4803.00    1.24729   1.16823    4.390
 4804.00    1.20479   1.16203    4.415
 4805.00    1.18380   1.15850    4.327
 4806.00    1.21235   1.15842    4.285
 4807.00    1.27625   1.16137    4.315
 4808.00    1.31637   1.16627    4.260
 4809.00    1.30669   1.17214    4.103
 4810.00    1.27592   1.17854    4.023
 4811.00    1.24589   1.18549    4.077
 4812.00    1.21429   1.19310    4.161
 4813.00    1.19300   1.20103    4.178
 4814.00    1.20926   1.20823    4.125
 4815.00    1.25233   1.21304    4.063
 4816.00    1.27642   1.21368    4.060
 4817.00    1.28002   1.20901    4.120
 4818.00    1.30469   1.19926    4.180
 4819.00    1.34062   1.18641    4.210
 4820.00    1.32583   1.17364    4.234
 4821.00    1.23938   1.16400    4.265
 4822.00    1.11749   1.15900    4.287
 4823.00    1.01499   1.15802    4.268
 4824.00    0.98313   1.15891    4.189
 4825.00    1.04226   1.15941    4.111
 4826.00    1.16988   1.15834    4.114
 4827.00    1.29142   1.15594    4.149
 4828.00    1.32661   1.15347    4.101
 4829.00    1.29999   1.15227    4.019
 4830.00    1.29277   1.15299    4.043
 4831.00    1.28193   1.15514    4.174
 4832.00    1.18509   1.15724    4.294
 4833.00    1.02552   1.15759    4.339
 4834.00    0.90574   1.15509    4.320
 4835.00    0.88871   1.14985    4.252
 4836.00    0.97749   1.14313    4.150
 4837.00    1.12275   1.13682    4.036
 4838.00    1.24805   1.13263    3.952
 4839.00    1.29147   1.13146    3.957
 4840.00    1.23479   1.13309    4.084
 4841.00    1.13579   1.13622    4.231
 4842.00    1.07687   1.13902    4.251
 4843.00    1.08097   1.13985    4.186
 4844.00    1.11948   1.13799    4.172
 4845.00    1.14366   1.13390    4.228
 4846.00    1.12258   1.12843    4.288
 4847.00    1.08463   1.12191    4.267
 4848.00    1.07431   1.11355    0.000
 4849.00    1.09301   1.10184    0.000
 4850.00    1.11695   1.08565    0.000
 4851.00    1.12704   1.06501    0.000
 4852.00    1.11207   1.04081    0.000
 4853.00    1.06897   1.01386    0.000
 4854.00    1.00887   0.98443    0.000
 4855.00    0.96148   0.95280    0.000
 4856.00    0.95678   0.92086    0.000
 4857.00    1.00627   0.89301    0.000
 4858.00    1.10012   0.87514    0.000
 4859.00    1.20743   0.87206    0.000
 4860.00    1.28872   0.88491    0.000
 4861.00    1.31014   0.91042    0.000
 4862.00    1.27183   0.94225    0.000
 4863.00    1.22197   0.97334    0.000
 4864.00    1.19270   0.99812    0.000
 4865.00    1.15990   1.01366    0.000
 4866.00    1.11477   1.02013    0.000
 4867.00    1.10443   1.02035    0.000
 4868.00    1.14282   1.01884    0.000
 4869.00    1.16563   1.02008    0.000
 4870.00    1.13830   1.02689    0.000
 4871.00    1.11154   1.03973    0.000
 4872.00    1.13003   1.05702    0.000
 4873.00    1.18207   1.07628    0.000
 4874.00    1.23459   1.09494    0.000
 4875.00    1.25668   1.11075    4.471
 4876.00    1.23185   1.12195    4.332
 4877.00    1.16565   1.12736    4.326
 4878.00    1.09323   1.12675    4.522
 4879.00    1.06923   1.12084    4.657
 4880.00    1.10670   1.11112    4.584
 4881.00    1.16252   1.09941    4.495
 4882.00    1.19636   1.08745    4.511
 4883.00    1.19656   1.07656    4.571
 4884.00    1.17778   1.06757    4.603
 4885.00    1.16893   1.06116    4.589
 4886.00    1.17434   1.05846    4.567
 4887.00    1.17188   1.06147    4.591
 4888.00    1.15837   1.07237    4.640
 4889.00    1.15649   1.09212    4.627
 4890.00    1.18329   1.11907    4.547
 4891.00    1.23642   1.14895    4.485
 4892.00    1.28625   1.17615    4.464
 4893.00    1.29033   1.19585    4.447
 4894.00    1.24088   1.20570    4.451
 4895.00    1.16841   1.20620    4.520
 4896.00    1.11289   1.20005    4.594
 4897.00    1.10085   1.19087    4.552
 4898.00    1.10997   1.18207    4.470
 4899.00    1.09321   1.17598    4.522
 4900.00    1.05638   1.17349    4.664
 4901.00    1.04482   1.17388    4.679
 4902.00    1.07218   1.17500    4.534
 4903.00    1.11520   1.17409    4.375
 4904.00    1.13779   1.16912    4.280
 4905.00    1.11440   1.16004    4.259
 4906.00    1.06406   1.14916    4.302
 4907.00    1.03098   1.14011    4.375
 4908.00    1.03637   1.13606    4.386
 4909.00    1.06929   1.13792    4.270
 4910.00    1.08849   1.14350    4.132
 4911.00    1.05843   1.14823    4.095
 4912.00    1.00499   1.14682    4.104
 4913.00    0.97961   1.13560    4.049
 4914.00    0.99183   1.11425    3.982
 4915.00    1.01673   1.08653    3.995
 4916.00    1.02202   1.05894    4.035
 4917.00    0.99767   1.03839    4.016
 4918.00    0.98693   1.02944    4.009
 4919.00    1.03337   1.03321    4.111
 4920.00    1.11210   1.04780    4.263
 4921.00    1.17101   1.06988    4.332
 4922.00    1.18952   1.09605    4.288
 4923.00    1.17281   1.12334    4.215
 4924.00    1.13725   1.14900    4.241
 4925.00    1.10239   1.17035    4.403
 4926.00    1.08409   1.18493    4.516
 4927.00    1.09465   1.19110    4.425
 4928.00    1.14242   1.18868    4.325
 4929.00    1.21932   1.17913    4.390
 4930.00    1.29219   1.16500    4.498
 4931.00    1.32950   1.14898    4.494
 4932.00    1.32590   1.13316    4.453
 4933.00    1.30517   1.11911    4.461
 4934.00    1.31418   1.10858    4.444
 4935.00    1.36737   1.10378    4.346
 4936.00    1.41248   1.10664    4.257
 4937.00    1.39379   1.11755    4.260
 4938.00    1.29998   1.13461    4.344
 4939.00    1.16343   1.15419    4.460
 4940.00    1.05100   1.17237    0.000
 4941.00    1.02085   1.18660    0.000
 4942.00    1.09045   1.19643    0.000
 4943.00    1.21102   1.20303    0.000
 4944.00    1.27544   1.20797    0.000
 4945.00    1.24318   1.21216    0.000
 4946.00    1.18682   1.21538    0.000
 4947.00    1.16293   1.21647    0.000
 4948.00    1.15593   1.21376    0.000
 4949.00    1.14934   1.20569    0.000
 4950.00    1.15469   1.19156    0.000
 4951.00    1.17349   1.17209    0.000
 4952.00    1.18345   1.14975    0.000
 4953.00    1.15887   1.12879    0.000
 4954.00    1.08789   1.11426    0.000
 4955.00    1.00322   1.10988    0.000
 4956.00    0.96998   1.11603    0.000
 4957.00    0.99472   1.12942    0.000
 4958.00    1.01973   1.14449    0.000
 4959.00    1.02787   1.15586    0.000
 4960.00    1.05315   1.16027    0.000
 4961.00    1.08900   1.15754    0.000
 4962.00    1.08288   1.15002    0.000
 4963.00    1.01802   1.14127    0.000
 4964.00    0.93070   1.13469    0.000
 4965.00    0.88266   1.13250    0.000
 4966.00    0.92738   1.13541    0.000
 4967.00    1.04397   1.14278    0.000
 4968.00    1.15274   1.15294    0.000
 4969.00    1.20195   1.16361    0.000
 4970.00    1.18409   1.17234    0.000
 4971.00    1.11889   1.17690    0.000
 4972.00    1.04181   1.17579    0.000
 4973.00    0.98811   1.16840    0.000
 4974.00    0.97802   1.15494    0.000
 4975.00    0.99456   1.13630    0.000
 4976.00    1.00245   1.11403    0.000
 4977.00    0.99424   1.09028    0.000
 4978.00    0.98803   1.06784    0.000
 4979.00    1.00520   1.05013    0.000
 4980.00    1.05531   1.04049    0.000
 4981.00    1.11833   1.04073    0.000
 4982.00    1.16496   1.05038    0.000
 4983.00    1.19372   1.06653    0.000
 4984.00    1.21552   1.08487    0.000
 4985.00    1.22105   1.10136    0.000
 4986.00    1.19488   1.11344    0.000
 4987.00    1.14268   1.12063    0.000
 4988.00    1.08739   1.12430    0.000
 4989.00    1.05760   1.12623    0.000
 4990.00    1.07014   1.12771    0.000
 4991.00    1.11080   1.12898    0.000
 4992.00    1.14570   1.12909    0.000
 4993.00    1.13969   1.12662    0.000
 4994.00    1.07940   1.12041    0.000
 4995.00    0.99482   1.11027    0.000
 4996.00    0.93422   1.09720    0.000
 4997.00    0.93324   1.08290    0.000
 4998.00    0.99536   1.06891    0.000
 4999.00    1.07983   1.05630    0.000
 5000.00    1.14649   1.04593    0.000
 5001.00    1.19596   1.03863    0.000
 5002.00    1.23924   1.03521    0.000
 5003.00    1.26944   1.03625    0.000
 5004.00    1.27609   1.04116    0.000
 5005.00    1.25852   1.04758    0.000
 5006.00    1.22127   1.05204    0.000
 5007.00    1.17064   1.05155    0.000
 5008.00    1.12095   1.04518    0.000
 5009.00    1.09514   1.03457    0.000
 5010.00    1.09569   1.02284    0.000
 5011.00    1.09190   1.01325    0.000
 5012.00    1.06937   1.00801    0.000
 5013.00    1.05355   1.00768    0.000
 5014.00    1.05258   1.01131    0.000
 5015.00    1.03398   1.01737    0.000
 5016.00    0.99566   1.02471    0.000
 5017.00    0.99054   1.03277    0.000
 5018.00    1.03631   1.04127    0.000
 5019.00    1.08157   1.04994    0.000
 5020.00    1.08432   1.05825    0.000
 5021.00    1.04816   1.06565    0.000
 5022.00    1.00023   1.07199    0.000
 5023.00    0.97398   1.07773    0.000
 5024.00    0.98393   1.08372    0.000
 5025.00    1.02129   1.09122    0.000
 5026.00    1.08137   1.10101    0.000
 5027.00    1.16639   1.11243    0.000
 5028.00    1.25235   1.12317    0.000
 5029.00    1.28937   1.13014    4.829
 5030.00    1.24967   1.13094    4.665
 5031.00    1.14586   1.12467    4.638
 5032.00    1.03113   1.11156    4.762
 5033.00    0.97088   1.09293    4.814
 5034.00    0.95639   1.07094    4.775
 5035.00    0.91990   1.04863    4.844
 5036.00    0.85960   1.03017    5.001
 5037.00    0.83697   1.01977    4.996
 5038.00    0.86465   1.02033    4.854
 5039.00    0.90231   1.03264    4.824
 5040.00    0.92943   1.05410    4.903
 5041.00    0.95587   1.07877    4.885
 5042.00    0.99953   1.09974    4.743
 5043.00    1.07024   1.11206    4.616
 5044.00    1.14725   1.11425    4.566
 5045.00    1.19571   1.10824    4.578
 5046.00    1.21235   1.09850    4.628
 5047.00    1.21697   1.09032    4.687
 5048.00    1.21583   1.08746    4.732
 5049.00    1.20270   1.09122    4.742
 5050.00    1.17547   1.10067    4.714
 5051.00    1.14237   1.11370    4.677
 5052.00    1.12672   1.12799    4.705
 5053.00    1.15282   1.14152    4.840
 5054.00    1.22117   1.15327    4.948
 5055.00    1.30457   1.16278    4.858
 5056.00    1.35031   1.16936    4.685
 5057.00    1.31478   1.17174    4.630
 5058.00    1.21205   1.16841    4.709
 5059.00    1.09484   1.15907    4.824
 5060.00    1.01661   1.14525    4.859
 5061.00    1.00120   1.12920    4.771
 5062.00    1.01394   1.11370    4.684
 5063.00    1.01249   1.10157    4.710
 5064.00    1.00997   1.09441    4.788
 5065.00    1.03465   1.09166    4.813
 5066.00    1.07715   1.09156    4.825
 5067.00    1.11307   1.09278    4.896
 5068.00    1.13294   1.09427    4.989
 5069.00    1.13637   1.09511    5.009
 5070.00    1.12351   1.09489    4.902
 5071.00    1.09974   1.09344    4.735
 5072.00    1.07957   1.08975    4.690
 5073.00    1.07455   1.08222    4.832
 5074.00    1.08336   1.07059    4.942
 5075.00    1.10297   1.05670    4.851
 5076.00    1.13709   1.04345    4.765
 5077.00    1.18243   1.03366    4.827
 5078.00    1.22010   1.02975    4.850
 5079.00    1.23605   1.03285    4.722
 5080.00    1.23540   1.04212    4.667
 5081.00    1.23181   1.05525    4.798
 5082.00    1.23532   1.06979    4.899
 5083.00    1.22560   1.08397    4.830
 5084.00    1.14928   1.09674    4.805
 5085.00    1.00903   1.10774    4.937
 5086.00    0.89876   1.11727    5.036
 5087.00    0.88739   1.12564    4.993
 5088.00    0.95899   1.13239    4.990
 5089.00    1.06353   1.13620    5.118
 5090.00    1.15005   1.13555    5.217
 5091.00    1.18439   1.12928    5.197
 5092.00    1.15710   1.11723    5.184
 5093.00    1.07964   1.10100    5.271
 5094.00    0.98221   1.08414    5.412
 5095.00    0.91264   1.07098    5.507
 5096.00    0.92012   1.06425    5.467
 5097.00    0.99206   1.06414    5.347
 5098.00    1.05175   1.06870    5.304
 5099.00    1.05202   1.07495    5.340
 5100.00    1.00436   1.07984    5.301
 5101.00    0.94699   1.08119    5.175
 5102.00    0.92091   1.07848    5.108
 5103.00    0.93205   1.07307    5.125
 5104.00    0.95209   1.06704    5.121
 5105.00    0.96248   1.06258    5.080
 5106.00    0.96746   1.06189    5.088
 5107.00    0.98865   1.06586    5.155
 5108.00    1.04871   1.07397    5.208
 5109.00    1.13195   1.08519    5.210
 5110.00    1.19370   1.09800    5.179
 5111.00    1.21419   1.11092    5.107
 5112.00    1.20351   1.12263    4.990
 5113.00    1.17793   1.13149    4.902
 5114.00    1.15807   1.13588    4.923
 5115.00    1.17813   1.13460    4.936
 5116.00    1.25862   1.12711    4.761
 5117.00    1.34534   1.11375    4.530
 5118.00    1.35328   1.09584    4.482
 5119.00    1.28093   1.07609    4.623
 5120.00    1.18910   1.05773    4.802
 5121.00    1.11545   1.04295    4.876
 5122.00    1.06829   1.03276    4.806
 5123.00    1.04574   1.02735    4.695
 5124.00    1.04319   1.02632    4.658
 5125.00    1.05970   1.02923    4.640
 5126.00    1.09612   1.03552    4.542
 5127.00    1.15013   1.04409    4.425
 5128.00    1.20942   1.05376    4.400
 5129.00    1.24377   1.06359    4.467
 5130.00    1.22327   1.07236    4.560
 5131.00    1.14557   1.07781    4.620
 5132.00    1.03973   1.07848    4.643
 5133.00    0.96372   1.07463    4.720
 5134.00    0.96424   1.06742    4.902
 5135.00    1.02929   1.05941    5.016
 5136.00    1.10888   1.05217    4.908
 5137.00    1.14842   1.04551    4.802
 5138.00    1.12537   1.04061    4.910
 5139.00    1.08034   1.03820    5.080
 5140.00    1.06443   1.03690    5.086
 5141.00    1.08359   1.03561    5.015
 5142.00    1.11608   1.03430    5.011
 5143.00    1.13578   1.03333    4.998
 5144.00    1.12685   1.03300    4.928
 5145.00    1.09395   1.03285    4.965
 5146.00    1.05257   1.03237    5.185
 5147.00    1.01887   1.03184    5.324
 5148.00    1.00060   1.03183    5.180
 5149.00    0.99241   1.03338    5.017
 5150.00    0.99091   1.03797    5.034
 5151.00    1.00363   1.04644    5.098
 5152.00    1.02898   1.05837    5.075
 5153.00    1.04591   1.07199    5.059
 5154.00    1.04238   1.08473    5.136
 5155.00    1.03193   1.09427    5.252
 5156.00    1.03526   1.09833    5.320
 5157.00    1.06686   1.09484    5.298
 5158.00    1.12867   1.08314    5.194
 5159.00    1.20668   1.06310    5.054
 5160.00    1.27074   1.03443    4.961
 5161.00    1.28268   0.99816    5.006
 5162.00    1.23619   0.95770    5.177
 5163.00    1.16743   0.91873    5.307
 5164.00    1.10701   0.88716    5.299
 5165.00    1.06016   0.86578    5.241
 5166.00    1.02539   0.85324    5.209
 5167.00    0.99998   0.84724    5.200
 5168.00    0.96633   0.84862    5.233
 5169.00    0.89802   0.86011    5.363
 5170.00    0.80632   0.88196    5.537
 5171.00    0.74122   0.91111    5.575
 5172.00    0.72710   0.94315    5.441
 5173.00    0.74685   0.97322    5.290
 5174.00    0.77196   0.99591    5.217
 5175.00    0.78000   1.00678    5.217
 5176.00    0.77448   1.00376    5.248
 5177.00    0.77855   0.98752    5.257
 5178.00    0.79718   0.96209    5.220
 5179.00    0.81399   0.93603    5.146
 5180.00    0.81605   0.91953    5.066
 5181.00    0.80296   0.91841    5.007
 5182.00    0.79088   0.93178    4.975
 5183.00    0.80259   0.95462    4.954
 5184.00    0.84071   0.98073    4.915
 5185.00    0.89024   1.00423    4.849
 5186.00    0.94046   1.01968    4.816
 5187.00    0.98917   1.02479    4.886
 5188.00    1.03998   1.02278    4.998
 5189.00    1.09288   1.01890    5.021
 5190.00    1.12714   1.01646    0.000
 5191.00    1.11879   1.01742    0.000
 5192.00    1.08019   1.02324    0.000
 5193.00    1.04393   1.03350    0.000
 5194.00    1.02044   1.04615    0.000
 5195.00    1.00219   1.05848    0.000
 5196.00    0.98440   1.06750    0.000
 5197.00    0.96799   1.07078    0.000
 5198.00    0.95805   1.06701    0.000
 5199.00    0.95483   1.05577    0.000
 5200.00    0.94192   1.03776    0.000
 5201.00    0.90741   1.01617    0.000
 5202.00    0.87477   0.99581    0.000
 5203.00    0.87930   0.98015    0.000
 5204.00    0.93125   0.97160    0.000
 5205.00    1.01415   0.97262    0.000
 5206.00    1.09048   0.98350    0.000
 5207.00    1.12811   1.00179    0.000
 5208.00    1.12913   1.02359    0.000
 5209.00    1.11540   1.04427    0.000
 5210.00    1.10803   1.06011    0.000
 5211.00    1.11687   1.07009    5.370
 5212.00    1.13337   1.07633    5.171
 5213.00    1.14933   1.08192    5.221
 5214.00    1.17349   1.08873    5.356
 5215.00    1.20874   1.09651    5.333
 5216.00    1.23217   1.10336    5.221
 5217.00    1.21543   1.10670    5.159
 5218.00    1.14526   1.10365    5.130
 5219.00    1.03607   1.09244    5.111
 5220.00    0.93410   1.07370    5.165
 5221.00    0.88004   1.05066    5.318
 5222.00    0.88148   1.02861    5.455
 5223.00    0.92300   1.01406    5.468
 5224.00    0.97810   1.01145    5.392
 5225.00    1.03219   1.01922    5.297
 5226.00    1.09356   1.03271    5.209
 5227.00    1.16731   1.04731    5.162
 5228.00    1.24040   1.05901    5.210
 5229.00    1.29439   1.06693    5.320
 5230.00    1.31583   1.07347    5.331
 5231.00    1.30852   1.08101    5.216
 5232.00    1.29477   1.09103    5.160
 5233.00    1.28753   1.10322    5.211
 5234.00    1.27990   1.11582    5.191
 5235.00    1.26528   1.12716    5.071
 5236.00    1.24735   1.13627    5.057
 5237.00    1.23838   1.14262    5.182
 5238.00    1.25363   1.14569    5.218
 5239.00    1.29223   1.14579    5.077
 5240.00    1.33345   1.14351    4.938
 5241.00    1.35464   1.13780    4.918
 5242.00    1.34195   1.12732    5.000
 5243.00    1.30147   1.11368    5.106
 5244.00    1.25538   1.10041    5.129
 5245.00    1.21410   1.08878    5.036
 5246.00    1.17198   1.07923    4.896
 5247.00    1.12621   1.07396    4.799
 5248.00    1.08047   1.07398    4.808
 5249.00    1.03655   1.07776    4.886
 5250.00    0.99444   1.08369    4.923
 5251.00    0.96011   1.09169    4.927
 5252.00    0.94638   1.10268    4.993
 5253.00    0.96858   1.11490    5.058
 5254.00    1.03058   1.12418    4.959
 5255.00    1.09398   1.12668    4.794
 5256.00    1.10087   1.11959    4.788
 5257.00    1.04492   1.10185    4.913
 5258.00    0.96693   1.07478    4.968
 5259.00    0.90634   1.04206    4.934
 5260.00    0.88498   1.00842    4.939
 5261.00    0.89722   0.97807    4.938
 5262.00    0.91651   0.95459    4.817
 5263.00    0.91275   0.94007    4.704
 5264.00    0.86907   0.93208    4.790
 5265.00    0.80522   0.92765    5.003
 5266.00    0.76117   0.92972    5.096
 5267.00    0.76158   0.94182    5.004
 5268.00    0.80935   0.96119    4.847
 5269.00    0.88613   0.98334    4.725
 5270.00    0.96475   1.00621    4.661
 5271.00    1.02770   1.02857    4.590
 5272.00    1.06804   1.05067    4.441
 5273.00    1.08667   1.07252    4.237
 5274.00    1.09753   1.09111    4.060
 5275.00    1.13259   1.10340    4.003
 5276.00    1.20830   1.10863    4.090
 5277.00    1.28596   1.10833    4.176
 5278.00    1.31731   1.10538    4.113
 5279.00    1.30281   1.10310    4.008
 5280.00    1.27357   1.10520    4.000
 5281.00    1.26307   1.11470    4.037
 5282.00    1.29698   1.13049    4.030
 5283.00    1.38453   1.14831    4.008
 5284.00    1.50473   1.16477    4.013
 5285.00    1.59791   1.17835    3.993
 5286.00    1.60644   1.18810    3.944
 5287.00    1.51434   1.19263    4.017
 5288.00    1.35625   1.19091    4.298
 5289.00    1.21431   1.18317    4.573
 5290.00    1.14738   1.17063    4.575
 5291.00    1.13939   1.15404    4.419
 5292.00    1.14987   1.13402    4.316
 5293.00    1.15518   1.11301    4.316
 5294.00    1.14200   1.09587    4.383
 5295.00    1.10213   1.08718    4.449
 5296.00    1.04146   1.08726    4.475
 5297.00    0.98459   1.09385    4.495
 5298.00    0.96319   1.10573    4.526
 5299.00    1.00509   1.12215    4.519
 5300.00    1.11502   1.14084    4.442
 5301.00    1.26323   1.15851    4.330
 5302.00    1.38584   1.17263    4.252
 5303.00    1.39997   1.18266    4.271
 5304.00    1.27865   1.18980    4.375
 5305.00    1.07988   1.19513    4.452
 5306.00    0.89385   1.19838    4.440
 5307.00    0.80264   1.19895    4.395
 5308.00    0.82217   1.19672    4.355
 5309.00    0.89379   1.19197    4.301
 5310.00    0.96192   1.18547    4.250
 5311.00    1.00752   1.17790    4.268
 5312.00    1.04226   1.16977    4.359
 5313.00    1.09678   1.16237    4.448
 5314.00    1.18825   1.15686    4.478
 5315.00    1.30480   1.15260    4.459
 5316.00    1.39661   1.14810    4.440
 5317.00    1.39716   1.14211    4.476
 5318.00    1.30199   1.13327    4.552
 5319.00    1.17506   1.12024    4.598
 5320.00    1.08521   1.10302    4.627
 5321.00    1.07251   1.08375    4.717
 5322.00    1.11280   1.06424    4.834
 5323.00    1.13546   1.04470    4.843
 5324.00    1.09951   1.02776    4.771
 5325.00    1.01177   1.02012    4.777
 5326.00    0.91690   1.02596    4.889
 5327.00    0.87199   1.04239    5.012
 5328.00    0.89322   1.06369    5.080
 5329.00    0.95765   1.08588    5.096
 5330.00    1.03667   1.10684    5.104
 5331.00    1.11248   1.12401    5.142
 5332.00    1.19464   1.13457    5.172
 5333.00    1.29421   1.13782    5.127
 5334.00    1.36770   1.13514    5.043
 5335.00    1.35308   1.12812    5.004
 5336.00    1.25575   1.11882    5.016
 5337.00    1.13316   1.11129    5.042
 5338.00    1.03898   1.10899    5.078
 5339.00    1.00167   1.11129    5.126
 5340.00    1.00710   1.11516    5.119
 5341.00    1.02108   1.11832    5.015
 5342.00    1.02806   1.12017    4.951
 5343.00    1.03030   1.12152    5.052
 5344.00    1.03722   1.12293    5.177
 5345.00    1.05169   1.12518    5.114
 5346.00    1.05481   1.13062    4.959
 5347.00    1.02611   1.14091    4.899
 5348.00    0.97168   1.15491    4.922
 5349.00    0.92240   1.17032    4.948
 5350.00    0.92439   1.18596    4.986
 5351.00    0.99654   1.20093    5.056
 5352.00    1.08898   1.21337    5.076
 5353.00    1.14282   1.22166    4.994
 5354.00    1.15583   1.22532    4.912
 5355.00    1.15564   1.22432    4.924
 5356.00    1.16526   1.21871    4.986
 5357.00    1.18910   1.20885    5.010
 5358.00    1.20546   1.19578    4.978
 5359.00    1.19115   1.18139    4.904
 5360.00    1.14358   1.16696    4.798
 5361.00    1.07841   1.15266    4.689
 5362.00    1.02368   1.13881    4.632
 5363.00    0.99946   1.12566    4.667
 5364.00    1.00368   1.11290    4.786
 5365.00    1.02356   1.10057    4.915
 5366.00    1.04494   1.08965    4.912
 5367.00    1.05418   1.08295    4.761
 5368.00    1.04126   1.08443    4.657
 5369.00    1.01412   1.09560    4.701
 5370.00    1.00143   1.11333    4.801
 5371.00    1.01353   1.13254    4.843
 5372.00    1.02596   1.14950    4.809
 5373.00    1.02161   1.16204    4.760
 5374.00    1.01296   1.16987    4.787
 5375.00    1.02837   1.17354    4.885
 5376.00    1.09529   1.17334    4.924
 5377.00    1.19789   1.17029    4.876
 5378.00    1.27351   1.16631   -2.000
 5379.00    1.29378   1.16278   -2.000
 5380.00    1.28895   1.16048   -2.000
 5381.00    1.28526   1.15971   -2.000
 5382.00    1.28175   1.15907   -2.000
 5383.00    1.27305   1.15655   -2.000
 5384.00    1.25869   1.15149   -2.000
 5385.00    1.24124   1.14381   -2.000
 5386.00    1.22283   1.13391   -2.000
 5387.00    1.19593   1.12310   -2.000
 5388.00    1.14860   1.11268   -2.000
 5389.00    1.09227   1.10309   -2.000
 5390.00    1.05629   1.09451   -2.000
 5391.00    1.04151   1.08710   -2.000
 5392.00    1.01976   1.08069   -2.000
 5393.00    0.97628   1.07536    5.190
 5394.00    0.92173   1.07322    5.201
 5395.00    0.88858   1.07573    5.101
 5396.00    0.91186   1.07990    5.027
 5397.00    0.98334   1.08196    5.014
 5398.00    1.05847   1.08083    5.013
 5399.00    1.10216   1.07568    5.003
 5400.00    1.10216   1.06558    5.001
 5401.00    1.07258   1.05263    5.016
 5402.00    1.04105   1.04172    5.040
 5403.00    1.02041   1.03692    5.048
 5404.00    1.01015   1.03881    5.024
 5405.00    1.01157   1.04507    4.990
 5406.00    1.02667   1.05398    4.980
 5407.00    1.05027   1.06643    4.982
 5408.00    1.07166   1.08287    4.961
 5409.00    1.08049   1.10066    4.924
 5410.00    1.07485   1.11660    4.907
 5411.00    1.07184   1.12978    4.927
 5412.00    1.08653   1.14088    4.986
 5413.00    1.09849   1.14995    5.074
 5414.00    1.07854   1.15556    5.167
 5415.00    1.03442   1.15677    5.229
 5416.00    0.99788   1.15443    5.218
 5417.00    0.99663   1.15035    5.106
 5418.00    1.03345   1.14643    4.940
 5419.00    1.06703   1.14305    4.872
 5420.00    1.05384   1.13918    4.989
 5421.00    1.00003   1.13564    5.148
 5422.00    0.94053   1.13415    5.151
 5423.00    0.90761   1.13316    5.050
 5424.00    0.92067   1.12909    5.005
 5425.00    0.97937   1.12004    5.083
 5426.00    1.06985   1.10805    5.248
 5427.00    1.17146   1.09831    5.342
 5428.00    1.25546   1.09230    5.271
 5429.00    1.28688   1.08751    5.200
 5430.00    1.25839   1.08445    5.259
 5431.00    1.21509   1.08597    5.335
 5432.00    1.20791   1.09371    5.309
 5433.00    1.25268   1.10752    5.268
 5434.00    1.33082   1.12572    5.310
 5435.00    1.39645   1.14534    5.395
 5436.00    1.40792   1.16252    5.444
 5437.00    1.35177   1.17420    5.428
 5438.00    1.24751   1.17882    5.384
 5439.00    1.14493   1.17610    5.391
 5440.00    1.09146   1.16670    5.462
 5441.00    1.10806   1.15213    5.501
 5442.00    1.17378   1.13538    5.434
 5443.00    1.22754   1.12091    5.306
 5444.00    1.22764   1.11340    5.207
 5445.00    1.18057   1.11412    5.212
 5446.00    1.10851   1.11880    5.325
 5447.00    1.03046   1.12277    5.465
 5448.00    0.96042   1.12383    5.554
 5449.00    0.90874   1.12155    5.578
 5450.00    0.89135   1.11649    5.542
 5451.00    0.92802   1.10999    5.459
 5452.00    1.01627   1.10495    5.380
 5453.00    1.12540   1.10528    5.376
 5454.00    1.22036   1.11128    5.419
 5455.00    1.27568   1.11860    5.387
 5456.00    1.28823   1.12344    5.263
 5457.00    1.27622   1.12477    5.159
 5458.00    1.25773   1.12334    5.115
 5459.00    1.24213   1.12033    5.084
 5460.00    1.22884   1.11790    5.047
 5461.00    1.21045   1.11859    5.027
 5462.00    1.18366   1.12144    5.018
 5463.00    1.15015   1.12401    4.990
 5464.00    1.10874   1.12609    4.974
 5465.00    1.05743   1.12725    5.030
 5466.00    1.00563   1.12550    5.111
 5467.00    0.97039   1.12035    5.089
 5468.00    0.95775   1.11318    4.988
 5469.00    0.95942   1.10421    4.956
 5470.00    0.95757   1.09340    5.067
 5471.00    0.93654   1.08296    5.292
 5472.00    0.90598   1.07394    5.486
 5473.00    0.89194   1.06602    5.474
 5474.00    0.90622   1.06257    5.364
 5475.00    0.94729   1.06615    5.393
 5476.00    1.01550   1.07305    5.525
 5477.00    1.10767   1.07909    5.553
 5478.00    1.20144   1.08474    5.461
 5479.00    1.26916   1.09250    5.388
 5480.00    1.30722   1.10191    5.402
 5481.00    1.32644   1.11088    5.482
 5482.00    1.32750   1.11757    5.550
 5483.00    1.30135   1.12032    5.527
 5484.00    1.23748   1.11987    5.444
 5485.00    1.14016   1.11953    5.386
 5486.00    1.04839   1.12058    5.387
 5487.00    1.00045   1.12165    5.429
 5488.00    0.98325   1.12276    5.447
 5489.00    0.96735   1.12370   -2.000
 5490.00    0.95985   1.12364   -2.000
 5491.00    0.98245   1.12369   -2.000
 5492.00    1.03371   1.12448   -2.000
 5493.00    1.05593   1.12438   -2.000
 5494.00    0.91909   1.12297   -2.000
 5495.00    0.63004   1.12238   -2.000
 5496.00    0.52175   1.12233   -2.000
 5497.00    0.80916   1.11969   -2.000
 5498.00    1.16503   1.11418   -2.000
 5499.00    1.22664   1.10857   -2.000
 5500.00    1.08683   1.10447   -2.000
 5501.00    0.96644   1.10149   -2.000
 5502.00    0.89529   1.09859   -2.000
 5503.00    0.85143   1.09561   -2.000
 5504.00    0.88726   1.09434   -2.000
 5505.00    1.01522   1.09470   -2.000
 5506.00    1.12712   1.09398   -2.000
 5507.00    1.13597   1.09152   -2.000
 5508.00    1.07579   1.08833   -2.000
 5509.00    1.02068   1.08572   -2.000
 5510.00    1.02007   1.08606   -2.000
 5511.00    1.07896   1.09055   -2.000
 5512.00    1.15562   1.09847    4.844
 5513.00    1.21346   1.10867    4.913
 5514.00    1.24832   1.12010    4.989
 5515.00    1.25751   1.13154    5.056
 5516.00    1.22666   1.14065    5.104
 5517.00    1.16191   1.14573    5.162
 5518.00    1.09904   1.14683    5.279
 5519.00    1.05853   1.14446    5.328
 5520.00    1.02886   1.13909    5.062
 5521.00    0.99940   1.13132    4.849
 5522.00    0.97401   1.12200    5.560
 5523.00    0.95864   1.11265    7.771
 5524.00    0.95700   1.10476    7.771
 5525.00    0.97749   1.10008    7.771
 5526.00    1.03018   1.10054    7.771
 5527.00    1.10426   1.10512    7.771
 5528.00    1.16745   1.11023    7.771
 5529.00    1.19697   1.11397    7.771
 5530.00    1.19138   1.11669    7.771
 5531.00    1.16985   1.11881    7.771
 5532.00    1.16070   1.12095    7.771
 5533.00    1.16684   1.12435    7.771
 5534.00    1.16678   1.12866    7.771
 5535.00    1.15185   1.13295    7.771
 5536.00    1.13068   1.13740    7.771
 5537.00    1.10918   1.14152    7.771
 5538.00    1.08696   1.14409    7.771
 5539.00    1.06355   1.14452    7.771
 5540.00    1.04451   1.14376    7.771
 5541.00    1.05112   1.14386    7.771
 5542.00    1.10338   1.14564    7.771
 5543.00    1.17591   1.14859    7.771
 5544.00    1.21659   1.15291    7.771
 5545.00    1.20913   1.15813    7.771
 5546.00    1.17088   1.16227    7.771
 5547.00    1.11933   1.16412    7.771
 5548.00    1.06390   1.16356    7.771
 5549.00    1.00426   1.16071    7.771
 5550.00    0.94404   1.15620    7.771
 5551.00    0.91450   1.15134    7.771
 5552.00    0.94638   1.14743    7.603
 5553.00    1.01663   1.14456    5.246
 5554.00    1.07244   1.14178    4.783
 5555.00    1.08413   1.13889    5.128
 5556.00    1.05468   1.13599    5.350
 5557.00    1.01959   1.13247    5.284
 5558.00    1.01709   1.12793    5.316
 5559.00    1.04775   1.12255    5.372
 5560.00    1.08955   1.11714    5.227
 5561.00    1.12517   1.11273    5.086
 5562.00    1.14184   1.10908    5.181
 5563.00    1.12755   1.10579    5.341
 5564.00    1.08213   1.10374    5.310
 5565.00    1.02921   1.10319    5.244
 5566.00    0.99844   1.10337    5.352
 5567.00    1.00387   1.10464    5.467
 5568.00    1.03594   1.10728    5.382
 5569.00    1.05935   1.10953    5.272
 5570.00    1.05373   1.11188    5.347
 5571.00    1.04828   1.11651    5.541
 5572.00    1.07235   1.12186    5.677
 5573.00    1.11099   1.12594    5.650
 5574.00    1.13706   1.12936    5.504
 5575.00    1.14158   1.13182    5.406
 5576.00    1.13118   1.13241    5.433
 5577.00    1.12163   1.13093    5.476
 5578.00    1.11854   1.12624    5.475
 5579.00    1.10686   1.11792    5.574
 5580.00    1.07865   1.10703    5.749
 5581.00    1.05003   1.09404    5.602
 5582.00    1.03743   1.07934    5.280
 5583.00    1.04220   1.06442    5.659
 5584.00    1.05923   1.05180    7.428
 5585.00    1.08230   1.04410    7.771
 5586.00    1.10095   1.04249    7.771
 5587.00    1.10109   1.04653    7.771
 5588.00    1.07973   1.05429    7.771
 5589.00    1.05070   1.06314    7.771
 5590.00    1.03188   1.07158    7.771
 5591.00    1.03707   1.07898    7.771
 5592.00    1.07059   1.08537    7.771
 5593.00    1.12483   1.08992    7.771
 5594.00    1.18071   1.09018    5.338
 5595.00    1.21220   1.08615    4.452
 5596.00    1.20352   1.08162    4.582
 5597.00    1.15833   1.07931    4.973
 5598.00    1.10600   1.07975    5.078
 5599.00    1.08897   1.08387    4.965
 5600.00    1.10862   1.09286    4.829
 5601.00    1.12530   1.10663    4.703
 5602.00    1.12893   1.12263    4.559
 5603.00    1.14836   1.13746    4.365
 5604.00    1.19913   1.14903    4.165
 5605.00    1.26943   1.15628    4.032
 5606.00    1.33193   1.15865    3.987
 5607.00    1.35638   1.15618    3.993
 5608.00    1.33402   1.14970    3.987
 5609.00    1.27630   1.14001    3.917
 5610.00    1.19290   1.12752    3.836
 5611.00    1.09292   1.11274    3.846
 5612.00    1.00303   1.09834    3.971
 5613.00    0.95850   1.08941    4.160
 5614.00    0.97151   1.08782    4.352
 5615.00    1.02968   1.08971    4.500
 5616.00    1.10977   1.09146    4.589
 5617.00    1.18551   1.09281    4.634
 5618.00    1.23720   1.09430    4.652
 5619.00    1.25805   1.09508    4.679
 5620.00    1.26206   1.09389    4.837
 5621.00    1.27154   1.09146    5.155
 5622.00    1.29169   1.09130    5.120
 5623.00    1.30792   1.09609    4.368
 5624.00    1.29028   1.10442    3.684
 5625.00    1.21543   1.11363    3.499
 5626.00    1.09947   1.12248    3.605
 5627.00    0.98188   1.12971    3.643
 5628.00    0.89331   1.13368    3.499
 5629.00    0.85165   1.13368    3.348
 5630.00    0.86324   1.13016    3.478
 5631.00    0.91608   1.12422    4.147
 5632.00    0.97251   1.11708    5.133
 5633.00    0.99410   1.10971    5.370
 5634.00    0.97404   1.10309    5.051
 5635.00    0.93504   1.09845    5.068
 5636.00    0.91956   1.09618    5.291
 5637.00    0.95449   1.09530    5.260
 5638.00    1.01632   1.09516    5.085
 5639.00    1.06673   1.09662    5.047
 5640.00    1.09230   1.10001    5.107
 5641.00    1.09304   1.10418    5.130
 5642.00    1.06783   1.10835    5.100
 5643.00    1.02101   1.11245    5.092
 5644.00    0.96927   1.11629    5.192
 5645.00    0.93972   1.11922    5.400
 5646.00    0.96399   1.12053    5.532
 5647.00    1.04758   1.12059    5.460
 5648.00    1.14979   1.12013    5.356
 5649.00    1.22122   1.11814    5.374
 5650.00    1.23519   1.11290    5.463
 5651.00    1.19828   1.10447    5.536
 5652.00    1.15029   1.09493    5.597
 5653.00    1.12155   1.08620    5.655
 5654.00    1.10796   1.07782    5.665
 5655.00    1.09790   1.06951    5.618
 5656.00    1.08843   1.06481    5.574
 5657.00    1.07414   1.06640    5.571
 5658.00    1.04394   1.07134    5.581
 5659.00    1.00249   1.07619    5.575
 5660.00    0.97635   1.08147    5.558
 5661.00    0.98228   1.08835    5.537
 5662.00    1.01201   1.09550    5.511
 5663.00    1.04222   1.10091    5.493
 5664.00    1.04651   1.10452    5.512
 5665.00    1.02555   1.10825    5.569
 5666.00    1.01210   1.11352    5.617
 5667.00    1.03309   1.11999    5.580
 5668.00    1.09174   1.12707    5.401
 5669.00    1.16458   1.13458    5.177
 5670.00    1.21023   1.14169    5.086
 5671.00    1.20530   1.14674    5.156
 5672.00    1.15568   1.14893    5.255
 5673.00    1.08705   1.14889    5.275
 5674.00    1.03526   1.14696    5.201
 5675.00    1.02726   1.14258    5.096
 5676.00    1.07001   1.13610    5.046
 5677.00    1.13712   1.12893    5.061
 5678.00    1.18291   1.12157    5.087
 5679.00    1.19386   1.11377    5.101
 5680.00    1.19024   1.10675    5.113
 5681.00    1.18910   1.10251    5.088
 5682.00    1.19531   1.10104    4.983
 5683.00    1.20608   1.10092    4.888
 5684.00    1.21746   1.10194    4.916
 5685.00    1.23660   1.10518    4.920
 5686.00    1.27682   1.11115    4.662
 5687.00    1.34012   1.11891    4.324
 5688.00    1.41364   1.12659    4.198
 5689.00    1.47129   1.13280    4.258
 5690.00    1.48487   1.13657    4.333
 5691.00    1.44480   1.13731    4.398
 5692.00    1.36176   1.13517    4.552
 5693.00    1.26118   1.13065    4.808
 5694.00    1.17004   1.12412    5.077
 5695.00    1.09619   1.11609    5.256
 5696.00    1.03351   1.10793    5.291
 5697.00    0.97630   1.10065    5.241
 5698.00    0.92434   1.09377    5.215
 5699.00    0.88648   1.08740    5.263
 5700.00    0.87324   1.08210    5.366
 5701.00    0.88559   1.07712    5.422
 5702.00    0.91904   1.07120    5.339
 5703.00    0.97057   1.06377    5.174
 5704.00    1.02847   1.05629    5.030
 5705.00    1.06021   1.05116    4.915
 5706.00    1.03753   1.04944    4.777
 5707.00    0.96752   1.05196    4.556
 5708.00    0.88356   1.05885    4.273
 5709.00    0.82909   1.06891    4.059
 5710.00    0.83256   1.08178    3.992
 5711.00    0.88430   1.09638    4.023
 5712.00    0.95291   1.11012    4.095
 5713.00    1.00605   1.12211    4.244
 5714.00    1.03367   1.13253    4.494
 5715.00    1.06380   1.14125    4.718
 5716.00    1.12339   1.14872    4.787
 5717.00    1.20405   1.15500    4.786
 5718.00    1.27432   1.15947    4.834
 5719.00    1.29591   1.16199    4.904
 5720.00    1.25462   1.16276    4.960
 5721.00    1.17930   1.16186    5.058
 5722.00    1.11087   1.15935    5.205
 5723.00    1.07748   1.15518    5.258
 5724.00    1.08720   1.15016    5.166
 5725.00    1.12639   1.14640    5.112
 5726.00    1.17505   1.14509    5.174
 5727.00    1.21664   1.14488    5.190
 5728.00    1.23667   1.14431    5.099
 5729.00    1.22546   1.14429    5.096
 5730.00    1.19962   1.14635    5.238
 5731.00    1.20426   1.14964    5.293
 5732.00    1.26028   1.15206    5.153
 5733.00    1.34163   1.15286    5.022
 5734.00    1.40361   1.15247    5.029
 5735.00    1.40622   1.15161    5.119
 5736.00    1.35176   1.15080    5.204
 5737.00    1.28854   1.15026    5.223
 5738.00    1.25190   1.14995    5.155
 5739.00    1.24259   1.14940    5.025
 5740.00    1.24701   1.14835    0.000
 5741.00    1.25082   1.14760    0.000
 5742.00    1.25670   1.14757    0.000
 5743.00    1.27931   1.14697    0.000
 5744.00    1.30389   1.14408    0.000
 5745.00    1.29036   1.13894    0.000
 5746.00    1.23613   1.13377    0.000
 5747.00    1.18106   1.13031    0.000
 5748.00    1.15539   1.12768    0.000
 5749.00    1.16398   1.12458    0.000
 5750.00    1.19090   1.12170    0.000
 5751.00    1.21109   1.12090    0.000
 5752.00    1.21777   1.12322    0.000
 5753.00    1.22443   1.12731    0.000
 5754.00    1.24987   1.13022    0.000
 5755.00    1.30190   1.13046    0.000
 5756.00    1.34920   1.12890    0.000
 5757.00    1.34170   1.12673    0.000
 5758.00    1.27147   1.12499    0.000
 5759.00    1.17394   1.12491    0.000
 5760.00    1.09969   1.12775    0.000
 5761.00    1.08803   1.13420    0.000
 5762.00    1.12811   1.14276    0.000
 5763.00    1.17389   1.15029    0.000
 5764.00    1.18700   1.15525    0.000
 5765.00    1.15051   1.15783    0.000
 5766.00    1.07805   1.15819    0.000
 5767.00    1.00549   1.15651    0.000
 5768.00    0.97365   1.15350    0.000
 5769.00    1.00734   1.14996    0.000
 5770.00    1.08836   1.14657    0.000
 5771.00    1.17057   1.14339    0.000
 5772.00    1.20875   1.13936    0.000
 5773.00    1.18043   1.13375    0.000
 5774.00    1.10798   1.12646    0.000
 5775.00    1.03145   1.11728    0.000
 5776.00    0.97082   1.10619    0.000
 5777.00    0.93765   1.09333    0.000
 5778.00    0.95326   1.08035    0.000
 5779.00    1.02963   1.07083    0.000
 5780.00    1.14659   1.06696    0.000
 5781.00    1.26608   1.06754    0.000
 5782.00    1.35135   1.07063    0.000
 5783.00    1.38306   1.07624    0.000
 5784.00    1.37148   1.08520    0.000
 5785.00    1.33633   1.09584    0.000
 5786.00    1.28761   1.10552    0.000
 5787.00    1.23374   1.11349    0.000
 5788.00    1.18907   1.11987    0.000
 5789.00    1.16350   1.12548    0.000
 5790.00    1.15405   1.13078    0.000
 5791.00    1.15217   1.13534    0.000
 5792.00    1.15006   1.13952    0.000
 5793.00    1.14219   1.14326    0.000
 5794.00    1.12753   1.14589    0.000
 5795.00    1.11993   1.14806    0.000
 5796.00    1.14973   1.15107    0.000
 5797.00    1.22835   1.15470    0.000
 5798.00    1.32881   1.15698    0.000
 5799.00    1.40995   1.15688    0.000
 5800.00    1.43726   1.15491    0.000
 5801.00    1.41222   1.15159    0.000
 5802.00    1.37863   1.14810   -2.000
 5803.00    1.36898   1.14611   -2.000
 5804.00    1.37870   1.14589   -2.000
 5805.00    1.38535   1.14676   -2.000
 5806.00    1.36297   1.14796   -2.000
 5807.00    1.30058   1.14896   -2.000
 5808.00    1.20735   1.14934   -2.000
 5809.00    1.09762   1.14873   -2.000
 5810.00    0.98492   1.14758   -2.000
 5811.00    0.88588   1.14676   -2.000
 5812.00    0.82064   1.14640   -2.000
 5813.00    0.80810   1.14688   -2.000
 5814.00    0.85570   1.14926   -2.000
 5815.00    0.93068   1.15397   -2.000
 5816.00    0.97345   1.15955   -2.000
 5817.00    0.97667   1.16413   -2.000
 5818.00    0.98627   1.16736   -2.000
 5819.00    1.01898   1.16943   -2.000
 5820.00    1.05624   1.17047   -2.000
 5821.00    1.10588   1.17103   -2.000
 5822.00    1.19510   1.17164    0.000
 5823.00    1.29952   1.17219    0.000
 5824.00    1.35766   1.17226    0.000
 5825.00    1.35990   1.17199    0.000
 5826.00    1.34715   1.17155    0.000
 5827.00    1.34892   1.17055    0.000
 5828.00    1.36886   1.16871    0.000
 5829.00    1.38828   1.16652    0.000
 5830.00    1.38044   1.16439    0.000
 5831.00    1.33855   1.16209    0.000
 5832.00    1.27507   1.16018    0.000
 5833.00    1.20749   1.15995    0.000
 5834.00    1.15192   1.16145    0.000
 5835.00    1.11670   1.16325    0.000
 5836.00    1.10159   1.16491    0.000
 5837.00    1.09907   1.16711    0.000
 5838.00    1.10399   1.16920    0.000
 5839.00    1.12820   1.16962    0.000
 5840.00    1.18428   1.16779    0.000
 5841.00    1.25680   1.16426    0.000
 5842.00    1.31142   1.15962    0.000
 5843.00    1.31547   1.15417    0.000
 5844.00    1.25176   1.14803    0.000
 5845.00    1.13352   1.14140    0.000
 5846.00    1.00590   1.13486    0.000
 5847.00    0.94098   1.12889    0.000
 5848.00    0.97438   1.12300    0.000
 5849.00    1.03529   1.11594    0.000
 5850.00    1.03281   1.10751    0.000
 5851.00    0.96195   1.09980    0.000
 5852.00    0.87459   1.09500    0.000
 5853.00    0.83237   1.09232    0.000
 5854.00    0.86760   1.09005    0.000
 5855.00    0.95234   1.08870    0.000
 5856.00    1.03875   1.09073    0.000
 5857.00    1.10045   1.09636    0.000
 5858.00    1.13286   1.10269    0.000
 5859.00    1.14839   1.10757    0.000
 5860.00    1.15898   1.11115    0.000
 5861.00    1.16344   1.11532    0.000
 5862.00    1.16210   1.12023    0.000
 5863.00    1.16801   1.12427    0.000
 5864.00    1.19681   1.12707    0.000
 5865.00    1.25716   1.12998    0.000
 5866.00    1.33958   1.13361    0.000
 5867.00    1.41251   1.13674    0.000
 5868.00    1.44507   1.13821    0.000
 5869.00    1.42371   1.13776    0.000
 5870.00    1.36116   1.13593    0.000
 5871.00    1.29492   1.13335    0.000
 5872.00    1.25064   1.13005    0.000
 5873.00    1.22340   1.12566    0.000
 5874.00    1.19317   1.12065    0.000
 5875.00    1.14156   1.11595    0.000
 5876.00    1.08941   1.11110    0.000
 5877.00    1.09696   1.10524    0.000
 5878.00    1.17505   1.09878    0.000
 5879.00    1.25971   1.09194    0.000
 5880.00    1.29090   1.08247    0.000
 5881.00    1.24924   1.06674    0.000
 5882.00    1.15523   1.04340    0.000
 5883.00    1.05605   1.01534    0.000
 5884.00    0.97833   0.98701    0.000
 5885.00    0.91917   0.95947    0.000
 5886.00    0.88198   0.93247    0.000
 5887.00    0.87867   0.90887    0.000
 5888.00    0.89160   0.89379    0.000
 5889.00    0.88054   0.89071    0.000
 5890.00    0.84706   0.89675    0.000
 5891.00    0.83546   0.90654    0.000
 5892.00    0.87220   0.91764    0.000
 5893.00    0.95194   0.93065    0.000
 5894.00    1.05200   0.94997    0.000
 5895.00    1.14171   0.97710    0.000
 5896.00    1.19547   1.00542    0.000
 5897.00    1.20142   1.02969    0.000
 5898.00    1.17358   1.05048    0.000
 5899.00    1.14114   1.06831    0.000
 5900.00    1.11736   1.08226    0.000
 5901.00    1.10008   1.09219    5.104
 5902.00    1.08903   1.09866    5.079
 5903.00    1.08909   1.10266    5.115
 5904.00    1.10887   1.10576    5.159
 5905.00    1.15259   1.10851    5.110
 5906.00    1.20594   1.10962    5.028
 5907.00    1.24250   1.10831    5.037
 5908.00    1.24074   1.10584    5.105
 5909.00    1.19653   1.10326    5.128
 5910.00    1.13763   1.10037    5.123
 5911.00    1.10303   1.09702    5.136
 5912.00    1.10653   1.09468    5.039
 5913.00    1.13759   1.09518    4.766
 5914.00    1.17200   1.09784    4.584
 5915.00    1.18998   1.10147    4.699
 5916.00    1.19770   1.10537    4.893
 5917.00    1.20690   1.10917    4.812
 5918.00    1.20580   1.11266    4.596
 5919.00    1.17970   1.11503    4.526
 5920.00    1.14067   1.11612    4.577
 5921.00    1.12195   1.11648    4.616
 5922.00    1.16446   1.11591    4.617
 5923.00    1.27883   1.11423    4.619
 5924.00    1.41015   1.11238    4.644
 5925.00    1.48894   1.11062    4.698
 5926.00    1.48735   1.10853    4.776
 5927.00    1.41958   1.10614    4.865
 5928.00    1.33270   1.10474    4.936
 5929.00    1.26247   1.10596    4.976
 5930.00    1.19815   1.10819    5.011
 5931.00    1.12090   1.10933    5.095
 5932.00    1.03765   1.10997    5.287
 5933.00    0.96886   1.11151    5.522
 5934.00    0.93474   1.11359    5.495
 5935.00    0.94157   1.11466    5.116
 5936.00    0.97417   1.11489    4.732
 5937.00    1.01229   1.11509    4.538
 5938.00    1.04261   1.11479    4.458
 5939.00    1.05811   1.11426    4.436
 5940.00    1.05769   1.11450    4.538
 5941.00    1.04920   1.11480    4.783
 5942.00    1.04878   1.11427    5.036
 5943.00    1.06639   1.11353    5.160
 5944.00    1.09901   1.11256    5.183
 5945.00    1.14061   1.11004    5.158
 5946.00    1.18656   1.10593    5.072
 5947.00    1.22666   1.10295    4.960
 5948.00    1.24459   1.10255    4.918
 5949.00    1.23251   1.10223    4.949
 5950.00    1.19734   1.10023    4.949
 5951.00    1.15633   1.09906    4.892
 5952.00    1.13075   1.10100    4.876
 5953.00    1.12924   1.10408    4.922
 5954.00    1.14203   1.10638    4.943
 5955.00    1.14692   1.10920    4.915
 5956.00    1.12109   1.11367    4.919
 5957.00    1.07416   1.11883    5.005
 5958.00    1.04713   1.12315    5.150
 5959.00    1.06576   1.12612    5.264
 5960.00    1.12557   1.12833    5.246
 5961.00    1.19809   1.13014    5.177
 5962.00    1.24434   1.13161    5.258
 5963.00    1.24804   1.13268    5.469
 5964.00    1.22034   1.13410    5.570
 5965.00    1.18355   1.13637    5.522
 5966.00    1.16073   1.13821    5.525
 5967.00    1.16162   1.13871    5.624
 5968.00    1.18274   1.13773    5.695
 5969.00    1.21734   1.13495    5.659
 5970.00    1.25760   1.13050    5.547
 5971.00    1.29343   1.12518    5.455
 5972.00    1.31222   1.11965    5.453
 5973.00    1.29903   1.11440    5.448
 5974.00    1.24424   1.11016    5.321
 5975.00    1.15845   1.10738    5.244
 5976.00    1.06608   1.10524    5.412
 5977.00    0.98673   1.10298    5.468
 5978.00    0.93058   1.10092    4.948
 5979.00    0.89710   1.09915    4.345
 5980.00    0.87993   1.09715    4.125
 5981.00    0.87563   1.09490    4.155
 5982.00    0.88460   1.09409    4.178
 5983.00    0.90984   1.09656    4.271
 5984.00    0.94999   1.10071    4.646
 5985.00    0.98994   1.10418    5.143
 5986.00    1.01316   1.10794    5.287
 5987.00    1.02049   1.11252    5.131
 5988.00    1.02256   1.11612    5.067
 5989.00    1.02594   1.11739    5.190
 5990.00    1.02944   1.11747    5.396
 5991.00    1.02245   1.11739    5.510
 5992.00    0.99539   1.11628    5.445
 5993.00    0.95204   1.11387    5.382
 5994.00    0.90830   1.11085    5.487
 5995.00    0.88789   1.10760    5.656
 5996.00    0.90400   1.10478    5.713
 5997.00    0.94276   1.10315    5.707
 5998.00    0.98417   1.10234    5.723
 5999.00    1.02267   1.10092    5.678
 6000.00    1.05242   1.09782    5.533
 6001.00    1.05437   1.09415    5.464
 6002.00    1.01819   1.09189    5.575
 6003.00    0.96037   1.09084    5.703
 6004.00    0.90988   1.08981    5.677
 6005.00    0.89356   1.08829    5.574
 6006.00    0.92306   1.08700    5.510
 6007.00    0.98685   1.08800    5.473
 6008.00    1.05955   1.09045    5.414
 6009.00    1.11196   1.09087    5.317
 6010.00    1.13023   1.08866    5.216
 6011.00    1.12476   1.08639    5.180
 6012.00    1.10674   1.08576    5.209
 6013.00    1.07479   1.08490    5.201
 6014.00    1.02705   1.08250    5.134
 6015.00    0.96977   1.08087    5.130
 6016.00    0.92236   1.08131    5.227
 6017.00    0.91430   1.08208    5.286
 6018.00    0.95584   1.08307    5.232
 6019.00    1.02667   1.08615    5.163
 6020.00    1.09617   1.09086    5.156
 6021.00    1.13788   1.09592    5.189
 6022.00    1.14752   1.10145    5.230
 6023.00    1.14557   1.10792    5.255
 6024.00    1.15339   1.11392    5.210
 6025.00    1.18107   1.11883    5.036
 6026.00    1.22183   1.12409    4.818
 6027.00    1.25637   1.12919    4.729
 6028.00    1.27660   1.13282    4.801
 6029.00    1.29007   1.13537    4.931
 6030.00    1.30327   1.13785    5.021
 6031.00    1.31617   1.13980    5.042
 6032.00    1.32475   1.14046    5.037
 6033.00    1.32561   1.14010    5.076
 6034.00    1.32700   1.13945    5.158
 6035.00    1.34359   1.13870    5.204
 6036.00    1.37183   1.13789    5.149
 6037.00    1.39073   1.13744    5.007
 6038.00    1.38343   1.13769    4.912
 6039.00    1.34343   1.13866    4.997
 6040.00    1.27451   1.14027    5.151
 6041.00    1.18918   1.14270    5.114
 6042.00    1.10507   1.14502    4.980
 6043.00    1.04372   1.14643    5.038
 6044.00    1.02954   1.14731    5.210
 6045.00    1.07503   1.14742    5.184
 6046.00    1.15180   1.14589    5.038
 6047.00    1.21292   1.14299    5.075
 6048.00    1.24753   1.13982    5.279
 6049.00    1.26924   1.13610    5.409
 6050.00    1.27518   1.13149    5.366
 6051.00    1.24934   1.12722    5.245
 6052.00    1.18214   1.12457    5.156
 6053.00    1.08087   1.12323    5.162
 6054.00    0.98013   1.12221    5.249
 6055.00    0.92360   1.12171    5.349
 6056.00    0.93342   1.12162    5.370
 6057.00    0.99846   1.12118    5.279
 6058.00    1.06702   1.11949    5.189
 6059.00    1.09156   1.11687    5.206
 6060.00    1.08729   1.11530    5.255
 6061.00    1.09189   1.11598    5.243
 6062.00    1.10657   1.11803    5.272
 6063.00    1.11665   1.12107    5.436
 6064.00    1.12394   1.12691    5.536
 6065.00    1.13957   1.13515    5.358
 6066.00    1.17140   1.14250    5.090
 6067.00    1.21713   1.14752    4.944
 6068.00    1.25977   1.15072    4.878
 6069.00    1.28223   1.15222    4.801
 6070.00    1.28143   1.15142    4.727
 6071.00    1.26012   1.14791    4.700
 6072.00    1.21933   1.14212    4.725
 6073.00    1.16912   1.13552    4.772
 6074.00    1.13536   1.12896    4.771
 6075.00    1.13255   1.12176    4.713
 6076.00    1.14460   1.11423    4.697
 6077.00    1.15515   1.10893    4.782
 6078.00    1.16879   1.10623    4.894
 6079.00    1.18680   1.10356    4.985
 6080.00    1.19290   1.10101    5.148
 6081.00    1.18410   1.10078    5.400
 6082.00    1.18628   1.10176    5.506
 6083.00    1.21426   1.10140    5.362
 6084.00    1.24918   1.10027    5.224
 6085.00    1.26098   1.10028    5.248
 6086.00    1.22659   1.10079    5.329
 6087.00    1.15090   1.10039    5.368
 6088.00    1.06974   1.10037    5.411
 6089.00    1.00644   1.10251    5.508
 6090.00    0.95494   1.10528    5.641
 6091.00    0.91221   1.10711    5.746
 6092.00    0.89047   1.10889    5.755
 6093.00    0.89710   1.11079    5.693
 6094.00    0.92514   1.11068    5.677
 6095.00    0.95492   1.10707    5.717
 6096.00    0.96268   1.10073    5.696
 6097.00    0.95103   1.09471    5.602
 6098.00    0.94986   1.09125    5.554
 6099.00    0.97273   1.08845    5.559
 6100.00    1.00730   1.08504    5.492
 6101.00    1.04210   1.08469    5.355
 6102.00    1.07656   1.09008    5.275
 6103.00    1.12073   1.09768    5.265
 6104.00    1.18483   1.10349    5.228
 6105.00    1.24822   1.10734    5.150
 6106.00    1.26968   1.11131    5.111
 6107.00    1.24467   1.11615    5.167
 6108.00    1.20463   1.11968    5.315
 6109.00    1.16778   1.12013    5.492
 6110.00    1.13276   1.11907    5.594
 6111.00    1.09784   1.11844    5.625
 6112.00    1.06478   1.11703    5.676
 6113.00    1.03554   1.11261    5.725
 6114.00    1.01657   1.10573    5.677
 6115.00    1.02976   1.09850    5.573
 6116.00    1.09733   1.09157    5.522
 6117.00    1.20565   1.08586    5.487
 6118.00    1.31400   1.08226    5.385
 6119.00    1.38754   1.07981    5.315
 6120.00    1.40920   1.07883    5.428
 6121.00    1.38836   1.08143    5.626
 6122.00    1.35091   1.08622    5.660
 6123.00    1.31883   1.09007    5.506
 6124.00    1.30048   1.09322    5.336
 6125.00    1.28181   1.09613    5.283
 6126.00    1.24227   1.09758    5.380
 6127.00    1.18106   1.09715    5.510
 6128.00    1.10912   1.09476    5.522
 6129.00    1.03228   1.08920    5.491
 6130.00    0.95885   1.07959    5.549
 6131.00    0.91195   1.06814    5.627
 6132.00    0.91012   1.05916    5.586
 6133.00    0.94164   1.05404    5.465
 6134.00    0.97987   1.05064    5.370
 6135.00    1.00575   1.04927    5.320
 6136.00    1.01068   1.05439    5.304
 6137.00    0.99653   1.06609    5.339
 6138.00    0.97280   1.07760    5.436
 6139.00    0.95333   1.08514    5.553
 6140.00    0.95353   1.09155    5.662
 6141.00    0.98676   1.09858    5.828
 6142.00    1.05149   1.10301    6.074
 6143.00    1.12202   1.10320    6.217
 6144.00    1.17261   1.10138    6.053
 6145.00    1.19914   1.09947    5.622
 6146.00    1.21618   1.09741    5.135
 6147.00    1.24849   1.09500    4.783
 6148.00    1.29357   1.09213    4.583
 6149.00    1.30099   1.08951    4.405
 6150.00    1.23528   1.08741    4.240
 6151.00    1.11854   1.08391    4.278
 6152.00    0.99714   1.07750    4.581
 6153.00    0.91308   1.06950    4.873
 6154.00    0.88018   1.06000    4.911
 6155.00    0.87560   1.04691    4.920
 6156.00    0.87635   1.03206    5.086
 6157.00    0.87891   1.01999    5.249
 6158.00    0.88199   1.01105    5.290
 6159.00    0.87905   1.00328    5.372
 6160.00    0.87406   0.99880    5.567
 6161.00    0.88561   1.00104    5.682
 6162.00    0.92358   1.00690    5.642
 6163.00    0.97955   1.01077    5.656
 6164.00    1.03778   1.01387    5.795
 6165.00    1.08297   1.02020    5.858
 6166.00    1.11002   1.02677    5.722
 6167.00    1.12607   1.02983    5.485
 6168.00    1.14165   1.03355    5.208
 6169.00    1.16360   1.04129    4.882
 6170.00    1.18304   1.04889    4.583
 6171.00    1.17922   1.05382    4.434
 6172.00    1.14916   1.05913    4.474
 6173.00    1.11220   1.06520    4.670
 6174.00    1.08823   1.06942    4.949
 6175.00    1.08932   1.07277    5.189
 6176.00    1.11801   1.07680    5.306
 6177.00    1.16510   1.07967    5.308
 6178.00    1.20521   1.08034    5.220
 6179.00    1.20856   1.08012    5.085
 6180.00    1.17619   1.07828    5.045
 6181.00    1.13458   1.07351    5.248
 6182.00    1.09608   1.06719    5.580
 6183.00    1.05502   1.06088    5.681
 6184.00    1.00441   1.05340    5.577
 6185.00    0.94637   1.04455    5.603
 6186.00    0.90546   1.03834    5.718
 6187.00    0.90934   1.03736    5.628
 6188.00    0.94229   1.03841    5.420
 6189.00    0.96231   1.03944    5.386
 6190.00    0.95524   1.04368    5.553
 6191.00    0.93578   1.05191    5.757
 6192.00    0.92782   1.05907    5.877
 6193.00    0.94746   1.06243    5.915
 6194.00    0.98080   1.06462    5.990
 6195.00    0.99787   1.06777    6.177
 6196.00    0.98265   1.07045    6.226
 6197.00    0.94054   1.07151    5.855
 6198.00    0.90072   1.07275    5.336
 6199.00    0.89082   1.07602    5.002
 6200.00    0.90064   1.08015    4.871
 6201.00    0.90241   1.08295    4.873
 6202.00    0.88571   1.08406    4.995
 6203.00    0.85842   1.08389    5.252
 6204.00    0.84060   1.08193    5.606
 6205.00    0.84909   1.07766    5.948
 6206.00    0.88086   1.07119    6.100
 6207.00    0.92888   1.06251    5.885
 6208.00    1.00105   1.05230   -2.000
 6209.00    1.10319   1.04215   -2.000
 6210.00    1.21859   1.03309   -2.000
 6211.00    1.30925   1.02558   -2.000
 6212.00    1.32328   1.02011   -2.000
 6213.00    1.23837   1.01658   -2.000
 6214.00    1.09780   1.01510   -2.000
 6215.00    0.96598   1.01631   -2.000
 6216.00    0.88435   1.01918   -2.000
 6217.00    0.85812   1.02162   -2.000
 6218.00    0.85367   1.02373   -2.000
 6219.00    0.84486   1.02681    4.520
 6220.00    0.84518   1.02994    4.386
 6221.00    0.87103   1.03109    4.468
 6222.00    0.91494   1.03026    4.817
 6223.00    0.96108   1.02799    5.340
 6224.00    0.99765   1.02383    5.908
 6225.00    1.01844   1.01895    6.331
 6226.00    1.02307   1.01570    6.440
 6227.00    1.01505   1.01385    6.315
 6228.00    1.00036   1.01341    6.257
 6229.00    0.98692   1.01604    6.331
 6230.00    0.98267   1.02111    6.249
 6231.00    0.98678   1.02582    5.927
 6232.00    0.98961   1.02924    5.648
 6233.00    0.99569   1.03062    5.546
 6234.00    1.02729   1.02884    5.534
 6235.00    1.08564   1.02505    5.567
 6236.00    1.14013   1.02025    5.697
 6237.00    1.16341   1.01399    5.853
 6238.00    1.14757   1.00827    5.775
 6239.00    1.10338   1.00561    5.388
 6240.00    1.05315   1.00451    4.902
 6241.00    1.00587   1.00411    4.537
 6242.00    0.95461   1.00639    4.416
 6243.00    0.90250   1.01041    4.550
 6244.00    0.86738   1.01344    4.877
 6245.00    0.86435   1.01524    5.315
 6246.00    0.89748   1.01534    5.750
 6247.00    0.95367   1.01267    6.059
 6248.00    1.00644   1.00796    6.184
 6249.00    1.03293   1.00216    6.190
 6250.00    1.02302   0.99534    6.212
 6251.00    0.98970   0.98886    6.290
 6252.00    0.96258   0.98448    6.373
 6253.00    0.96375   0.98321    6.466
 6254.00    1.00194   0.98514    6.591
 6255.00    1.07471   0.98908    6.595
 6256.00    1.16959   0.99500    6.300
 6257.00    1.26544   1.00395    5.937
 6258.00    1.33768   1.01403    5.808
 6259.00    1.36859   1.02157    5.802
 6260.00    1.35081   1.02760    5.645
 6261.00    1.28947   1.03405    5.466
 6262.00    1.20031   1.03848    5.535
 6263.00    1.10516   1.03964    5.746
 6264.00    1.02850   1.04072    5.760
 6265.00    0.99260   1.04318    5.551
 6266.00    1.00709   1.04520    5.329
 6267.00    1.05364   1.04643    5.163
 6268.00    1.09659   1.04796    5.053
 6269.00    1.10440   1.04986    5.069
 6270.00    1.06488   1.05140    5.245
 6271.00    1.00131   1.05198    5.365
 6272.00    0.95241   1.05153    5.122
 6273.00    0.94067   1.05042    4.555
 6274.00    0.96243   1.04862    3.994
 6275.00    0.98316   1.04658    3.730
 6276.00    0.97639   1.04544    3.854
 6277.00    0.96878   1.04555    4.201
 6278.00    0.99564   1.04668    4.522
 6279.00    1.04584   1.04911    4.931
 6280.00    1.08988   1.05299    0.000
 6281.00    1.11657   1.05778    0.000
 6282.00    1.12604   1.06255    0.000
 6283.00    1.11900   1.06623    0.000
 6284.00    1.09850   1.06844    0.000
 6285.00    1.07231   1.06931    0.000
 6286.00    1.05039   1.06874    0.000
 6287.00    1.04127   1.06641    0.000
 6288.00    1.04117   1.06268    0.000
 6289.00    1.02820   1.05840    0.000
 6290.00    0.98935   1.05347    0.000
 6291.00    0.94070   1.04775    0.000
 6292.00    0.91348   1.04248    0.000
 6293.00    0.93941   1.03838    0.000
 6294.00    1.02853   1.03444    0.000
 6295.00    1.15627   1.03040    0.000
 6296.00    1.27797   1.02775    0.000
 6297.00    1.34377   1.02789    0.000
 6298.00    1.32696   1.02995    0.000
 6299.00    1.23927   1.03224    0.000
 6300.00    1.11870   1.03542    0.000
 6301.00    1.01549   1.04100    0.000
 6302.00    0.95848   1.04740    0.000
 6303.00    0.94198   1.05193    0.000
 6304.00    0.95235   1.05448    0.000
 6305.00    0.98078   1.05578    0.000
 6306.00    1.01588   1.05528    0.000
 6307.00    1.04208   1.05278    0.000
 6308.00    1.04980   1.04810    0.000
 6309.00    1.04141   1.04146    0.000
 6310.00    1.03637   1.03531    0.000
 6311.00    1.06389   1.03087    0.000
 6312.00    1.12680   1.02582    0.000
 6313.00    1.19584   1.02092    0.000
 6314.00    1.24173   1.02030    0.000
 6315.00    1.24886   1.02295    0.000
 6316.00    1.21925   1.02538    0.000
 6317.00    1.16946   1.02931    0.000
 6318.00    1.11689   1.03664    0.000
 6319.00    1.07427   1.04453    0.000
 6320.00    1.04752   1.05065    0.000
 6321.00    1.03532   1.05589    6.054
 6322.00    1.03005   1.06112    6.097
 6323.00    1.02269   1.06539    6.213
 6324.00    1.01482   1.06754    6.323
 6325.00    1.01670   1.06756    6.280
 6326.00    1.03447   1.06691    6.171
 6327.00    1.06860   1.06589    6.206
 6328.00    1.11791   1.06304    6.364
 6329.00    1.17559   1.05795    6.438
 6330.00    1.21904   1.05230    6.334
 6331.00    1.22350   1.04801    6.161
 6332.00    1.19388   1.04463    6.135
 6333.00    1.15638   1.04081    6.393
 6334.00    1.12956   1.03822    6.666
 6335.00    1.11973   1.03885    6.497
 6336.00    1.12331   1.04061    6.137
 6337.00    1.13154   1.04079    6.059
 6338.00    1.13795   1.04067    6.218
 6339.00    1.14225   1.04189    6.314
 6340.00    1.15364   1.04338    6.259
 6341.00    1.17562   1.04402    6.156
 6342.00    1.18392   1.04530    6.073
 6343.00    1.15184   1.04876    6.040
 6344.00    1.08940   1.05267    6.088
 6345.00    1.02992   1.05524    6.205
 6346.00    1.00389   1.05724    6.268
 6347.00    1.02011   1.05875    6.180
 6348.00    1.04894   1.05772    6.073
 6349.00    1.05550   1.05368    6.111
 6350.00    1.03954   1.04863    6.306
 6351.00    1.02206   1.04311    6.537
 6352.00    1.02431   1.03531    6.594
 6353.00    1.05143   1.02596    6.414
 6354.00    1.08044   1.01829    6.271
 6355.00    1.08709   1.01229    6.359
 6356.00    1.07187   1.00599    6.507
 6357.00    1.04609   1.00122    6.493
 6358.00    1.01744   1.00075    6.384
 6359.00    0.99279   1.00344    6.318
 6360.00    0.98112   1.00753    6.293
 6361.00    0.98960   1.01377    6.246
 6362.00    1.01947   1.02265    6.133
 6363.00    1.06043   1.03238    5.993
 6364.00    1.09008   1.04105    5.958
 6365.00    1.09876   1.04877    6.037
 6366.00    1.10395   1.05642    6.027
 6367.00    1.12635   1.06329    5.889
 6368.00    1.17322   1.06810    5.897
 6369.00    1.23939   1.07125    6.081
 6370.00    1.30815   1.07400    5.978
 6371.00    1.34973   1.07595    5.515
 6372.00    1.32804   1.07572    5.233
 6373.00    1.24172   1.07399    5.286
 6374.00    1.13834   1.07244    5.352
 6375.00    1.06967   1.07075    5.253
 6376.00    1.06443   1.06860    5.217
 6377.00    1.11439   1.06740    5.354
 6378.00    1.17672   1.06724    5.499
 6379.00    1.21335   1.06724    5.522
 6380.00    1.20975   1.06817    5.484
 6381.00    1.17617   1.07007    5.453
 6382.00    1.14197   1.07122    5.447
 6383.00    1.13262   1.07125    5.513
 6384.00    1.15637   1.07082    5.738
 6385.00    1.19081   1.06967    6.068
 6386.00    1.19314   1.06697    6.254
 6387.00    1.15197   1.06257    6.194
 6388.00    1.09580   1.05789    6.052
 6389.00    1.05953   1.05485    5.937
 6390.00    1.06567   1.05253    5.855
 6391.00    1.10331   1.04966    5.859
 6392.00    1.13477   1.04865    6.037
 6393.00    1.13297   1.04975    6.321
 6394.00    1.09494   1.04934    6.473
 6395.00    1.04711   1.04842    6.395
 6396.00    1.02570   1.05056    6.213
 6397.00    1.02541   1.05331    6.100
 6398.00    1.01054   1.05407    6.170
 6399.00    0.97201   1.05621    6.403
 6400.00    0.92951   1.06024    6.669
 6401.00    0.90522   1.06190    6.843
 6402.00    0.91388   1.06023    6.851
 6403.00    0.95529   1.05873    6.687
 6404.00    1.01930   1.05831    6.372
 6405.00    1.09834   1.05597    5.903
 6406.00    1.18260   1.05222    5.328
 6407.00    1.24720   1.05129    4.801
 6408.00    1.26289   1.05220    4.457
 6409.00    1.21874   1.05151    4.377
 6410.00    1.13154   1.05093    4.597
 6411.00    1.05250   1.05200    4.995
 6412.00    1.03123   1.05222    5.300
 6413.00    1.06092   1.05127    5.381
 6414.00    1.10004   1.05064    5.327
 6415.00    1.11557   1.04979    5.254
 6416.00    1.09574   1.04941    5.266
 6417.00    1.05755   1.05139    5.475
 6418.00    1.02782   1.05482    5.931
 6419.00    1.01841   1.05823    6.390
 6420.00    1.03030   1.06254    6.472
 6421.00    1.06162   1.06729    6.269
 6422.00    1.10455   1.07003    6.102
 6423.00    1.14177   1.07052    6.073
 6424.00    1.15692   1.06939    6.162
 6425.00    1.14560   1.06640    6.307
 6426.00    1.11167   1.06275    6.452
 6427.00    1.06265   1.06026    6.578
 6428.00    1.00975   1.05833    6.634
 6429.00    0.96749   1.05664    6.480
 6430.00    0.94547   1.05669    6.167
 6431.00    0.94209   1.05854    6.024
 6432.00    0.95240   1.06003    6.190
 6433.00    0.97451   1.06003    6.402
 6434.00    1.00743   1.06085    6.376
 6435.00    1.04797   1.06412    6.226
 6436.00    1.08367   1.06758    6.152
 6437.00    1.09208   1.07029    6.187
 6438.00    1.07011   1.07444    6.171
 6439.00    1.04840   1.07901    5.817
 6440.00    1.05456   1.08045    5.207
 6441.00    1.08980   1.07883    4.736
 6442.00    1.13427   1.07586    4.536
 6443.00    1.15593   1.07025    4.523
 6444.00    1.13743   1.06138    4.649
 6445.00    1.08772   1.05306    4.970
 6446.00    1.02396   1.04771    5.506
 6447.00    0.96072   1.04351    6.093
 6448.00    0.90676   1.04143    6.477
 6449.00    0.86607   1.04344    6.546
 6450.00    0.84896   1.04707    6.361
 6451.00    0.87086   1.05084    6.063
 6452.00    0.92532   1.05559    5.785
 6453.00    0.98165   1.05955    5.618
 6454.00    1.02290   1.06156    5.618
 6455.00    1.05481   1.06342    5.809
 6456.00    1.08040   1.06396    6.117
 6457.00    1.09497   1.06143    6.321
 6458.00    1.10378   1.05946    6.184
 6459.00    1.12103   1.05997    5.683
 6460.00    1.14511   1.05983    5.082
 6461.00    1.15750   1.05988    4.640
 6462.00    1.14515   1.06272    4.405
 6463.00    1.10831   1.06603    4.340
 6464.00    1.06160   1.06777    4.447
 6465.00    1.03057   1.06910    4.765
 6466.00    1.04145   1.06988    5.254
 6467.00    1.10853   1.06994    5.693
 6468.00    1.21014   1.07049    5.738
 6469.00    1.29493   1.07028    5.295
 6470.00    1.31187   1.06933    4.808
 6471.00    1.23478   1.06981    4.663
 6472.00    1.09864   1.07041    4.819
 6473.00    0.97632   1.06860    5.035
 6474.00    0.91274   1.06634    5.211
 6475.00    0.91321   1.06488    5.413
 6476.00    0.94993   1.06158    5.654
 6477.00    0.98579   1.05696    5.868
 6478.00    1.01471   1.05429    6.016
 6479.00    1.05105   1.05322    6.109
 6480.00    1.09810   1.05189    6.180
 6481.00    1.14481   1.05115    6.211
 6482.00    1.17042   1.05149    6.044
 6483.00    1.15830   1.05095    5.607
 6484.00    1.11563   1.04749    5.139
 6485.00    1.06588   1.04065    4.862
 6486.00    1.03278   1.03128    4.800
 6487.00    1.02474   1.01966    4.898
 6488.00    1.01842   1.00499    5.085
 6489.00    0.98257   0.98871    5.302
 6490.00    0.91130   0.97501    5.589
 6491.00    0.82704   0.96539    5.979
 6492.00    0.77626   0.95933    6.276
 6493.00    0.79065   0.95842    6.283
 6494.00    0.84717   0.96315    6.226
 6495.00    0.90332   0.97254    6.368
 6496.00    0.93853   0.98483    6.597
 6497.00    0.94803   0.99803    6.688
 6498.00    0.93266   1.01143    6.677
 6499.00    0.89848   1.02408    6.682
 6500.00    0.85748   1.03478    6.678
 6501.00    0.83021   1.04325    6.630
 6502.00    0.84523   1.04963    6.598
 6503.00    0.91407   1.05370    6.575
 6504.00    1.01314   1.05642    6.396
 6505.00    1.10486   1.05851    6.094
 6506.00    1.15761   1.05912    6.013
 6507.00    1.16372   1.05838    6.241
 6508.00    1.14698   1.05768    6.348
 6509.00    1.12966   1.05639    6.055
 6510.00    1.11211   1.05342    5.744
 6511.00    1.09051   1.05044    5.635
 6512.00    1.06820   1.04854    5.557
 6513.00    1.04932   1.04644    5.437
 6514.00    1.03454   1.04495    5.476
 6515.00    1.02062   1.04602    5.771
 6516.00    1.00220   1.04817    6.143
 6517.00    0.98154   1.04997    6.386
 6518.00    0.97183   1.05220    6.505
 6519.00    0.98755   1.05493    6.578
 6520.00    1.03645   1.05665    6.626
 6521.00    1.10558   1.05650    6.621
 6522.00    1.16083   1.05567    6.531
 6523.00    1.17207   1.05520    6.464
 6524.00    1.12799   1.05426    6.617
 6525.00    1.04900   1.05272    6.928
 6526.00    0.98091   1.05174    6.996
 6527.00    0.95175   1.05139    6.767
 6528.00    0.95997   1.05118    0.000
 6529.00    0.99335   1.05159    0.000
 6530.00    1.03778   1.05308    0.000
 6531.00    1.08261   1.05478    0.000
 6532.00    1.12120   1.05608    0.000
 6533.00    1.14715   1.05760    0.000
 6534.00    1.15703   1.05909    0.000
 6535.00    1.16185   1.05924    0.000
 6536.00    1.17818   1.05763    0.000
 6537.00    1.19537   1.05476    0.000
 6538.00    1.18502   1.05081    0.000
 6539.00    1.14846   1.04595    0.000
 6540.00    1.11117   1.04015    0.000
 6541.00    1.07915   1.03381    0.000
 6542.00    1.04340   1.02889    0.000
 6543.00    1.01420   1.02535    0.000
 6544.00    1.01430   1.02164    0.000
 6545.00    1.04766   1.01797    0.000
 6546.00    1.09866   1.01452    0.000
 6547.00    1.14450   1.01057    0.000
 6548.00    1.16635   1.00533    0.000
 6549.00    1.16466   0.99833    0.000
 6550.00    1.14906   0.98955    0.000
 6551.00    1.11627   0.97960    0.000
 6552.00    1.06365   0.96840    0.000
 6553.00    1.01670   0.95387    0.000
 6554.00    1.00866   0.93597    0.000
 6555.00    1.04300   0.91839    0.000
 6556.00    1.11098   0.90131    0.000
 6557.00    1.22411   0.88163    0.000
 6558.00    1.38826   0.86638    0.000
 6559.00    1.56342   0.86427    0.000
 6560.00    1.68500   0.86859    0.000
 6561.00    1.70002   0.87560    0.000
 6562.00    1.59392   0.89165    0.000
 6563.00    1.41453   0.91291    0.000
 6564.00    1.23252   0.93038    0.000
 6565.00    1.09334   0.94564    0.000
 6566.00    1.01627   0.96049    0.000
 6567.00    0.99902   0.97074    0.000
 6568.00    1.01857   0.97699    0.000
 6569.00    1.03461   0.98259    0.000
 6570.00    1.02151   0.98767    0.000
 6571.00    0.99508   0.99282    0.000
 6572.00    0.98234   0.99856    0.000
 6573.00    0.99334   1.00426    0.000
 6574.00    1.02900   1.00982    0.000
 6575.00    1.08946   1.01470    0.000
 6576.00    1.17408   1.01835    0.000
 6577.00    1.28054   1.02161    0.000
 6578.00    1.40236   1.02455    0.000
 6579.00    1.52623   1.02669    0.000
 6580.00    1.62599   1.02841    0.000
 6581.00    1.66286   1.02963    0.000
 6582.00    1.61425   1.03077    0.000
 6583.00    1.49102   1.03131    0.000
 6584.00    1.32682   1.02976    0.000
 6585.00    1.16577   1.02699    0.000
 6586.00    1.03378   1.02391    0.000
 6587.00    0.92836   1.01886    0.000
 6588.00    0.85220   1.01253    0.000
 6589.00    0.82499   1.00890    0.000
 6590.00    0.84986   1.00773    0.000
 6591.00    0.90148   1.00690    0.000
 6592.00    0.95268   1.00813    0.000
 6593.00    0.98725   1.01199    0.000
 6594.00    0.99862   1.01652    0.000
 6595.00    0.99003   1.02114    0.000
 6596.00    0.97837   1.02548    0.000
 6597.00    0.99127   1.02844    0.000
 6598.00    1.04987   1.02991    0.000
 6599.00    1.15661   1.02978    0.000
 6600.00    1.27680   1.02766    0.000
 6601.00    1.35057   1.02463    0.000
 6602.00    1.35476   1.02194    0.000
 6603.00    1.31345   1.01931    0.000
 6604.00    1.26246   1.01691    0.000
 6605.00    1.22933   1.01680    0.000
 6606.00    1.21040   1.01923    0.000
 6607.00    1.18030   1.02222    0.000
 6608.00    1.13675   1.02545    0.000
 6609.00    1.10189   1.02992    6.208
 6610.00    1.09184   1.03519    6.302
 6611.00    1.10611   1.03917    6.220
 6612.00    1.12277   1.04176    6.044
 6613.00    1.11528   1.04430    5.992
 6614.00    1.09250   1.04622    6.055
 6615.00    1.08358   1.04629    6.082
 6616.00    1.08623   1.04499    6.068
 6617.00    1.07648   1.04330    6.134
 6618.00    1.05101   1.04086    6.310
 6619.00    1.02612   1.03702    6.525
 6620.00    1.01865   1.03307    6.636
 6621.00    1.03539   1.03027    6.547
 6622.00    1.06173   1.02730    6.394
 6623.00    1.07808   1.02396    6.350
 6624.00    1.08939   1.02134    6.343
 6625.00    1.10865   1.01868    6.234
 6626.00    1.12397   1.01552    6.117
 6627.00    1.11330   1.01265    6.149
 6628.00    1.07333   1.00993    6.292
 6629.00    1.01660   1.00775    6.404
 6630.00    0.96083   1.00741    6.416
 6631.00    0.91573   1.00815    6.388
 6632.00    0.86971   1.00937    6.492
 6633.00    0.81609   1.01186    6.800
 6634.00    0.78421   1.01431    6.988
 6635.00    0.80057   1.01556    6.749
 6636.00    0.84244   1.01711    6.451
 6637.00    0.87052   1.01835    6.474
 6638.00    0.86998   1.01748    6.734
 6639.00    0.85493   1.01672    6.948
 6640.00    0.86481   1.01766    6.923
 6641.00    0.92392   1.01806    6.698
 6642.00    1.00660   1.01779    6.526
 6643.00    1.07292   1.01892    6.544
 6644.00    1.10352   1.02087    6.606
 6645.00    1.09822   1.02180    6.525
 6646.00    1.07076   1.02226    6.309
 6647.00    1.03294   1.02320    6.102
 6648.00    0.98467   1.02368    6.077
 6649.00    0.93187   1.02334    6.253
 6650.00    0.89708   1.02304    6.389
 6651.00    0.89547   1.02235    6.333
 6652.00    0.92007   1.02083    6.289
 6653.00    0.95996   1.01922    6.406
 6654.00    1.01062   1.01694    6.553
 6655.00    1.05988   1.01323    6.567
 6656.00    1.08313   1.00960    6.452
 6657.00    1.06872   1.00627    6.337
 6658.00    1.03005   1.00188    6.385
 6659.00    0.98957   0.99844    6.646
 6660.00    0.96660   0.99735    6.991
 6661.00    0.96316   0.99687    7.189
 6662.00    0.96185   0.99725    7.061
 6663.00    0.94981   0.99982    6.743
 6664.00    0.92880   1.00352    6.580
 6665.00    0.90745   1.00706    6.662
 6666.00    0.89598   1.01038    6.789
 6667.00    0.89971   1.01323    6.780
 6668.00    0.91687   1.01478    6.623
 6669.00    0.94113   1.01411    6.427
 6670.00    0.96445   1.01177    6.318
 6671.00    0.98397   1.00903    6.299
 6672.00    1.00278   1.00499    6.275
 6673.00    1.02374   0.99995    6.256
 6674.00    1.04809   0.99737    6.348
 6675.00    1.07771   0.99704    6.538
 6676.00    1.11240   0.99676    6.675
 6677.00    1.13964   0.99835    6.703
 6678.00    1.13995   1.00256    6.703
 6679.00    1.11067   1.00657    6.707
 6680.00    1.06756   1.00973    6.686
 6681.00    1.03088   1.01326    6.679
 6682.00    1.01526   1.01623    6.753
 6683.00    1.01515   1.01766    6.836
 6684.00    1.01523   1.01846    6.776
 6685.00    1.02236   1.01884    6.637
 6686.00    1.05488   1.01834    6.584
 6687.00    1.10338   1.01691    6.551
 6688.00    1.13578   1.01488    6.396
 6689.00    1.12589   1.01263    6.302
 6690.00    1.06856   1.00986    6.512
 6691.00    0.99579   1.00667    6.786
 6692.00    0.95293   1.00442    6.639
 6693.00    0.95128   1.00306    6.323
 6694.00    0.97556   1.00200    6.315
 6695.00    1.01139   1.00186    6.482
 6696.00    1.04866   1.00248    0.000
 6697.00    1.07934   1.00314    0.000
 6698.00    1.09789   1.00367    0.000
 6699.00    1.10233   1.00389    0.000
 6700.00    1.09377   1.00397    0.000
 6701.00    1.07569   1.00405    0.000
 6702.00    1.05634   1.00353    0.000
 6703.00    1.05091   1.00275    0.000
 6704.00    1.06412   1.00208    0.000
 6705.00    1.07072   1.00036    0.000
 6706.00    1.04586   0.99778    0.000
 6707.00    1.00182   0.99499    0.000
 6708.00    0.97184   0.99115    0.000
 6709.00    0.98644   0.98639    0.000
 6710.00    1.05611   0.98219    0.000
 6711.00    1.15763   0.97884    0.000
 6712.00    1.25282   0.97581    0.000
 6713.00    1.30892   0.97423    0.000
 6714.00    1.30854   0.97512    0.000
 6715.00    1.25646   0.97738    0.000
 6716.00    1.17374   0.98017    0.000
 6717.00    1.09051   0.98372    0.000
 6718.00    1.03240   0.98783    0.000
 6719.00    1.00970   0.99151    0.000
 6720.00    1.01564   0.99417    0.000
 6721.00    1.02892   0.99626    0.000
 6722.00    1.03715   0.99839    0.000
 6723.00    1.04973   1.00008    0.000
 6724.00    1.07246   1.00102    0.000
 6725.00    1.09455   1.00203    0.000
 6726.00    1.11766   1.00318    0.000
 6727.00    1.16722   1.00370    0.000
 6728.00    1.24846   1.00363    0.000
 6729.00    1.32607   1.00325    0.000
 6730.00    1.35889   1.00227    0.000
 6731.00    1.32397   1.00073    0.000
 6732.00    1.23744   0.99894    0.000
 6733.00    1.15302   0.99688    0.000
 6734.00    1.10579   0.99449    0.000
 6735.00    1.08854   0.99228    0.000
 6736.00    1.07111   0.99067    0.000
 6737.00    1.01850   0.98902    0.000
 6738.00    0.92627   0.98725    0.000
 6739.00    0.82986   0.98624    0.000
 6740.00    0.78139   0.98551    0.000
 6741.00    0.82354   0.98409    0.000
 6742.00    0.93112   0.98271    0.000
 6743.00    1.01869   0.98216    0.000
 6744.00    1.04166   0.98128    0.000
 6745.00    1.01783   0.97997    0.000
 6746.00    0.97845   0.98020    0.000
 6747.00    0.94787   0.98121    0.000
 6748.00    0.93332   0.98201    0.000
 6749.00    0.92758   0.98435    0.000
 6750.00    0.92519   0.98800    0.000
 6751.00    0.92394   0.99143    0.000
 6752.00    0.91596   0.99533    0.000
 6753.00    0.89346   0.99978    6.215
 6754.00    0.86838   1.00328    6.124
 6755.00    0.86335   1.00601    6.195
 6756.00    0.87893   1.00810    6.413
 6757.00    0.89419   1.00872    6.557
 6758.00    0.88579   1.00810    6.534
 6759.00    0.84454   1.00649    6.441
 6760.00    0.79940   1.00396    6.393
 6761.00    0.79609   1.00111    6.459
 6762.00    0.84650   0.99797    6.591
 6763.00    0.93024   0.99493    6.577
 6764.00    1.01622   0.99317    6.064
 6765.00    1.07942   0.99250    5.106
 6766.00    1.12137   0.99249    4.274
 6767.00    1.15153   0.99406    3.794
 6768.00    1.15317   0.99719    3.508
 6769.00    1.10592   1.00048    3.296
 6770.00    1.02749   1.00394    3.262
 6771.00    0.96556   1.00781    3.528
 6772.00    0.97459   1.01070    3.961
 6773.00    1.06912   1.01206    4.179
 6774.00    1.17196   1.01238    4.111
 6775.00    1.19958   1.01100    3.999
 6776.00    1.17260   1.00784    3.953
 6777.00    1.15153   1.00391    3.986
 6778.00    1.14685   0.99929    4.117
 6779.00    1.13778   0.99450    4.358
 6780.00    1.10572   0.99092    4.670
 6781.00    1.05212   0.98839    4.945
 6782.00    1.00993   0.98690    5.018
 6783.00    1.00584   0.98728    4.880
 6784.00    1.02543   0.98855    4.790
 6785.00    1.04474   0.98955    4.913
 6786.00    1.06005   0.99098    5.115
 6787.00    1.06667   0.99241    5.250
 6788.00    1.04324   0.99256    5.487
 6789.00    0.99269   0.99246    5.899
 6790.00    0.96853   0.99280    5.966
 6791.00    1.01015   0.99274    5.396
 6792.00    1.09528   0.99278    4.776
 6793.00    1.16700   0.99371    4.460
 6794.00    1.16403   0.99491    4.418
 6795.00    1.07726   0.99595    4.574
 6796.00    0.97501   0.99714    4.862
 6797.00    0.92557   0.99846    5.186
 6798.00    0.94775   0.99916    5.408
 6799.00    1.01742   0.99910    5.477
 6800.00    1.08207   0.99929    5.507
 6801.00    1.11068   0.99920    5.473
 6802.00    1.11345   0.99813    5.166
 6803.00    1.09949   0.99749    4.742
 6804.00    1.06389   0.99731    4.612
 6805.00    1.03595   0.99641    4.798
 6806.00    1.07858   0.99571    4.897
 6807.00    1.17654   0.99570    4.801
 6808.00    1.22145   0.99556    4.945
 6809.00    1.16904   0.99550    5.477
 6810.00    1.07918   0.99585    5.923
 6811.00    0.99768   0.99652    5.944
 6812.00    0.92295   0.99746    5.902
 6813.00    0.86618   0.99850    5.808
 6814.00    0.85992   0.99973    5.282
 6815.00    0.90582   1.00122    4.660
 6816.00    0.97127   1.00262    4.480
 6817.00    1.04093   1.00390    4.688
 6818.00    1.12005   1.00516    4.850
 6819.00    1.19127   1.00599    4.883
 6820.00    1.21640   1.00615    5.171
 6821.00    1.18099   1.00598    5.763
 6822.00    1.10355   1.00547    6.082
 6823.00    1.02377   1.00443    5.732
 6824.00    0.98454   1.00335    5.064
 6825.00    0.99608   1.00277    4.473
 6826.00    1.03289   1.00243    4.101
 6827.00    1.04970   1.00217    3.939
 6828.00    1.01088   1.00195    3.957
 6829.00    0.94504   1.00155    4.198
 6830.00    0.91787   1.00050    4.750
 6831.00    0.95027   0.99826    5.545
 6832.00    1.01940   0.99495    6.164
 6833.00    1.09570   0.99096    6.366
 6834.00    1.15187   0.98628    6.391
 6835.00    1.16599   0.98154    6.392
 6836.00    1.13243   0.97774    6.371
 6837.00    1.07837   0.97526    6.394
 6838.00    1.03902   0.97441    6.490
 6839.00    1.01411   0.97551    6.402
 6840.00    0.98755   0.97821    5.927
 6841.00    0.96744   0.98180    5.370
 6842.00    0.97437   0.98579    5.019
 6843.00    1.01527   0.98955    4.832
 6844.00    1.07233   0.99232    4.740
 6845.00    1.09640   0.99395    4.863
 6846.00    1.05755   0.99429    5.333
 6847.00    1.00544   0.99304    5.930
 6848.00    1.00449   0.99099    6.050
 6849.00    1.05036   0.98839    5.479
 6850.00    1.09969   0.98468    4.694
 6851.00    1.11520   0.98130    4.187
 6852.00    1.07949   0.97901    4.052
 6853.00    1.00334   0.97647    4.109
 6854.00    0.91265   0.97464    4.220
 6855.00    0.83473   0.97473    4.521
 6856.00    0.79909   0.97500    5.191
 6857.00    0.83402   0.97523    5.994
 6858.00    0.91747   0.97680    6.367
 6859.00    0.94891   0.97844    6.372
 6860.00    0.87775   0.97896    6.374
 6861.00    0.79276   0.97952    6.335
 6862.00    0.77241   0.98014    6.193
 6863.00    0.77840   0.97955    6.141
 6864.00    0.76751   0.97856    6.264
 6865.00    0.76864   0.97831    6.343
 6866.00    0.81385   0.97806    6.235
 6867.00    0.89161   0.97757    6.128
 6868.00    0.97364   0.97797    6.140
 6869.00    1.03601   0.97921    6.133
 6870.00    1.07185   0.98031    5.971
 6871.00    1.09460   0.98138    5.683
 6872.00    1.11636   0.98294    5.398
 6873.00    1.13688   0.98438    5.255
 6874.00    1.15125   0.98488    5.344
 6875.00    1.15459   0.98500    5.701
 6876.00    1.14330   0.98530    6.146
 6877.00    1.11545   0.98520    6.150
 6878.00    1.06989   0.98481    5.655
 6879.00    1.00854   0.98551    5.211
 6880.00    0.94755   0.98730    4.977
 6881.00    0.91405   0.98912    4.780
 6882.00    0.91378   0.99175    4.610
 6883.00    0.92742   0.99564    4.637
 6884.00    0.94763   0.99898    4.965
 6885.00    0.98606   1.00160    5.572
 6886.00    1.04619   1.00451    6.199
 6887.00    1.11403   1.00648    6.310
 6888.00    1.16111   1.00697    6.006
 6889.00    1.15791   1.00736    5.950
 6890.00    1.11095   1.00750    6.222
 6891.00    1.05681   1.00678    6.373
 6892.00    1.01058   1.00619    6.286
 6893.00    0.96681   1.00619    6.290
 6894.00    0.94387   1.00621    6.391
 6895.00    0.97417   1.00628    6.301
 6896.00    1.04750   1.00684    6.064
 6897.00    1.11551   1.00778    5.964
 6898.00    1.13875   1.00860    6.022
 6899.00    1.10750   1.00943    6.065
 6900.00    1.06045   1.01044    6.029
 6901.00    1.05428   1.01126    5.975
 6902.00    1.09159   1.01180    5.940
 6903.00    1.13049   1.01191    5.923
 6904.00    1.13483   1.01140    5.901
 6905.00    1.09263   1.01050    5.845
 6906.00    1.02963   1.00873    5.755
 6907.00    0.98312   1.00629    5.680
 6908.00    0.95289   1.00410    5.757
 6909.00    0.91556   1.00165    6.064
 6910.00    0.86240   0.99939    6.298
 6911.00    0.80243   0.99857    6.069
 6912.00    0.75694   0.99824    5.702
 6913.00    0.74805   0.99827    5.617
 6914.00    0.78342   0.99945    5.710
 6915.00    0.85446   1.00059    5.726
 6916.00    0.93744   1.00094    5.779
 6917.00    0.99845   1.00100    6.091
 6918.00    1.00141   1.00042    6.569
 6919.00    0.93252   0.99898    6.914
 6920.00    0.82640   0.99727    7.057
 6921.00    0.73950   0.99575    7.117
 6922.00    0.71507   0.99463    7.103
 6923.00    0.76439   0.99410    6.996
 6924.00    0.85379   0.99416    6.861
 6925.00    0.93808   0.99460    6.727
 6926.00    0.99510   0.99534    6.512
 6927.00    1.02278   0.99635    6.254
 6928.00    1.03222   0.99715    6.221
 6929.00    1.03777   0.99786    6.507
 6930.00    1.04788   0.99910    6.721
 6931.00    1.05793   1.00030    6.516
 6932.00    1.04853   1.00117    6.231
 6933.00    1.01573   1.00237    6.207
 6934.00    0.99018   1.00323    6.439
 6935.00    1.00234   1.00321    6.748
 6936.00    1.05492   1.00282    6.859
 6937.00    1.11796   1.00163    6.716
 6938.00    1.13533   0.99965    6.640
 6939.00    1.08095   0.99784    6.785
 6940.00    0.99013   0.99586    6.908
 6941.00    0.92630   0.99392    6.801
 6942.00    0.94868   0.99325    6.577
 6943.00    1.05179   0.99280    6.366
 6944.00    1.15113   0.99219    6.168
 6945.00    1.18743   0.99259    5.990
 6946.00    1.17277   0.99278    5.881
 6947.00    1.13422   0.99233    5.802
 6948.00    1.08523   0.99275    5.635
 6949.00    1.03177   0.99341    5.412
 6950.00    0.97819   0.99394    5.312
 6951.00    0.93728   0.99555    5.370
 6952.00    0.92798   0.99777    5.459
 6953.00    0.94822   0.99992    5.539
 6954.00    0.97263   1.00245    5.719
 6955.00    0.98699   1.00498    6.009
 6956.00    0.99689   1.00709    6.231
 6957.00    1.00930   1.00904    6.315
 6958.00    1.02533   1.01046    6.392
 6959.00    1.03972   1.01155    6.494
 6960.00    1.04351   1.01270    6.510
 6961.00    1.03261   1.01327    6.468
 6962.00    1.01064   1.01362    6.507
 6963.00    0.98876   1.01417    6.544
 6964.00    0.97889   1.01395    6.345
 6965.00    0.97593   1.01320    6.041
 6966.00    0.96339   1.01205    5.939
 6967.00    0.94069   1.00944    6.010
 6968.00    0.92084   1.00585    6.003
 6969.00    0.90721   1.00159    5.891
 6970.00    0.89618   0.99591    5.842
 6971.00    0.89612   0.98972    5.884
 6972.00    0.91781   0.98452    5.939
 6973.00    0.94530   0.98025    6.007
 6974.00    0.95190   0.97716    6.145
 6975.00    0.94418   0.97706    6.323
 6976.00    0.94944   0.97979    6.434
 6977.00    0.97516   0.98370    6.415
 6978.00    1.00793   0.98912    6.305
 6979.00    1.02613   0.99560    6.246
 6980.00    1.01411   1.00116    6.340
 6981.00    0.98135   1.00558    6.464
 6982.00    0.95245   1.00904    6.422
 6983.00    0.94599   1.01124    6.301
 6984.00    0.96524   1.01233    6.259
 6985.00    0.99060   1.01277    6.195
 6986.00    1.00180   1.01302    5.983
 6987.00    1.00835   1.01307    5.800
 6988.00    1.02843   1.01288    5.793
 6989.00    1.05672   1.01248    5.748
 6990.00    1.07171   1.01169    5.505
 6991.00    1.05130   1.01041    5.404
 6992.00    0.99478   1.00847    5.726
 6993.00    0.94246   1.00602    6.181
 6994.00    0.93271   1.00348    6.264
 6995.00    0.95621   1.00067    6.198
 6996.00    0.98648   0.99789    6.368
 6997.00    1.01476   0.99576    6.594
 6998.00    1.04101   0.99406    6.597
 6999.00    1.06290   0.99270    6.603
 7000.00    1.08074   0.99204    6.820
 7001.00    1.10122   0.99205   -2.000
 7002.00    1.12278   0.99242   -2.000
 7003.00    1.12634   0.99295   -2.000
 7004.00    1.10331   0.99360   -2.000
 7005.00    1.07483   0.99417   -2.000
 7006.00    1.06449   0.99399   -2.000
 7007.00    1.07691   0.99318   -2.000
 7008.00    1.09864   0.99184   -2.000
 7009.00    1.10389   0.98970   -2.000
 7010.00    1.08181   0.98778   -2.000
 7011.00    1.05071   0.98637   -2.000
 7012.00    1.03469   0.98506   -2.000
 7013.00    1.04596   0.98523   -2.000
 7014.00    1.06996   0.98661   -2.000
 7015.00    1.06635   0.98770   -2.000
 7016.00    1.01817   0.98910   -2.000
 7017.00    0.95219   0.99071   -2.000
 7018.00    0.90456   0.99139   -2.000
 7019.00    0.89975   0.99154   -2.000
 7020.00    0.93790   0.99183   -2.000
 7021.00    0.99430   0.99240   -2.000
 7022.00    1.04203   0.99328   -2.000
 7023.00    1.06417   0.99464   -2.000
 7024.00    1.06033   0.99657   -2.000
 7025.00    1.04644   0.99860   -2.000
 7026.00    1.04366   1.00055   -2.000
 7027.00    1.06582   1.00208   -2.000
 7028.00    1.09119   1.00296   -2.000
 7029.00    1.07461   1.00394   -2.000
 7030.00    1.02264   1.00443   -2.000
 7031.00    0.99131   1.00436   -2.000
 7032.00    0.99573   1.00562   -2.000
 7033.00    1.00568   1.00747   -2.000
 7034.00    1.02126   1.00917   -2.000
 7035.00    1.06808   1.01270   -2.000
 7036.00    1.11923   1.01730   -2.000
 7037.00    1.11099   1.02115   -2.000
 7038.00    1.04196   1.02537   -2.000
 7039.00    0.96900   1.02971   -2.000
 7040.00    0.93065   1.03246   -2.000
 7041.00    0.93291   1.03416   -2.000
 7042.00    0.96216   1.03507   -2.000
 7043.00    0.99231   1.03423   -2.000
 7044.00    0.99390   1.03185   -2.000
 7045.00    0.95462   1.02787   -2.000
 7046.00    0.91469   1.02219   -2.000
 7047.00    0.92784   1.01546   -2.000
 7048.00    0.97500   1.00759   -2.000
 7049.00    0.99535   0.99943   -2.000
 7050.00    0.97108   0.99199   -2.000
 7051.00    0.92119   0.98515   -2.000
 7052.00    0.86515   0.97921   -2.000
 7053.00    0.82258   0.97456   -2.000
 7054.00    0.82130   0.97107   -2.000
 7055.00    0.87087   0.96809   -2.000
 7056.00    0.92493   0.96553   -2.000
 7057.00    0.93511   0.96397   -2.000
 7058.00    0.93003   0.96238   -2.000
 7059.00    0.95807   0.96052   -2.000
 7060.00    1.00125   0.95951   -2.000
 7061.00    1.01679   0.95837   -2.000
 7062.00    1.00064   0.95713   -2.000
 7063.00    0.96922   0.95724   -2.000
 7064.00    0.93004   0.95785   -2.000
 7065.00    0.88564   0.95911   -2.000
 7066.00    0.84217   0.96205   -2.000
 7067.00    0.81626   0.96546   -2.000
 7068.00    0.83742   0.96896   -2.000
 7069.00    0.90837   0.97293   -2.000
 7070.00    0.97327   0.97644   -2.000
 7071.00    0.98354   0.97903   -2.000
 7072.00    0.95558   0.98080   -2.000
 7073.00    0.92871   0.98159   -2.000
 7074.00    0.92504   0.98100   -2.000
 7075.00    0.94867   0.97882   -2.000
 7076.00    0.98840   0.97538   -2.000
 7077.00    1.02593   0.97028   -2.000
 7078.00    1.04115   0.96383   -2.000
 7079.00    1.00708   0.95704   -2.000
 7080.00    0.89402   0.94936   -2.000
 7081.00    0.72293   0.94196   -2.000
 7082.00    0.58697   0.93600   -2.000
 7083.00    0.56395   0.93012   -2.000
 7084.00    0.66166   0.92558   -2.000
 7085.00    0.82708   0.92292   -2.000
 7086.00    0.96672   0.92040   -2.000
 7087.00    1.01802   0.91921   -2.000
 7088.00    0.98345   0.91929   -2.000
 7089.00    0.90241   0.91951   -2.000
 7090.00    0.82795   0.92078   -2.000
 7091.00    0.79035   0.92266   -2.000
 7092.00    0.78935   0.92481   -2.000
 7093.00    0.83722   0.92727   -2.000
 7094.00    0.95977   0.92979   -2.000
 7095.00    1.11774   0.93231   -2.000
 7096.00    1.20552   0.93428   -2.000
 7097.00    1.17775   0.93594   -2.000
 7098.00    1.08048   0.93729   -2.000
 7099.00    0.97543   0.93779   -2.000
 7100.00    0.90701   0.93780   -2.000
 7101.00    0.89121   0.93748   -2.000
 7102.00    0.91816   0.93658   -2.000
 7103.00    0.97241   0.93518   -2.000
 7104.00    1.03602   0.93371   -2.000
 7105.00    1.07779   0.93244   -2.000
 7106.00    1.06870   0.93131   -2.000
 7107.00    1.03355   0.93053   -2.000
 7108.00    1.03299   0.93050   -2.000
 7109.00    1.07684   0.93110   -2.000
 7110.00    1.12407   0.93187   -2.000
 7111.00    1.14207   0.93283   -2.000
 7112.00    1.11912   0.93380   -2.000
 7113.00    1.05735   0.93433   -2.000
 7114.00    0.97281   0.93450   -2.000
 7115.00    0.89884   0.93386   -2.000
 7116.00    0.86592   0.93286   -2.000
 7117.00    0.86004   0.93173   -2.000
 7118.00    0.84753   0.92956   -2.000
 7119.00    0.83806   0.92734   -2.000
 7120.00    0.85884   0.92515   -2.000
 7121.00    0.88736   0.92219   -2.000
 7122.00    0.88607   0.91942   -2.000
 7123.00    0.88010   0.91667   -2.000
 7124.00    0.91599   0.91421   -2.000
 7125.00    0.97639   0.91275   -2.000
 7126.00    1.00820   0.91170   -2.000
 7127.00    0.98561   0.91208   -2.000
 7128.00    0.91721   0.91389   -2.000
 7129.00    0.84120   0.91585   -2.000
 7130.00    0.79952   0.91908   -2.000
 7131.00    0.80491   0.92271   -2.000
 7132.00    0.84428   0.92522   -2.000
 7133.00    0.89085   0.92806   -2.000
 7134.00    0.93839   0.93050   -2.000
 7135.00    1.03373   0.93119   -2.000
 7136.00    1.20136   0.93186   -2.000
 7137.00    1.36424   0.93232   -2.000
 7138.00    1.43446   0.93107   -2.000
 7139.00    1.41119   0.93001   -2.000
 7140.00    1.33131   0.92901   -2.000
 7141.00    1.21412   0.92655   -2.000
 7142.00    1.08343   0.92517   -2.000
 7143.00    0.98673   0.92463   -2.000
 7144.00    0.94440   0.92347   -2.000
 7145.00    0.91261   0.92421   -2.000
 7146.00    0.85392   0.92642   -2.000
 7147.00    0.79094   0.92850   -2.000
 7148.00    0.75859   0.93135   -2.000
 7149.00    0.76537   0.93479   -2.000
 7150.00    0.79869   0.93780   -2.000
 7151.00    0.83437   0.93968   -2.000
 7152.00    0.86262   0.94103   -2.000
 7153.00    0.89869   0.94182   -2.000
 7154.00    0.94148   0.94084   -2.000
 7155.00    0.95614   0.93928   -2.000
 7156.00    0.93005   0.93754   -2.000
 7157.00    0.89752   0.93466   -2.000
 7158.00    0.88817   0.93206   -2.000
 7159.00    0.89887   0.93053   -2.000
 7160.00    0.90283   0.92931   -2.000
 7161.00    0.86569   0.92938   -2.000
 7162.00    0.79548   0.93125   -2.000
 7163.00    0.75076   0.93391   -2.000
 7164.00    0.76706   0.93748   -2.000
 7165.00    0.82867   0.94165   -2.000
 7166.00    0.89602   0.94524   -2.000
 7167.00    0.93034   0.94835   -2.000
 7168.00    0.94017   0.95066   -2.000
 7169.00    0.97506   0.95123   -2.000
 7170.00    1.03367   0.95093   -2.000
 7171.00    1.06708   0.95003   -2.000
 7172.00    1.11109   0.94765   -2.000
 7173.00    1.25411   0.94495   -2.000
 7174.00    1.38182   0.94239   -2.000
 7175.00    1.24161   0.93957   -2.000
 7176.00    0.89536   0.93738   -2.000
 7177.00    0.68747   0.93520   -2.000
 7178.00    0.74646   0.93322   -2.000
 7179.00    0.93505   0.93202   -2.000
 7180.00    1.11731   0.92990   -2.000
 7181.00    1.22489   0.92785   -2.000
 7182.00    1.23195   0.92639   -2.000
 7183.00    1.14505   0.92405   -2.000
 7184.00    0.99562   0.92259   -2.000
 7185.00    0.83199   0.92198   -2.000
 7186.00    0.70564   0.92127   -2.000
 7187.00    0.65211   0.92205   -2.000
 7188.00    0.65956   0.92382   -2.000
 7189.00    0.69736   0.92537   -2.000
 7190.00    0.78254   0.92730   -2.000
 7191.00    0.93918   0.92998   -2.000
 7192.00    1.10278   0.93219   -2.000
 7193.00    1.17225   0.93385   -2.000
 7194.00    1.12866   0.93581   -2.000
 7195.00    1.02146   0.93712   -2.000
 7196.00    0.91142   0.93782   -2.000
 7197.00    0.84064   0.93831   -2.000
 7198.00    0.80322   0.93794   -2.000
 7199.00    0.77695   0.93690   -2.000
 7200.00    0.77285   0.93509   -2.000
 7201.00    0.80445   0.93343   -2.000
 7202.00    0.83998   0.93191   -2.000
 7203.00    0.83951   0.93005   -2.000
 7204.00    0.80795   0.92991   -2.000
 7205.00    0.77222   0.93051   -2.000
 7206.00    0.74703   0.93116   -2.000
 7207.00    0.74071   0.93346   -2.000
 7208.00    0.76579   0.93584   -2.000
 7209.00    0.83474   0.93773   -2.000
 7210.00    0.95331   0.94029   -2.000
 7211.00    1.10965   0.94252   -2.000
 7212.00    1.26295   0.94397   -2.000
 7213.00    1.33102   0.94556   -2.000
 7214.00    1.19629   0.94702   -2.000
 7215.00    0.85847   0.94797   -2.000
 7216.00    0.53738   0.94878   -2.000
 7217.00    0.41109   0.94986   -2.000
 7218.00    0.41798   0.95128   -2.000
