###################################################################
## OUTPUT of StarlightChains_v04.for    [Cid@UFSC - 01/Apr/2007] ##
###################################################################

## Some input info
2002ce.txt                               [arq_obs]
Base.CB07.vall.4m                        [arq_base]
Masks.EmLines.NEW.gm                     [arq_masks]
StCv04.C11.config                        [arq_config]
   66                                    [N_base]
    0                                    [N_YAV_components = # of components with extra extinction!]
    0                                    [i_FitPowerLaw (1/0 = Yes/No)]
-9.99                                    [alpha_PowerLaw]
CCM                                      [red_law_option]
 1.458241                                [q_norm = A(l_norm)/A(V)]

## (Re)Sampling Parameters
 3741.00                                 [l_ini (A)]
 7218.00                                 [l_fin (A)]
    1.00                                 [dl    (A)]     (OBS: dl_cushion =    50.00 A)

## Normalization info
 4020.00                                 [l_norm (A) - for base]
 4010.00                                 [llow_norm (A) - window for f_obs]
 4060.00                                 [lupp_norm (A) - window for f_obs]
5.828162E-16                             [fobs_norm (in input units)]

## S/N
 3691.00                                 [llow_SN (A) - window for S/N]
 7268.00                                 [lupp_SN (A) - window for S/N]
   3.876                                 [S/N in S/N window]
   5.494                                 [S/N in norm. window]
   8.638                                 [S/N_err in S/N window]
  12.242                                 [S/N_err in norm. window]
  1.0000                                 [fscale_chi2]

## etc...
    -2007264                             [idum_orig]
  2390                                   [NOl_eff]
  2390                                   [Nl_eff]
     0    NSIGMA                         [Ntot_cliped & clip_method]
   744380                                [Nglobal_steps]
   7                                     [N_chains]
  14                                     [NEX0s_base = N_base in EX0s-fits]
 0   0   1       46   2.0   1.803E+01    [Clip-Bug, RC-Crash & Burn-In warning-flags, n_censored_weights, wei_nsig_threshold & wei_limit]
    12     12.347     11.853      0.494  [idt_all, wdt_TotTime, wdt_UsrTime & wdt_SysTime (sec)]

## Synthesis Results - Best model ##

 3.15179E-01                             [chi2/Nl_eff]
     5.25867                             [adev (%)]

   105.59222                             [sum-of-x (%)]
 1.30213E-15                             [Flux_tot (units of input spectrum!)]
 3.58994E-13                             [Mini_tot (???)]
 2.33844E-13                             [Mcor_tot (???)]

 -54.30                                  [v0_min  (km/s)]
 422.01                                  [vd_min  (km/s)]
 0.5580                                  [AV_min  (mag)]
 0.0000                                  [YAV_min (mag)]

# j     x_j(%)      Mini_j(%)     Mcor_j(%)     age_j(yr)     Z_j      (L/M)_j    YAV?  Mstars   component_j        a/Fe...       SSP_chi2r SSP_adev(%)   SSP_AV   SSP_x(%)
  1      2.7719     8.7036E-01    1.3362E+00    1.000000E+06  0.00400  1.094E-02    0   1.0000   age020_m42            0.0000     5.3024E-01     7.0309   1.8558    96.0556
  2      0.0000     0.0000E+00    0.0000E+00    3.160000E+06  0.00400  4.007E-02    0   0.9999   age045_m42            0.0000     5.1754E-01     6.8085   1.1724   100.7895
  3      0.0000     0.0000E+00    0.0000E+00    5.010000E+06  0.00400  2.539E-02    0   0.9488   age055_m42            0.0000     4.9724E-01     6.7516   1.4739    99.1522
  4      0.0000     0.0000E+00    0.0000E+00    6.610000E+06  0.00400  2.620E-02    0   0.9220   age061_m42            0.0000     4.9759E-01     6.6563   1.1021   100.9534
  5      0.0000     0.0000E+00    0.0000E+00    1.000000E+07  0.00400  1.322E-02    0   0.8862   age070_m42            0.0000     3.8194E-01     5.7476   0.8249   103.3714
  6      0.0000     0.0000E+00    0.0000E+00    1.445000E+07  0.00400  7.883E-03    0   0.8571   age078_m42            0.0000     3.8637E-01     5.8407   1.1405   101.1899
  7      0.0000     0.0000E+00    0.0000E+00    2.512000E+07  0.00400  5.251E-03    0   0.8174   age090_m42            0.0000     3.7004E-01     5.6200   0.6998   103.8315
  8      0.0000     0.0000E+00    0.0000E+00    4.000000E+07  0.00400  3.649E-03    0   0.7851   age104_m42            0.0000     3.8838E-01     5.7270   0.4771   104.4292
  9      0.0000     0.0000E+00    0.0000E+00    5.500000E+07  0.00400  3.098E-03    0   0.7629   age110_m42            0.0000     4.5147E-01     6.1624   0.6371   103.9342
 10      0.0000     0.0000E+00    0.0000E+00    1.015200E+08  0.00400  2.228E-03    0   0.7207   age116_m42            0.0000     5.0359E-01     6.5165   0.6625   103.7802
 11      0.0000     0.0000E+00    0.0000E+00    2.861200E+08  0.00400  1.093E-03    0   0.6648   age125_m42            0.0000     5.1783E-01     6.5244   0.1043   106.5123
 12      0.0000     0.0000E+00    0.0000E+00    5.088000E+08  0.00400  6.597E-04    0   0.6365   age130_m42            0.0000     6.1031E-01     7.0391   0.0999   106.9462
 13      0.0000     0.0000E+00    0.0000E+00    1.434000E+09  0.00400  2.132E-04    0   0.5798   age139_m42            0.0000     7.0791E-01     7.3563  -0.8642   108.6674
 14      0.0000     0.0000E+00    0.0000E+00    4.250000E+09  0.00400  5.895E-05    0   0.5377   age158_m42            0.0000     1.1839E+00     9.0570  -1.0000    94.4555
 15      0.0000     0.0000E+00    0.0000E+00    7.500000E+09  0.00400  3.510E-05    0   0.5212   age171_m42            0.0000     1.7729E+00    11.3333  -1.0000    87.6175
 16      0.0719     1.2326E+01    9.5258E+00    1.300000E+10  0.00400  2.005E-05    0   0.5034   age193_m42            0.0000     2.4525E+00    13.4900  -1.0000    81.8034
 17      0.0000     0.0000E+00    0.0000E+00    1.800000E+10  0.00400  1.525E-05    0   0.4967   age213_m42            0.0000     2.5261E+00    13.7439  -1.0000    80.7317
 18      2.5860     7.1753E-01    1.1015E+00    1.000000E+06  0.00800  1.238E-02    0   1.0000   age020_m52            0.0000     5.3082E-01     7.0314   1.8513    96.2712
 19      8.4319     9.4222E-01    1.4416E+00    3.160000E+06  0.00800  3.074E-02    0   0.9966   age045_m52            0.0000     5.2737E-01     6.9997   1.7782    96.9849
 20      0.0000     0.0000E+00    0.0000E+00    5.010000E+06  0.00800  2.668E-02    0   0.9443   age055_m52            0.0000     4.8987E-01     6.7108   1.5512    98.5182
 21     32.5679     5.2375E+00    7.3788E+00    6.610000E+06  0.00800  2.136E-02    0   0.9177   age061_m52            0.0000     3.8943E-01     5.8221   0.3145   104.9769
 22      0.0000     0.0000E+00    0.0000E+00    1.000000E+07  0.00800  1.215E-02    0   0.8827   age070_m52            0.0000     3.5442E-01     5.5546   0.9999   103.4623
 23      0.0000     0.0000E+00    0.0000E+00    1.445000E+07  0.00800  8.717E-03    0   0.8552   age078_m52            0.0000     3.7941E-01     5.7704   1.1100   102.4477
 24      0.0000     0.0000E+00    0.0000E+00    2.512000E+07  0.00800  5.592E-03    0   0.8162   age090_m52            0.0000     3.6657E-01     5.5669   0.7673   104.9309
 25      0.0000     0.0000E+00    0.0000E+00    4.000000E+07  0.00800  3.896E-03    0   0.7841   age104_m52            0.0000     3.9981E-01     5.7826   0.6868   105.3055
 26      0.0000     0.0000E+00    0.0000E+00    1.015200E+08  0.00800  2.148E-03    0   0.7226   age116_m52            0.0000     4.6033E-01     6.2263   0.6298   104.7341
 27      0.0000     0.0000E+00    0.0000E+00    2.861200E+08  0.00800  9.925E-04    0   0.6683   age125_m52            0.0000     6.0098E-01     6.9012   0.1685   107.8419
 28      0.0000     0.0000E+00    0.0000E+00    9.047900E+08  0.00800  3.141E-04    0   0.6138   age135_m52            0.0000     8.5212E-01     7.9208  -0.6137   111.2376
 29      0.0000     0.0000E+00    0.0000E+00    1.434000E+09  0.00800  1.719E-04    0   0.5853   age139_m52            0.0000     9.8292E-01     8.1822  -1.0000   102.5091
 30      0.0000     0.0000E+00    0.0000E+00    2.500000E+09  0.00800  7.872E-05    0   0.5600   age150_m52            0.0000     1.7441E+00    11.1630  -1.0000    90.6412
 31      0.0000     0.0000E+00    0.0000E+00    4.250000E+09  0.00800  4.336E-05    0   0.5426   age158_m52            0.0000     1.8315E+00    11.3813  -1.0000    89.2775
 32      0.0000     0.0000E+00    0.0000E+00    6.250000E+09  0.00800  3.159E-05    0   0.5319   age166_m52            0.0000     2.6817E+00    13.9925  -1.0000    82.5781
 33      0.0000     0.0000E+00    0.0000E+00    1.300000E+10  0.00800  1.361E-05    0   0.5073   age193_m52            0.0000     5.1119E+00    19.6341  -1.0000    67.5880
 34      0.0000     0.0000E+00    0.0000E+00    1.800000E+10  0.00800  9.886E-06    0   0.4990   age213_m52            0.0000     5.8472E+00    20.8325  -1.0000    64.1103
 35      0.0000     0.0000E+00    0.0000E+00    1.000000E+06  0.02000  1.544E-02    0   1.0000   age020_m62            0.0000     5.3261E-01     7.0415   1.8463    96.5431
 36      8.5515     7.8083E-01    1.1817E+00    3.160000E+06  0.02000  3.762E-02    0   0.9858   age045_m62            0.0000     5.3432E-01     7.0535   1.7855    97.3792
 37      0.0000     0.0000E+00    0.0000E+00    5.010000E+06  0.02000  3.296E-02    0   0.9342   age055_m62            0.0000     5.1095E-01     6.8160   1.4397   100.0892
 38     48.9504     1.4571E+01    1.9821E+01    8.710000E+06  0.02000  1.154E-02    0   0.8861   age067_m62            0.0000     3.6512E-01     5.8551   0.4457   107.5742
 39      0.0000     0.0000E+00    0.0000E+00    1.445000E+07  0.02000  7.663E-03    0   0.8472   age078_m62            0.0000     3.3756E-01     5.4260   0.6484   105.9959
 40      0.0000     0.0000E+00    0.0000E+00    2.512000E+07  0.02000  4.532E-03    0   0.8099   age090_m62            0.0000     3.4614E-01     5.5019   0.6453   105.5556
 41      0.0000     0.0000E+00    0.0000E+00    5.500000E+07  0.02000  2.733E-03    0   0.7595   age110_m62            0.0000     3.9319E-01     5.7671   0.6636   104.8180
 42      0.0000     0.0000E+00    0.0000E+00    1.609000E+08  0.02000  1.369E-03    0   0.6985   age120_m62            0.0000     5.1849E-01     6.5139   0.5211   106.6109
 43      0.0000     0.0000E+00    0.0000E+00    2.861200E+08  0.02000  9.013E-04    0   0.6714   age125_m62            0.0000     6.3621E-01     7.0340   0.2840   108.9330
 44      0.0000     0.0000E+00    0.0000E+00    5.088000E+08  0.02000  5.028E-04    0   0.6449   age130_m62            0.0000     8.3980E-01     7.9788  -0.0809   110.8965
 45      0.0000     0.0000E+00    0.0000E+00    9.047900E+08  0.02000  2.428E-04    0   0.6179   age135_m62            0.0000     9.2949E-01     8.2474  -0.6761   110.5268
 46      0.0000     0.0000E+00    0.0000E+00    1.434000E+09  0.02000  1.263E-04    0   0.5908   age139_m62            0.0000     1.0659E+00     8.3547  -1.0000   104.8724
 47      0.0000     0.0000E+00    0.0000E+00    2.500000E+09  0.02000  5.985E-05    0   0.5673   age150_m62            0.0000     1.9687E+00    11.5900  -1.0000    90.9633
 48      0.0000     0.0000E+00    0.0000E+00    4.250000E+09  0.02000  3.271E-05    0   0.5468   age158_m62            0.0000     3.2917E+00    15.4190  -1.0000    80.0990
 49      0.0000     0.0000E+00    0.0000E+00    1.000000E+10  0.02000  1.360E-05    0   0.5167   age181_m62            0.0000     5.2340E+00    19.4974  -1.0000    68.9516
 50      0.0000     0.0000E+00    0.0000E+00    1.800000E+10  0.02000  7.124E-06    0   0.5013   age213_m62            0.0000     6.5810E+00    21.7526  -1.0000    62.3662
 51      0.0000     0.0000E+00    0.0000E+00    1.000000E+06  0.05000  2.592E-02    0   0.9998   age020_m72            0.0000     5.3340E-01     7.0395   1.8344    96.7285
 52      0.0000     0.0000E+00    0.0000E+00    3.160000E+06  0.05000  4.845E-02    0   0.9577   age045_m72            0.0000     5.3182E-01     7.0182   1.6800    98.1628
 53      0.0000     0.0000E+00    0.0000E+00    5.010000E+06  0.05000  3.072E-02    0   0.9147   age055_m72            0.0000     3.9082E-01     5.9486   1.2209   102.2450
 54      0.0000     0.0000E+00    0.0000E+00    6.610000E+06  0.05000  1.455E-02    0   0.8877   age061_m72            0.0000     5.9024E-01     7.6661   0.4968   108.7053
 55      0.0000     0.0000E+00    0.0000E+00    1.000000E+07  0.05000  9.074E-03    0   0.8524   age070_m72            0.0000     4.5936E-01     6.5726   1.4104   101.7251
 56      0.0000     0.0000E+00    0.0000E+00    2.512000E+07  0.05000  4.250E-03    0   0.7902   age090_m72            0.0000     4.1565E-01     6.1185   1.1244   102.9983
 57      0.0000     0.0000E+00    0.0000E+00    4.000000E+07  0.05000  3.087E-03    0   0.7618   age104_m72            0.0000     4.2058E-01     6.1350   0.9048   104.4156
 58      0.0000     0.0000E+00    0.0000E+00    1.015200E+08  0.05000  1.700E-03    0   0.7096   age116_m72            0.0000     4.7578E-01     6.2797   0.6622   106.3584
 59      0.0000     0.0000E+00    0.0000E+00    2.861200E+08  0.05000  7.384E-04    0   0.6633   age125_m72            0.0000     7.3435E-01     7.4949   0.1592   109.9189
 60      0.0000     0.0000E+00    0.0000E+00    5.088000E+08  0.05000  3.819E-04    0   0.6372   age130_m72            0.0000     8.8140E-01     8.1263  -0.3339   111.4803
 61      0.0000     0.0000E+00    0.0000E+00    9.047900E+08  0.05000  1.676E-04    0   0.6110   age135_m72            0.0000     1.1875E+00     8.9960  -1.0000   108.3640
 62      1.6607     6.4555E+01    5.8213E+01    1.434000E+09  0.05000  8.837E-05    0   0.5874   age139_m72            0.0000     2.0281E+00    11.6663  -1.0000    92.2453
 63      0.0000     0.0000E+00    0.0000E+00    2.500000E+09  0.05000  4.233E-05    0   0.5598   age150_m72            0.0000     3.3792E+00    15.4894  -1.0000    80.7281
 64      0.0000     0.0000E+00    0.0000E+00    6.250000E+09  0.05000  1.435E-05    0   0.5249   age166_m72            0.0000     5.8128E+00    20.5562  -1.0000    65.8509
 65      0.0000     0.0000E+00    0.0000E+00    1.300000E+10  0.05000  6.513E-06    0   0.5036   age193_m72            0.0000     7.6717E+00    23.4565  -1.0000    58.6142
 66      0.0000     0.0000E+00    0.0000E+00    1.800000E+10  0.05000  4.527E-06    0   0.4945   age213_m72            0.0000     8.7938E+00    25.0322  -1.0000    54.3008


## Synthesis Results - Average & Chains ##

# j      x_j: min, <> & last-chain-values for 1 ...  7 chains
  1      2.7719      1.2688      2.5527      0.0000      0.0000      4.5087      0.0000      8.5538      1.5762
  2      0.0000      0.8820      2.7653      0.0000      0.4720      3.1711      0.0000      0.0000      0.0000
  3      0.0000      1.7974      2.7962      0.0000      0.0000      0.9868      0.0000      0.0000      1.8206
  4      0.0000      0.5954      0.0000      3.2579      0.0000      0.3524      0.0000      0.1126      0.0000
  5      0.0000      2.1391      0.7192      3.6460      3.1150      0.0000      0.0000      7.5689     14.1385
  6      0.0000      1.9427      0.0000      1.0769      0.0000      0.0000      0.0000      0.0000      0.0000
  7      0.0000      3.4387      0.0000      0.0000      3.3153      0.0000      5.0665      0.0000      0.0000
  8      0.0000      1.9788      0.0000      0.0000      2.6022      0.9245      0.0000      0.0000      0.0000
  9      0.0000      1.1823      0.0000      0.0000      1.3369      0.0000      0.0000      0.0000      0.0000
 10      0.0000      0.6329      0.0000      0.3428      0.0000      0.0000      0.0000      0.0000      0.0000
 11      0.0000      0.2759      0.0000      0.0000      0.0000      0.0000      0.0000      0.0000      0.0000
 12      0.0000      0.1375      0.0000      0.0000      0.0000      0.6070      0.0000      0.0000      0.0000
 13      0.0000      0.1307      0.0000      0.0511      0.0000      0.0000      0.0000      0.0466      0.0000
 14      0.0000      0.0366      0.0000      0.0000      0.0101      0.0000      0.0000      0.0000      0.0000
 15      0.0000      0.0587      0.0000      0.7007      0.0000      0.0000      0.0000      0.0000      0.0000
 16      0.0719      0.0635      0.0000      0.0000      0.0000      0.5235      0.0751      0.8905      0.0000
 17      0.0000      0.0035      0.0000      0.0000      0.0000      0.0000      0.0000      0.0000      0.2595
 18      2.5860      0.7632      0.0000      1.0911      1.0251      1.2737      2.2758      5.0823      1.7273
 19      8.4319      1.9563      3.2683     11.2157      3.6789      7.0599      2.3226      9.3785      1.4242
 20      0.0000      0.7260      0.0000      0.0000      0.0000      0.7137      0.0000      0.0000      0.0000
 21     32.5679     11.6602     18.4150     14.2456     14.2257     17.9952     16.8506      9.7553     13.2450
 22      0.0000      1.9116      3.3587      0.0000      5.9712      7.8864      9.6105      5.8371      0.0000
 23      0.0000      0.9929      2.0170      1.1232      0.2881      0.0000      4.8698      0.0000      7.1127
 24      0.0000      2.4764      4.8463      2.3264      2.2415      0.7716      3.1135      0.0000      0.0000
 25      0.0000      1.5312      0.0000      0.0000      0.0000      0.0000      1.7072      4.6795      0.0000
 26      0.0000      0.9952      0.0000      0.0000      0.0000      0.0000      0.0000      1.3878      0.9492
 27      0.0000      0.4629      0.0000      0.0000      0.6887      0.0000      0.2785      0.0000      0.0000
 28      0.0000      0.0844      0.0000      1.5595      0.0000      0.0000      0.0000      0.0000      0.0000
 29      0.0000      0.0270      0.0000      0.0000      0.0000      0.0000      0.0000      0.0000      0.0000
 30      0.0000      0.0076      0.0000      0.0000      0.0000      0.0000      0.0000      0.0000      0.0000
 31      0.0000      0.0405      0.0000      0.0000      0.0000      0.0000      0.0000      0.0000      0.0000
 32      0.0000      0.0187      0.0000      0.0000      0.0000      0.0000      0.0813      0.0000      0.0000
 33      0.0000      0.0440      0.4057      0.0000      0.0000      0.0000      0.0000      0.0000      0.0000
 34      0.0000      0.0090      0.0523      0.0000      0.0000      0.4758      0.0000      0.3482      0.0000
 35      0.0000      0.5430      0.0000      0.0976      0.0165      3.1214      0.0000      0.3701      0.8371
 36      8.5515      0.9087      0.0000      2.6692      1.6253      2.7070      2.5966      1.7484      0.0000
 37      0.0000      0.8409      0.0000      2.7708      3.7342      3.7269      1.5982      0.0000      0.0000
 38     48.9504     46.6875     52.8604     51.4952     49.4112     41.1895     48.2976     39.4167     52.3246
 39      0.0000      4.2385      0.0000      3.9191      0.0000      0.1885      2.7521      0.0000      0.0000
 40      0.0000      2.0684      0.6597      0.0000      0.9117      2.5882      0.0000      0.0000      0.0000
 41      0.0000      1.4533      0.0000      0.3734      0.1847      1.9057      0.9417      0.0000      0.0000
 42      0.0000      0.7289      0.0000      0.0000      0.0000      0.0000      0.0000      0.0000      0.0000
 43      0.0000      0.4961      0.0000      2.3341      0.0000      0.0000      0.0000      0.0000      0.6553
 44      0.0000      0.2917      0.6784      0.0000      0.0000      0.0000      1.0863      0.0000      0.0000
 45      0.0000      0.1166      0.0000      0.0000      0.7868      0.0000      0.0000      0.0000      0.0000
 46      0.0000      0.0414      0.8719      0.0000      1.2921      0.0000      0.0000      0.0000      0.0000
 47      0.0000      0.0210      0.0000      0.0000      0.0602      0.0000      0.0000      0.0000      0.0000
 48      0.0000      0.0158      0.0000      0.4793      0.0000      0.0000      0.0000      0.1716      0.0000
 49      0.0000      0.0360      0.0000      0.0000      0.0000      0.4337      0.0000      0.0000      0.0000
 50      0.0000      0.0245      0.0000      0.0000      0.5757      0.0000      0.0000      0.0000      0.0000
 51      0.0000      2.0561      4.9763      0.7830      5.7326      0.7178      1.9672      0.0000      4.2436
 52      0.0000      1.3245      1.1011      0.0000      2.5955      0.7632      0.0000      6.0599      3.3572
 53      0.0000      0.5083      3.2915      0.0000      0.0000      0.0000      0.0000      0.0000      0.0000
 54      0.0000      0.3540      0.0000      0.0000      0.0000      0.0000      0.0000      0.0000      0.0000
 55      0.0000      0.6293      0.0000      0.0000      0.0000      0.0000      0.0000      0.9507      0.0000
 56      0.0000      0.3161      0.0002      0.0000      0.0000      0.0000      0.0000      0.2082      0.0000
 57      0.0000      0.4002      0.0000      0.0000      0.2091      0.0000      0.0000      0.0000      0.0000
 58      0.0000      0.7091      0.0000      0.0000      0.0000      0.0000      0.2446      0.0000      0.0000
 59      0.0000      0.2801      0.3884      0.6707      0.0000      0.0000      0.0000      0.0000      0.0000
 60      0.0000      0.2835      0.0000      0.0000      0.0000      0.3607      0.0000      0.0000      0.0000
 61      0.0000      0.2100      0.0000      0.0000      0.0000      0.0000      0.0000      0.0000      1.2392
 62      1.6607      0.1193      0.0000      0.0000      0.0000      1.1157      0.3816      1.8290      0.8819
 63      0.0000      0.1155      0.0000      0.0000      0.0000      0.0000      0.0000      0.3155      0.0000
 64      0.0000      0.0204      0.0000      0.0000      0.0000      0.0000      0.0000      0.5299      0.0000
 65      0.0000      0.0033      0.0000      0.0000      0.0000      0.0000      0.0000      0.0000      0.0000
 66      0.0000      0.0275      0.0000      0.0000      0.0000      0.0000      0.1922      0.0000      0.0000

# j      m_j: min, <> & last-chain-values for 1 ...  7 chains
  1  1.3362E+00  3.9206E-01  7.7653E-01  0.0000E+00  0.0000E+00  5.9391E-01  0.0000E+00  9.0662E-01  5.4258E-01
  2  0.0000E+00  7.4398E-02  2.2964E-01  0.0000E+00  2.0521E-02  1.1403E-01  0.0000E+00  0.0000E+00  0.0000E+00
  3  0.0000E+00  2.2705E-01  3.4774E-01  0.0000E+00  0.0000E+00  5.3139E-02  0.0000E+00  0.0000E+00  2.5620E-01
  4  0.0000E+00  7.0831E-02  0.0000E+00  3.7320E-01  0.0000E+00  1.7869E-02  0.0000E+00  4.5942E-03  0.0000E+00
  5  0.0000E+00  4.8474E-01  1.6044E-01  7.9559E-01  3.6382E-01  0.0000E+00  0.0000E+00  5.8832E-01  3.5691E+00
  6  0.0000E+00  7.1402E-01  0.0000E+00  3.8113E-01  0.0000E+00  0.0000E+00  0.0000E+00  0.0000E+00  0.0000E+00
  7  0.0000E+00  1.8095E+00  0.0000E+00  0.0000E+00  8.9916E-01  0.0000E+00  2.1502E+00  0.0000E+00  0.0000E+00
  8  0.0000E+00  1.4392E+00  0.0000E+00  0.0000E+00  9.7550E-01  2.8663E-01  0.0000E+00  0.0000E+00  0.0000E+00
  9  0.0000E+00  9.8423E-01  0.0000E+00  0.0000E+00  5.7362E-01  0.0000E+00  0.0000E+00  0.0000E+00  0.0000E+00
 10  0.0000E+00  6.9206E-01  0.0000E+00  3.6093E-01  0.0000E+00  0.0000E+00  0.0000E+00  0.0000E+00  0.0000E+00
 11  0.0000E+00  5.6718E-01  0.0000E+00  0.0000E+00  0.0000E+00  0.0000E+00  0.0000E+00  0.0000E+00  0.0000E+00
 12  0.0000E+00  4.4854E-01  0.0000E+00  0.0000E+00  0.0000E+00  8.4402E-01  0.0000E+00  0.0000E+00  0.0000E+00
 13  0.0000E+00  1.2014E+00  0.0000E+00  4.5257E-01  0.0000E+00  0.0000E+00  0.0000E+00  1.4700E-01  0.0000E+00
 14  0.0000E+00  1.1292E+00  0.0000E+00  0.0000E+00  1.6054E-01  0.0000E+00  0.0000E+00  0.0000E+00  0.0000E+00
 15  0.0000E+00  2.9468E+00  0.0000E+00  3.3869E+01  0.0000E+00  0.0000E+00  0.0000E+00  0.0000E+00  0.0000E+00
 16  9.5258E+00  5.3901E+00  0.0000E+00  0.0000E+00  0.0000E+00  1.8941E+01  5.1375E+00  2.5923E+01  0.0000E+00
 17  0.0000E+00  3.8088E-01  0.0000E+00  0.0000E+00  0.0000E+00  0.0000E+00  0.0000E+00  0.0000E+00  3.1833E+01
 18  1.1015E+00  2.0840E-01  0.0000E+00  2.8688E-01  1.4427E-01  1.4826E-01  5.0118E-01  4.7601E-01  5.2541E-01
 19  1.4416E+00  2.1439E-01  3.5262E-01  1.1836E+00  2.0781E-01  3.2983E-01  2.0529E-01  3.5256E-01  1.7388E-01
 20  0.0000E+00  8.6865E-02  0.0000E+00  0.0000E+00  0.0000E+00  3.6399E-02  0.0000E+00  0.0000E+00  0.0000E+00
 21  7.3788E+00  1.6934E+00  2.6329E+00  1.9923E+00  1.0649E+00  1.1141E+00  1.9737E+00  4.8599E-01  2.1429E+00
 22  0.0000E+00  4.6945E-01  8.1204E-01  0.0000E+00  7.5583E-01  8.2565E-01  1.9035E+00  4.9172E-01  0.0000E+00
 23  0.0000E+00  3.2929E-01  6.5855E-01  3.5869E-01  4.9241E-02  0.0000E+00  1.3025E+00  0.0000E+00  2.6278E+00
 24  0.0000E+00  1.2219E+00  2.3540E+00  1.1053E+00  5.7003E-01  1.6229E-01  1.2389E+00  0.0000E+00  0.0000E+00
 25  0.0000E+00  1.0417E+00  0.0000E+00  0.0000E+00  0.0000E+00  0.0000E+00  9.3672E-01  1.0920E+00  0.0000E+00
 26  0.0000E+00  1.1317E+00  0.0000E+00  0.0000E+00  0.0000E+00  0.0000E+00  0.0000E+00  5.4136E-01  1.2025E+00
 27  0.0000E+00  1.0537E+00  0.0000E+00  0.0000E+00  8.0803E-01  0.0000E+00  5.1130E-01  0.0000E+00  0.0000E+00
 28  0.0000E+00  5.5743E-01  0.0000E+00  9.9197E+00  0.0000E+00  0.0000E+00  0.0000E+00  0.0000E+00  0.0000E+00
 29  0.0000E+00  3.1079E-01  0.0000E+00  0.0000E+00  0.0000E+00  0.0000E+00  0.0000E+00  0.0000E+00  0.0000E+00
 30  0.0000E+00  1.8391E-01  0.0000E+00  0.0000E+00  0.0000E+00  0.0000E+00  0.0000E+00  0.0000E+00  0.0000E+00
 31  0.0000E+00  1.7132E+00  0.0000E+00  0.0000E+00  0.0000E+00  0.0000E+00  0.0000E+00  0.0000E+00  0.0000E+00
 32  0.0000E+00  1.0650E+00  0.0000E+00  0.0000E+00  0.0000E+00  0.0000E+00  3.7326E+00  0.0000E+00  0.0000E+00
 33  0.0000E+00  5.5476E+00  5.0327E+01  0.0000E+00  0.0000E+00  0.0000E+00  0.0000E+00  0.0000E+00  0.0000E+00
 34  0.0000E+00  1.5338E+00  8.7807E+00  0.0000E+00  0.0000E+00  3.4608E+01  0.0000E+00  2.0377E+01  0.0000E+00
 35  0.0000E+00  1.1888E-01  0.0000E+00  2.0583E-02  1.8622E-03  2.9133E-01  0.0000E+00  2.7793E-02  2.0416E-01
 36  1.1817E+00  8.0496E-02  0.0000E+00  2.2767E-01  7.4204E-02  1.0222E-01  1.8550E-01  5.3125E-02  0.0000E+00
 37  0.0000E+00  8.0564E-02  0.0000E+00  2.5564E-01  1.8441E-01  1.5222E-01  1.2350E-01  0.0000E+00  0.0000E+00
 38  1.9821E+01  1.2118E+01  1.3508E+01  1.2871E+01  6.6105E+00  4.5577E+00  1.0111E+01  3.5094E+00  1.5130E+01
 39  0.0000E+00  1.5840E+00  0.0000E+00  1.4104E+00  0.0000E+00  3.0024E-02  8.2951E-01  0.0000E+00  0.0000E+00
 40  0.0000E+00  1.2495E+00  3.9237E-01  0.0000E+00  2.8387E-01  6.6653E-01  0.0000E+00  0.0000E+00  0.0000E+00
 41  0.0000E+00  1.3652E+00  0.0000E+00  3.3777E-01  8.9433E-02  7.6319E-01  7.1348E-01  0.0000E+00  0.0000E+00
 42  0.0000E+00  1.2571E+00  0.0000E+00  0.0000E+00  0.0000E+00  0.0000E+00  0.0000E+00  0.0000E+00  0.0000E+00
 43  0.0000E+00  1.2492E+00  0.0000E+00  5.6598E+00  0.0000E+00  0.0000E+00  0.0000E+00  0.0000E+00  1.8384E+00
 44  0.0000E+00  1.2647E+00  2.8959E+00  0.0000E+00  0.0000E+00  0.0000E+00  3.7986E+00  0.0000E+00  0.0000E+00
 45  0.0000E+00  1.0033E+00  0.0000E+00  0.0000E+00  3.4885E+00  0.0000E+00  0.0000E+00  0.0000E+00  0.0000E+00
 46  0.0000E+00  6.5531E-01  1.3574E+01  0.0000E+00  1.0531E+01  0.0000E+00  0.0000E+00  0.0000E+00  0.0000E+00
 47  0.0000E+00  6.7252E-01  0.0000E+00  0.0000E+00  9.9407E-01  0.0000E+00  0.0000E+00  0.0000E+00  0.0000E+00
 48  0.0000E+00  8.9400E-01  0.0000E+00  2.6078E+01  0.0000E+00  0.0000E+00  0.0000E+00  3.3259E+00  0.0000E+00
 49  0.0000E+00  4.6246E+00  0.0000E+00  0.0000E+00  0.0000E+00  2.3745E+01  0.0000E+00  0.0000E+00  0.0000E+00
 50  0.0000E+00  5.8322E+00  0.0000E+00  0.0000E+00  7.0584E+01  0.0000E+00  0.0000E+00  0.0000E+00  0.0000E+00
 51  0.0000E+00  2.6809E-01  6.3879E-01  9.8315E-02  3.8527E-01  3.9900E-02  2.0687E-01  0.0000E+00  6.1642E-01
 52  0.0000E+00  8.8502E-02  7.2431E-02  0.0000E+00  8.9389E-02  2.1739E-02  0.0000E+00  1.3889E-01  2.4990E-01
 53  0.0000E+00  5.1160E-02  3.2615E-01  0.0000E+00  0.0000E+00  0.0000E+00  0.0000E+00  0.0000E+00  0.0000E+00
 54  0.0000E+00  7.3009E-02  0.0000E+00  0.0000E+00  0.0000E+00  0.0000E+00  0.0000E+00  0.0000E+00  0.0000E+00
 55  0.0000E+00  1.9983E-01  0.0000E+00  0.0000E+00  0.0000E+00  0.0000E+00  0.0000E+00  1.0355E-01  0.0000E+00
 56  0.0000E+00  1.9868E-01  1.1186E-04  0.0000E+00  0.0000E+00  0.0000E+00  0.0000E+00  4.4883E-02  0.0000E+00
 57  0.0000E+00  3.3383E-01  0.0000E+00  0.0000E+00  8.9900E-02  0.0000E+00  0.0000E+00  0.0000E+00  0.0000E+00
 58  0.0000E+00  1.0005E+00  0.0000E+00  0.0000E+00  0.0000E+00  0.0000E+00  2.7833E-01  0.0000E+00  0.0000E+00
 59  0.0000E+00  8.5040E-01  1.1611E+00  1.9612E+00  0.0000E+00  0.0000E+00  0.0000E+00  0.0000E+00  0.0000E+00
 60  0.0000E+00  1.5992E+00  0.0000E+00  0.0000E+00  0.0000E+00  8.6717E-01  0.0000E+00  0.0000E+00  0.0000E+00
 61  0.0000E+00  2.5874E+00  0.0000E+00  0.0000E+00  0.0000E+00  0.0000E+00  0.0000E+00  0.0000E+00  1.7013E+01
 62  5.8213E+01  2.6797E+00  0.0000E+00  0.0000E+00  0.0000E+00  1.0687E+01  6.9147E+00  1.4097E+01  2.2075E+01
 63  0.0000E+00  5.1613E+00  0.0000E+00  0.0000E+00  0.0000E+00  0.0000E+00  0.0000E+00  4.8381E+00  0.0000E+00
 64  0.0000E+00  2.5238E+00  0.0000E+00  0.0000E+00  0.0000E+00  0.0000E+00  0.0000E+00  2.2475E+01  0.0000E+00
 65  0.0000E+00  8.5862E-01  0.0000E+00  0.0000E+00  0.0000E+00  0.0000E+00  0.0000E+00  0.0000E+00  0.0000E+00
 66  0.0000E+00  1.0161E+01  0.0000E+00  0.0000E+00  0.0000E+00  0.0000E+00  5.7246E+01  0.0000E+00  0.0000E+00

# AV, chi2 & Mass for <> & i_chain = 1 ...  7 solutions
AV       0.5580      0.5790      0.5817      0.5759      0.5667      0.5952      0.5754      0.6365      0.5883
chi2 3.1518E-01  3.2247E-01  3.1849E-01  3.1937E-01  3.1852E-01  3.1870E-01  3.1961E-01  3.1747E-01  3.1819E-01
Mass 2.3384E-13  3.7524E-13  3.8254E-13  3.8802E-13  7.1603E-13  8.9951E-13  4.6303E-13  1.1817E-12  3.4107E-13
 -54.30                                  [v0_min (km/s) before EX0s...]
 422.01                                  [vd_min (km/s) before EX0s...]


## Synthetic spectrum (Best Model) ##l_obs f_obs f_syn wei
 3478    [Nl_obs]
 3741.00    0.86083   0.96037    0.000
 3742.00    0.86924   0.95888    0.000
 3743.00    0.86276   0.95531    0.000
 3744.00    0.83881   0.95029    0.000
 3745.00    0.80965   0.94440    4.340
 3746.00    0.78815   0.93852    4.209
 3747.00    0.77172   0.93357    4.138
 3748.00    0.75738   0.93031    4.195
 3749.00    0.75850   0.92957    4.311
 3750.00    0.78623   0.93133    4.390
 3751.00    0.82957   0.93615    4.441
 3752.00    0.87281   0.94314    4.487
 3753.00    0.91423   0.95235    4.451
 3754.00    0.95410   0.96252    4.315
 3755.00    0.98215   0.97306    4.259
 3756.00    0.99026   0.98291    4.389
 3757.00    0.98461   0.99120    4.556
 3758.00    0.97178   0.99739    4.568
 3759.00    0.94621   1.00061    4.508
 3760.00    0.90336   1.00097    4.532
 3761.00    0.85176   0.99796    4.666
 3762.00    0.80407   0.99219    4.826
 3763.00    0.76798   0.98382    4.848
 3764.00    0.74372   0.97389    4.706
 3765.00    0.72366   0.96327    4.639
 3766.00    0.70286   0.95295    4.779
 3767.00    0.68677   0.94427    4.942
 3768.00    0.68174   0.93777    4.938
 3769.00    0.68733   0.93447    4.909
 3770.00    0.69961   0.93467    5.016
 3771.00    0.71495   0.93873    5.201
 3772.00    0.73538   0.94644    5.318
 3773.00    0.77073   0.95739    5.288
 3774.00    0.82521   0.97095    5.172
 3775.00    0.88939   0.98617    5.142
 3776.00    0.95471   1.00225    5.255
 3777.00    1.02233   1.01798    5.350
 3778.00    1.08941   1.03285    5.320
 3779.00    1.14176   1.04572    5.310
 3780.00    1.16967   1.05638    5.418
 3781.00    1.17715   1.06410    5.525
 3782.00    1.17064   1.06887    5.529
 3783.00    1.15201   1.07031    5.512
 3784.00    1.12353   1.06844    5.545
 3785.00    1.09063   1.06333    5.581
 3786.00    1.05921   1.05498    5.569
 3787.00    1.03327   1.04381    5.527
 3788.00    1.01184   1.02993    5.500
 3789.00    0.98912   1.01386    5.528
 3790.00    0.96526   0.99616    5.607
 3791.00    0.94940   0.97762    5.678
 3792.00    0.94207   0.95923    5.714
 3793.00    0.93009   0.94206    5.759
 3794.00    0.91149   0.92759    5.829
 3795.00    0.90327   0.91627    5.873
 3796.00    0.91160   0.90900    5.877
 3797.00    0.92147   0.90598    5.907
 3798.00    0.92395   0.90763    6.005
 3799.00    0.92682   0.91360    6.141
 3800.00    0.93726   0.92355    6.222
 3801.00    0.95473   0.93655    6.138
 3802.00    0.97797   0.95213    5.919
 3803.00    1.00766   0.96930    5.734
 3804.00    1.04259   0.98673    5.682
 3805.00    1.07943   1.00384    5.753
 3806.00    1.11905   1.01953    5.876
 3807.00    1.16687   1.03356    5.939
 3808.00    1.22191   1.04503    5.924
 3809.00    1.27497   1.05424    5.930
 3810.00    1.32025   1.06055    6.003
 3811.00    1.35768   1.06444    6.095
 3812.00    1.38272   1.06565    6.155
 3813.00    1.38631   1.06487    6.177
 3814.00    1.37054   1.06160    6.178
 3815.00    1.34940   1.05754    6.185
 3816.00    1.32887   1.05331    6.206
 3817.00    1.30334   1.04817    6.229
 3818.00    1.27004   1.04308    6.253
 3819.00    1.23286   1.03713    6.296
 3820.00    1.19675   1.03146    6.377
 3821.00    1.16554   1.02489    6.501
 3822.00    1.14150   1.01795    6.615
 3823.00    1.12398   1.00971    6.636
 3824.00    1.10566   1.00008    6.605
 3825.00    1.07618   0.98882    6.662
 3826.00    1.03701   0.97558    6.823
 3827.00    1.00088   0.96076    6.960
 3828.00    0.97504   0.94441    6.972
 3829.00    0.95765   0.92767    6.877
 3830.00    0.94263   0.91083    6.831
 3831.00    0.92533   0.89602    7.008
 3832.00    0.91353   0.88368    7.312
 3833.00    0.92078   0.87462    7.396
 3834.00    0.93974   0.86992    7.210
 3835.00    0.94686   0.86953    7.047
 3836.00    0.93522   0.87402    7.063
 3837.00    0.91625   0.88264    7.233
 3838.00    0.90067   0.89537    7.419
 3839.00    0.89546   0.91094    7.446
 3840.00    0.90922   0.92889    7.345
 3841.00    0.94840   0.94782    7.300
 3842.00    1.00507   0.96719    7.372
 3843.00    1.06145   0.98584    7.493
 3844.00    1.10747   1.00337    7.597
 3845.00    1.14161   1.01918    7.643
 3846.00    1.16279   1.03283    7.599
 3847.00    1.17011   1.04461    0.000
 3848.00    1.16639   1.05400    0.000
 3849.00    1.15845   1.06161    0.000
 3850.00    1.15575   1.06735    0.000
 3851.00    1.16448   1.07152    0.000
 3852.00    1.17638   1.07470    0.000
 3853.00    1.17677   1.07666    0.000
 3854.00    1.16492   1.07798    0.000
 3855.00    1.15012   1.07844    0.000
 3856.00    1.13598   1.07859    0.000
 3857.00    1.12271   1.07828    0.000
 3858.00    1.11698   1.07760    0.000
 3859.00    1.12760   1.07675    0.000
 3860.00    1.15427   1.07547    0.000
 3861.00    1.18925   1.07425    0.000
 3862.00    1.22432   1.07223    0.000
 3863.00    1.25722   1.07050    0.000
 3864.00    1.29975   1.06841    0.000
 3865.00    1.36408   1.06602    0.000
 3866.00    1.43825   1.06361    0.000
 3867.00    1.49606   1.06036    0.000
 3868.00    1.51958   1.05753    0.000
 3869.00    1.50318   1.05382    0.000
 3870.00    1.45376   1.05033    0.000
 3871.00    1.38529   1.04573    0.000
 3872.00    1.31043   1.04084    0.000
 3873.00    1.24035   1.03479    0.000
 3874.00    1.18586   1.02792    0.000
 3875.00    1.15014   1.01984    0.000
 3876.00    1.11910   1.01012    0.000
 3877.00    1.07644   0.99909    0.000
 3878.00    1.02571   0.98617    0.000
 3879.00    0.98104   0.97178    0.000
 3880.00    0.95064   0.95595    0.000
 3881.00    0.93391   0.93915    7.679
 3882.00    0.92156   0.92179    7.663
 3883.00    0.90953   0.90438    7.747
 3884.00    0.91500   0.88805    7.897
 3885.00    0.95517   0.87433    8.000
 3886.00    1.01987   0.86352    7.973
 3887.00    1.08377   0.85707    7.841
 3888.00    1.12507   0.85464    7.792
 3889.00    1.13104   0.85662    7.965
 3890.00    1.10209   0.86266    8.269
 3891.00    1.05133   0.87251    8.505
 3892.00    1.00265   0.88573    8.601
 3893.00    0.97731   0.90116    8.606
 3894.00    0.98003   0.91839    8.600
 3895.00    1.00299   0.93631    8.647
 3896.00    1.03227   0.95444    8.759
 3897.00    1.05607   0.97204    8.893
 3898.00    1.07173   0.98843    8.954
 3899.00    1.07920   1.00347    8.930
 3900.00    1.07432   1.01634    9.002
 3901.00    1.05494   1.02765    9.275
 3902.00    1.02701   1.03720    9.523
 3903.00    1.00133   1.04515    9.512
 3904.00    0.98949   1.05195    9.399
 3905.00    0.99696   1.05723    9.393
 3906.00    1.01793   1.06164    9.450
 3907.00    1.04272   1.06470    9.458
 3908.00    1.06475   1.06715    9.408
 3909.00    1.08212   1.06837    9.341
 3910.00    1.09777   1.06918    9.279
 3911.00    1.11260   1.06891    9.197
 3912.00    1.12095   1.06799    9.032
 3913.00    1.12001   1.06635    8.808
 3914.00    1.11630   1.06384    8.689
 3915.00    1.11529   1.06099    8.749
 3916.00    1.11414   1.05726    8.852
 3917.00    1.11021   1.05373    8.855
 3918.00    1.10707   1.04964    8.769
 3919.00    1.10849   1.04581    8.701
 3920.00    1.11408   1.04174    8.763
 3921.00    1.12073   1.03730    8.933
 3922.00    1.12429   1.03349    8.985
 3923.00    1.12202   1.02916    8.858
 3924.00    1.11360   1.02561    8.846
 3925.00    1.09619   1.02219    9.087
 3926.00    1.06332   1.01903    9.306
 3927.00    1.01799   1.01653    9.291
 3928.00    0.97737   1.01399    9.238
 3929.00    0.94870   1.01236    9.315
 3930.00    0.91874   1.01072    9.428
 3931.00    0.88223   1.01017    9.492
 3932.00    0.85543   1.01032    9.574
 3933.00    0.85317   1.01111    9.688
 3934.00    0.87573   1.01286    9.694
 3935.00    0.91374   1.01488    9.581
 3936.00    0.95340   1.01753    9.561
 3937.00    0.98791   1.02042    9.731
 3938.00    1.02119   1.02340    9.947
 3939.00    1.05491   1.02641   10.064
 3940.00    1.08318   1.02930   10.088
 3941.00    1.10127   1.03215   10.089
 3942.00    1.10960   1.03451   10.131
 3943.00    1.11061   1.03681   10.187
 3944.00    1.10683   1.03840   10.130
 3945.00    1.09968   1.03934    9.922
 3946.00    1.08903   1.03988    9.667
 3947.00    1.07406   1.03958    9.467
 3948.00    1.05420   1.03875    9.371
 3949.00    1.03189   1.03678    9.383
 3950.00    1.01246   1.03409    9.465
 3951.00    0.99880   1.03029    9.533
 3952.00    0.98927   1.02554    9.488
 3953.00    0.97932   1.01943    9.363
 3954.00    0.96398   1.01162    9.319
 3955.00    0.94528   1.00239    9.393
 3956.00    0.93188   0.99103    9.464
 3957.00    0.92619   0.97786    9.447
 3958.00    0.92213   0.96244    9.368
 3959.00    0.91642   0.94524    9.314
 3960.00    0.91078   0.92693    0.000
 3961.00    0.90406   0.90693    0.000
 3962.00    0.89126   0.88648    0.000
 3963.00    0.87096   0.86635    0.000
 3964.00    0.84764   0.84664    0.000
 3965.00    0.82995   0.82856    0.000
 3966.00    0.82743   0.81304    0.000
 3967.00    0.84191   0.80116    0.000
 3968.00    0.86499   0.79440    0.000
 3969.00    0.87958   0.79272    0.000
 3970.00    0.86779   0.79525    0.000
 3971.00    0.83298   0.80242    0.000
 3972.00    0.79824   0.81392    0.000
 3973.00    0.78059   0.82855    0.000
 3974.00    0.78440   0.84561    0.000
 3975.00    0.80630   0.86463    0.000
 3976.00    0.83869   0.88456    0.000
 3977.00    0.87542   0.90498    0.000
 3978.00    0.91261   0.92485    0.000
 3979.00    0.94624   0.94294    0.000
 3980.00    0.97220   0.95948    0.000
 3981.00    0.98804   0.97445    9.305
 3982.00    0.99427   0.98747    9.290
 3983.00    0.99631   0.99853    9.405
 3984.00    1.00166   1.00803    9.483
 3985.00    1.01192   1.01605    9.462
 3986.00    1.02281   1.02262    9.411
 3987.00    1.02918   1.02794    9.435
 3988.00    1.02852   1.03234    9.599
 3989.00    1.02594   1.03576    9.805
 3990.00    1.02873   1.03866    9.848
 3991.00    1.03210   1.04065    9.693
 3992.00    1.02638   1.04195    9.485
 3993.00    1.01947   1.04300    9.383
 3994.00    1.02832   1.04370    9.471
 3995.00    1.05079   1.04384    9.653
 3996.00    1.07086   1.04381    9.736
 3997.00    1.08158   1.04346    9.710
 3998.00    1.08484   1.04278    9.709
 3999.00    1.08120   1.04187    9.770
 4000.00    1.07083   1.04057    9.845
 4001.00    1.05911   1.03923    9.916
 4002.00    1.05238   1.03741    9.981
 4003.00    1.04850   1.03602    9.998
 4004.00    1.04320   1.03451    9.949
 4005.00    1.04437   1.03313    9.952
 4006.00    1.06060   1.03167   10.110
 4007.00    1.07752   1.03111   10.226
 4008.00    1.07501   1.03132   10.032
 4009.00    1.06245   1.03128    9.732
 4010.00    1.06210   1.03194    9.658
 4011.00    1.07240   1.03223    9.734
 4012.00    1.07670   1.03278    9.712
 4013.00    1.06659   1.03296    9.627
 4014.00    1.04405   1.03239    9.584
 4015.00    1.01854   1.03149    9.344
 4016.00    0.99942   1.02987    8.462
 4017.00    0.98589   1.02791    6.871
 4018.00    0.97398   1.02452    5.408
 4019.00    0.96853   1.02062    4.912
 4020.00    0.97703   1.01622    5.716
 4021.00    0.99856   1.01108    7.794
 4022.00    1.02407   1.00613    9.254
 4023.00    1.03943   1.00084    9.077
 4024.00    1.03633   0.99858    9.168
 4025.00    1.02503   0.99737    9.657
 4026.00    1.01858   0.99669    9.663
 4027.00    1.01136   0.99708    9.429
 4028.00    0.99211   0.99790    9.591
 4029.00    0.96311   1.00051    9.911
 4030.00    0.93503   1.00303    9.903
 4031.00    0.91770   1.00703    9.875
 4032.00    0.91615   1.01097   10.271
 4033.00    0.92760   1.01561   10.758
 4034.00    0.94467   1.02016   10.739
 4035.00    0.95986   1.02345   10.423
 4036.00    0.96992   1.02638   10.260
 4037.00    0.97943   1.02842   10.209
 4038.00    0.99174   1.03001   10.101
 4039.00    1.00000   1.03129   10.000
 4040.00    0.99873   1.03212   10.007
 4041.00    0.99567   1.03223   10.044
 4042.00    0.99951   1.03211   10.007
 4043.00    1.00739   1.03162    9.927
 4044.00    1.01426   1.03161    9.859
 4045.00    1.02245   1.03109    9.780
 4046.00    1.03408   1.03077    9.671
 4047.00    1.04395   1.03035    9.579
 4048.00    1.04828   1.02987    9.539
 4049.00    1.05228   1.02936    9.503
 4050.00    1.05953   1.02842    9.438
 4051.00    1.06311   1.02771    9.406
 4052.00    1.05579   1.02663    9.472
 4053.00    1.03903   1.02569    9.624
 4054.00    1.01936   1.02439    9.807
 4055.00    1.00410   1.02284    9.960
 4056.00    0.99519   1.02129   10.056
 4057.00    0.98615   1.01931   10.138
 4058.00    0.97575   1.01741   10.226
 4059.00    0.97635   1.01524   10.250
 4060.00    0.99403   1.01282   10.120
 4061.00    1.01541   1.01057    9.827
 4062.00    1.02772   1.00841    9.574
 4063.00    1.03324   1.00628    9.749
 4064.00    1.04071   1.00371   10.298
 4065.00    1.05756   1.00118   10.256
 4066.00    1.08293   0.99845    9.429
 4067.00    1.10467   0.99572    9.094
 4068.00    1.11036   0.99346    9.740
 4069.00    1.09508   0.99097   10.473
 4070.00    1.06309   0.98958   10.309
 4071.00    1.02688   0.98813    9.871
 4072.00    0.99674   0.98625    9.817
 4073.00    0.97488   0.98484   10.014
 4074.00    0.96080   0.98384   10.123
 4075.00    0.95415   0.98339    9.942
 4076.00    0.95122   0.98293    9.588
 4077.00    0.94449   0.98317    9.414
 4078.00    0.93283   0.98309    9.531
 4079.00    0.92507   0.98239    9.699
 4080.00    0.92633   0.98166    9.748
 4081.00    0.93207   0.98020    9.801
 4082.00    0.93792   0.97836    9.946
 4083.00    0.94425   0.97600   10.071
 4084.00    0.95133   0.97291   10.100
 4085.00    0.95728   0.96835   10.101
 4086.00    0.96144   0.96232   10.135
 4087.00    0.96510   0.95567   10.182
 4088.00    0.96650   0.94728   10.233
 4089.00    0.95981   0.93728   10.317
 4090.00    0.94132   0.92570   10.442
 4091.00    0.91202   0.91260   10.568
 4092.00    0.87529   0.89801    0.000
 4093.00    0.83533   0.88260    0.000
 4094.00    0.79557   0.86696    0.000
 4095.00    0.75985   0.85148    0.000
 4096.00    0.74083   0.83654    0.000
 4097.00    0.75874   0.82252    0.000
 4098.00    0.82195   0.80997    0.000
 4099.00    0.91865   0.80048    0.000
 4100.00    1.01721   0.79549    0.000
 4101.00    1.07507   0.79380    0.000
 4102.00    1.07111   0.79604    0.000
 4103.00    1.01500   0.80154    0.000
 4104.00    0.93373   0.80966    0.000
 4105.00    0.86080   0.81993    0.000
 4106.00    0.81727   0.83208    0.000
 4107.00    0.80598   0.84638    0.000
 4108.00    0.81596   0.86069    0.000
 4109.00    0.82945   0.87510    0.000
 4110.00    0.83926   0.88856    0.000
 4111.00    0.85047   0.90067    0.000
 4112.00    0.86615   0.91146    0.000
 4113.00    0.88352   0.92044   11.251
 4114.00    0.89738   0.92881   11.488
 4115.00    0.90276   0.93527   11.443
 4116.00    0.89915   0.94057   11.200
 4117.00    0.89101   0.94491   11.175
 4118.00    0.88498   0.94826   11.426
 4119.00    0.88779   0.95197   11.641
 4120.00    0.90278   0.95478   11.644
 4121.00    0.92816   0.95767   11.524
 4122.00    0.95531   0.96014   11.410
 4123.00    0.97265   0.96186   11.372
 4124.00    0.97713   0.96369   11.387
 4125.00    0.97496   0.96490   11.367
 4126.00    0.97511   0.96683   11.256
 4127.00    0.98382   0.96810   11.068
 4128.00    0.99574   0.96907   10.897
 4129.00    0.99889   0.96981   10.850
 4130.00    0.99213   0.97008   10.920
 4131.00    0.98426   0.97041   11.011
 4132.00    0.98153   0.97025   11.058
 4133.00    0.98577   0.96999   11.030
 4134.00    0.99727   0.96916   10.873
 4135.00    1.01405   0.96824   10.581
 4136.00    1.02861   0.96704   10.350
 4137.00    1.03214   0.96583   10.392
 4138.00    1.02456   0.96443   10.577
 4139.00    1.01177   0.96266   10.590
 4140.00    0.99519   0.96020   10.480
 4141.00    0.97369   0.95815   10.527
 4142.00    0.95204   0.95744   10.730
 4143.00    0.93806   0.95672   10.890
 4144.00    0.93397   0.95684   10.984
 4145.00    0.93846   0.95699   11.124
 4146.00    0.95372   0.95719   11.272
 4147.00    0.98126   0.95747   11.293
 4148.00    1.01176   0.95845   11.181
 4149.00    1.03148   0.96054   11.049
 4150.00    1.03665   0.96222   11.018
 4151.00    1.03040   0.96407   11.143
 4152.00    1.01314   0.96570   11.334
 4153.00    0.98637   0.96701   11.414
 4154.00    0.96167   0.96822   11.304
 4155.00    0.95145   0.96969   11.069
 4156.00    0.95217   0.97097   10.903
 4157.00    0.95168   0.97178   10.970
 4158.00    0.94510   0.97243   11.227
 4159.00    0.93412   0.97275   11.506
 4160.00    0.92217   0.97284   11.688
 4161.00    0.91349   0.97249   11.735
 4162.00    0.91281   0.97220   11.671
 4163.00    0.92292   0.97145   11.570
 4164.00    0.94137   0.97028   11.541
 4165.00    0.96271   0.96888   11.645
 4166.00    0.98226   0.96736   11.786
 4167.00    0.99724   0.96614   11.847
 4168.00    1.00733   0.96462   11.895
 4169.00    1.01238   0.96310   12.024
 4170.00    1.00959   0.96177   12.117
 4171.00    0.99798   0.96054   12.031
 4172.00    0.98396   0.95958   11.893
 4173.00    0.97600   0.95886   11.880
 4174.00    0.97711   0.95849   11.955
 4175.00    0.98555   0.95818   11.987
 4176.00    0.99685   0.95778   11.935
 4177.00    1.00550   0.95775   11.833
 4178.00    1.00678   0.95790   11.737
 4179.00    0.99894   0.95782   11.704
 4180.00    0.98510   0.95801   11.775
 4181.00    0.96998   0.95787   11.917
 4182.00    0.95622   0.95774   11.972
 4183.00    0.94488   0.95774   11.866
 4184.00    0.93654   0.95728   11.816
 4185.00    0.93280   0.95736   11.967
 4186.00    0.93724   0.95667   12.060
 4187.00    0.95100   0.95623   11.881
 4188.00    0.96866   0.95586   11.726
 4189.00    0.98425   0.95498   11.839
 4190.00    0.99688   0.95473   11.954
 4191.00    1.00640   0.95361   11.814
 4192.00    1.00933   0.95289   11.683
 4193.00    1.00364   0.95192   11.799
 4194.00    0.99276   0.95074   11.933
 4195.00    0.98062   0.95002   11.892
 4196.00    0.96726   0.94897   11.950
 4197.00    0.95296   0.94852   12.285
 4198.00    0.94134   0.94802   12.497
 4199.00    0.93414   0.94764   12.268
 4200.00    0.92738   0.94774   11.982
 4201.00    0.91859   0.94804   11.990
 4202.00    0.91184   0.94856   12.158
 4203.00    0.91009   0.94934   12.243
 4204.00    0.91011   0.95030   12.198
 4205.00    0.91163   0.95144   12.097
 4206.00    0.92254   0.95238   12.036
 4207.00    0.94428   0.95307   12.078
 4208.00    0.96369   0.95386   12.223
 4209.00    0.97303   0.95434   12.394
 4210.00    0.98173   0.95476   12.432
 4211.00    0.99578   0.95498   12.285
 4212.00    1.00531   0.95451   12.102
 4213.00    1.00113   0.95409   12.030
 4214.00    0.98530   0.95323   12.089
 4215.00    0.96536   0.95237   12.157
 4216.00    0.94934   0.95143   12.006
 4217.00    0.94072   0.94991   11.682
 4218.00    0.93643   0.94846   11.580
 4219.00    0.93315   0.94615   11.845
 4220.00    0.93064   0.94440   12.155
 4221.00    0.92812   0.94283   12.220
 4222.00    0.92279   0.94095   12.151
 4223.00    0.91421   0.93917   12.121
 4224.00    0.90608   0.93709   12.162
 4225.00    0.90205   0.93589   12.218
 4226.00    0.90321   0.93482   12.198
 4227.00    0.90776   0.93418   12.082
 4228.00    0.91172   0.93391   11.964
 4229.00    0.91359   0.93344   11.978
 4230.00    0.91558   0.93327   12.241
 4231.00    0.91772   0.93337   12.639
 4232.00    0.91607   0.93404   12.771
 4233.00    0.90852   0.93476   12.520
 4234.00    0.89687   0.93524   12.257
 4235.00    0.88293   0.93580   12.191
 4236.00    0.86775   0.93639   12.214
 4237.00    0.85658   0.93685   12.229
 4238.00    0.85857   0.93737   12.269
 4239.00    0.87562   0.93782   12.366
 4240.00    0.89974   0.93789   12.492
 4241.00    0.92286   0.93811   12.575
 4242.00    0.94083   0.93819   12.534
 4243.00    0.95163   0.93796   12.431
 4244.00    0.95447   0.93755   12.439
 4245.00    0.94924   0.93653   12.548
 4246.00    0.93718   0.93546   12.546
 4247.00    0.92390   0.93441   12.406
 4248.00    0.91766   0.93359   12.344
 4249.00    0.91892   0.93278   12.450
 4250.00    0.91981   0.93110   12.617
 4251.00    0.91648   0.92978   12.694
 4252.00    0.91162   0.92863   12.596
 4253.00    0.90729   0.92773   12.427
 4254.00    0.90323   0.92732   12.409
 4255.00    0.90027   0.92682   12.574
 4256.00    0.89919   0.92657   12.736
 4257.00    0.89371   0.92588   12.722
 4258.00    0.87490   0.92478   12.495
 4259.00    0.85186   0.92404   12.217
 4260.00    0.84773   0.92399   12.115
 4261.00    0.86767   0.92366   12.203
 4262.00    0.89567   0.92283   12.308
 4263.00    0.91511   0.92117   12.363
 4264.00    0.91702   0.91904   12.438
 4265.00    0.90527   0.91800   12.558
 4266.00    0.89214   0.91642   12.671
 4267.00    0.88236   0.91513   12.749
 4268.00    0.87257   0.91374   12.811
 4269.00    0.86185   0.91186   12.897
 4270.00    0.85165   0.91084   13.029
 4271.00    0.83849   0.90911   13.135
 4272.00    0.81833   0.90850   13.089
 4273.00    0.80234   0.90859   12.898
 4274.00    0.80885   0.90782   12.693
 4275.00    0.83454   0.90770   12.587
 4276.00    0.85994   0.90750   12.624
 4277.00    0.87872   0.90760   12.730
 4278.00    0.89651   0.90798   12.781
 4279.00    0.91217   0.90761   12.814
 4280.00    0.91931   0.90748   12.945
 4281.00    0.91918   0.90715   13.046
 4282.00    0.91890   0.90657   12.883
 4283.00    0.92152   0.90622   12.567
 4284.00    0.92575   0.90538   12.384
 4285.00    0.93013   0.90467   12.341
 4286.00    0.93330   0.90346   12.292
 4287.00    0.93272   0.90212   12.279
 4288.00    0.92634   0.90105   12.413
 4289.00    0.91601   0.89978   12.512
 4290.00    0.90489   0.89886   12.332
 4291.00    0.89156   0.89735   12.156
 4292.00    0.87438   0.89577   12.398
 4293.00    0.86118   0.89399   12.839
 4294.00    0.86207   0.89199   12.903
 4295.00    0.87384   0.89037   12.681
 4296.00    0.88457   0.88838   12.649
 4297.00    0.88623   0.88647   12.832
 4298.00    0.87731   0.88421   12.971
 4299.00    0.86324   0.88185   12.998
 4300.00    0.85227   0.87999   13.009
 4301.00    0.84876   0.87832   13.044
 4302.00    0.85125   0.87678   13.076
 4303.00    0.85158   0.87576   13.061
 4304.00    0.84183   0.87500   12.983
 4305.00    0.82469   0.87472   12.921
 4306.00    0.80908   0.87489   12.945
 4307.00    0.80128   0.87515   12.975
 4308.00    0.80280   0.87651   12.906
 4309.00    0.80937   0.87822   12.819
 4310.00    0.81551   0.88004   12.839
 4311.00    0.82089   0.88168   12.913
 4312.00    0.82685   0.88313   12.914
 4313.00    0.83107   0.88516   12.811
 4314.00    0.83151   0.88711   12.610
 4315.00    0.83216   0.88881   12.261
 4316.00    0.83718   0.88948   11.786
 4317.00    0.84324   0.88931   11.382
 4318.00    0.84476   0.88888   11.285
 4319.00    0.84125   0.88816   11.680
 4320.00    0.83177   0.88700   12.476
 4321.00    0.80801   0.88486   -2.000
 4322.00    0.76165   0.88149   -2.000
 4323.00    0.69301   0.87740   -2.000
 4324.00    0.60249   0.87282   -2.000
 4325.00    0.48162   0.86762   -2.000
 4326.00    0.33035   0.86187   -2.000
 4327.00    0.17616   0.85448   -2.000
 4328.00    0.06591   0.84603   -2.000
 4329.00    0.05179   0.83654   -2.000
 4330.00    0.15128   0.82618   -2.000
 4331.00    0.31283   0.81540   -2.000
 4332.00    0.46862   0.80327   -2.000
 4333.00    0.58932   0.79118   -2.000
 4334.00    0.68021   0.77910   -2.000
 4335.00    0.77075   0.76769   -2.000
 4336.00    0.89482   0.75763    0.000
 4337.00    1.07090   0.74835    0.000
 4338.00    1.28066   0.74173    0.000
 4339.00    1.45638   0.73750    0.000
 4340.00    1.52977   0.73628    0.000
 4341.00    1.47589   0.73819    0.000
 4342.00    1.31699   0.74189    0.000
 4343.00    1.11813   0.74782    0.000
 4344.00    0.94547   0.75569    0.000
 4345.00    0.83272   0.76576    0.000
 4346.00    0.78373   0.77750    0.000
 4347.00    0.77895   0.78951    0.000
 4348.00    0.79449   0.80092    0.000
 4349.00    0.81611   0.81216    0.000
 4350.00    0.83599   0.82331    0.000
 4351.00    0.84963   0.83401   12.799
 4352.00    0.85688   0.84433   13.237
 4353.00    0.86180   0.85300   13.572
 4354.00    0.86546   0.86089   13.550
 4355.00    0.86271   0.86778   13.427
 4356.00    0.85409   0.87366   13.431
 4357.00    0.85190   0.87949   13.435
 4358.00    0.86449   0.88384   13.321
 4359.00    0.88725   0.88766   13.193
 4360.00    0.91321   0.89062   13.120
 4361.00    0.93930   0.89271   13.022
 4362.00    0.96161   0.89483   12.901
 4363.00    0.97346   0.89577   12.925
 4364.00    0.97277   0.89653   13.129
 4365.00    0.96534   0.89682   13.279
 4366.00    0.95715   0.89637   13.239
 4367.00    0.94991   0.89612   13.168
 4368.00    0.94187   0.89532   13.152
 4369.00    0.92935   0.89448   13.067
 4370.00    0.91216   0.89345   12.896
 4371.00    0.89552   0.89185   12.833
 4372.00    0.88495   0.89044   12.964
 4373.00    0.88330   0.88897   13.145
 4374.00    0.88990   0.88716   13.195
 4375.00    0.90084   0.88521   13.039
 4376.00    0.91171   0.88284   12.767
 4377.00    0.91903   0.88023   12.577
 4378.00    0.92031   0.87795   12.517
 4379.00    0.91425   0.87511   12.456
 4380.00    0.90136   0.87240   12.381
 4381.00    0.88425   0.86980   12.450
 4382.00    0.86709   0.86678   12.688
 4383.00    0.85473   0.86527   12.898
 4384.00    0.84981   0.86366   12.949
 4385.00    0.85181   0.86257   12.905
 4386.00    0.85844   0.86243   12.838
 4387.00    0.86667   0.86175   12.756
 4388.00    0.87441   0.86331   12.668
 4389.00    0.88094   0.86517   12.603
 4390.00    0.88594   0.86694   12.628
 4391.00    0.88943   0.86971   12.804
 4392.00    0.89306   0.87124   13.051
 4393.00    0.89956   0.87399   13.135
 4394.00    0.90906   0.87682   12.990
 4395.00    0.91825   0.87875   12.791
 4396.00    0.92243   0.88117   12.729
 4397.00    0.91808   0.88201   12.900
 4398.00    0.90886   0.88278   13.185
 4399.00    0.90404   0.88369   13.287
 4400.00    0.90642   0.88401   13.171
 4401.00    0.91086   0.88454   13.106
 4402.00    0.91276   0.88410   13.237
 4403.00    0.91093   0.88320   13.472
 4404.00    0.90746   0.88285   13.516
 4405.00    0.90575   0.88271   13.091
 4406.00    0.90510   0.88246   12.536
 4407.00    0.90213   0.88207   12.448
 4408.00    0.89945   0.88122   12.830
 4409.00    0.90469   0.88082   13.181
 4410.00    0.92025   0.88127   13.280
 4411.00    0.94086   0.88110   13.329
 4412.00    0.95505   0.88129   13.340
 4413.00    0.95118   0.88126   13.145
 4414.00    0.93156   0.88102   12.926
 4415.00    0.90976   0.88210   13.044
 4416.00    0.89403   0.88244   13.412
 4417.00    0.88491   0.88304   13.568
 4418.00    0.88030   0.88394   13.421
 4419.00    0.87788   0.88386   13.290
 4420.00    0.87744   0.88481   13.375
 4421.00    0.88015   0.88533   13.661
 4422.00    0.88544   0.88554   13.933
 4423.00    0.89131   0.88624   13.925
 4424.00    0.89684   0.88568   13.733
 4425.00    0.90179   0.88553   13.673
 4426.00    0.90476   0.88543   13.769
 4427.00    0.90440   0.88470   13.840
 4428.00    0.90302   0.88453   13.866
 4429.00    0.90439   0.88350   13.949
 4430.00    0.90798   0.88264   14.057
 4431.00    0.91076   0.88233   14.070
 4432.00    0.91305   0.88151   14.010
 4433.00    0.91756   0.88131   13.969
 4434.00    0.92511   0.88075   13.910
 4435.00    0.93447   0.88026   13.754
 4436.00    0.94358   0.88035   13.614
 4437.00    0.95069   0.88028   13.661
 4438.00    0.95593   0.88066   13.866
 4439.00    0.95938   0.88076   14.062
 4440.00    0.95753   0.88073   14.135
 4441.00    0.94816   0.88086   14.081
 4442.00    0.93930   0.88112   14.008
 4443.00    0.94086   0.88158   14.009
 4444.00    0.94891   0.88140   13.990
 4445.00    0.95274   0.88118   13.837
 4446.00    0.94993   0.88069   13.703
 4447.00    0.94411   0.88026   13.790
 4448.00    0.93757   0.88001   13.992
 4449.00    0.93022   0.87877   14.086
 4450.00    0.91984   0.87777   14.109
 4451.00    0.90512   0.87658   14.188
 4452.00    0.88982   0.87517   14.196
 4453.00    0.87929   0.87405   13.980
 4454.00    0.87489   0.87213   13.735
 4455.00    0.87527   0.87053   13.721
 4456.00    0.87929   0.86897   13.899
 4457.00    0.88547   0.86733   14.076
 4458.00    0.89098   0.86581   14.133
 4459.00    0.89415   0.86365   14.058
 4460.00    0.89732   0.86159   13.910
 4461.00    0.90130   0.85980    0.000
 4462.00    0.89863   0.85834    0.000
 4463.00    0.88412   0.85650    0.000
 4464.00    0.86729   0.85424    0.000
 4465.00    0.85674   0.85198    0.000
 4466.00    0.84193   0.85073    0.000
 4467.00    0.81692   0.85061    0.000
 4468.00    0.80668   0.84953    0.000
 4469.00    0.83222   0.84871    0.000
 4470.00    0.87180   0.84847    0.000
 4471.00    0.89345   0.84946    0.000
 4472.00    0.89265   0.85200    0.000
 4473.00    0.87988   0.85305    0.000
 4474.00    0.86361   0.85427    0.000
 4475.00    0.84805   0.85651    0.000
 4476.00    0.83293   0.85915    0.000
 4477.00    0.81768   0.86240    0.000
 4478.00    0.80513   0.86412    0.000
 4479.00    0.79761   0.86570    0.000
 4480.00    0.79347   0.86803    0.000
 4481.00    0.79245   0.87017    0.000
 4482.00    0.79964   0.87217   10.994
 4483.00    0.81357   0.87300   10.575
 4484.00    0.81764   0.87402   10.583
 4485.00    0.80129   0.87541   10.954
 4486.00    0.77654   0.87643   11.392
 4487.00    0.75819   0.87735   11.598
 4488.00    0.74740   0.87747   11.606
 4489.00    0.74175   0.87804   11.604
 4490.00    0.74366   0.87877   11.707
 4491.00    0.75365   0.87923   11.928
 4492.00    0.76571   0.88005   12.163
 4493.00    0.77569   0.88038   12.304
 4494.00    0.78695   0.88114   12.345
 4495.00    0.80176   0.88193   12.350
 4496.00    0.81580   0.88265   12.408
 4497.00    0.82572   0.88402   12.522
 4498.00    0.83404   0.88490   12.566
 4499.00    0.84358   0.88593   12.462
 4500.00    0.85377   0.88688   12.297
 4501.00    0.86303   0.88750   12.188
 4502.00    0.87065   0.88856   12.194
 4503.00    0.87629   0.88898   12.280
 4504.00    0.87979   0.88916   12.320
 4505.00    0.88190   0.88944   12.259
 4506.00    0.88460   0.88893   12.202
 4507.00    0.89000   0.88852   12.272
 4508.00    0.89922   0.88781   12.511
 4509.00    0.91016   0.88665   12.784
 4510.00    0.91686   0.88606   12.769
 4511.00    0.91382   0.88456   12.487
 4512.00    0.89924   0.88293   12.431
 4513.00    0.87888   0.88186   12.731
 4514.00    0.86531   0.88010   12.901
 4515.00    0.86290   0.87901   12.769
 4516.00    0.86291   0.87734   12.870
 4517.00    0.86071   0.87501   13.382
 4518.00    0.86198   0.87385   13.703
 4519.00    0.86785   0.87189   13.504
 4520.00    0.87045   0.86995   13.284
 4521.00    0.86890   0.86825   13.300
 4522.00    0.87303   0.86548   13.264
 4523.00    0.88332   0.86367   13.068
 4524.00    0.88634   0.86175   12.997
 4525.00    0.87830   0.85938   13.162
 4526.00    0.87106   0.85818   13.352
 4527.00    0.87053   0.85624   13.447
 4528.00    0.87049   0.85456   13.567
 4529.00    0.86878   0.85371   13.760
 4530.00    0.87136   0.85246   13.908
 4531.00    0.87967   0.85265   13.967
 4532.00    0.88740   0.85260   14.027
 4533.00    0.88878   0.85207   14.091
 4534.00    0.88240   0.85256   14.029
 4535.00    0.87219   0.85255   13.820
 4536.00    0.86535   0.85347   13.594
 4537.00    0.86369   0.85442   13.486
 4538.00    0.86276   0.85422   13.573
 4539.00    0.86059   0.85485   13.826
 4540.00    0.85927   0.85525   14.107
 4541.00    0.85897   0.85544   14.256
 4542.00    0.85675   0.85589   14.175
 4543.00    0.85030   0.85521   13.971
 4544.00    0.83946   0.85514   13.862
 4545.00    0.82706   0.85587   13.844
 4546.00    0.81738   0.85513   13.726
 4547.00    0.81059   0.85483   13.546
 4548.00    0.80317   0.85487   13.543
 4549.00    0.79479   0.85453   13.742
 4550.00    0.78875   0.85552    0.000
 4551.00    0.78682   0.85566    0.000
 4552.00    0.78843   0.85555    0.000
 4553.00    0.79275   0.85686    0.000
 4554.00    0.79970   0.85724    0.000
 4555.00    0.81076   0.85822    0.000
 4556.00    0.82758   0.85968    0.000
 4557.00    0.84772   0.85989    0.000
 4558.00    0.86520   0.86108    0.000
 4559.00    0.87513   0.86201    0.000
 4560.00    0.87586   0.86230    0.000
 4561.00    0.87093   0.86329    0.000
 4562.00    0.86644   0.86331    0.000
 4563.00    0.86351   0.86351    0.000
 4564.00    0.86059   0.86415    0.000
 4565.00    0.86310   0.86344    0.000
 4566.00    0.87699   0.86321    0.000
 4567.00    0.88926   0.86351    0.000
 4568.00    0.87964   0.86294    0.000
 4569.00    0.85609   0.86268    0.000
 4570.00    0.84433   0.86214    0.000
 4571.00    0.84835   0.86151    0.000
 4572.00    0.85307   0.86167    0.000
 4573.00    0.84822   0.86076    0.000
 4574.00    0.83407   0.85971    0.000
 4575.00    0.82198   0.85958    0.000
 4576.00    0.82365   0.85902    0.000
 4577.00    0.83069   0.85838    0.000
 4578.00    0.82694   0.85759    0.000
 4579.00    0.81888   0.85669    0.000
 4580.00    0.82435   0.85634    0.000
 4581.00    0.84153   0.85578    0.000
 4582.00    0.85549   0.85501    0.000
 4583.00    0.86025   0.85473    0.000
 4584.00    0.85796   0.85417    0.000
 4585.00    0.85059   0.85332    0.000
 4586.00    0.83904   0.85286    0.000
 4587.00    0.82416   0.85249    0.000
 4588.00    0.80755   0.85225    0.000
 4589.00    0.79245   0.85154    0.000
 4590.00    0.78149   0.85056    0.000
 4591.00    0.77324   0.85041    0.000
 4592.00    0.76673   0.85017    0.000
 4593.00    0.76871   0.84976    0.000
 4594.00    0.78600   0.84922    0.000
 4595.00    0.81287   0.84851    0.000
 4596.00    0.83670   0.84885    0.000
 4597.00    0.84879   0.84895    0.000
 4598.00    0.84652   0.84882    0.000
 4599.00    0.83396   0.84901    0.000
 4600.00    0.81887   0.84909    0.000
 4601.00    0.80844   0.84990    0.000
 4602.00    0.80763   0.85062    0.000
 4603.00    0.81776   0.85101    0.000
 4604.00    0.83610   0.85171    0.000
 4605.00    0.85604   0.85245    0.000
 4606.00    0.87142   0.85354    0.000
 4607.00    0.88173   0.85408    0.000
 4608.00    0.88828   0.85450    0.000
 4609.00    0.88937   0.85546    0.000
 4610.00    0.88385   0.85588    0.000
 4611.00    0.87568   0.85668    0.000
 4612.00    0.87025   0.85679    0.000
 4613.00    0.86977   0.85641    0.000
 4614.00    0.87378   0.85725    0.000
 4615.00    0.88017   0.85726    0.000
 4616.00    0.88439   0.85709    0.000
 4617.00    0.87924   0.85734    0.000
 4618.00    0.86270   0.85666    0.000
 4619.00    0.84491   0.85673    0.000
 4620.00    0.83665   0.85648    0.000
 4621.00    0.83760   0.85573    0.000
 4622.00    0.84095   0.85588    0.000
 4623.00    0.83919   0.85516    0.000
 4624.00    0.82879   0.85412    0.000
 4625.00    0.81375   0.85364    0.000
 4626.00    0.80274   0.85277    0.000
 4627.00    0.80532   0.85168    0.000
 4628.00    0.82333   0.85037    0.000
 4629.00    0.84495   0.84884    0.000
 4630.00    0.85701   0.84782    0.000
 4631.00    0.85562   0.84644    0.000
 4632.00    0.84378   0.84402    0.000
 4633.00    0.82842   0.84208    0.000
 4634.00    0.81726   0.84061    0.000
 4635.00    0.81598   0.83860    0.000
 4636.00    0.82369   0.83641    0.000
 4637.00    0.83132   0.83398    0.000
 4638.00    0.83496   0.83210    0.000
 4639.00    0.84368   0.83062    0.000
 4640.00    0.86219   0.82796    0.000
 4641.00    0.87949   0.82563    0.000
 4642.00    0.88188   0.82434    0.000
 4643.00    0.86353   0.82295    0.000
 4644.00    0.83235   0.82175    0.000
 4645.00    0.81024   0.82040    0.000
 4646.00    0.81118   0.81964    0.000
 4647.00    0.82868   0.81999    0.000
 4648.00    0.85042   0.81965    0.000
 4649.00    0.86789   0.81977    0.000
 4650.00    0.87464   0.82087    0.000
 4651.00    0.86597   0.82211    0.000
 4652.00    0.84571   0.82373    0.000
 4653.00    0.82804   0.82466    0.000
 4654.00    0.82413   0.82600    0.000
 4655.00    0.83453   0.82766    0.000
 4656.00    0.85194   0.82859    0.000
 4657.00    0.86498   0.82972    0.000
 4658.00    0.86923   0.83057    0.000
 4659.00    0.87036   0.83130    0.000
 4660.00    0.86917   0.83154    0.000
 4661.00    0.85670   0.83086    0.000
 4662.00    0.83068   0.83076    0.000
 4663.00    0.80192   0.83037    0.000
 4664.00    0.78239   0.82970    0.000
 4665.00    0.77838   0.82928    0.000
 4666.00    0.78752   0.82843    0.000
 4667.00    0.79939   0.82787    0.000
 4668.00    0.80484   0.82734    0.000
 4669.00    0.80047   0.82667    0.000
 4670.00    0.78882   0.82656    0.000
 4671.00    0.77736   0.82638    0.000
 4672.00    0.77379   0.82607    0.000
 4673.00    0.78345   0.82589    0.000
 4674.00    0.80699   0.82562    0.000
 4675.00    0.83931   0.82532    0.000
 4676.00    0.86905   0.82494    0.000
 4677.00    0.88227   0.82483    0.000
 4678.00    0.87682   0.82466    0.000
 4679.00    0.86389   0.82397    0.000
 4680.00    0.85169   0.82350    0.000
 4681.00    0.84038   0.82313    0.000
 4682.00    0.82724   0.82284    0.000
 4683.00    0.81031   0.82286    0.000
 4684.00    0.79355   0.82216    0.000
 4685.00    0.78575   0.82183    0.000
 4686.00    0.79024   0.82235    0.000
 4687.00    0.80272   0.82201    0.000
 4688.00    0.81615   0.82189    0.000
 4689.00    0.82393   0.82207    0.000
 4690.00    0.82434   0.82167    0.000
 4691.00    0.82076   0.82201    0.000
 4692.00    0.81791   0.82151    0.000
 4693.00    0.81884   0.82041    0.000
 4694.00    0.81991   0.82055    0.000
 4695.00    0.81349   0.81990    0.000
 4696.00    0.80032   0.81889    0.000
 4697.00    0.78917   0.81807    0.000
 4698.00    0.78530   0.81648    0.000
 4699.00    0.78778   0.81581    0.000
 4700.00    0.79173   0.81493    0.000
 4701.00    0.79158   0.81321    0.000
 4702.00    0.78788   0.81277    0.000
 4703.00    0.78550   0.81193    0.000
 4704.00    0.78442   0.81068    0.000
 4705.00    0.78081   0.81072    0.000
 4706.00    0.77580   0.81007    0.000
 4707.00    0.77475   0.80952    0.000
 4708.00    0.78004   0.81006    0.000
 4709.00    0.78906   0.81011    0.000
 4710.00    0.79410   0.81109    0.000
 4711.00    0.78826   0.81196    0.000
 4712.00    0.77876   0.81195    0.000
 4713.00    0.78004   0.81376    0.000
 4714.00    0.79229   0.81545    0.000
 4715.00    0.80456   0.81601    0.000
 4716.00    0.81143   0.81767    0.000
 4717.00    0.81374   0.81910    0.000
 4718.00    0.81230   0.82029    0.000
 4719.00    0.80734   0.82141    0.000
 4720.00    0.80017   0.82179    0.000
 4721.00    0.79298   0.82231    0.000
 4722.00    0.78777   0.82265    0.000
 4723.00    0.78537   0.82263    0.000
 4724.00    0.78409   0.82253    0.000
 4725.00    0.78197   0.82199    0.000
 4726.00    0.78117   0.82159    0.000
 4727.00    0.78582   0.82080    0.000
 4728.00    0.79677   0.82004    0.000
 4729.00    0.81096   0.81982    0.000
 4730.00    0.82197   0.81884    0.000
 4731.00    0.82258   0.81845    0.000
 4732.00    0.80882   0.81862    0.000
 4733.00    0.78256   0.81797    0.000
 4734.00    0.75441   0.81830    0.000
 4735.00    0.73749   0.81832    0.000
 4736.00    0.73728   0.81780    0.000
 4737.00    0.75048   0.81885    0.000
 4738.00    0.76627   0.81903    0.000
 4739.00    0.77410   0.81871    0.000
 4740.00    0.77452   0.81951    0.000
 4741.00    0.77426   0.81958    0.000
 4742.00    0.77700   0.81978    0.000
 4743.00    0.78283   0.82004    0.000
 4744.00    0.78944   0.81952    0.000
 4745.00    0.79313   0.81978    0.000
 4746.00    0.79030   0.81980    0.000
 4747.00    0.78025   0.81895    0.000
 4748.00    0.76837   0.81860    0.000
 4749.00    0.76099   0.81820    0.000
 4750.00    0.75869   0.81731    0.000
 4751.00    0.75843   0.81653    0.000
 4752.00    0.75718   0.81561    0.000
 4753.00    0.75291   0.81444    0.000
 4754.00    0.74529   0.81350    0.000
 4755.00    0.73651   0.81239    0.000
 4756.00    0.73201   0.81105    0.000
 4757.00    0.73774   0.81000    0.000
 4758.00    0.75657   0.80895    0.000
 4759.00    0.78288   0.80786    0.000
 4760.00    0.79857   0.80697    0.000
 4761.00    0.78974   0.80599   12.432
 4762.00    0.76357   0.80518   12.603
 4763.00    0.73704   0.80471   12.705
 4764.00    0.72327   0.80408   12.693
 4765.00    0.72553   0.80368   12.631
 4766.00    0.73395   0.80372   12.666
 4767.00    0.73986   0.80348   12.825
 4768.00    0.74846   0.80357   12.861
 4769.00    0.76596   0.80395   12.627
 4770.00    0.78747   0.80376   12.400
 4771.00    0.80405   0.80389   12.424
 4772.00    0.81013   0.80421   12.585
 4773.00    0.80484   0.80421   12.684
 4774.00    0.79224   0.80409   12.700
 4775.00    0.77776   0.80386   12.690
 4776.00    0.76527   0.80394   12.684
 4777.00    0.75833   0.80361   12.682
 4778.00    0.76105   0.80293   12.661
 4779.00    0.77474   0.80264   12.592
 4780.00    0.79538   0.80211   12.457
 4781.00    0.81491   0.80171   12.299
 4782.00    0.82325   0.80109   12.225
 4783.00    0.81501   0.80052   12.287
 4784.00    0.79403   0.80077   12.410
 4785.00    0.76969   0.80030   12.484
 4786.00    0.75287   0.80003   12.450
 4787.00    0.74720   0.80061   12.355
 4788.00    0.74508   0.80039   12.339
 4789.00    0.74176   0.80065   12.439
 4790.00    0.74293   0.80121   12.490
 4791.00    0.75100   0.80116   12.409
 4792.00    0.75764   0.80181   12.348
 4793.00    0.75671   0.80225   12.417
 4794.00    0.75182   0.80234   12.536
 4795.00    0.75045   0.80269   12.578
 4796.00    0.75901   0.80260   12.485
 4797.00    0.77649   0.80269   12.329
 4798.00    0.79265   0.80258   12.289
 4799.00    0.79867   0.80202   12.392
 4800.00    0.79273   0.80204   12.428
 4801.00    0.77594   0.80169   12.317
 4802.00    0.75023   0.80118   12.258
 4803.00    0.72071   0.80092   12.379
 4804.00    0.69602   0.80019   12.594
 4805.00    0.68357   0.80000   12.741
 4806.00    0.68696   0.79967   12.703
 4807.00    0.70552   0.79879   12.516
 4808.00    0.73402   0.79883   12.368
 4809.00    0.76208   0.79860   12.350
 4810.00    0.77643   0.79804   12.393
 4811.00    0.77291   0.79788   12.455
 4812.00    0.76004   0.79751   12.577
 4813.00    0.74858   0.79747   12.720
 4814.00    0.74533   0.79697   12.727
 4815.00    0.74827   0.79618   12.589
 4816.00    0.74779   0.79623   12.494
 4817.00    0.74132   0.79573   12.543
 4818.00    0.73683   0.79498   12.674
 4819.00    0.74037   0.79428   12.801
 4820.00    0.75093   0.79342   12.878
 4821.00    0.76158   0.79314   12.920
 4822.00    0.76305   0.79190   12.978
 4823.00    0.75489   0.79051   13.036
 4824.00    0.74656   0.79036   13.003
 4825.00    0.74454   0.78931   12.885
 4826.00    0.74843   0.78816   12.788
 4827.00    0.75534   0.78743   12.748
 4828.00    0.76187   0.78628   12.715
 4829.00    0.76514   0.78583   12.691
 4830.00    0.76377   0.78487   12.739
 4831.00    0.76002   0.78319   12.828
 4832.00    0.75818   0.78287   12.840
 4833.00    0.75682   0.78218   12.774
 4834.00    0.74962   0.78034   12.756
 4835.00    0.73595   0.77930   12.823
 4836.00    0.72221   0.77834   12.903
 4837.00    0.71475   0.77671   12.952
 4838.00    0.71647   0.77492   12.970
 4839.00    0.72369   0.77260   12.930
 4840.00    0.72804   0.77043   12.802
 4841.00    0.72479   0.76828   12.682
 4842.00    0.71550   0.76455   12.720
 4843.00    0.70840   0.76085   12.855
 4844.00    0.71311   0.75749   12.854
 4845.00    0.72645   0.75238   12.673
 4846.00    0.73484   0.74669   12.472
 4847.00    0.73101   0.74087   12.373
 4848.00    0.71675   0.73387    0.000
 4849.00    0.69819   0.72641    0.000
 4850.00    0.68237   0.71847    0.000
 4851.00    0.67200   0.70943    0.000
 4852.00    0.66566   0.70048    0.000
 4853.00    0.66150   0.69192    0.000
 4854.00    0.66263   0.68283    0.000
 4855.00    0.68686   0.67443    0.000
 4856.00    0.76621   0.66730    0.000
 4857.00    0.93959   0.66017    0.000
 4858.00    1.23170   0.65487    0.000
 4859.00    1.61162   0.65117    0.000
 4860.00    1.99597   0.64768    0.000
 4861.00    2.27628   0.64762    0.000
 4862.00    2.35525   0.64954    0.000
 4863.00    2.20745   0.65099    0.000
 4864.00    1.88213   0.65556    0.000
 4865.00    1.48212   0.66211    0.000
 4866.00    1.12361   0.66798    0.000
 4867.00    0.86850   0.67516    0.000
 4868.00    0.72242   0.68330    0.000
 4869.00    0.65669   0.69104    0.000
 4870.00    0.63019   0.69865    0.000
 4871.00    0.62050   0.70614    0.000
 4872.00    0.62135   0.71366    0.000
 4873.00    0.62809   0.72065    0.000
 4874.00    0.63668   0.72646    0.000
 4875.00    0.64612   0.73222   12.865
 4876.00    0.65635   0.73756   12.923
 4877.00    0.66413   0.74132   12.850
 4878.00    0.66707   0.74506   12.663
 4879.00    0.67049   0.74859   12.515
 4880.00    0.68063   0.75076   12.532
 4881.00    0.69280   0.75292   12.607
 4882.00    0.69792   0.75497   12.585
 4883.00    0.69482   0.75653   12.580
 4884.00    0.68851   0.75785   12.763
 4885.00    0.68486   0.75904   13.008
 4886.00    0.68796   0.76066   13.082
 4887.00    0.69758   0.76169   13.041
 4888.00    0.70909   0.76282   13.060
 4889.00    0.71432   0.76468   13.093
 4890.00    0.70704   0.76546   13.028
 4891.00    0.69005   0.76698   12.931
 4892.00    0.67274   0.76903   12.923
 4893.00    0.66650   0.76974   12.986
 4894.00    0.67891   0.77145   13.025
 4895.00    0.70729   0.77300   12.964
 4896.00    0.74018   0.77348   12.809
 4897.00    0.76072   0.77497   12.678
 4898.00    0.75769   0.77548   12.684
 4899.00    0.73705   0.77529   12.812
 4900.00    0.71310   0.77621   12.964
 4901.00    0.69665   0.77603   13.028
 4902.00    0.69155   0.77524   12.960
 4903.00    0.69299   0.77516   12.860
 4904.00    0.69537   0.77458   12.841
 4905.00    0.70030   0.77364   12.905
 4906.00    0.70916   0.77228   13.006
 4907.00    0.71534   0.77102   13.113
 4908.00    0.71286   0.76996   13.196
 4909.00    0.70526   0.76747   13.204
 4910.00    0.70000   0.76551   13.119
 4911.00    0.70213   0.76427   12.999
 4912.00    0.71277   0.76143   12.909
 4913.00    0.72854   0.75904   12.868
 4914.00    0.74491   0.75751   12.841
 4915.00    0.75914   0.75493   12.756
 4916.00    0.76911   0.75299   12.610
 4917.00    0.77207   0.75130   12.529
 4918.00    0.76507   0.74934   12.569
 4919.00    0.74584   0.74892   12.591
 4920.00    0.71691   0.74775   12.614
 4921.00    0.68816   0.74675   13.066
 4922.00    0.67061   0.74834   14.129
 4923.00    0.67060   0.74875   14.980
 4924.00    0.68597   0.74865   14.775
 4925.00    0.70478   0.75156   14.167
 4926.00    0.71796   0.75306   13.869
 4927.00    0.72762   0.75341   13.751
 4928.00    0.73734   0.75634   13.574
 4929.00    0.74497   0.75773   13.424
 4930.00    0.74552   0.75819   13.431
 4931.00    0.73454   0.76045   13.604
 4932.00    0.71510   0.76101   13.913
 4933.00    0.70026   0.76117   14.318
 4934.00    0.69845   0.76283   14.543
 4935.00    0.70505   0.76295   14.052
 4936.00    0.71355   0.76297   13.014
 4937.00    0.72247   0.76412   12.301
 4938.00    0.73122   0.76412   12.183
 4939.00    0.73738   0.76444   12.198
 4940.00    0.73839   0.76558    0.000
 4941.00    0.73318   0.76549    0.000
 4942.00    0.72585   0.76591    0.000
 4943.00    0.72582   0.76719    0.000
 4944.00    0.73687   0.76727    0.000
 4945.00    0.75274   0.76724    0.000
 4946.00    0.76801   0.76795    0.000
 4947.00    0.78307   0.76811    0.000
 4948.00    0.79745   0.76765    0.000
 4949.00    0.80665   0.76756    0.000
 4950.00    0.80513   0.76729    0.000
 4951.00    0.79002   0.76640    0.000
 4952.00    0.77130   0.76576    0.000
 4953.00    0.77574   0.76478    0.000
 4954.00    0.84065   0.76371    0.000
 4955.00    1.00275   0.76323    0.000
 4956.00    1.26145   0.76167    0.000
 4957.00    1.56565   0.76049    0.000
 4958.00    1.83370   0.76057    0.000
 4959.00    1.97544   0.75940    0.000
 4960.00    1.94557   0.75844    0.000
 4961.00    1.76269   0.75842    0.000
 4962.00    1.48840   0.75807    0.000
 4963.00    1.20638   0.75769    0.000
 4964.00    0.97706   0.75715    0.000
 4965.00    0.82144   0.75711    0.000
 4966.00    0.73311   0.75712    0.000
 4967.00    0.68912   0.75638    0.000
 4968.00    0.67085   0.75634    0.000
 4969.00    0.66939   0.75618    0.000
 4970.00    0.67462   0.75538    0.000
 4971.00    0.67441   0.75508    0.000
 4972.00    0.66689   0.75436    0.000
 4973.00    0.66194   0.75348    0.000
 4974.00    0.67048   0.75273    0.000
 4975.00    0.69846   0.75140    0.000
 4976.00    0.74003   0.75033    0.000
 4977.00    0.77865   0.74927    0.000
 4978.00    0.79800   0.74762    0.000
 4979.00    0.78848   0.74648    0.000
 4980.00    0.75538   0.74566    0.000
 4981.00    0.71716   0.74406    0.000
 4982.00    0.69184   0.74298    0.000
 4983.00    0.69007   0.74284    0.000
 4984.00    0.70777   0.74168    0.000
 4985.00    0.72901   0.74084    0.000
 4986.00    0.74047   0.74119    0.000
 4987.00    0.73693   0.74036    0.000
 4988.00    0.72440   0.73998    0.000
 4989.00    0.71521   0.74025    0.000
 4990.00    0.71300   0.73912    0.000
 4991.00    0.71273   0.73902    0.000
 4992.00    0.71156   0.73888    0.000
 4993.00    0.71008   0.73723    0.000
 4994.00    0.70785   0.73703    0.000
 4995.00    0.70415   0.73633    0.000
 4996.00    0.70240   0.73440    0.000
 4997.00    0.70779   0.73366    0.000
 4998.00    0.71912   0.73240    0.000
 4999.00    0.73407   0.73055    0.000
 5000.00    0.76594   0.72917    0.000
 5001.00    0.85868   0.72760    0.000
 5002.00    1.10934   0.72619    0.000
 5003.00    1.61877   0.72447    0.000
 5004.00    2.37609   0.72299    0.000
 5005.00    3.24590   0.72175    0.000
 5006.00    3.99778   0.72004    0.000
 5007.00    4.38602   0.71918    0.000
 5008.00    4.29545   0.71785    0.000
 5009.00    3.76366   0.71638    0.000
 5010.00    2.96206   0.71634    0.000
 5011.00    2.13016   0.71506    0.000
 5012.00    1.45839   0.71415    0.000
 5013.00    1.04360   0.71485    0.000
 5014.00    0.85256   0.71377    0.000
 5015.00    0.77751   0.71366    0.000
 5016.00    0.74632   0.71529    0.000
 5017.00    0.72929   0.71498    0.000
 5018.00    0.71578   0.71531    0.000
 5019.00    0.70502   0.71760    0.000
 5020.00    0.69761   0.71826    0.000
 5021.00    0.69300   0.71864    0.000
 5022.00    0.68801   0.72090    0.000
 5023.00    0.67953   0.72195    0.000
 5024.00    0.66913   0.72233    0.000
 5025.00    0.66065   0.72422    0.000
 5026.00    0.65553   0.72478    0.000
 5027.00    0.65383   0.72497    0.000
 5028.00    0.65688   0.72629    0.000
 5029.00    0.66675   0.72598   13.627
 5030.00    0.68473   0.72586   13.661
 5031.00    0.70845   0.72625   13.683
 5032.00    0.72836   0.72521   13.645
 5033.00    0.73397   0.72505   13.570
 5034.00    0.72273   0.72439   13.567
 5035.00    0.70066   0.72286   13.711
 5036.00    0.68109   0.72297   13.889
 5037.00    0.67516   0.72175   13.951
 5038.00    0.68051   0.72037   13.934
 5039.00    0.68860   0.72083   13.952
 5040.00    0.69528   0.71947   14.021
 5041.00    0.70139   0.71887   14.097
 5042.00    0.71150   0.72002   14.147
 5043.00    0.72649   0.71887   14.141
 5044.00    0.73611   0.71884   14.029
 5045.00    0.73012   0.72064   13.837
 5046.00    0.71139   0.72016   13.730
 5047.00    0.69111   0.72030   13.785
 5048.00    0.68152   0.72207   13.786
 5049.00    0.68902   0.72233   13.575
 5050.00    0.70826   0.72264   13.420
 5051.00    0.72876   0.72407   13.549
 5052.00    0.74239   0.72461   13.747
 5053.00    0.74477   0.72520   13.758
 5054.00    0.73596   0.72621   13.745
 5055.00    0.72174   0.72630   13.906
 5056.00    0.71374   0.72682   14.092
 5057.00    0.71903   0.72752   14.130
 5058.00    0.73156   0.72693   14.170
 5059.00    0.74269   0.72700   14.335
 5060.00    0.75083   0.72725   14.402
 5061.00    0.75717   0.72610   14.228
 5062.00    0.76125   0.72579   14.100
 5063.00    0.76128   0.72537   14.231
 5064.00    0.75525   0.72378   14.394
 5065.00    0.74465   0.72326   14.362
 5066.00    0.73656   0.72257   14.295
 5067.00    0.73467   0.72079   14.364
 5068.00    0.73326   0.71998   14.477
 5069.00    0.72671   0.71937   14.495
 5070.00    0.71678   0.71790   14.431
 5071.00    0.70813   0.71681   14.394
 5072.00    0.70440   0.71609   14.508
 5073.00    0.70647   0.71515   14.760
 5074.00    0.71197   0.71428   14.899
 5075.00    0.71915   0.71334   14.768
 5076.00    0.72877   0.71275   14.539
 5077.00    0.73843   0.71260   14.409
 5078.00    0.73997   0.71171   14.417
 5079.00    0.72948   0.71123   14.485
 5080.00    0.71298   0.71175   14.476
 5081.00    0.69955   0.71140   14.379
 5082.00    0.69597   0.71109   14.379
 5083.00    0.70250   0.71182   14.526
 5084.00    0.71169   0.71208   14.596
 5085.00    0.71596   0.71212   14.497
 5086.00    0.71265   0.71262   14.471
 5087.00    0.70519   0.71294   14.635
 5088.00    0.70213   0.71317   14.785
 5089.00    0.70829   0.71331   14.772
 5090.00    0.72039   0.71327   14.704
 5091.00    0.73132   0.71332   14.696
 5092.00    0.73382   0.71303   14.739
 5093.00    0.72695   0.71265   14.789
 5094.00    0.71770   0.71230   14.808
 5095.00    0.71202   0.71153   14.755
 5096.00    0.71015   0.71103   14.598
 5097.00    0.70759   0.71042   14.418
 5098.00    0.69791   0.70931   14.383
 5099.00    0.68337   0.70895   14.484
 5100.00    0.67615   0.70832   14.494
 5101.00    0.68038   0.70733   14.370
 5102.00    0.68712   0.70730   14.343
 5103.00    0.69000   0.70663   14.481
 5104.00    0.69077   0.70612   14.574
 5105.00    0.69151   0.70654   14.512
 5106.00    0.69178   0.70570   14.410
 5107.00    0.69156   0.70566   14.371
 5108.00    0.69206   0.70647   14.388
 5109.00    0.69359   0.70554   14.391
 5110.00    0.69501   0.70577   14.288
 5111.00    0.69485   0.70658   14.092
 5112.00    0.69251   0.70556   13.919
 5113.00    0.69079   0.70575   13.794
 5114.00    0.69476   0.70607   13.638
 5115.00    0.70408   0.70496   13.414
 5116.00    0.71255   0.70482   13.162
 5117.00    0.71685   0.70435   12.963
 5118.00    0.71872   0.70318   12.900
 5119.00    0.72134   0.70266   12.976
 5120.00    0.72655   0.70149   13.126
 5121.00    0.73031   0.70042   13.330
 5122.00    0.72468   0.69973   13.615
 5123.00    0.70937   0.69817   13.906
 5124.00    0.69184   0.69744   14.044
 5125.00    0.67586   0.69704   14.057
 5126.00    0.66050   0.69546   14.152
 5127.00    0.64844   0.69507   14.372
 5128.00    0.64593   0.69529   14.578
 5129.00    0.65514   0.69384   14.713
 5130.00    0.67246   0.69360   14.841
 5131.00    0.69054   0.69441   14.961
 5132.00    0.70161   0.69295   15.003
 5133.00    0.70466   0.69262   14.996
 5134.00    0.70402   0.69389   15.055
 5135.00    0.70033   0.69217   15.191
 5136.00    0.69078   0.69153   15.304
 5137.00    0.67644   0.69303   15.285
 5138.00    0.66267   0.69096   15.108
 5139.00    0.65546   0.69014   14.929
 5140.00    0.65873   0.69166   14.940
 5141.00    0.67028   0.68938   15.013
 5142.00    0.68354   0.68861   14.860
 5143.00    0.69400   0.69008   14.603
 5144.00    0.70057   0.68802   14.597
 5145.00    0.70500   0.68750   14.845
 5146.00    0.70921   0.68868   15.077
 5147.00    0.70988   0.68712   15.216
 5148.00    0.70209   0.68714   15.351
 5149.00    0.68959   0.68787   15.376
 5150.00    0.68106   0.68670   15.116
 5151.00    0.67804   0.68716   14.753
 5152.00    0.67611   0.68731   14.606
 5153.00    0.67233   0.68627   14.676
 5154.00    0.66732   0.68665   14.771
 5155.00    0.66617   0.68598   14.853
 5156.00    0.67344   0.68472   14.963
 5157.00    0.68387   0.68463   14.925
 5158.00    0.68840   0.68288   14.502
 5159.00    0.68813   0.68104   13.770
 5160.00    0.68958   0.68028   12.989
 5161.00    0.69197   0.67760   12.320
 5162.00    0.69088   0.67516   11.858
 5163.00    0.68824   0.67385   11.722
 5164.00    0.68790   0.67100   11.995
 5165.00    0.68603   0.66840   12.583
 5166.00    0.67667   0.66698   13.250
 5167.00    0.66298   0.66482   13.813
 5168.00    0.65294   0.66272   14.205
 5169.00    0.64966   0.66176   14.470
 5170.00    0.65201   0.66078   14.700
 5171.00    0.65759   0.65958   14.911
 5172.00    0.66360   0.65937   15.062
 5173.00    0.66750   0.65956   15.124
 5174.00    0.66818   0.65926   15.087
 5175.00    0.66750   0.65949   14.963
 5176.00    0.66820   0.66019   14.802
 5177.00    0.67091   0.66084   14.711
 5178.00    0.67387   0.66156   14.743
 5179.00    0.67346   0.66197   14.787
 5180.00    0.66667   0.66306   14.727
 5181.00    0.65436   0.66431   14.681
 5182.00    0.64124   0.66434   14.780
 5183.00    0.63497   0.66565   14.875
 5184.00    0.64093   0.66737   14.761
 5185.00    0.65637   0.66718   14.497
 5186.00    0.67361   0.66867   14.269
 5187.00    0.68502   0.67060   14.189
 5188.00    0.68614   0.67037   14.286
 5189.00    0.67841   0.67204   14.501
 5190.00    0.66666   0.67373    0.000
 5191.00    0.65593   0.67310    0.000
 5192.00    0.65074   0.67457    0.000
 5193.00    0.65446   0.67605    0.000
 5194.00    0.66658   0.67500    0.000
 5195.00    0.68060   0.67571    0.000
 5196.00    0.69111   0.67684    0.000
 5197.00    0.70065   0.67571    0.000
 5198.00    0.71296   0.67549    0.000
 5199.00    0.72615   0.67609    0.000
 5200.00    0.73637   0.67519    0.000
 5201.00    0.74174   0.67429    0.000
 5202.00    0.73983   0.67458    0.000
 5203.00    0.72586   0.67427    0.000
 5204.00    0.69931   0.67319    0.000
 5205.00    0.66910   0.67356    0.000
 5206.00    0.64485   0.67417    0.000
 5207.00    0.62938   0.67353    0.000
 5208.00    0.62146   0.67417    0.000
 5209.00    0.61918   0.67566    0.000
 5210.00    0.62299   0.67583    0.000
 5211.00    0.63712   0.67672   15.215
 5212.00    0.66142   0.67858   15.075
 5213.00    0.68610   0.67933   14.798
 5214.00    0.70096   0.68016   14.605
 5215.00    0.70293   0.68185   14.540
 5216.00    0.69621   0.68261   14.544
 5217.00    0.69090   0.68294   14.534
 5218.00    0.69433   0.68418   14.456
 5219.00    0.70522   0.68458   14.333
 5220.00    0.71676   0.68426   14.214
 5221.00    0.72010   0.68525   14.142
 5222.00    0.71117   0.68535   14.176
 5223.00    0.69436   0.68442   14.385
 5224.00    0.67631   0.68545   14.754
 5225.00    0.66171   0.68565   15.119
 5226.00    0.65342   0.68448   15.316
 5227.00    0.65246   0.68579   15.324
 5228.00    0.65678   0.68645   15.223
 5229.00    0.66105   0.68548   15.128
 5230.00    0.66031   0.68710   15.143
 5231.00    0.65257   0.68826   15.326
 5232.00    0.64102   0.68780   15.608
 5233.00    0.63384   0.68932   15.771
 5234.00    0.63627   0.69049   15.705
 5235.00    0.64671   0.69049   15.539
 5236.00    0.65935   0.69153   15.387
 5237.00    0.66720   0.69227   15.239
 5238.00    0.66907   0.69263   15.086
 5239.00    0.67114   0.69299   14.971
 5240.00    0.67626   0.69294   14.912
 5241.00    0.68037   0.69331   14.891
 5242.00    0.68178   0.69299   14.924
 5243.00    0.68450   0.69214   15.066
 5244.00    0.69131   0.69244   15.285
 5245.00    0.70079   0.69173   15.418
 5246.00    0.70929   0.69028   15.358
 5247.00    0.71287   0.69042   15.153
 5248.00    0.71138   0.68963   14.941
 5249.00    0.70881   0.68789   14.871
 5250.00    0.70714   0.68766   14.944
 5251.00    0.70435   0.68687   15.007
 5252.00    0.69734   0.68522   14.996
 5253.00    0.68431   0.68435   15.003
 5254.00    0.66862   0.68327   15.068
 5255.00    0.65793   0.68183   15.123
 5256.00    0.65495   0.68015   15.114
 5257.00    0.65577   0.67856   15.049
 5258.00    0.65773   0.67732   14.953
 5259.00    0.66117   0.67489   14.861
 5260.00    0.66411   0.67298   14.822
 5261.00    0.66161   0.67223   14.881
 5262.00    0.64994   0.66937   14.996
 5263.00    0.62964   0.66750   15.055
 5264.00    0.61013   0.66781   15.035
 5265.00    0.60532   0.66523   15.023
 5266.00    0.61440   0.66385   15.035
 5267.00    0.62251   0.66565   15.004
 5268.00    0.62392   0.66407   14.922
 5269.00    0.62490   0.66344   14.845
 5270.00    0.62898   0.66672   14.784
 5271.00    0.63395   0.66643   14.699
 5272.00    0.63711   0.66648   14.602
 5273.00    0.63765   0.67061   14.545
 5274.00    0.63857   0.67149   14.531
 5275.00    0.64412   0.67207   14.522
 5276.00    0.65128   0.67622   14.547
 5277.00    0.65267   0.67764   14.663
 5278.00    0.65063   0.67855   14.803
 5279.00    0.65477   0.68212   14.814
 5280.00    0.66516   0.68346   14.720
 5281.00    0.67331   0.68443   14.681
 5282.00    0.67616   0.68711   14.729
 5283.00    0.67729   0.68798   14.768
 5284.00    0.68050   0.68875   14.755
 5285.00    0.68732   0.69044   14.726
 5286.00    0.69492   0.69070   14.741
 5287.00    0.69808   0.69106   14.840
 5288.00    0.69478   0.69181   14.954
 5289.00    0.68682   0.69158   14.961
 5290.00    0.67822   0.69148   14.876
 5291.00    0.67281   0.69146   14.812
 5292.00    0.67024   0.69100   14.809
 5293.00    0.66739   0.69069   14.828
 5294.00    0.66340   0.69020   14.793
 5295.00    0.65995   0.68988   14.668
 5296.00    0.65962   0.68979   14.562
 5297.00    0.66409   0.68924   14.602
 5298.00    0.67122   0.68933   14.684
 5299.00    0.67693   0.68974   14.607
 5300.00    0.67969   0.68943   14.462
 5301.00    0.67983   0.68994   14.461
 5302.00    0.67663   0.69084   14.547
 5303.00    0.66880   0.69073   14.502
 5304.00    0.65632   0.69138   14.299
 5305.00    0.64166   0.69250   14.027
 5306.00    0.63110   0.69233   13.649
 5307.00    0.63127   0.69268   13.089
 5308.00    0.64302   0.69356   12.386
 5309.00    0.66162   0.69305   11.678
 5310.00    0.67898   0.69278   11.147
 5311.00    0.68804   0.69308   10.891
 5312.00    0.68907   0.69201   10.818
 5313.00    0.68809   0.69108   10.765
 5314.00    0.69268   0.69063   10.654
 5315.00    0.70647   0.68898   10.491
 5316.00    0.72237   0.68759   10.315
 5317.00    0.73074   0.68647   10.179
 5318.00    0.73234   0.68438   10.141
 5319.00    0.73377   0.68292   10.221
 5320.00    0.73850   0.68145   10.342
 5321.00    0.74534   0.67918   10.421
 5322.00    0.74850   0.67808   10.513
 5323.00    0.74266   0.67673   10.710
 5324.00    0.72950   0.67461   10.967
 5325.00    0.71305   0.67419   11.184
 5326.00    0.69313   0.67341   11.364
 5327.00    0.67062   0.67174   11.558
 5328.00    0.65439   0.67209   11.757
 5329.00    0.65385   0.67206   11.908
 5330.00    0.66912   0.67092   11.976
 5331.00    0.69246   0.67188   11.977
 5332.00    0.71189   0.67247   12.000
 5333.00    0.71827   0.67168   12.108
 5334.00    0.71255   0.67298   12.234
 5335.00    0.70038   0.67391   12.275
 5336.00    0.68557   0.67320   12.230
 5337.00    0.67081   0.67459   12.168
 5338.00    0.65926   0.67568   12.168
 5339.00    0.65414   0.67493   12.247
 5340.00    0.65796   0.67631   12.305
 5341.00    0.66964   0.67757   12.248
 5342.00    0.68212   0.67690   12.130
 5343.00    0.68730   0.67826   12.056
 5344.00    0.68127   0.67979   12.083
 5345.00    0.66720   0.67945   12.198
 5346.00    0.65666   0.68073   12.302
 5347.00    0.65981   0.68252   12.332
 5348.00    0.67646   0.68262   12.371
 5349.00    0.69793   0.68365   12.494
 5350.00    0.71051   0.68548   12.632
 5351.00    0.70553   0.68587   12.724
 5352.00    0.68719   0.68638   12.849
 5353.00    0.66635   0.68790   13.058
 5354.00    0.65429   0.68822   13.233
 5355.00    0.65755   0.68793   13.279
 5356.00    0.67442   0.68884   13.303
 5357.00    0.69741   0.68878   13.403
 5358.00    0.71597   0.68761   13.518
 5359.00    0.72185   0.68785   13.573
 5360.00    0.71318   0.68731   13.609
 5361.00    0.69631   0.68546   13.660
 5362.00    0.68501   0.68525   13.677
 5363.00    0.68583   0.68445   13.629
 5364.00    0.68972   0.68233   13.566
 5365.00    0.68592   0.68207   13.564
 5366.00    0.67182   0.68143   13.666
 5367.00    0.65128   0.67945   13.848
 5368.00    0.63223   0.67948   13.996
 5369.00    0.62081   0.67942   14.030
 5370.00    0.61810   0.67789   13.993
 5371.00    0.62306   0.67828   13.946
 5372.00    0.63453   0.67883   13.910
 5373.00    0.65093   0.67771   13.864
 5374.00    0.67016   0.67826   13.761
 5375.00    0.68975   0.67923   13.596
 5376.00    0.70700   0.67834   13.428
 5377.00    0.71846   0.67864   13.293
 5378.00    0.72030   0.67962   13.170
 5379.00    0.71132   0.67875   13.070
 5380.00    0.69471   0.67844   13.056
 5381.00    0.67822   0.67903   13.114
 5382.00    0.67206   0.67810   13.124
 5383.00    0.67753   0.67707   13.073
 5384.00    0.68412   0.67694   13.108
 5385.00    0.68414   0.67603   13.256
 5386.00    0.67887   0.67442   13.338
 5387.00    0.67136   0.67343   13.318
 5388.00    0.66285   0.67266   13.398
 5389.00    0.65306   0.67088   13.606
 5390.00    0.64119   0.66905   13.683
 5391.00    0.62893   0.66846   13.566
 5392.00    0.62116   0.66696   13.522
 5393.00    0.62257   0.66451   13.652
 5394.00    0.63525   0.66399   13.771
 5395.00    0.65501   0.66314   13.750
 5396.00    0.67183   0.66050   13.654
 5397.00    0.67808   0.65989   13.586
 5398.00    0.67222   0.65974   13.605
 5399.00    0.65984   0.65745   13.680
 5400.00    0.65140   0.65678   13.711
 5401.00    0.65222   0.65718   13.676
 5402.00    0.65966   0.65562   13.648
 5403.00    0.66723   0.65515   13.632
 5404.00    0.66835   0.65602   13.562
 5405.00    0.66340   0.65538   13.479
 5406.00    0.65951   0.65538   13.525
 5407.00    0.66060   0.65665   13.688
 5408.00    0.66543   0.65689   13.785
 5409.00    0.67297   0.65751   13.739
 5410.00    0.68314   0.65893   13.640
 5411.00    0.69322   0.65972   13.585
 5412.00    0.69822   0.66097   13.610
 5413.00    0.69619   0.66223   13.640
 5414.00    0.68771   0.66301   13.562
 5415.00    0.66923   0.66457   13.467
 5416.00    0.63477   0.66530   -2.000
 5417.00    0.58701   0.66565   -2.000
 5418.00    0.54077   0.66719   -2.000
 5419.00    0.52294   0.66712   -2.000
 5420.00    0.56275   0.66682   -2.000
 5421.00    0.66564   0.66817   -2.000
 5422.00    0.80875   0.66727   -2.000
 5423.00    0.94943   0.66641   -2.000
 5424.00    1.03970   0.66760   -2.000
 5425.00    1.05692   0.66606   -2.000
 5426.00    1.00816   0.66495   -2.000
 5427.00    0.92009   0.66623   -2.000
 5428.00    0.82811   0.66448   -2.000
 5429.00    0.75688   0.66335   -2.000
 5430.00    0.71500   0.66479   -2.000
 5431.00    0.69484   0.66350   12.636
 5432.00    0.68013   0.66265   12.969
 5433.00    0.66341   0.66398   12.978
 5434.00    0.64733   0.66333   13.077
 5435.00    0.63843   0.66293   13.353
 5436.00    0.64252   0.66394   13.579
 5437.00    0.65828   0.66371   13.660
 5438.00    0.67799   0.66363   13.667
 5439.00    0.69211   0.66408   13.649
 5440.00    0.69353   0.66383   13.615
 5441.00    0.68375   0.66388   13.599
 5442.00    0.67093   0.66371   13.616
 5443.00    0.66315   0.66315   13.571
 5444.00    0.66485   0.66323   13.373
 5445.00    0.67252   0.66258   13.195
 5446.00    0.67780   0.66168   13.266
 5447.00    0.67460   0.66177   13.491
 5448.00    0.66124   0.66106   13.627
 5449.00    0.64171   0.66011   13.734
 5450.00    0.62401   0.66012   14.000
 5451.00    0.61663   0.65950   14.238
 5452.00    0.62399   0.65873   14.137
 5453.00    0.64020   0.65869   13.917
 5454.00    0.65427   0.65835   13.982
 5455.00    0.66022   0.65792   14.260
 5456.00    0.65781   0.65770   14.423
 5457.00    0.65080   0.65776   14.407
 5458.00    0.64317   0.65781   14.352
 5459.00    0.63398   0.65714   14.335
 5460.00    0.62235   0.65716   14.362
 5461.00    0.61567   0.65769   14.426
 5462.00    0.62335   0.65673   14.505
 5463.00    0.64620   0.65630   14.551
 5464.00    0.67703   0.65713   14.512
 5465.00    0.70371   0.65629   14.379
 5466.00    0.71569   0.65508   14.239
 5467.00    0.71182   0.65573   14.302
 5468.00    0.69633   0.65547   14.564
 5469.00    0.67232   0.65367   14.364
 5470.00    0.64300   0.65371   13.366
 5471.00    0.61429   0.65418   12.525
 5472.00    0.59445   0.65242   12.448
 5473.00    0.59250   0.65178   12.485
 5474.00    0.61014   0.65274   11.993
 5475.00    0.63333   0.65171   11.739
 5476.00    0.64573   0.65072   12.516
 5477.00    0.64501   0.65157   13.901
 5478.00    0.63893   0.65169   14.681
 5479.00    0.63837   0.65107   14.664
 5480.00    0.64854   0.65125   14.545
 5481.00    0.66127   0.65204   14.610
 5482.00    0.66637   0.65222   14.787
 5483.00    0.66399   0.65187   14.869
 5484.00    0.66016   0.65278   14.745
 5485.00    0.66077   0.65372   14.593
 5486.00    0.66827   0.65289   14.581
 5487.00    0.67925   0.65331   14.602
 5488.00    0.68698   0.65475   14.556
 5489.00    0.68479   0.65389   14.602
 5490.00    0.67321   0.65356   14.845
 5491.00    0.66482   0.65498   15.042
 5492.00    0.67021   0.65435   14.929
 5493.00    0.68552   0.65330   14.586
 5494.00    0.69962   0.65421   14.279
 5495.00    0.70199   0.65405   14.248
 5496.00    0.68971   0.65255   14.541
 5497.00    0.67156   0.65266   14.878
 5498.00    0.65573   0.65294   14.968
 5499.00    0.64083   0.65143   14.852
 5500.00    0.62627   0.65089   14.695
 5501.00    0.61984   0.65127   14.569
 5502.00    0.62651   0.64987   14.469
 5503.00    0.64049   0.64919   14.344
 5504.00    0.65368   0.64978   14.199
 5505.00    0.66248   0.64850   14.137
 5506.00    0.66747   0.64778   14.211
 5507.00    0.67217   0.64866   14.345
 5508.00    0.67737   0.64780   14.460
 5509.00    0.67829   0.64730   14.567
 5510.00    0.67211   0.64819   14.674
 5511.00    0.66266   0.64780   14.725
 5512.00    0.65565   0.64757   14.718
 5513.00    0.65501   0.64843   14.760
 5514.00    0.66027   0.64856   14.888
 5515.00    0.66626   0.64856   14.982
 5516.00    0.67088   0.64923   14.956
 5517.00    0.67866   0.64967   14.872
 5518.00    0.69281   0.64968   14.793
 5519.00    0.71063   0.65014   14.706
 5520.00    0.72598   0.65059   14.623
 5521.00    0.73184   0.65034   14.612
 5522.00    0.72619   0.65063   14.653
 5523.00    0.71395   0.65115   14.602
 5524.00    0.69957   0.65057   14.421
 5525.00    0.68372   0.65063   14.268
 5526.00    0.66731   0.65127   14.268
 5527.00    0.65404   0.65056   -2.000
 5528.00    0.65121   0.65038   -2.000
 5529.00    0.66476   0.65130   -2.000
 5530.00    0.67291   0.65094   -2.000
 5531.00    0.63271   0.65050   -2.000
 5532.00    0.57225   0.65142   -2.000
 5533.00    0.60977   0.65149   -2.000
 5534.00    0.83425   0.65106   -2.000
 5535.00    1.21110   0.65188   -2.000
 5536.00    1.42380   0.65230   -2.000
 5537.00    1.00816   0.65210   -2.000
 5538.00    0.22053   0.65273   -2.000
 5539.00    0.05512   0.65313   -2.000
 5540.00    0.72464   0.65324   -2.000
 5541.00    1.36065   0.65376   -2.000
 5542.00    1.45713   0.65381   -2.000
 5543.00    1.28236   0.65397   -2.000
 5544.00    1.09775   0.65453   -2.000
 5545.00    0.90550   0.65432   -2.000
 5546.00    0.71969   0.65426   -2.000
 5547.00    0.63139   0.65472   -2.000
 5548.00    0.64712   0.65443   -2.000
 5549.00    0.67077   0.65405   -2.000
 5550.00    0.65905   0.65409   -2.000
 5551.00    0.65003   0.65380   15.384
 5552.00    0.66299   0.65318   15.083
 5553.00    0.67658   0.65266   14.780
 5554.00    0.67623   0.65238   14.788
 5555.00    0.66636   0.65175   15.007
 5556.00    0.65534   0.65070   15.259
 5557.00    0.64969   0.65044   15.392
 5558.00    0.65203   0.64989   15.337
 5559.00    0.66076   0.64843   15.134
 5560.00    0.67065   0.64831   14.911
 5561.00    0.67514   0.64796   14.812
 5562.00    0.67208   0.64616   14.879
 5563.00    0.66435   0.64612   15.052
 5564.00    0.65638   0.64634   15.235
 5565.00    0.65221   0.64440   15.333
 5566.00    0.65298   0.64411   15.314
 5567.00    0.65698   0.64512   15.221
 5568.00    0.66150   0.64335   15.117
 5569.00    0.66367   0.64243   15.068
 5570.00    0.66110   0.64409   15.126
 5571.00    0.65329   0.64279   15.307
 5572.00    0.64461   0.64106   15.513
 5573.00    0.64203   0.64276   15.576
 5574.00    0.64771   0.64208   15.439
 5575.00    0.65888   0.63984   15.177
 5576.00    0.67194   0.64097   14.882
 5577.00    0.68417   0.64057   14.616
 5578.00    0.69537   0.63819   14.381
 5579.00    0.70575   0.63858   14.170
 5580.00    0.71079   0.63823   14.069
 5581.00    0.70449   0.63595   14.194
 5582.00    0.68849   0.63563   14.524
 5583.00    0.67013   0.63528   14.926
 5584.00    0.65446   0.63342   15.283
 5585.00    0.64340   0.63264   15.533
 5586.00    0.63757   0.63237   15.676
 5587.00    0.63633   0.63105   15.743
 5588.00    0.63734   0.63018   15.712
 5589.00    0.63726   0.63041   15.613
 5590.00    0.63338   0.62975   15.730
 5591.00    0.62522   0.62895   16.232
 5592.00    0.61693   0.62968   16.389
 5593.00    0.61392   0.62965   15.400
 5594.00    0.61653   0.62900   14.220
 5595.00    0.62216   0.63018   13.920
 5596.00    0.63072   0.63078   14.249
 5597.00    0.64235   0.63034   14.415
 5598.00    0.65220   0.63139   14.264
 5599.00    0.65452   0.63244   14.142
 5600.00    0.65032   0.63259   14.171
 5601.00    0.64435   0.63328   14.280
 5602.00    0.63861   0.63425   14.389
 5603.00    0.63424   0.63497   14.423
 5604.00    0.63572   0.63536   14.312
 5605.00    0.64653   0.63594   14.081
 5606.00    0.66245   0.63675   13.940
 5607.00    0.67584   0.63685   14.054
 5608.00    0.68324   0.63672   14.254
 5609.00    0.68600   0.63734   14.291
 5610.00    0.68937   0.63733   14.265
 5611.00    0.69747   0.63649   14.372
 5612.00    0.70698   0.63683   14.492
 5613.00    0.71007   0.63689   14.426
 5614.00    0.69955   0.63541   14.292
 5615.00    0.67474   0.63529   14.299
 5616.00    0.64723   0.63575   14.429
 5617.00    0.63184   0.63450   14.531
 5618.00    0.63465   0.63405   14.475
 5619.00    0.65248   0.63458   14.246
 5620.00    0.67448   0.63371   14.007
 5621.00    0.68881   0.63327   13.918
 5622.00    0.69027   0.63402   13.975
 5623.00    0.68147   0.63341   14.059
 5624.00    0.67256   0.63277   14.007
 5625.00    0.67242   0.63374   13.766
 5626.00    0.67948   0.63369   13.521
 5627.00    0.68598   0.63294   13.407
 5628.00    0.68367   0.63369   13.280
 5629.00    0.66940   0.63392   12.973
 5630.00    0.64958   0.63317   12.542
 5631.00    0.63416   0.63350   12.121
 5632.00    0.63003   0.63379   11.777
 5633.00    0.63821   0.63309   11.542
 5634.00    0.65233   0.63296   11.440
 5635.00    0.66468   0.63327   11.494
 5636.00    0.67167   0.63270   11.713
 5637.00    0.67143   0.63217   12.037
 5638.00    0.66190   0.63251   12.277
 5639.00    0.64653   0.63225   12.238
 5640.00    0.63805   0.63142   11.891
 5641.00    0.64637   0.63157   11.331
 5642.00    0.66907   0.63167   10.684
 5643.00    0.69954   0.63102   10.086
 5644.00    0.73389   0.63076    9.658
 5645.00    0.76844   0.63084    9.421
 5646.00    0.79823   0.63064    9.271
 5647.00    0.82418   0.63001    9.124
 5648.00    0.85623   0.62970    8.991
 5649.00    0.89526   0.62992    8.916
 5650.00    0.92230   0.62919    8.932
 5651.00    0.92034   0.62829    9.063
 5652.00    0.88959   0.62876    9.325
 5653.00    0.84003   0.62834    9.719
 5654.00    0.78488   0.62668   10.218
 5655.00    0.73540   0.62705   10.761
 5656.00    0.69777   0.62752   11.263
 5657.00    0.67355   0.62562   11.655
 5658.00    0.66072   0.62527   11.937
 5659.00    0.65686   0.62661   12.160
 5660.00    0.66053   0.62568   12.387
 5661.00    0.66784   0.62477   12.625
 5662.00    0.67139   0.62599   12.793
 5663.00    0.66736   0.62618   12.875
 5664.00    0.65882   0.62551   12.994
 5665.00    0.65020   0.62633   13.223
 5666.00    0.64418   0.62702   13.481
 5667.00    0.64314   0.62674   13.640
 5668.00    0.64963   0.62720   13.627
 5669.00    0.66366   0.62807   13.513
 5670.00    0.68188   0.62815   13.492
 5671.00    0.70056   0.62813   13.580
 5672.00    0.71748   0.62878   13.546
 5673.00    0.73280   0.62921   13.353
 5674.00    0.74791   0.62884   13.267
 5675.00    0.75806   0.62878   13.378
 5676.00    0.75220   0.62933   13.469
 5677.00    0.72977   0.62916   13.449
 5678.00    0.70511   0.62838   13.499
 5679.00    0.69052   0.62854   13.656
 5680.00    0.68835   0.62882   13.704
 5681.00    0.69207   0.62788   13.599
 5682.00    0.69018   0.62745   13.571
 5683.00    0.67997   0.62791   13.686
 5684.00    0.67026   0.62728   13.756
 5685.00    0.66772   0.62665   13.720
 5686.00    0.67203   0.62687   13.741
 5687.00    0.68041   0.62645   13.852
 5688.00    0.68975   0.62578   13.892
 5689.00    0.69750   0.62590   13.860
 5690.00    0.70221   0.62559   13.946
 5691.00    0.70416   0.62478   14.137
 5692.00    0.70498   0.62462   14.175
 5693.00    0.70541   0.62441   14.048
 5694.00    0.70469   0.62327   14.024
 5695.00    0.70155   0.62269   14.133
 5696.00    0.69507   0.62264   14.124
 5697.00    0.68627   0.62147   13.971
 5698.00    0.67776   0.62039   13.918
 5699.00    0.67093   0.62044   14.019
 5700.00    0.66542   0.61964   14.106
 5701.00    0.66057   0.61822   14.107
 5702.00    0.65563   0.61816   14.097
 5703.00    0.64857   0.61822   14.087
 5704.00    0.63712   0.61698   14.022
 5705.00    0.62254   0.61662   13.978
 5706.00    0.61000   0.61748   14.098
 5707.00    0.60610   0.61687   14.245
 5708.00    0.61542   0.61630   14.098
 5709.00    0.63303   0.61787   13.791
 5710.00    0.64770   0.61814   13.755
 5711.00    0.65627   0.61760   13.955
 5712.00    0.66349   0.61948   13.979
 5713.00    0.67113   0.62046   13.771
 5714.00    0.67674   0.62022   13.617
 5715.00    0.67799   0.62191   13.574
 5716.00    0.67474   0.62315   13.494
 5717.00    0.67117   0.62308   13.377
 5718.00    0.67337   0.62442   13.341
 5719.00    0.68277   0.62568   13.323
 5720.00    0.69522   0.62558   13.166
 5721.00    0.70309   0.62648   12.938
 5722.00    0.69976   0.62758   12.800
 5723.00    0.68841   0.62724   12.625
 5724.00    0.68002   0.62768   12.154
 5725.00    0.68441   0.62861   11.436
 5726.00    0.70669   0.62808   10.704
 5727.00    0.74386   0.62791   10.065
 5728.00    0.78501   0.62886    9.551
 5729.00    0.81322   0.62855    9.239
 5730.00    0.81322   0.62781    9.217
 5731.00    0.78547   0.62838    9.525
 5732.00    0.74438   0.62845   10.142
 5733.00    0.70918   0.62771   10.901
 5734.00    0.69382   0.62784   11.521
 5735.00    0.69222   0.62798   11.965
 5736.00    0.68800   0.62745   12.421
 5737.00    0.67667   0.62730   12.857
 5738.00    0.66388   0.62741   13.071
 5739.00    0.65520   0.62692   13.098
 5740.00    0.65260   0.62659    0.000
 5741.00    0.65192   0.62687    0.000
 5742.00    0.64794   0.62645    0.000
 5743.00    0.64317   0.62598    0.000
 5744.00    0.64354   0.62613    0.000
 5745.00    0.64947   0.62604    0.000
 5746.00    0.65830   0.62548    0.000
 5747.00    0.67023   0.62513    0.000
 5748.00    0.68725   0.62520    0.000
 5749.00    0.71023   0.62491    0.000
 5750.00    0.73663   0.62455    0.000
 5751.00    0.75829   0.62459    0.000
 5752.00    0.76637   0.62424    0.000
 5753.00    0.75876   0.62390    0.000
 5754.00    0.73941   0.62410    0.000
 5755.00    0.71584   0.62401    0.000
 5756.00    0.69509   0.62376    0.000
 5757.00    0.67904   0.62397    0.000
 5758.00    0.66623   0.62388    0.000
 5759.00    0.65523   0.62367    0.000
 5760.00    0.64586   0.62386    0.000
 5761.00    0.64020   0.62369    0.000
 5762.00    0.64082   0.62345    0.000
 5763.00    0.64858   0.62382    0.000
 5764.00    0.66122   0.62372    0.000
 5765.00    0.67252   0.62327    0.000
 5766.00    0.67655   0.62337    0.000
 5767.00    0.67252   0.62309    0.000
 5768.00    0.66335   0.62245    0.000
 5769.00    0.65328   0.62232    0.000
 5770.00    0.64588   0.62170    0.000
 5771.00    0.64235   0.62065    0.000
 5772.00    0.64322   0.62044    0.000
 5773.00    0.65005   0.61964    0.000
 5774.00    0.66277   0.61818    0.000
 5775.00    0.67718   0.61794    0.000
 5776.00    0.68925   0.61729    0.000
 5777.00    0.69896   0.61560    0.000
 5778.00    0.70483   0.61531    0.000
 5779.00    0.69980   0.61510    0.000
 5780.00    0.68498   0.61331    0.000
 5781.00    0.67969   0.61284    0.000
 5782.00    0.69582   0.61358    0.000
 5783.00    0.71681   0.61248    0.000
 5784.00    0.71991   0.61163    0.000
 5785.00    0.69723   0.61298    0.000
 5786.00    0.65910   0.61300    0.000
 5787.00    0.63237   0.61206    0.000
 5788.00    0.63256   0.61369    0.000
 5789.00    0.64480   0.61458    0.000
 5790.00    0.65168   0.61363    0.000
 5791.00    0.65445   0.61506    0.000
 5792.00    0.65971   0.61670    0.000
 5793.00    0.66841   0.61605    0.000
 5794.00    0.67720   0.61679    0.000
 5795.00    0.68072   0.61881    0.000
 5796.00    0.67747   0.61861    0.000
 5797.00    0.67287   0.61841    0.000
 5798.00    0.67242   0.62024    0.000
 5799.00    0.67661   0.62083    0.000
 5800.00    0.68064   0.62019    0.000
 5801.00    0.67613   0.62124    0.000
 5802.00    0.66262   0.62209    0.000
 5803.00    0.65223   0.62144    0.000
 5804.00    0.65204   0.62171    0.000
 5805.00    0.65505   0.62241    0.000
 5806.00    0.65410   0.62223    0.000
 5807.00    0.65006   0.62224    0.000
 5808.00    0.64802   0.62252    0.000
 5809.00    0.65336   0.62256    0.000
 5810.00    0.66462   0.62259    0.000
 5811.00    0.67181   0.62264    0.000
 5812.00    0.66954   0.62265    0.000
 5813.00    0.66265   0.62285    0.000
 5814.00    0.65688   0.62295    0.000
 5815.00    0.65384   0.62269    0.000
 5816.00    0.65193   0.62287    0.000
 5817.00    0.64792   0.62329    0.000
 5818.00    0.64193   0.62316    0.000
 5819.00    0.63831   0.62314    0.000
 5820.00    0.63822   0.62348    0.000
 5821.00    0.63799   0.62351    0.000
 5822.00    0.63889   0.62342    0.000
 5823.00    0.64877   0.62341    0.000
 5824.00    0.66822   0.62345    0.000
 5825.00    0.68699   0.62352    0.000
 5826.00    0.69652   0.62339    0.000
 5827.00    0.69522   0.62311    0.000
 5828.00    0.68649   0.62320    0.000
 5829.00    0.67658   0.62324    0.000
 5830.00    0.66972   0.62263    0.000
 5831.00    0.66677   0.62246    0.000
 5832.00    0.66792   0.62274    0.000
 5833.00    0.67330   0.62203    0.000
 5834.00    0.68089   0.62129    0.000
 5835.00    0.68632   0.62158    0.000
 5836.00    0.68514   0.62121    0.000
 5837.00    0.67440   0.62008    0.000
 5838.00    0.65491   0.61987    0.000
 5839.00    0.63175   0.61974    0.000
 5840.00    0.61278   0.61874    0.000
 5841.00    0.60474   0.61797    0.000
 5842.00    0.60202   0.61753    0.000
 5843.00    0.59031   0.61657   -2.000
 5844.00    0.57067   0.61565   -2.000
 5845.00    0.56294   0.61492   -2.000
 5846.00    0.59046   0.61378   -2.000
 5847.00    0.66421   0.61278   -2.000
 5848.00    0.75090   0.61196   -2.000
 5849.00    0.78900   0.61084   -2.000
 5850.00    0.76404   0.61006   -2.000
 5851.00    0.71327   0.60920   -2.000
 5852.00    0.67282   0.60785   -2.000
 5853.00    0.65905   0.60711   -2.000
 5854.00    0.66157   0.60679   -2.000
 5855.00    0.65466   0.60569   -2.000
 5856.00    0.63220   0.60461   -2.000
 5857.00    0.60977   0.60448   -2.000
 5858.00    0.60464   0.60387   -2.000
 5859.00    0.62564   0.60307   -2.000
 5860.00    0.66191   0.60306   -2.000
 5861.00    0.68967   0.60243   -2.000
 5862.00    0.69541   0.60165   -2.000
 5863.00    0.67993   0.60150    0.000
 5864.00    0.65374   0.60094    0.000
 5865.00    0.63183   0.59977    0.000
 5866.00    0.62425   0.59927    0.000
 5867.00    0.63226   0.59932    0.000
 5868.00    0.64492   0.59771    0.000
 5869.00    0.64771   0.59671    0.000
 5870.00    0.64230   0.59660    0.000
 5871.00    0.64398   0.59475    0.000
 5872.00    0.66724   0.59324    0.000
 5873.00    0.71612   0.59261    0.000
 5874.00    0.77182   0.59077    0.000
 5875.00    0.80591   0.58800    0.000
 5876.00    0.81046   0.58690    0.000
 5877.00    0.79318   0.58644    0.000
 5878.00    0.75710   0.58240    0.000
 5879.00    0.70286   0.57961    0.000
 5880.00    0.63988   0.57950    0.000
 5881.00    0.58273   0.57635    0.000
 5882.00    0.54084   0.57248    0.000
 5883.00    0.51777   0.57189    0.000
 5884.00    0.51320   0.56961    0.000
 5885.00    0.52256   0.56484    0.000
 5886.00    0.53640   0.56398    0.000
 5887.00    0.54698   0.56392    0.000
 5888.00    0.55888   0.55930    0.000
 5889.00    0.58029   0.55718    0.000
 5890.00    0.60729   0.55924    0.000
 5891.00    0.62793   0.55746    0.000
 5892.00    0.63254   0.55525    0.000
 5893.00    0.61879   0.55833    0.000
 5894.00    0.59625   0.55878    0.000
 5895.00    0.57836   0.55683    0.000
 5896.00    0.56998   0.56019    0.000
 5897.00    0.56942   0.56361    0.000
 5898.00    0.57358   0.56296    0.000
 5899.00    0.58019   0.56513    0.000
 5900.00    0.58976   0.56998    0.000
 5901.00    0.60314   0.57128   11.127
 5902.00    0.61819   0.57251   10.883
 5903.00    0.63129   0.57682   10.687
 5904.00    0.63971   0.57905   10.607
 5905.00    0.64113   0.57966   10.633
 5906.00    0.63299   0.58269   10.768
 5907.00    0.61661   0.58548   10.964
 5908.00    0.60163   0.58600   11.034
 5909.00    0.59863   0.58746   10.847
 5910.00    0.61002   0.58978   10.565
 5911.00    0.62999   0.59043   10.382
 5912.00    0.64612   0.59089   10.288
 5913.00    0.64772   0.59215   10.251
 5914.00    0.63450   0.59279   10.382
 5915.00    0.61331   0.59291   10.755
 5916.00    0.59361   0.59358   11.182
 5917.00    0.58297   0.59419   11.390
 5918.00    0.58323   0.59409   11.364
 5919.00    0.59233   0.59432   11.255
 5920.00    0.60638   0.59479   11.183
 5921.00    0.61881   0.59476   11.195
 5922.00    0.62036   0.59476   11.246
 5923.00    0.60946   0.59481   11.281
 5924.00    0.60018   0.59486   11.308
 5925.00    0.60616   0.59504   11.345
 5926.00    0.62632   0.59488   11.382
 5927.00    0.65215   0.59479   11.397
 5928.00    0.67532   0.59508   11.388
 5929.00    0.68891   0.59482   11.288
 5930.00    0.68833   0.59439   10.975
 5931.00    0.67471   0.59479   10.718
 5932.00    0.65656   0.59493   11.344
 5933.00    0.64158   0.59412   13.472
 5934.00    0.63034   0.59400   16.081
 5935.00    0.62022   0.59471   16.743
 5936.00    0.60902   0.59425   16.350
 5937.00    0.59753   0.59352   16.605
 5938.00    0.59044   0.59408   16.928
 5939.00    0.59021   0.59412   16.728
 5940.00    0.59341   0.59318   16.970
 5941.00    0.59630   0.59314   17.636
 5942.00    0.59888   0.59359   16.260
 5943.00    0.60319   0.59324   13.225
 5944.00    0.61160   0.59267   11.396
 5945.00    0.62356   0.59279   11.118
 5946.00    0.63428   0.59307   11.449
 5947.00    0.63996   0.59259   11.612
 5948.00    0.64085   0.59207   11.613
 5949.00    0.63924   0.59245   11.675
 5950.00    0.63774   0.59267   11.804
 5951.00    0.63723   0.59208   11.916
 5952.00    0.63637   0.59194   11.937
 5953.00    0.63548   0.59272   11.864
 5954.00    0.63761   0.59275   11.787
 5955.00    0.64146   0.59214   11.761
 5956.00    0.63951   0.59274   11.760
 5957.00    0.62979   0.59322   11.780
 5958.00    0.62039   0.59276   11.865
 5959.00    0.61822   0.59312   11.976
 5960.00    0.62320   0.59386   11.963
 5961.00    0.63038   0.59373   11.819
 5962.00    0.63272   0.59360   11.738
 5963.00    0.62888   0.59424   11.788
 5964.00    0.62504   0.59431   11.824
 5965.00    0.62567   0.59386   11.797
 5966.00    0.62949   0.59416   11.839
 5967.00    0.63182   0.59415   11.973
 5968.00    0.62752   0.59373   12.030
 5969.00    0.61846   0.59375   11.972
 5970.00    0.61397   0.59359   11.970
 5971.00    0.61833   0.59314   12.083
 5972.00    0.62671   0.59279   12.171
 5973.00    0.63189   0.59246   12.157
 5974.00    0.62829   0.59189   12.115
 5975.00    0.61567   0.59146   12.127
 5976.00    0.59964   0.59099   12.211
 5977.00    0.58735   0.59032   12.321
 5978.00    0.58479   0.59025   12.365
 5979.00    0.59312   0.59003   12.336
 5980.00    0.60829   0.58924   12.311
 5981.00    0.62462   0.58917   12.303
 5982.00    0.63606   0.58936   12.254
 5983.00    0.63539   0.58854   12.230
 5984.00    0.61740   0.58813   12.400
 5985.00    0.58995   0.58884   12.696
 5986.00    0.57165   0.58870   12.814
 5987.00    0.57106   0.58791   12.722
 5988.00    0.58255   0.58838   12.685
 5989.00    0.59595   0.58890   12.665
 5990.00    0.60181   0.58818   12.361
 5991.00    0.59718   0.58788   11.900
 5992.00    0.58578   0.58862   11.712
 5993.00    0.57301   0.58853   11.849
 5994.00    0.56382   0.58771   12.020
 5995.00    0.56112   0.58784   12.052
 5996.00    0.56534   0.58818   12.004
 5997.00    0.57447   0.58747   11.997
 5998.00    0.58481   0.58687   12.130
 5999.00    0.59271   0.58716   12.407
 6000.00    0.59565   0.58698   12.725
 6001.00    0.59349   0.58595   12.920
 6002.00    0.58828   0.58570   12.868
 6003.00    0.58306   0.58609   12.680
 6004.00    0.58083   0.58543   12.597
 6005.00    0.58308   0.58444   12.659
 6006.00    0.58933   0.58456   12.735
 6007.00    0.59737   0.58452   12.756
 6008.00    0.60471   0.58358   12.740
 6009.00    0.61198   0.58336   12.712
 6010.00    0.62078   0.58393   12.686
 6011.00    0.62736   0.58347   12.672
 6012.00    0.62568   0.58246   12.666
 6013.00    0.61735   0.58291   12.628
 6014.00    0.61036   0.58357   12.526
 6015.00    0.61188   0.58275   12.435
 6016.00    0.62453   0.58240   12.452
 6017.00    0.64246   0.58352   12.495
 6018.00    0.65441   0.58374   12.416
 6019.00    0.65183   0.58302   12.307
 6020.00    0.63363   0.58377   12.366
 6021.00    0.61196   0.58498   12.577
 6022.00    0.60342   0.58462   12.755
 6023.00    0.61103   0.58453   12.768
 6024.00    0.62697   0.58601   12.635
 6025.00    0.64404   0.58670   12.557
 6026.00    0.65812   0.58628   12.718
 6027.00    0.66889   0.58715   12.972
 6028.00    0.67748   0.58845   13.025
 6029.00    0.68235   0.58845   12.923
 6030.00    0.68114   0.58856   12.908
 6031.00    0.67460   0.58960   13.010
 6032.00    0.66626   0.59022   13.107
 6033.00    0.66057   0.59016   13.118
 6034.00    0.65995   0.59057   13.043
 6035.00    0.66093   0.59133   12.977
 6036.00    0.65842   0.59149   13.009
 6037.00    0.65290   0.59153   13.093
 6038.00    0.64813   0.59181   13.132
 6039.00    0.64613   0.59213   13.117
 6040.00    0.64587   0.59212   13.089
 6041.00    0.64280   0.59187   13.042
 6042.00    0.63440   0.59215   12.972
 6043.00    0.62736   0.59236   12.939
 6044.00    0.62881   0.59195   12.996
 6045.00    0.63398   0.59171   13.069
 6046.00    0.63354   0.59189   13.079
 6047.00    0.62515   0.59158   13.105
 6048.00    0.61225   0.59092   13.232
 6049.00    0.60063   0.59096   13.362
 6050.00    0.59495   0.59082   13.351
 6051.00    0.59521   0.59015   13.240
 6052.00    0.59848   0.58992   13.148
 6053.00    0.60167   0.58992   13.128
 6054.00    0.60337   0.58930   13.164
 6055.00    0.60545   0.58884   13.188
 6056.00    0.60972   0.58894   13.149
 6057.00    0.61429   0.58833   13.080
 6058.00    0.61662   0.58796   13.024
 6059.00    0.61688   0.58838   12.951
 6060.00    0.61582   0.58822   12.809
 6061.00    0.61242   0.58771   12.583
 6062.00    0.60599   0.58795   12.330
 6063.00    0.59848   0.58813   12.173
 6064.00    0.59375   0.58743   12.152
 6065.00    0.59621   0.58761   12.104
 6066.00    0.60771   0.58830   11.881
 6067.00    0.62479   0.58775   11.540
 6068.00    0.64011   0.58756   11.219
 6069.00    0.64490   0.58819   11.003
 6070.00    0.63681   0.58775   10.899
 6071.00    0.62542   0.58696   10.828
 6072.00    0.61950   0.58747   10.771
 6073.00    0.61663   0.58746   10.875
 6074.00    0.61162   0.58606   11.216
 6075.00    0.60413   0.58593   11.613
 6076.00    0.59654   0.58648   11.868
 6077.00    0.59159   0.58514   12.052
 6078.00    0.59106   0.58396   12.292
 6079.00    0.59481   0.58454   12.553
 6080.00    0.60074   0.58411   12.747
 6081.00    0.60516   0.58228   12.850
 6082.00    0.60668   0.58194   12.884
 6083.00    0.60811   0.58250   12.892
 6084.00    0.61030   0.58121   12.918
 6085.00    0.60891   0.57986   12.994
 6086.00    0.60384   0.58049   13.115
 6087.00    0.60395   0.58038   13.223
 6088.00    0.61377   0.57878   13.256
 6089.00    0.62614   0.57838   13.194
 6090.00    0.63477   0.57904   13.080
 6091.00    0.64170   0.57823   13.013
 6092.00    0.64955   0.57715   13.002
 6093.00    0.65702   0.57784   12.914
 6094.00    0.66250   0.57759   12.707
 6095.00    0.66598   0.57621   12.519
 6096.00    0.66577   0.57632   12.424
 6097.00    0.65761   0.57691   12.344
 6098.00    0.64048   0.57618   12.233
 6099.00    0.61943   0.57562   12.159
 6100.00    0.60125   0.57616   12.170
 6101.00    0.59145   0.57573   12.233
 6102.00    0.59126   0.57496   12.313
 6103.00    0.59689   0.57533   12.402
 6104.00    0.60446   0.57545   12.491
 6105.00    0.61217   0.57505   12.558
 6106.00    0.61820   0.57506   12.609
 6107.00    0.62017   0.57502   12.674
 6108.00    0.61759   0.57462   12.697
 6109.00    0.61266   0.57469   12.530
 6110.00    0.60823   0.57465   12.195
 6111.00    0.60686   0.57403   11.907
 6112.00    0.61133   0.57403   11.776
 6113.00    0.62356   0.57408   11.748
 6114.00    0.63892   0.57292   11.752
 6115.00    0.64656   0.57257   11.751
 6116.00    0.64142   0.57320   11.707
 6117.00    0.62749   0.57243   11.592
 6118.00    0.60911   0.57126   11.488
 6119.00    0.58845   0.57151   11.560
 6120.00    0.57053   0.57133   11.836
 6121.00    0.56275   0.56969   12.169
 6122.00    0.56474   0.56943   12.502
 6123.00    0.56809   0.57014   12.914
 6124.00    0.57031   0.56934   13.265
 6125.00    0.57690   0.56842   13.170
 6126.00    0.58930   0.56859   12.726
 6127.00    0.60213   0.56840   12.468
 6128.00    0.60914   0.56735   12.550
 6129.00    0.60657   0.56684   12.732
 6130.00    0.59647   0.56717   12.869
 6131.00    0.58607   0.56733   13.025
 6132.00    0.58183   0.56695   13.201
 6133.00    0.58643   0.56642   13.287
 6134.00    0.59602   0.56642   13.281
 6135.00    0.60222   0.56655   13.305
 6136.00    0.60100   0.56584   13.427
 6137.00    0.59470   0.56566   13.602
 6138.00    0.58955   0.56667   13.674
 6139.00    0.59211   0.56668   13.497
 6140.00    0.60178   0.56567   13.270
 6141.00    0.61193   0.56588   13.338
 6142.00    0.61920   0.56654   13.554
 6143.00    0.62459   0.56574   13.399
 6144.00    0.62891   0.56527   12.930
 6145.00    0.63266   0.56611   12.651
 6146.00    0.63877   0.56562   12.672
 6147.00    0.65044   0.56412   12.749
 6148.00    0.66381   0.56412   12.647
 6149.00    0.66954   0.56406   12.332
 6150.00    0.66141   0.56249   12.101
 6151.00    0.63935   0.56156   12.310
 6152.00    0.61135   0.56169   12.830
 6153.00    0.59021   0.56009   13.133
 6154.00    0.58524   0.55765   13.107
 6155.00    0.59838   0.55727   13.062
 6156.00    0.62043   0.55691   13.039
 6157.00    0.63679   0.55469   12.858
 6158.00    0.64157   0.55318   12.585
 6159.00    0.63785   0.55353   12.439
 6160.00    0.63157   0.55240   12.455
 6161.00    0.62720   0.54957   12.547
 6162.00    0.62192   0.54918   12.703
 6163.00    0.60928   0.55032   12.976
 6164.00    0.58867   0.54909   13.344
 6165.00    0.56624   0.54738   13.687
 6166.00    0.55264   0.54877   13.828
 6167.00    0.55601   0.54985   13.679
 6168.00    0.57037   0.54778   13.462
 6169.00    0.58152   0.54749   13.468
 6170.00    0.58172   0.55025   13.661
 6171.00    0.57237   0.55058   13.821
 6172.00    0.56378   0.54892   13.917
 6173.00    0.56673   0.55057   14.032
 6174.00    0.57875   0.55291   14.111
 6175.00    0.58977   0.55165   14.033
 6176.00    0.59496   0.55098   13.816
 6177.00    0.59395   0.55346   13.585
 6178.00    0.58634   0.55418   13.460
 6179.00    0.57318   0.55246   13.507
 6180.00    0.56006   0.55312   13.687
 6181.00    0.55366   0.55493   13.901
 6182.00    0.55600   0.55402   14.061
 6183.00    0.56409   0.55266   14.142
 6184.00    0.57107   0.55369   14.239
 6185.00    0.57191   0.55433   14.425
 6186.00    0.57071   0.55288   14.557
 6187.00    0.57533   0.55247   14.369
 6188.00    0.58853   0.55353   13.723
 6189.00    0.60574   0.55336   12.782
 6190.00    0.61451   0.55203   11.965
 6191.00    0.60487   0.55198   11.519
 6192.00    0.58229   0.55284   11.327
 6193.00    0.56032   0.55247   11.237
 6194.00    0.54945   0.55184   11.328
 6195.00    0.55376   0.55233   11.704
 6196.00    0.56871   0.55287   12.214
 6197.00    0.58465   0.55235   12.600
 6198.00    0.59156   0.55175   12.840
 6199.00    0.58413   0.55216   13.052
 6200.00    0.56671   0.55246   13.276
 6201.00    0.54937   0.55194   13.507
 6202.00    0.54256   0.55155   13.775
 6203.00    0.55110   0.55173   14.074
 6204.00    0.56899   0.55142   14.269
 6205.00    0.58793   0.55031   14.281
 6206.00    0.60588   0.54973   14.294
 6207.00    0.62066   0.54960   14.463
 6208.00    0.62367   0.54871   14.636
 6209.00    0.61001   0.54765   14.549
 6210.00    0.58782   0.54722   14.112
 6211.00    0.56848   0.54642   13.417
 6212.00    0.55670   0.54497   12.657
 6213.00    0.55136   0.54418   11.990
 6214.00    0.54757   0.54369   11.503
 6215.00    0.54187   0.54242   11.286
 6216.00    0.53637   0.54148   11.481
 6217.00    0.53646   0.54130   12.085
 6218.00    0.54760   0.54029   12.684
 6219.00    0.56751   0.53905   12.868
 6220.00    0.58183   0.53891   12.841
 6221.00    0.57998   0.53860   12.913
 6222.00    0.56710   0.53739   13.013
 6223.00    0.55422   0.53697   13.052
 6224.00    0.54927   0.53722   13.199
 6225.00    0.55169   0.53632   13.577
 6226.00    0.55083   0.53567   14.019
 6227.00    0.54036   0.53602   14.324
 6228.00    0.52732   0.53564   14.520
 6229.00    0.51966   0.53479   14.649
 6230.00    0.51749   0.53482   14.616
 6231.00    0.51733   0.53476   14.425
 6232.00    0.51566   0.53391   14.300
 6233.00    0.51128   0.53410   14.399
 6234.00    0.50631   0.53432   14.674
 6235.00    0.50350   0.53333   14.973
 6236.00    0.50436   0.53308   15.131
 6237.00    0.50847   0.53344   15.117
 6238.00    0.51364   0.53256   15.074
 6239.00    0.51862   0.53171   14.946
 6240.00    0.52421   0.53254   14.391
 6241.00    0.53003   0.53244   13.476
 6242.00    0.53302   0.53096   12.725
 6243.00    0.52987   0.53104   12.358
 6244.00    0.51896   0.53149   12.226
 6245.00    0.50230   0.53034   12.289
 6246.00    0.48632   0.52949   12.740
 6247.00    0.47973   0.53029   13.537
 6248.00    0.49194   0.53037   14.110
 6249.00    0.53024   0.52909   14.237
 6250.00    0.59826   0.52885   14.417
 6251.00    0.69526   0.52941   -2.000
 6252.00    0.81750   0.52917   -2.000
 6253.00    0.96580   0.52826   -2.000
 6254.00    1.13424   0.52869   -2.000
 6255.00    1.24155   0.52982   -2.000
 6256.00    1.14219   0.52935   -2.000
 6257.00    0.81983   0.52853   -2.000
 6258.00    0.43618   0.52953   -2.000
 6259.00    0.15309   0.53086   -2.000
 6260.00    0.04874   0.53009   -2.000
 6261.00    0.10906   0.53015   -2.000
 6262.00    0.24506   0.53220   -2.000
 6263.00    0.37281   0.53273   11.206
 6264.00    0.44837   0.53171   11.443
 6265.00    0.47086   0.53266   12.038
 6266.00    0.47225   0.53465   12.945
 6267.00    0.47630   0.53443   13.818
 6268.00    0.48596   0.53414   14.331
 6269.00    0.49759   0.53568   14.496
 6270.00    0.50740   0.53665   14.668
 6271.00    0.51438   0.53610   14.935
 6272.00    0.52034   0.53640   15.016
 6273.00    0.52648   0.53760   14.804
 6274.00    0.53252   0.53793   14.491
 6275.00    0.53804   0.53773   14.168
 6276.00    0.54309   0.53826   13.809
 6277.00    0.54848   0.53890   13.526
 6278.00    0.55468   0.53892   13.532
 6279.00    0.55819   0.53894   13.846
 6280.00    0.55323   0.53926    0.000
 6281.00    0.54024   0.53959    0.000
 6282.00    0.52710   0.53964    0.000
 6283.00    0.52463   0.53981    0.000
 6284.00    0.54059   0.53988    0.000
 6285.00    0.56727   0.53981    0.000
 6286.00    0.58541   0.53983    0.000
 6287.00    0.58488   0.53990    0.000
 6288.00    0.56792   0.53982    0.000
 6289.00    0.54168   0.53959    0.000
 6290.00    0.51517   0.53960    0.000
 6291.00    0.49677   0.53951    0.000
 6292.00    0.49221   0.53913    0.000
 6293.00    0.50120   0.53890    0.000
 6294.00    0.51855   0.53902    0.000
 6295.00    0.53907   0.53893    0.000
 6296.00    0.56190   0.53840    0.000
 6297.00    0.59744   0.53820    0.000
 6298.00    0.65792   0.53849    0.000
 6299.00    0.73304   0.53836    0.000
 6300.00    0.79468   0.53793    0.000
 6301.00    0.82034   0.53814    0.000
 6302.00    0.80098   0.53845    0.000
 6303.00    0.74576   0.53798    0.000
 6304.00    0.67646   0.53783    0.000
 6305.00    0.61360   0.53853    0.000
 6306.00    0.57107   0.53851    0.000
 6307.00    0.55161   0.53796    0.000
 6308.00    0.54811   0.53855    0.000
 6309.00    0.54810   0.53911    0.000
 6310.00    0.54153   0.53827    0.000
 6311.00    0.53336   0.53828    0.000
 6312.00    0.53692   0.53954    0.000
 6313.00    0.55772   0.53935    0.000
 6314.00    0.59157   0.53853    0.000
 6315.00    0.62717   0.53958    0.000
 6316.00    0.65295   0.54051    0.000
 6317.00    0.66751   0.53941    0.000
 6318.00    0.66856   0.53941    0.000
 6319.00    0.63281   0.54101    0.000
 6320.00    0.54209   0.54112    0.000
 6321.00    0.42919   0.54042    7.338
 6322.00    0.34981   0.54124    8.449
 6323.00    0.32757   0.54213   10.405
 6324.00    0.35388   0.54146   12.677
 6325.00    0.40188   0.54158   14.419
 6326.00    0.44429   0.54253   15.311
 6327.00    0.47575   0.54243   15.537
 6328.00    0.50333   0.54217   15.436
 6329.00    0.52840   0.54265   15.215
 6330.00    0.54662   0.54275   14.965
 6331.00    0.55182   0.54199   14.784
 6332.00    0.54199   0.54231   14.727
 6333.00    0.52586   0.54289   14.736
 6334.00    0.51365   0.54202   14.733
 6335.00    0.50452   0.54132   14.755
 6336.00    0.49496   0.54190   14.850
 6337.00    0.49053   0.54215   14.928
 6338.00    0.49685   0.54090   14.866
 6339.00    0.50720   0.54067   14.679
 6340.00    0.51074   0.54161   14.485
 6341.00    0.50382   0.54112   14.434
 6342.00    0.49032   0.53956   14.580
 6343.00    0.47995   0.53956   14.760
 6344.00    0.48150   0.54067   14.818
 6345.00    0.49563   0.53986   14.886
 6346.00    0.51728   0.53851   15.136
 6347.00    0.53919   0.53885   15.492
 6348.00    0.55359   0.53955   15.699
 6349.00    0.55400   0.53824   15.523
 6350.00    0.54058   0.53685   15.194
 6351.00    0.52432   0.53761   15.610
 6352.00    0.51628   0.53795   17.364
 6353.00    0.51703   0.53640   18.032
 6354.00    0.52123   0.53543   18.032
 6355.00    0.52338   0.53646   18.032
 6356.00    0.52169   0.53647   18.032
 6357.00    0.52081   0.53496   18.032
 6358.00    0.52642   0.53468   18.032
 6359.00    0.54024   0.53568   18.032
 6360.00    0.55978   0.53550   18.030
 6361.00    0.57912   0.53455   17.228
 6362.00    0.59403   0.53503   16.127
 6363.00    0.60565   0.53608   15.346
 6364.00    0.61594   0.53604   15.181
 6365.00    0.62388   0.53566   15.312
 6366.00    0.62707   0.53631   15.366
 6367.00    0.62336   0.53733   15.319
 6368.00    0.61126   0.53762   15.290
 6369.00    0.59035   0.53743   15.345
 6370.00    0.56269   0.53799   15.482
 6371.00    0.53378   0.53907   15.630
 6372.00    0.51216   0.53931   15.726
 6373.00    0.50758   0.53898   15.774
 6374.00    0.52012   0.53949   15.759
 6375.00    0.53504   0.54046   15.615
 6376.00    0.53943   0.54010   15.432
 6377.00    0.53299   0.53945   15.498
 6378.00    0.52159   0.54013   15.785
 6379.00    0.51203   0.54079   15.740
 6380.00    0.50792   0.53989   15.440
 6381.00    0.50776   0.53913   16.016
 6382.00    0.50821   0.53994   18.023
 6383.00    0.50656   0.54004   18.032
 6384.00    0.50236   0.53869   18.032
 6385.00    0.49773   0.53845   18.032
 6386.00    0.49444   0.53943   18.032
 6387.00    0.49232   0.53869   18.032
 6388.00    0.49086   0.53691   18.032
 6389.00    0.49017   0.53747   18.032
 6390.00    0.49132   0.53858   18.032
 6391.00    0.49585   0.53719   18.032
 6392.00    0.50256   0.53579   17.285
 6393.00    0.50675   0.53711   15.776
 6394.00    0.50481   0.53761   15.539
 6395.00    0.49677   0.53545   15.779
 6396.00    0.48660   0.53523   15.920
 6397.00    0.48093   0.53745   16.056
 6398.00    0.48254   0.53691   16.285
 6399.00    0.48883   0.53430   16.415
 6400.00    0.49884   0.53529   16.338
 6401.00    0.51527   0.53739   16.183
 6402.00    0.53782   0.53586   16.061
 6403.00    0.56101   0.53455   15.975
 6404.00    0.57776   0.53659   15.899
 6405.00    0.58201   0.53723   15.817
 6406.00    0.57252   0.53487   15.737
 6407.00    0.55377   0.53484   15.688
 6408.00    0.53319   0.53699   15.661
 6409.00    0.51855   0.53656   15.614
 6410.00    0.51280   0.53504   15.591
 6411.00    0.51322   0.53604   15.694
 6412.00    0.51586   0.53704   15.820
 6413.00    0.51745   0.53587   15.688
 6414.00    0.51593   0.53548   15.360
 6415.00    0.51085   0.53670   15.188
 6416.00    0.50444   0.53678   15.111
 6417.00    0.50091   0.53604   14.690
 6418.00    0.50290   0.53640   13.966
 6419.00    0.51048   0.53664   13.400
 6420.00    0.52206   0.53628   13.187
 6421.00    0.53467   0.53665   13.242
 6422.00    0.54427   0.53714   13.373
 6423.00    0.54681   0.53672   13.381
 6424.00    0.54156   0.53680   13.315
 6425.00    0.53099   0.53736   13.423
 6426.00    0.51742   0.53671   13.771
 6427.00    0.50273   0.53627   14.210
 6428.00    0.49064   0.53739   14.641
 6429.00    0.48609   0.53764   15.063
 6430.00    0.49150   0.53631   15.401
 6431.00    0.50558   0.53661   15.507
 6432.00    0.52317   0.53790   15.389
 6433.00    0.53713   0.53708   15.229
 6434.00    0.54341   0.53592   15.228
 6435.00    0.54240   0.53725   15.509
 6436.00    0.53897   0.53804   15.941
 6437.00    0.53892   0.53610   16.200
 6438.00    0.54057   0.53549   16.224
 6439.00    0.53694   0.53726   16.209
 6440.00    0.52599   0.53728   16.219
 6441.00    0.51139   0.53560   16.187
 6442.00    0.49817   0.53608   16.153
 6443.00    0.49071   0.53718   16.220
 6444.00    0.49064   0.53587   16.312
 6445.00    0.49640   0.53464   16.268
 6446.00    0.50323   0.53580   16.184
 6447.00    0.50616   0.53634   16.249
 6448.00    0.50580   0.53505   16.269
 6449.00    0.50674   0.53467   15.817
 6450.00    0.51119   0.53511   14.805
 6451.00    0.51746   0.53473   13.567
 6452.00    0.51939   0.53455   12.604
 6453.00    0.51158   0.53501   12.203
 6454.00    0.49899   0.53473   12.222
 6455.00    0.49081   0.53412   12.377
 6456.00    0.48570   0.53440   12.678
 6457.00    0.47702   0.53444   13.272
 6458.00    0.46702   0.53395   13.928
 6459.00    0.46263   0.53439   14.175
 6460.00    0.46352   0.53499   14.091
 6461.00    0.46446   0.53422   14.149
 6462.00    0.46286   0.53356   14.572
 6463.00    0.45974   0.53444   15.297
 6464.00    0.45894   0.53490   15.988
 6465.00    0.46419   0.53426   16.218
 6466.00    0.47472   0.53388   16.031
 6467.00    0.48674   0.53438   15.784
 6468.00    0.49699   0.53450   15.631
 6469.00    0.50348   0.53384   15.579
 6470.00    0.50585   0.53336   15.662
 6471.00    0.50430   0.53368   15.890
 6472.00    0.49803   0.53405   16.132
 6473.00    0.48800   0.53314   16.190
 6474.00    0.48058   0.53220   15.968
 6475.00    0.48169   0.53258   15.540
 6476.00    0.48821   0.53279   15.143
 6477.00    0.49204   0.53116   14.985
 6478.00    0.48725   0.52999   15.085
 6479.00    0.47342   0.53062   15.355
 6480.00    0.45836   0.53027   15.685
 6481.00    0.45097   0.52805   15.953
 6482.00    0.45223   0.52698   16.043
 6483.00    0.45868   0.52749   15.834
 6484.00    0.46784   0.52652   15.228
 6485.00    0.47768   0.52428   14.295
 6486.00    0.48520   0.52363   13.333
 6487.00    0.48800   0.52381   12.646
 6488.00    0.48611   0.52234   12.456
 6489.00    0.48115   0.52030   12.857
 6490.00    0.47528   0.52006   13.723
 6491.00    0.47144   0.52030   14.743
 6492.00    0.47335   0.51901   15.545
 6493.00    0.48126   0.51779   15.846
 6494.00    0.48823   0.51798   15.683
 6495.00    0.48751   0.51826   15.318
 6496.00    0.48001   0.51751   14.996
 6497.00    0.46962   0.51745   14.805
 6498.00    0.45833   0.51825   14.622
 6499.00    0.44840   0.51855   14.428
 6500.00    0.44457   0.51838   14.515
 6501.00    0.44944   0.51908   15.036
 6502.00    0.45947   0.52015   15.580
 6503.00    0.46797   0.52041   15.572
 6504.00    0.46875   0.52098   14.952
 6505.00    0.46173   0.52212   14.038
 6506.00    0.45644   0.52285   13.151
 6507.00    0.46160   0.52297   12.497
 6508.00    0.47646   0.52397   12.181
 6509.00    0.49245   0.52511   12.296
 6510.00    0.49636   0.52515   12.972
 6511.00    0.48158   0.52521   14.189
 6512.00    0.45579   0.52635   15.363
 6513.00    0.43396   0.52698   15.692
 6514.00    0.43067   0.52641   15.150
 6515.00    0.44686   0.52669   14.283
 6516.00    0.46347   0.52779   13.575
 6517.00    0.46493   0.52773   13.237
 6518.00    0.45467   0.52697   13.268
 6519.00    0.44305   0.52755   13.582
 6520.00    0.43790   0.52841   14.025
 6521.00    0.44238   0.52773   14.418
 6522.00    0.45424   0.52701   14.620
 6523.00    0.46861   0.52776   14.677
 6524.00    0.48013   0.52822   14.854
 6525.00    0.48556   0.52731   15.251
 6526.00    0.48503   0.52682   15.580
 6527.00    0.48003   0.52736   15.544
 6528.00    0.47233   0.52726    0.000
 6529.00    0.46526   0.52635    0.000
 6530.00    0.46302   0.52606    0.000
 6531.00    0.46295   0.52623    0.000
 6532.00    0.45423   0.52553    0.000
 6533.00    0.43580   0.52443    0.000
 6534.00    0.42245   0.52402    0.000
 6535.00    0.42299   0.52369    0.000
 6536.00    0.43123   0.52256    0.000
 6537.00    0.44185   0.52115    0.000
 6538.00    0.45693   0.52005    0.000
 6539.00    0.47540   0.51897    0.000
 6540.00    0.48992   0.51751    0.000
 6541.00    0.49883   0.51561    0.000
 6542.00    0.51015   0.51348    0.000
 6543.00    0.53187   0.51156    0.000
 6544.00    0.56729   0.50993    0.000
 6545.00    0.61542   0.50742    0.000
 6546.00    0.67066   0.50379    0.000
 6547.00    0.72009   0.50102    0.000
 6548.00    0.74561   0.49959    0.000
 6549.00    0.73765   0.49651    0.000
 6550.00    0.69971   0.49176    0.000
 6551.00    0.64196   0.48918    0.000
 6552.00    0.57762   0.48803    0.000
 6553.00    0.51973   0.48385    0.000
 6554.00    0.48037   0.47890    0.000
 6555.00    0.47266   0.47827    0.000
 6556.00    0.52301   0.47784    0.000
 6557.00    0.71226   0.47239    0.000
 6558.00    1.16796   0.46818    0.000
 6559.00    1.97981   0.47050    0.000
 6560.00    3.14042   0.47132    0.000
 6561.00    4.45362   0.46644    0.000
 6562.00    5.56137   0.46489    0.000
 6563.00    6.14341   0.46907    0.000
 6564.00    6.01687   0.46989    0.000
 6565.00    5.22577   0.46721    0.000
 6566.00    4.02795   0.46932    0.000
 6567.00    2.75938   0.47413    0.000
 6568.00    1.73350   0.47428    0.000
 6569.00    1.07679   0.47365    0.000
 6570.00    0.72511   0.47799    0.000
 6571.00    0.56769   0.48278    0.000
 6572.00    0.50364   0.48314    0.000
 6573.00    0.47282   0.48391    0.000
 6574.00    0.45604   0.48834    0.000
 6575.00    0.45031   0.49211    0.000
 6576.00    0.45916   0.49288    0.000
 6577.00    0.48627   0.49424    0.000
 6578.00    0.53694   0.49780    0.000
 6579.00    0.62611   0.50014    0.000
 6580.00    0.76920   0.50075    0.000
 6581.00    0.95378   0.50184    0.000
 6582.00    1.13931   0.50457    0.000
 6583.00    1.27499   0.50604    0.000
 6584.00    1.31629   0.50602    0.000
 6585.00    1.25273   0.50680    0.000
 6586.00    1.10809   0.50895    0.000
 6587.00    0.92479   0.50965    0.000
 6588.00    0.75097   0.50884    0.000
 6589.00    0.62020   0.50954    0.000
 6590.00    0.54459   0.51126    0.000
 6591.00    0.51051   0.51152    0.000
 6592.00    0.49092   0.51048    0.000
 6593.00    0.47271   0.51098    0.000
 6594.00    0.45739   0.51221    0.000
 6595.00    0.45046   0.51240    0.000
 6596.00    0.45515   0.51170    0.000
 6597.00    0.46498   0.51205    0.000
 6598.00    0.46936   0.51294    0.000
 6599.00    0.46665   0.51290    0.000
 6600.00    0.46287   0.51237    0.000
 6601.00    0.46420   0.51283    0.000
 6602.00    0.47315   0.51382    0.000
 6603.00    0.48430   0.51363    0.000
 6604.00    0.48910   0.51279    0.000
 6605.00    0.48539   0.51333    0.000
 6606.00    0.47599   0.51480    0.000
 6607.00    0.46381   0.51469    0.000
 6608.00    0.45239   0.51355    0.000
 6609.00    0.44804   0.51396   16.290
 6610.00    0.45559   0.51550   16.230
 6611.00    0.47150   0.51529   16.246
 6612.00    0.48765   0.51426   16.327
 6613.00    0.49897   0.51477   16.354
 6614.00    0.50419   0.51582   16.234
 6615.00    0.50523   0.51519   16.094
 6616.00    0.50553   0.51440   16.078
 6617.00    0.50784   0.51516   16.043
 6618.00    0.51269   0.51567   15.819
 6619.00    0.51711   0.51451   15.599
 6620.00    0.51772   0.51377   15.618
 6621.00    0.51516   0.51471   15.738
 6622.00    0.51272   0.51492   15.718
 6623.00    0.51360   0.51356   15.630
 6624.00    0.51833   0.51283   15.650
 6625.00    0.52232   0.51356   15.741
 6626.00    0.52102   0.51356   15.787
 6627.00    0.51631   0.51232   15.812
 6628.00    0.51192   0.51181   15.875
 6629.00    0.50736   0.51231   15.923
 6630.00    0.50051   0.51205   15.909
 6631.00    0.49151   0.51106   15.944
 6632.00    0.48299   0.51113   16.120
 6633.00    0.47944   0.51167   16.291
 6634.00    0.48299   0.51088   16.288
 6635.00    0.48924   0.50995   16.196
 6636.00    0.49294   0.51076   16.183
 6637.00    0.49403   0.51143   16.294
 6638.00    0.49395   0.51022   16.443
 6639.00    0.49153   0.50946   16.436
 6640.00    0.48582   0.51064   16.208
 6641.00    0.47901   0.51115   16.018
 6642.00    0.47355   0.50985   16.058
 6643.00    0.46911   0.50939   16.149
 6644.00    0.46423   0.51053   16.078
 6645.00    0.45820   0.51063   15.937
 6646.00    0.45238   0.50947   15.902
 6647.00    0.45089   0.50935   16.011
 6648.00    0.45619   0.51020   16.100
 6649.00    0.46577   0.50987   15.829
 6650.00    0.47707   0.50878   15.382
 6651.00    0.49136   0.50878   15.752
 6652.00    0.50853   0.50935   17.478
 6653.00    0.52290   0.50885   18.032
 6654.00    0.52771   0.50765   18.032
 6655.00    0.51922   0.50760   18.032
 6656.00    0.49981   0.50819   18.032
 6657.00    0.47925   0.50750   18.032
 6658.00    0.46719   0.50598   18.032
 6659.00    0.46735   0.50599   18.032
 6660.00    0.47663   0.50677   18.032
 6661.00    0.48619   0.50577   18.032
 6662.00    0.49172   0.50422   15.811
 6663.00    0.49877   0.50452   13.635
 6664.00    0.50919   0.50508   13.724
 6665.00    0.51394   0.50370   14.716
 6666.00    0.50979   0.50265   15.243
 6667.00    0.50798   0.50347   15.240
 6668.00    0.51584   0.50329   15.182
 6669.00    0.52644   0.50144   15.174
 6670.00    0.53046   0.50135   15.132
 6671.00    0.52416   0.50285   14.972
 6672.00    0.50991   0.50163   14.805
 6673.00    0.49538   0.49945   14.936
 6674.00    0.48807   0.50029   15.381
 6675.00    0.49154   0.50216   15.647
 6676.00    0.50247   0.50070   15.519
 6677.00    0.51104   0.49904   15.471
 6678.00    0.51190   0.50040   15.738
 6679.00    0.50882   0.50157   15.948
 6680.00    0.50637   0.50029   15.868
 6681.00    0.50553   0.49977   15.769
 6682.00    0.50440   0.50125   15.831
 6683.00    0.49960   0.50147   15.915
 6684.00    0.49065   0.50050   15.904
 6685.00    0.48120   0.50096   15.864
 6686.00    0.47442   0.50227   15.885
 6687.00    0.47121   0.50182   15.987
 6688.00    0.47274   0.50118   16.078
 6689.00    0.48057   0.50202   15.993
 6690.00    0.49150   0.50282   15.793
 6691.00    0.49792   0.50222   15.770
 6692.00    0.49897   0.50198   15.913
 6693.00    0.50225   0.50266   15.841
 6694.00    0.51003   0.50272   15.452
 6695.00    0.51568   0.50228   15.080
 6696.00    0.51409   0.50241    0.000
 6697.00    0.50578   0.50264    0.000
 6698.00    0.49529   0.50215    0.000
 6699.00    0.48868   0.50184    0.000
 6700.00    0.48676   0.50206    0.000
 6701.00    0.48486   0.50188    0.000
 6702.00    0.48186   0.50129    0.000
 6703.00    0.48132   0.50120    0.000
 6704.00    0.48329   0.50118    0.000
 6705.00    0.48331   0.50054    0.000
 6706.00    0.47944   0.50017    0.000
 6707.00    0.47377   0.50031    0.000
 6708.00    0.46868   0.49983    0.000
 6709.00    0.46748   0.49903    0.000
 6710.00    0.48018   0.49912    0.000
 6711.00    0.52519   0.49933    0.000
 6712.00    0.62811   0.49840    0.000
 6713.00    0.81081   0.49762    0.000
 6714.00    1.06010   0.49826    0.000
 6715.00    1.32396   0.49859    0.000
 6716.00    1.52962   0.49749    0.000
 6717.00    1.60627   0.49693    0.000
 6718.00    1.53238   0.49781    0.000
 6719.00    1.34079   0.49814    0.000
 6720.00    1.09351   0.49715    0.000
 6721.00    0.86085   0.49692    0.000
 6722.00    0.68597   0.49777    0.000
 6723.00    0.57952   0.49797    0.000
 6724.00    0.53150   0.49724    0.000
 6725.00    0.52551   0.49731    0.000
 6726.00    0.56533   0.49791    0.000
 6727.00    0.66758   0.49794    0.000
 6728.00    0.82739   0.49746    0.000
 6729.00    1.01303   0.49748    0.000
 6730.00    1.17433   0.49772    0.000
 6731.00    1.25930   0.49778    0.000
 6732.00    1.24664   0.49755    0.000
 6733.00    1.14779   0.49718    0.000
 6734.00    0.99429   0.49701    0.000
 6735.00    0.82767   0.49722    0.000
 6736.00    0.68422   0.49719    0.000
 6737.00    0.58610   0.49643    0.000
 6738.00    0.53058   0.49609    0.000
 6739.00    0.50021   0.49648    0.000
 6740.00    0.48734   0.49635    0.000
 6741.00    0.49089   0.49543    0.000
 6742.00    0.50048   0.49538    0.000
 6743.00    0.50210   0.49581    0.000
 6744.00    0.49438   0.49538    0.000
 6745.00    0.48491   0.49467    0.000
 6746.00    0.47781   0.49508    0.000
 6747.00    0.47403   0.49543    0.000
 6748.00    0.47577   0.49477    0.000
 6749.00    0.48311   0.49449    0.000
 6750.00    0.48726   0.49513    0.000
 6751.00    0.47838   0.49536    0.000
 6752.00    0.46022   0.49490    0.000
 6753.00    0.44527   0.49487   16.583
 6754.00    0.44303   0.49536   16.624
 6755.00    0.45686   0.49554   16.640
 6756.00    0.48250   0.49543   16.604
 6757.00    0.51053   0.49543   16.421
 6758.00    0.53079   0.49556   16.212
 6759.00    0.53651   0.49574   16.136
 6760.00    0.52910   0.49601   16.129
 6761.00    0.51463   0.49591   16.059
 6762.00    0.49794   0.49558   15.970
 6763.00    0.48365   0.49581   15.946
 6764.00    0.47828   0.49633   15.883
 6765.00    0.48386   0.49610   15.681
 6766.00    0.48984   0.49554   15.506
 6767.00    0.48568   0.49586   15.529
 6768.00    0.47768   0.49632   15.608
 6769.00    0.47796   0.49590   15.539
 6770.00    0.48807   0.49541   15.422
 6771.00    0.50157   0.49583   15.473
 6772.00    0.50997   0.49601   15.754
 6773.00    0.50801   0.49540   16.072
 6774.00    0.49881   0.49506   15.917
 6775.00    0.48792   0.49545   15.358
 6776.00    0.47632   0.49538   15.726
 6777.00    0.46485   0.49467   18.032
 6778.00    0.45945   0.49443   18.032
 6779.00    0.46447   0.49476   18.032
 6780.00    0.47516   0.49447   18.032
 6781.00    0.48275   0.49373   18.032
 6782.00    0.48095   0.49372   18.032
 6783.00    0.47120   0.49403   18.032
 6784.00    0.46607   0.49355   18.032
 6785.00    0.47359   0.49292   18.032
 6786.00    0.48334   0.49311   18.032
 6787.00    0.48484   0.49332   18.032
 6788.00    0.48474   0.49283   18.032
 6789.00    0.49086   0.49247   15.105
 6790.00    0.49723   0.49273   12.350
 6791.00    0.49594   0.49283   12.462
 6792.00    0.48836   0.49255   13.668
 6793.00    0.48099   0.49244   13.936
 6794.00    0.48028   0.49258   13.522
 6795.00    0.48656   0.49266   13.544
 6796.00    0.49076   0.49266   14.072
 6797.00    0.48720   0.49263   14.782
 6798.00    0.48288   0.49257   15.444
 6799.00    0.48490   0.49269   15.864
 6800.00    0.49065   0.49295   15.874
 6801.00    0.49385   0.49283   15.605
 6802.00    0.49021   0.49257   15.547
 6803.00    0.48203   0.49284   15.894
 6804.00    0.47938   0.49321   16.188
 6805.00    0.48625   0.49291   16.050
 6806.00    0.49243   0.49253   15.778
 6807.00    0.48804   0.49289   15.690
 6808.00    0.47345   0.49332   15.723
 6809.00    0.45460   0.49296   15.773
 6810.00    0.43824   0.49250   15.846
 6811.00    0.42480   0.49283   15.485
 6812.00    0.40656   0.49321   13.867
 6813.00    0.38529   0.49295   11.584
 6814.00    0.37939   0.49260    9.867
 6815.00    0.39679   0.49269    8.903
 6816.00    0.42224   0.49288    8.379
 6817.00    0.44361   0.49285    8.165
 6818.00    0.46456   0.49267    8.364
 6819.00    0.48231   0.49242    9.006
 6820.00    0.47975   0.49235    9.809
 6821.00    0.45648   0.49256   10.378
 6822.00    0.43999   0.49251   10.583
 6823.00    0.44995   0.49190   10.583
 6824.00    0.48093   0.49158   10.650
 6825.00    0.51709   0.49196   10.965
 6826.00    0.54251   0.49196   11.540
 6827.00    0.55075   0.49113   12.198
 6828.00    0.54765   0.49066   12.558
 6829.00    0.54174   0.49104   12.470
 6830.00    0.53878   0.49094   12.247
 6831.00    0.53985   0.49008   12.164
 6832.00    0.54114   0.48964   12.264
 6833.00    0.53772   0.48985   12.483
 6834.00    0.52611   0.48961   12.718
 6835.00    0.50790   0.48894   12.951
 6836.00    0.49025   0.48866   13.251
 6837.00    0.48083   0.48863   13.398
 6838.00    0.48422   0.48826   12.916
 6839.00    0.49639   0.48791   11.997
 6840.00    0.50594   0.48782   11.339
 6841.00    0.50840   0.48752   11.165
 6842.00    0.50873   0.48709   11.299
 6843.00    0.50850   0.48708   11.616
 6844.00    0.50334   0.48712   12.123
 6845.00    0.49336   0.48657   12.772
 6846.00    0.48448   0.48613   13.367
 6847.00    0.47851   0.48640   13.701
 6848.00    0.47192   0.48641   13.673
 6849.00    0.46501   0.48572   13.311
 6850.00    0.46311   0.48547   12.747
 6851.00    0.46921   0.48584   12.178
 6852.00    0.48235   0.48562   11.779
 6853.00    0.50103   0.48496   11.587
 6854.00    0.52213   0.48496   11.561
 6855.00    0.53377   0.48523   11.781
 6856.00    0.52168   0.48488   12.404
 6857.00    0.49550   0.48451   13.263
 6858.00    0.48242   0.48454   13.742
 6859.00    0.48338   0.48446   13.601
 6860.00    0.47539   0.48427   13.227
 6861.00    0.45773   0.48441   12.797
 6862.00    0.45200   0.48428   12.223
 6863.00    0.46350   0.48383   11.590
 6864.00    0.47925   0.48398   11.127
 6865.00    0.49371   0.48451   11.043
 6866.00    0.50925   0.48414   11.499
 6867.00    0.51847   0.48356   12.460
 6868.00    0.50826   0.48409   13.592
 6869.00    0.48226   0.48473   14.418
 6870.00    0.45683   0.48416   14.528
 6871.00    0.43652   0.48375   13.808
 6872.00    0.41823   0.48457   12.555
 6873.00    0.41574   0.48496   11.276
 6874.00    0.44903   0.48433   10.335
 6875.00    0.50599   0.48431    9.856
 6876.00    0.55092   0.48526    9.876
 6877.00    0.56391   0.48534   10.426
 6878.00    0.54727   0.48487   11.514
 6879.00    0.51878   0.48515   12.884
 6880.00    0.49978   0.48594   13.872
 6881.00    0.49384   0.48596   14.180
 6882.00    0.49084   0.48576   14.196
 6883.00    0.48479   0.48603   14.251
 6884.00    0.47580   0.48663   14.429
 6885.00    0.46647   0.48686   14.653
 6886.00    0.45947   0.48683   14.746
 6887.00    0.45470   0.48683   14.531
 6888.00    0.45198   0.48732   13.954
 6889.00    0.45689   0.48793   13.173
 6890.00    0.47317   0.48790   12.434
 6891.00    0.48765   0.48750   11.930
 6892.00    0.48467   0.48795   11.798
 6893.00    0.47490   0.48890   12.160
 6894.00    0.47837   0.48873   13.020
 6895.00    0.48786   0.48804   13.820
 6896.00    0.48499   0.48850   13.651
 6897.00    0.47600   0.48953   12.616
 6898.00    0.47811   0.48919   11.450
 6899.00    0.48894   0.48840   10.447
 6900.00    0.49815   0.48885    9.691
 6901.00    0.51209   0.48970    9.341
 6902.00    0.53853   0.48928    9.547
 6903.00    0.55946   0.48856   10.339
 6904.00    0.55252   0.48884   11.620
 6905.00    0.52680   0.48940   12.983
 6906.00    0.50540   0.48907   13.764
 6907.00    0.49410   0.48847   13.921
 6908.00    0.48829   0.48847   13.949
 6909.00    0.48804   0.48880   14.017
 6910.00    0.49333   0.48869   14.059
 6911.00    0.49560   0.48815   14.094
 6912.00    0.48605   0.48783   14.184
 6913.00    0.46734   0.48807   14.326
 6914.00    0.44957   0.48825   14.460
 6915.00    0.44295   0.48772   14.509
 6916.00    0.45190   0.48713   14.403
 6917.00    0.46937   0.48740   14.113
 6918.00    0.48410   0.48786   13.678
 6919.00    0.49002   0.48734   13.213
 6920.00    0.48981   0.48656   12.826
 6921.00    0.49651   0.48694   12.565
 6922.00    0.51788   0.48762   12.470
 6923.00    0.54019   0.48708   12.600
 6924.00    0.54352   0.48622   12.901
 6925.00    0.52057   0.48670   13.021
 6926.00    0.48408   0.48749   12.634
 6927.00    0.46920   0.48695   11.877
 6928.00    0.49505   0.48612   11.099
 6929.00    0.53036   0.48663   10.565
 6930.00    0.54136   0.48738   10.415
 6931.00    0.53812   0.48685   10.705
 6932.00    0.53764   0.48610   11.408
 6933.00    0.52805   0.48660   12.284
 6934.00    0.49820   0.48720   13.005
 6935.00    0.46478   0.48669   13.506
 6936.00    0.44609   0.48611   13.901
 6937.00    0.43856   0.48650   14.224
 6938.00    0.43442   0.48686   14.433
 6939.00    0.43734   0.48645   14.473
 6940.00    0.45112   0.48609   14.371
 6941.00    0.47011   0.48629   14.278
 6942.00    0.48709   0.48642   14.312
 6943.00    0.49971   0.48622   14.447
 6944.00    0.50661   0.48610   14.597
 6945.00    0.50478   0.48606   14.687
 6946.00    0.49624   0.48604   14.641
 6947.00    0.49138   0.48613   14.405
 6948.00    0.49420   0.48621   14.088
 6949.00    0.49405   0.48592   13.970
 6950.00    0.48613   0.48584   14.120
 6951.00    0.48342   0.48628   14.213
 6952.00    0.49315   0.48646   14.014
 6953.00    0.50301   0.48589   13.717
 6954.00    0.50232   0.48581   13.525
 6955.00    0.49521   0.48657   13.427
 6956.00    0.48879   0.48675   13.424
 6957.00    0.48554   0.48589   13.617
 6958.00    0.48646   0.48576   13.902
 6959.00    0.49306   0.48676   13.825
 6960.00    0.50499   0.48686   13.290
 6961.00    0.51893   0.48566   12.810
 6962.00    0.53131   0.48542   12.686
 6963.00    0.53961   0.48658   12.788
 6964.00    0.54088   0.48656   12.969
 6965.00    0.53185   0.48504   13.247
 6966.00    0.51477   0.48467   13.646
 6967.00    0.49882   0.48593   14.092
 6968.00    0.49003   0.48581   14.469
 6969.00    0.48677   0.48406   14.671
 6970.00    0.48509   0.48365   14.692
 6971.00    0.48209   0.48498   14.636
 6972.00    0.47791   0.48480   14.579
 6973.00    0.47520   0.48303   14.514
 6974.00    0.47238   0.48271   14.457
 6975.00    0.46274   0.48410   14.469
 6976.00    0.44623   0.48394   14.552
 6977.00    0.43264   0.48237   14.618
 6978.00    0.43030   0.48226   14.602
 6979.00    0.44071   0.48360   14.517
 6980.00    0.45836   0.48350   14.403
 6981.00    0.47362   0.48232   14.284
 6982.00    0.48460   0.48241   14.066
 6983.00    0.49869   0.48352   13.664
 6984.00    0.51762   0.48350   13.547
 6985.00    0.53343   0.48277   14.626
 6986.00    0.53773   0.48291   17.176
 6987.00    0.52666   0.48362   18.032
 6988.00    0.50436   0.48370   18.032
 6989.00    0.48224   0.48338   18.032
 6990.00    0.47149   0.48335   18.032
 6991.00    0.47754   0.48355   18.032
 6992.00    0.49126   0.48377   18.032
 6993.00    0.49318   0.48380   18.032
 6994.00    0.47928   0.48344   18.032
 6995.00    0.46357   0.48310   18.032
 6996.00    0.45537   0.48352   14.314
 6997.00    0.45394   0.48385   12.165
 6998.00    0.45720   0.48310   11.933
 6999.00    0.46393   0.48231   12.290
 7000.00    0.47125   0.48297   12.368
 7001.00    0.47575   0.48357   -2.000
 7002.00    0.47967   0.48246   -2.000
 7003.00    0.48529   0.48134   -2.000
 7004.00    0.47352   0.48226   -2.000
 7005.00    0.42107   0.48309   -2.000
 7006.00    0.36693   0.48174   -2.000
 7007.00    0.38571   0.48041   -2.000
 7008.00    0.46090   0.48155   -2.000
 7009.00    0.50211   0.48258   -2.000
 7010.00    0.48870   0.48109   -2.000
 7011.00    0.47192   0.47971   -2.000
 7012.00    0.47537   0.48100   -2.000
 7013.00    0.48431   0.48214   -2.000
 7014.00    0.48733   0.48069   -2.000
 7015.00    0.48410   0.47943   -2.000
 7016.00    0.47705   0.48077   -2.000
 7017.00    0.46944   0.48189   -2.000
 7018.00    0.46589   0.48062   -2.000
 7019.00    0.46933   0.47970   -2.000
 7020.00    0.47395   0.48098   -2.000
 7021.00    0.47034   0.48190   -2.000
 7022.00    0.46025   0.48099   -2.000
 7023.00    0.45358   0.48058   -2.000
 7024.00    0.45456   0.48169   -2.000
 7025.00    0.46081   0.48227   -2.000
 7026.00    0.46804   0.48180   -2.000
 7027.00    0.47285   0.48200   -2.000
 7028.00    0.47609   0.48283   -2.000
 7029.00    0.47917   0.48300   -2.000
 7030.00    0.47568   0.48299   -2.000
 7031.00    0.45912   0.48371   -2.000
 7032.00    0.44020   0.48422   -2.000
 7033.00    0.43616   0.48402   -2.000
 7034.00    0.44541   0.48435   -2.000
 7035.00    0.45663   0.48534   -2.000
 7036.00    0.47267   0.48550   -2.000
 7037.00    0.49892   0.48505   -2.000
 7038.00    0.51673   0.48550   -2.000
 7039.00    0.50303   0.48643   -2.000
 7040.00    0.47000   0.48626   -2.000
 7041.00    0.44802   0.48567   -2.000
 7042.00    0.44748   0.48600   -2.000
 7043.00    0.46183   0.48655   -2.000
 7044.00    0.48227   0.48611   -2.000
 7045.00    0.49994   0.48548   -2.000
 7046.00    0.50592   0.48548   -2.000
 7047.00    0.49664   0.48554   -2.000
 7048.00    0.48126   0.48495   -2.000
 7049.00    0.47265   0.48432   -2.000
 7050.00    0.47290   0.48395   -2.000
 7051.00    0.47598   0.48356   -2.000
 7052.00    0.47444   0.48300   -2.000
 7053.00    0.46580   0.48246   -2.000
 7054.00    0.45908   0.48178   -2.000
 7055.00    0.46215   0.48115   -2.000
 7056.00    0.46534   0.48079   -2.000
 7057.00    0.46006   0.48042   -2.000
 7058.00    0.46232   0.47959   -2.000
 7059.00    0.47415   0.47890   -2.000
 7060.00    0.43894   0.47882   -2.000
 7061.00    0.33113   0.47872   -2.000
 7062.00    0.25866   0.47788   -2.000
 7063.00    0.31849   0.47719   -2.000
 7064.00    0.42708   0.47737   -2.000
 7065.00    0.46525   0.47754   -2.000
 7066.00    0.45406   0.47672   -2.000
 7067.00    0.45907   0.47599   -2.000
 7068.00    0.47031   0.47631   -2.000
 7069.00    0.45607   0.47664   -2.000
 7070.00    0.42979   0.47579   -2.000
 7071.00    0.41671   0.47488   -2.000
 7072.00    0.41486   0.47515   -2.000
 7073.00    0.41591   0.47550   -2.000
 7074.00    0.42748   0.47451   -2.000
 7075.00    0.45139   0.47334   -2.000
 7076.00    0.46394   0.47341   -2.000
 7077.00    0.45019   0.47366   -2.000
 7078.00    0.43355   0.47253   -2.000
 7079.00    0.43598   0.47112   -2.000
 7080.00    0.44318   0.47094   -2.000
 7081.00    0.43864   0.47104   -2.000
 7082.00    0.43310   0.46991   -2.000
 7083.00    0.43641   0.46845   -2.000
 7084.00    0.43460   0.46808   -2.000
 7085.00    0.41728   0.46807   -2.000
 7086.00    0.39890   0.46714   -2.000
 7087.00    0.39481   0.46591   -2.000
 7088.00    0.40217   0.46550   -2.000
 7089.00    0.41207   0.46539   -2.000
 7090.00    0.42002   0.46481   -2.000
 7091.00    0.42553   0.46407   -2.000
 7092.00    0.43104   0.46379   -2.000
 7093.00    0.43961   0.46356   -2.000
 7094.00    0.45245   0.46329   -2.000
 7095.00    0.46402   0.46316   -2.000
 7096.00    0.46111   0.46313   -2.000
 7097.00    0.44129   0.46273   -2.000
 7098.00    0.42215   0.46259   -2.000
 7099.00    0.41793   0.46300   -2.000
 7100.00    0.42501   0.46326   -2.000
 7101.00    0.43181   0.46265   -2.000
 7102.00    0.42785   0.46245   -2.000
 7103.00    0.41590   0.46322   -2.000
 7104.00    0.41416   0.46371   -2.000
 7105.00    0.42477   0.46290   -2.000
 7106.00    0.42249   0.46256   -2.000
 7107.00    0.40194   0.46350   -2.000
 7108.00    0.39610   0.46403   -2.000
 7109.00    0.42075   0.46305   -2.000
 7110.00    0.44996   0.46262   -2.000
 7111.00    0.45995   0.46360   -2.000
 7112.00    0.45167   0.46395   -2.000
 7113.00    0.43742   0.46279   -2.000
 7114.00    0.43015   0.46240   -2.000
 7115.00    0.42907   0.46340   -2.000
 7116.00    0.41899   0.46344   -2.000
 7117.00    0.40308   0.46204   -2.000
 7118.00    0.40876   0.46178   -2.000
 7119.00    0.43641   0.46286   -2.000
 7120.00    0.44815   0.46261   -2.000
 7121.00    0.43313   0.46098   -2.000
 7122.00    0.42507   0.46080   -2.000
 7123.00    0.44050   0.46201   -2.000
 7124.00    0.45933   0.46170   -2.000
 7125.00    0.46620   0.45994   -2.000
 7126.00    0.46482   0.45971   -2.000
 7127.00    0.45882   0.46105   -2.000
 7128.00    0.44604   0.46098   -2.000
 7129.00    0.43020   0.45928   -2.000
 7130.00    0.42085   0.45885   -2.000
 7131.00    0.41421   0.46022   -2.000
 7132.00    0.39702   0.46060   -2.000
 7133.00    0.38992   0.45917   -2.000
 7134.00    0.43979   0.45846   -2.000
 7135.00    0.53008   0.45968   -2.000
 7136.00    0.57991   0.46059   -2.000
 7137.00    0.56165   0.45957   -2.000
 7138.00    0.52010   0.45855   -2.000
 7139.00    0.48768   0.45951   -2.000
 7140.00    0.46350   0.46086   -2.000
 7141.00    0.44655   0.46029   -2.000
 7142.00    0.44222   0.45903   -2.000
 7143.00    0.44537   0.45965   -2.000
 7144.00    0.44154   0.46132   -2.000
 7145.00    0.42844   0.46116   -2.000
 7146.00    0.41656   0.45975   -2.000
 7147.00    0.41015   0.46006   -2.000
 7148.00    0.40712   0.46189   -2.000
 7149.00    0.41601   0.46210   -2.000
 7150.00    0.44660   0.46065   -2.000
 7151.00    0.46936   0.46065   -2.000
 7152.00    0.43858   0.46248   -2.000
 7153.00    0.38650   0.46303   -2.000
 7154.00    0.39457   0.46169   -2.000
 7155.00    0.44782   0.46139   -2.000
 7156.00    0.45668   0.46303   -2.000
 7157.00    0.41524   0.46389   -2.000
 7158.00    0.39197   0.46280   -2.000
 7159.00    0.40115   0.46221   -2.000
 7160.00    0.40450   0.46350   -2.000
 7161.00    0.39566   0.46460   -2.000
 7162.00    0.39945   0.46387   -2.000
 7163.00    0.42068   0.46301   -2.000
 7164.00    0.44177   0.46386   -2.000
 7165.00    0.44630   0.46511   -2.000
 7166.00    0.42947   0.46472   -2.000
 7167.00    0.40806   0.46365   -2.000
 7168.00    0.40606   0.46406   -2.000
 7169.00    0.41982   0.46536   -2.000
 7170.00    0.42755   0.46521   -2.000
 7171.00    0.42442   0.46393   -2.000
 7172.00    0.42047   0.46397   -2.000
 7173.00    0.42131   0.46528   -2.000
 7174.00    0.42416   0.46527   -2.000
 7175.00    0.41836   0.46378   -2.000
 7176.00    0.39766   0.46352   -2.000
 7177.00    0.38200   0.46483   -2.000
 7178.00    0.39449   0.46496   -2.000
 7179.00    0.41363   0.46331   -2.000
 7180.00    0.40503   0.46278   -2.000
 7181.00    0.39109   0.46409   -2.000
 7182.00    0.41574   0.46445   -2.000
 7183.00    0.46464   0.46278   -2.000
 7184.00    0.48979   0.46200   -2.000
 7185.00    0.47327   0.46325   -2.000
 7186.00    0.43125   0.46395   -2.000
 7187.00    0.40165   0.46247   -2.000
 7188.00    0.41451   0.46147   -2.000
 7189.00    0.45081   0.46253   -2.000
 7190.00    0.47615   0.46357   -2.000
 7191.00    0.49889   0.46250   -2.000
 7192.00    0.53409   0.46137   -2.000
 7193.00    0.54147   0.46209   -2.000
 7194.00    0.48655   0.46334   -2.000
 7195.00    0.43452   0.46279   -2.000
 7196.00    0.45991   0.46169   -2.000
 7197.00    0.50982   0.46202   -2.000
 7198.00    0.49254   0.46323   -2.000
 7199.00    0.41717   0.46318   -2.000
 7200.00    0.34808   0.46234   -2.000
 7201.00    0.32186   0.46235   -2.000
 7202.00    0.33937   0.46329   -2.000
 7203.00    0.37096   0.46362   -2.000
 7204.00    0.38492   0.46323   -2.000
 7205.00    0.38047   0.46315   -2.000
 7206.00    0.37696   0.46372   -2.000
 7207.00    0.39413   0.46420   -2.000
 7208.00    0.42078   0.46435   -2.000
 7209.00    0.38924   0.46442   -2.000
 7210.00    0.27516   0.46466   -2.000
 7211.00    0.19804   0.46510   -2.000
 7212.00    0.25812   0.46573   -2.000
 7213.00    0.36294   0.46612   -2.000
 7214.00    0.38724   0.46614   -2.000
 7215.00    0.34997   0.46638   -2.000
 7216.00    0.31969   0.46734   -2.000
 7217.00    0.30552   0.46810   -2.000
 7218.00    0.30656   0.46798   -2.000
