###################################################################
## OUTPUT of StarlightChains_v04.for    [Cid@UFSC - 01/Apr/2007] ##
###################################################################

## Some input info
2003ds.txt                               [arq_obs]
Base.CB07.vall.4m                        [arq_base]
Masks.EmLines.NEW.gm                     [arq_masks]
StCv04.C11.config                        [arq_config]
   66                                    [N_base]
    0                                    [N_YAV_components = # of components with extra extinction!]
    0                                    [i_FitPowerLaw (1/0 = Yes/No)]
-9.99                                    [alpha_PowerLaw]
CCM                                      [red_law_option]
 1.458241                                [q_norm = A(l_norm)/A(V)]

## (Re)Sampling Parameters
 3741.00                                 [l_ini (A)]
 7218.00                                 [l_fin (A)]
    1.00                                 [dl    (A)]     (OBS: dl_cushion =    50.00 A)

## Normalization info
 4020.00                                 [l_norm (A) - for base]
 4010.00                                 [llow_norm (A) - window for f_obs]
 4060.00                                 [lupp_norm (A) - window for f_obs]
1.524527E-16                             [fobs_norm (in input units)]

## S/N
 3691.00                                 [llow_SN (A) - window for S/N]
 7268.00                                 [lupp_SN (A) - window for S/N]
   5.165                                 [S/N in S/N window]
   7.010                                 [S/N in norm. window]
  14.806                                 [S/N_err in S/N window]
  20.094                                 [S/N_err in norm. window]
  1.0000                                 [fscale_chi2]

## etc...
    -2007273                             [idum_orig]
  2319                                   [NOl_eff]
  2305                                   [Nl_eff]
    14    NSIGMA                         [Ntot_cliped & clip_method]
  1363530                                [Nglobal_steps]
   7                                     [N_chains]
  18                                     [NEX0s_base = N_base in EX0s-fits]
 0   0   1        2   2.0   5.713E+01    [Clip-Bug, RC-Crash & Burn-In warning-flags, n_censored_weights, wei_nsig_threshold & wei_limit]
    16     15.374     14.843      0.531  [idt_all, wdt_TotTime, wdt_UsrTime & wdt_SysTime (sec)]

## Synthesis Results - Best model ##

 3.05553E-01                             [chi2/Nl_eff]
     2.58533                             [adev (%)]

   104.96233                             [sum-of-x (%)]
 2.57554E-16                             [Flux_tot (units of input spectrum!)]
 3.77572E-13                             [Mini_tot (???)]
 2.41524E-13                             [Mcor_tot (???)]

   0.00                                  [v0_min  (km/s)]
 309.96                                  [vd_min  (km/s)]
 0.3544                                  [AV_min  (mag)]
 0.0000                                  [YAV_min (mag)]

# j     x_j(%)      Mini_j(%)     Mcor_j(%)     age_j(yr)     Z_j      (L/M)_j    YAV?  Mstars   component_j        a/Fe...       SSP_chi2r SSP_adev(%)   SSP_AV   SSP_x(%)
  1      0.0000     0.0000E+00    0.0000E+00    1.000000E+06  0.00400  1.094E-02    0   1.0000   age020_m42            0.0000     9.4700E-01     5.4640   2.3259    84.9062
  2      0.6062     9.8313E-03    1.5368E-02    3.160000E+06  0.00400  4.007E-02    0   0.9999   age045_m42            0.0000     6.1266E-01     3.9562   1.5521    93.0739
  3      0.0000     0.0000E+00    0.0000E+00    5.010000E+06  0.00400  2.539E-02    0   0.9488   age055_m42            0.0000     6.9633E-01     4.4855   1.8869    90.0714
  4      0.0000     0.0000E+00    0.0000E+00    6.610000E+06  0.00400  2.620E-02    0   0.9220   age061_m42            0.0000     5.5220E-01     3.6934   1.4657    93.9019
  5      1.3853     6.8102E-02    9.4347E-02    1.000000E+07  0.00400  1.322E-02    0   0.8862   age070_m42            0.0000     4.5009E-01     3.3198   1.1323    98.2757
  6      0.0000     0.0000E+00    0.0000E+00    1.445000E+07  0.00400  7.883E-03    0   0.8571   age078_m42            0.0000     5.2855E-01     3.7366   1.4798    94.8240
  7      0.0000     0.0000E+00    0.0000E+00    2.512000E+07  0.00400  5.251E-03    0   0.8174   age090_m42            0.0000     4.3990E-01     3.2375   0.9883    99.4887
  8     15.1430     2.6970E+00    3.3101E+00    4.000000E+07  0.00400  3.649E-03    0   0.7851   age104_m42            0.0000     3.9293E-01     3.0094   0.7582   100.4743
  9      6.2346     1.3079E+00    1.5598E+00    5.500000E+07  0.00400  3.098E-03    0   0.7629   age110_m42            0.0000     3.8026E-01     2.8962   0.9262    99.8719
 10      0.0000     0.0000E+00    0.0000E+00    1.015200E+08  0.00400  2.228E-03    0   0.7207   age116_m42            0.0000     4.1042E-01     3.0088   0.9541    99.7521
 11      0.0000     0.0000E+00    0.0000E+00    2.861200E+08  0.00400  1.093E-03    0   0.6648   age125_m42            0.0000     4.4640E-01     3.1191   0.3613   104.2764
 12      0.0000     0.0000E+00    0.0000E+00    5.088000E+08  0.00400  6.597E-04    0   0.6365   age130_m42            0.0000     4.9703E-01     3.3252   0.3681   104.2956
 13      3.2346     9.8600E+00    8.9370E+00    1.434000E+09  0.00400  2.132E-04    0   0.5798   age139_m42            0.0000     4.8377E-01     3.4792  -0.5922   105.6260
 14      0.0000     0.0000E+00    0.0000E+00    4.250000E+09  0.00400  5.895E-05    0   0.5377   age158_m42            0.0000     6.2944E-01     4.2482  -0.9651    98.2678
 15      0.0000     0.0000E+00    0.0000E+00    7.500000E+09  0.00400  3.510E-05    0   0.5212   age171_m42            0.0000     9.0616E-01     5.3833  -1.0000    90.9348
 16      0.0000     0.0000E+00    0.0000E+00    1.300000E+10  0.00400  2.005E-05    0   0.5034   age193_m42            0.0000     1.4899E+00     7.1353  -1.0000    83.7149
 17      0.0000     0.0000E+00    0.0000E+00    1.800000E+10  0.00400  1.525E-05    0   0.4967   age213_m42            0.0000     1.5716E+00     7.3771  -1.0000    82.3963
 18      0.0000     0.0000E+00    0.0000E+00    1.000000E+06  0.00800  1.238E-02    0   1.0000   age020_m52            0.0000     9.4649E-01     5.4669   2.3222    85.0683
 19      0.6143     1.2988E-02    2.0234E-02    3.160000E+06  0.00800  3.074E-02    0   0.9966   age045_m52            0.0000     9.0533E-01     5.3400   2.2418    85.9767
 20      0.0000     0.0000E+00    0.0000E+00    5.010000E+06  0.00800  2.668E-02    0   0.9443   age055_m52            0.0000     7.1903E-01     4.6270   1.9727    89.0730
 21      0.0000     0.0000E+00    0.0000E+00    6.610000E+06  0.00800  2.136E-02    0   0.9177   age061_m52            0.0000     4.8275E-01     3.4714   0.6501    98.4027
 22      0.0029     1.5371E-04    2.1210E-04    1.000000E+07  0.00800  1.215E-02    0   0.8827   age070_m52            0.0000     5.1979E-01     3.5926   1.3090    98.2218
 23      0.0000     0.0000E+00    0.0000E+00    1.445000E+07  0.00800  8.717E-03    0   0.8552   age078_m52            0.0000     4.8408E-01     3.5386   1.4375    96.4967
 24     10.5610     1.2274E+00    1.5661E+00    2.512000E+07  0.00800  5.592E-03    0   0.8162   age090_m52            0.0000     4.1962E-01     3.1558   1.0479   100.9490
 25      3.5918     5.9914E-01    7.3442E-01    4.000000E+07  0.00800  3.896E-03    0   0.7841   age104_m52            0.0000     3.7731E-01     2.9388   0.9623   101.7345
 26      3.6320     1.0989E+00    1.2413E+00    1.015200E+08  0.00800  2.148E-03    0   0.7226   age116_m52            0.0000     3.6543E-01     2.8164   0.9138   100.9592
 27      0.0000     0.0000E+00    0.0000E+00    2.861200E+08  0.00800  9.925E-04    0   0.6683   age125_m52            0.0000     4.5995E-01     3.1966   0.4288   105.4241
 28      0.0000     0.0000E+00    0.0000E+00    9.047900E+08  0.00800  3.141E-04    0   0.6138   age135_m52            0.0000     6.3809E-01     4.0907  -0.3334   108.0187
 29      0.0000     0.0000E+00    0.0000E+00    1.434000E+09  0.00800  1.719E-04    0   0.5853   age139_m52            0.0000     6.7468E-01     4.2526  -0.8912   104.7280
 30      0.0000     0.0000E+00    0.0000E+00    2.500000E+09  0.00800  7.872E-05    0   0.5600   age150_m52            0.0000     9.6786E-01     5.5408  -1.0000    94.4601
 31      0.0000     0.0000E+00    0.0000E+00    4.250000E+09  0.00800  4.336E-05    0   0.5426   age158_m52            0.0000     9.8861E-01     5.6309  -1.0000    92.8868
 32      0.0000     0.0000E+00    0.0000E+00    6.250000E+09  0.00800  3.159E-05    0   0.5319   age166_m52            0.0000     1.7646E+00     7.7483  -1.0000    84.4374
 33      0.0000     0.0000E+00    0.0000E+00    1.300000E+10  0.00800  1.361E-05    0   0.5073   age193_m52            0.0000     4.9288E+00    13.8688  -1.0000    66.7711
 34      0.0000     0.0000E+00    0.0000E+00    1.800000E+10  0.00800  9.886E-06    0   0.4990   age213_m52            0.0000     5.8743E+00    15.1764  -1.0000    63.0746
 35      0.0000     0.0000E+00    0.0000E+00    1.000000E+06  0.02000  1.544E-02    0   1.0000   age020_m62            0.0000     9.5619E-01     5.5102   2.3200    85.1947
 36      0.0000     0.0000E+00    0.0000E+00    3.160000E+06  0.02000  3.762E-02    0   0.9858   age045_m62            0.0000     9.4381E-01     5.4810   2.2578    86.0130
 37      0.0000     0.0000E+00    0.0000E+00    5.010000E+06  0.02000  3.296E-02    0   0.9342   age055_m62            0.0000     6.5134E-01     4.2351   1.8426    91.4203
 38     12.5548     7.0703E-01    9.7941E-01    8.710000E+06  0.02000  1.154E-02    0   0.8861   age067_m62            0.0000     1.6162E+00     5.9371   0.6961   104.1174
 39      0.0000     0.0000E+00    0.0000E+00    1.445000E+07  0.02000  7.663E-03    0   0.8472   age078_m62            0.0000     7.1943E-01     3.9946   0.9341   101.6417
 40      0.0000     0.0000E+00    0.0000E+00    2.512000E+07  0.02000  4.532E-03    0   0.8099   age090_m62            0.0000     7.5902E-01     4.0705   0.9144   102.0419
 41      3.4857     8.2886E-01    9.8412E-01    5.500000E+07  0.02000  2.733E-03    0   0.7595   age110_m62            0.0000     3.7925E-01     2.9583   0.9477   100.8481
 42      0.0000     0.0000E+00    0.0000E+00    1.609000E+08  0.02000  1.369E-03    0   0.6985   age120_m62            0.0000     3.9388E-01     2.9522   0.7865   103.7657
 43      0.1411     1.0171E-01    1.0676E-01    2.861200E+08  0.02000  9.013E-04    0   0.6714   age125_m62            0.0000     5.0822E-01     3.3375   0.5318   106.9865
 44      0.0000     0.0000E+00    0.0000E+00    5.088000E+08  0.02000  5.028E-04    0   0.6449   age130_m62            0.0000     7.3306E-01     4.2130   0.1917   107.9787
 45      0.0000     0.0000E+00    0.0000E+00    9.047900E+08  0.02000  2.428E-04    0   0.6179   age135_m62            0.0000     7.1216E-01     4.4073  -0.3549   105.3715
 46      0.0000     0.0000E+00    0.0000E+00    1.434000E+09  0.02000  1.263E-04    0   0.5908   age139_m62            0.0000     7.8173E-01     4.7684  -0.7752   102.6059
 47      0.0000     0.0000E+00    0.0000E+00    2.500000E+09  0.02000  5.985E-05    0   0.5673   age150_m62            0.0000     1.1690E+00     6.1419  -1.0000    94.7507
 48      0.0000     0.0000E+00    0.0000E+00    4.250000E+09  0.02000  3.271E-05    0   0.5468   age158_m62            0.0000     2.4673E+00     9.1780  -1.0000    81.2862
 49      0.0000     0.0000E+00    0.0000E+00    1.000000E+10  0.02000  1.360E-05    0   0.5167   age181_m62            0.0000     4.9378E+00    13.5162  -1.0000    68.4283
 50      0.0000     0.0000E+00    0.0000E+00    1.800000E+10  0.02000  7.124E-06    0   0.5013   age213_m62            0.0000     6.7622E+00    16.1029  -1.0000    61.3035
 51      0.0000     0.0000E+00    0.0000E+00    1.000000E+06  0.05000  2.592E-02    0   0.9998   age020_m72            0.0000     9.8713E-01     5.6099   2.3135    85.1087
 52      0.0000     0.0000E+00    0.0000E+00    3.160000E+06  0.05000  4.845E-02    0   0.9577   age045_m72            0.0000     8.3375E-01     5.0533   2.1300    87.6805
 53      0.0000     0.0000E+00    0.0000E+00    5.010000E+06  0.05000  3.072E-02    0   0.9147   age055_m72            0.0000     7.4366E-01     4.4106   1.5817    95.1592
 54      0.0000     0.0000E+00    0.0000E+00    6.610000E+06  0.05000  1.455E-02    0   0.8877   age061_m72            0.0000     3.5255E+00     8.1078   0.7503   106.0317
 55      0.0000     0.0000E+00    0.0000E+00    1.000000E+07  0.05000  9.074E-03    0   0.8524   age070_m72            0.0000     9.9103E-01     4.9622   1.7901    94.4179
 56      0.0000     0.0000E+00    0.0000E+00    2.512000E+07  0.05000  4.250E-03    0   0.7902   age090_m72            0.0000     7.1748E-01     4.0355   1.4411    98.1202
 57      0.0000     0.0000E+00    0.0000E+00    4.000000E+07  0.05000  3.087E-03    0   0.7618   age104_m72            0.0000     7.5683E-01     3.9219   1.1893   100.9329
 58      0.0192     7.3548E-03    8.1588E-03    1.015200E+08  0.05000  1.700E-03    0   0.7096   age116_m72            0.0000     3.9636E-01     2.9580   0.9186   103.9466
 59      8.4641     7.4495E+00    7.7246E+00    2.861200E+08  0.05000  7.384E-04    0   0.6633   age125_m72            0.0000     6.1361E-01     3.7196   0.4164   107.6494
 60     28.8720     4.9132E+01    4.8942E+01    5.088000E+08  0.05000  3.819E-04    0   0.6372   age130_m72            0.0000     7.2443E-01     4.3469  -0.0332   107.1156
 61      6.4196     2.4892E+01    2.3776E+01    9.047900E+08  0.05000  1.676E-04    0   0.6110   age135_m72            0.0000     1.0487E+00     5.6606  -0.6570   101.7176
 62      0.0000     0.0000E+00    0.0000E+00    1.434000E+09  0.05000  8.837E-05    0   0.5874   age139_m72            0.0000     1.2686E+00     6.3958  -1.0000    96.1286
 63      0.0000     0.0000E+00    0.0000E+00    2.500000E+09  0.05000  4.233E-05    0   0.5598   age150_m72            0.0000     2.5842E+00     9.3597  -1.0000    82.0094
 64      0.0000     0.0000E+00    0.0000E+00    6.250000E+09  0.05000  1.435E-05    0   0.5249   age166_m72            0.0000     5.7583E+00    14.7416  -1.0000    64.9886
 65      0.0000     0.0000E+00    0.0000E+00    1.300000E+10  0.05000  6.513E-06    0   0.5036   age193_m72            0.0000     8.3666E+00    18.1176  -1.0000    57.2023
 66      0.0000     0.0000E+00    0.0000E+00    1.800000E+10  0.05000  4.527E-06    0   0.4945   age213_m72            0.0000     9.9721E+00    19.9261  -1.0000    52.7416


## Synthesis Results - Average & Chains ##

# j      x_j: min, <> & last-chain-values for 1 ...  7 chains
  1      0.0000      0.2442      1.2140      0.1451      0.0000      0.0000      0.0000      0.2635      0.0117
  2      0.6062      0.6888      1.2781      0.9560      0.4914      1.6948      0.4175      0.7586      0.0000
  3      0.0000      0.4696      0.2855      0.0000      0.3188      0.0416      0.0000      0.0000      0.0000
  4      0.0000      0.5077      0.0000      1.8258      0.0000      0.0000      0.7618      2.0380      0.0000
  5      1.3853      1.2118      0.1338      1.9111      0.0000      2.9496      0.0000      0.0828      2.9001
  6      0.0000      0.5707      0.0000      0.4270      0.0965      0.1154      0.0000      0.7591      0.0000
  7      0.0000      2.2362      5.7445      4.1851      4.4390      0.0000      2.4154      2.9311      2.9586
  8     15.1430      8.0999     10.5155      8.4609      8.0912     11.0026      9.2200      8.9539     10.1955
  9      6.2346      1.0090      0.0000      0.0000      1.9862      3.3895      4.4413      0.0000      1.8119
 10      0.0000      1.2459      0.7209      0.1760      1.9495      0.0000      0.8562      1.6266      1.7251
 11      0.0000      0.6472      0.0000      0.0000      0.0000      0.2711      0.0000      0.0000      0.0000
 12      0.0000      1.0989      0.0000      0.0000      0.0000      0.0000      0.0000      0.0000      0.1826
 13      3.2346      4.1344      5.4668      4.2939      4.2632      4.4403      3.4233      4.7302      4.9566
 14      0.0000      0.4173      0.4709      0.0243      0.0000      0.0000      0.6595      0.8486      0.3014
 15      0.0000      0.0107      0.0000      0.0000      0.0000      0.0000      0.0000      0.0000      0.0000
 16      0.0000      0.0313      0.0000      0.0000      0.0000      0.0000      0.0000      0.0000      0.0000
 17      0.0000      0.0214      0.0000      0.0000      0.0000      0.0000      0.2779      0.0000      0.0000
 18      0.0000      0.1943      0.0000      0.3048      0.0000      0.0000      0.0000      0.3775      1.1608
 19      0.6143      0.4058      0.0000      0.4287      0.0000      0.6709      0.0000      0.9394      0.3145
 20      0.0000      0.2781      0.0658      1.5338      0.5013      0.0000      0.0000      0.0000      2.2339
 21      0.0000      4.7048      1.6533      3.8762      4.2244      7.1795      5.3692      4.3217      4.8789
 22      0.0029      0.9782      0.6332      0.2658      0.0000      1.3104      1.5524      1.0008      1.0948
 23      0.0000      0.2543      0.0000      0.0000      3.3786      0.0000      0.0749      0.0000      0.5980
 24     10.5610      3.8145      5.5050      4.1110      1.8299      3.1348      4.2580      4.8596      2.2047
 25      3.5918      2.1379      2.7872      0.2774      1.3530      1.6304      2.0891      4.3565      3.0308
 26      3.6320      2.9566      4.0608      4.1518      1.9641      4.5099      3.7187      2.7427      2.6582
 27      0.0000      1.5846      0.9144      1.1433      0.8021      0.0000      0.0000      0.0000      0.0000
 28      0.0000      0.3194      0.0000      0.0000      0.0000      0.0000      0.1852      0.0000      0.6504
 29      0.0000      0.0377      0.0000      0.1867      0.0000      0.0000      0.0000      0.0028      0.0000
 30      0.0000      0.0495      0.0000      0.0000      0.0000      0.0000      0.0000      0.0000      0.0000
 31      0.0000      0.0160      0.0850      0.0000      0.0000      0.0000      0.0000      0.0000      0.0000
 32      0.0000      0.0262      0.0000      0.0000      0.0000      0.0000      0.0000      0.0000      0.0000
 33      0.0000      0.0420      0.0000      0.0000      0.0000      0.0000      0.0000      0.0000      0.0000
 34      0.0000      0.0012      0.0000      0.0000      0.0000      0.0000      0.0000      0.0000      0.0000
 35      0.0000      0.2233      0.0000      0.0000      0.8968      0.0000      0.1759      0.3949      0.0516
 36      0.0000      0.3365      0.0000      0.0000      1.9452      0.0000      0.0000      0.0000      0.1619
 37      0.0000      0.3369      0.0000      0.0000      0.0000      0.0000      0.0000      0.1207      0.0000
 38     12.5548     10.3672      9.0742     12.5474      8.1305     12.3827     11.1846     10.3617     10.8308
 39      0.0000      0.5348      0.8587      0.4196      0.0756      0.0000      0.2118      0.7572      0.0000
 40      0.0000      0.6463      0.0000      0.5352      2.5374      0.0000      0.3800      0.0000      1.2202
 41      3.4857      4.3071      4.5870      0.0572      6.7998      4.4074      6.9311      3.7830      2.0949
 42      0.0000      0.8986      1.2992      0.1207      1.6578      0.2335      0.0000      0.0000      0.0000
 43      0.1411      5.0833      2.7898      1.7866      6.0413      5.9896      4.4078      4.2010      5.4922
 44      0.0000      2.4539      0.7621      0.7142      0.0000      0.0000      0.0000      1.9869      1.1453
 45      0.0000      0.4245      0.0000      0.0000      1.0627      0.4769      1.0810      0.0000      0.0000
 46      0.0000      0.0792      0.4213      0.0000      0.0000      0.0000      0.0000      0.0000      0.0000
 47      0.0000      0.4485      0.0000      0.5726      1.2060      0.0000      0.5810      0.1677      0.4380
 48      0.0000      0.0898      0.0000      0.0000      0.0000      0.0000      0.2894      0.0000      0.0000
 49      0.0000      0.0355      0.0000      0.0000      0.0000      0.0000      0.0000      0.0000      0.0000
 50      0.0000      0.0055      0.0000      0.0000      0.0000      0.0000      0.0000      0.0000      0.0000
 51      0.0000      0.2108      0.3417      1.7009      0.0000      0.6214      0.8359      0.0000      0.2912
 52      0.0000      0.1322      0.9486      0.0000      0.0000      0.0000      0.3768      0.3196      0.0000
 53      0.0000      0.1743      0.0000      0.0000      0.0000      0.0000      0.0000      0.0000      0.0000
 54      0.0000      0.1727      0.0000      0.0000      0.0000      0.0000      0.0000      0.0000      0.0000
 55      0.0000      0.2360      0.0979      0.0000      0.6276      0.0000      0.0000      0.4486      0.0000
 56      0.0000      0.1933      0.0000      0.0000      0.0000      0.0000      0.0821      0.0000      0.0000
 57      0.0000      0.3887      0.0000      0.0000      0.0000      0.0000      0.0000      0.0000      0.0000
 58      0.0192      0.7227      0.6121      4.2855      0.0000      0.9047      0.0000      1.5493      0.5045
 59      8.4641     15.5672     18.4043     19.7696     14.3040     12.0884     17.0509     15.9117     16.0396
 60     28.8720     16.9580     18.9681     19.7064     20.0027     21.1364     18.1205     18.9970     19.1455
 61      6.4196      3.4855      4.4911      4.2509      3.7907      4.0985      3.4149      4.1773      3.4903
 62      0.0000      0.0172      0.0000      0.1979      0.0000      0.0000      0.0000      0.0000      0.0000
 63      0.0000      0.0525      0.0000      0.0000      0.0000      0.2749      0.0000      0.0000      0.4128
 64      0.0000      0.0093      0.0000      0.0000      0.0000      0.0000      0.0000      0.0000      0.0000
 65      0.0000      0.0047      0.0000      0.0000      0.0000      0.0000      0.0000      0.0000      0.0000
 66      0.0000      0.0273      0.0000      0.0000      0.1922      0.0000      0.0000      0.2042      0.0000

# j      m_j: min, <> & last-chain-values for 1 ...  7 chains
  1  0.0000E+00  2.0991E-02  1.1113E-01  1.3730E-02  0.0000E+00  0.0000E+00  0.0000E+00  2.0072E-02  1.0738E-03
  2  1.5368E-02  1.6162E-02  3.1940E-02  2.4694E-02  1.0124E-02  4.6221E-02  9.6036E-03  1.5776E-02  0.0000E+00
  3  0.0000E+00  1.6501E-02  1.0685E-02  0.0000E+00  9.8378E-03  1.6974E-03  0.0000E+00  0.0000E+00  0.0000E+00
  4  0.0000E+00  1.6800E-02  0.0000E+00  6.6512E-02  0.0000E+00  0.0000E+00  2.4715E-02  5.9764E-02  0.0000E+00
  5  9.4347E-02  7.6380E-02  8.9797E-03  1.3262E-01  0.0000E+00  2.1609E-01  0.0000E+00  4.6273E-03  1.9441E-01
  6  0.0000E+00  5.8343E-02  0.0000E+00  4.8065E-02  8.6648E-03  1.3711E-02  0.0000E+00  6.8779E-02  0.0000E+00
  7  0.0000E+00  3.2730E-01  8.9556E-01  6.7438E-01  5.7053E-01  0.0000E+00  3.4663E-01  3.8022E-01  4.6057E-01
  8  3.3101E+00  1.6386E+00  2.2658E+00  1.8844E+00  1.4374E+00  2.5872E+00  1.8288E+00  1.6054E+00  2.1937E+00
  9  1.5598E+00  2.3363E-01  0.0000E+00  0.0000E+00  4.0385E-01  9.1224E-01  1.0083E+00  0.0000E+00  4.4620E-01
 10  0.0000E+00  3.7895E-01  2.3354E-01  5.8927E-02  5.2067E-01  0.0000E+00  2.5534E-01  4.3847E-01  5.5804E-01
 11  0.0000E+00  3.7011E-01  0.0000E+00  0.0000E+00  0.0000E+00  1.8018E-01  0.0000E+00  0.0000E+00  0.0000E+00
 12  0.0000E+00  9.9687E-01  0.0000E+00  0.0000E+00  0.0000E+00  0.0000E+00  0.0000E+00  0.0000E+00  1.7614E-01
 13  8.9370E+00  1.0572E+01  1.4889E+01  1.2088E+01  9.5727E+00  1.3198E+01  8.5825E+00  1.0720E+01  1.3480E+01
 14  0.0000E+00  3.5786E+00  4.3018E+00  2.2903E-01  0.0000E+00  0.0000E+00  5.5454E+00  6.4500E+00  2.7495E+00
 15  0.0000E+00  1.4892E-01  0.0000E+00  0.0000E+00  0.0000E+00  0.0000E+00  0.0000E+00  0.0000E+00  0.0000E+00
 16  0.0000E+00  7.3801E-01  0.0000E+00  0.0000E+00  0.0000E+00  0.0000E+00  0.0000E+00  0.0000E+00  0.0000E+00
 17  0.0000E+00  6.5601E-01  0.0000E+00  0.0000E+00  0.0000E+00  0.0000E+00  8.3440E+00  0.0000E+00  0.0000E+00
 18  0.0000E+00  1.4757E-02  0.0000E+00  2.5486E-02  0.0000E+00  0.0000E+00  0.0000E+00  2.5413E-02  9.3770E-02
 19  2.0234E-02  1.2371E-02  0.0000E+00  1.4387E-02  0.0000E+00  2.3770E-02  0.0000E+00  2.5379E-02  1.0197E-02
 20  0.0000E+00  9.2563E-03  2.3333E-03  5.6196E-02  1.4649E-02  0.0000E+00  0.0000E+00  0.0000E+00  7.9070E-02
 21  0.0000E+00  1.9006E-01  7.1139E-02  1.7239E-01  1.4986E-01  3.3711E-01  2.1266E-01  1.5473E-01  2.0962E-01
 22  2.1210E-04  6.6819E-02  4.6074E-02  1.9988E-02  0.0000E+00  1.0404E-01  1.0398E-01  6.0587E-02  7.9539E-02
 23  0.0000E+00  2.3455E-02  0.0000E+00  0.0000E+00  2.7368E-01  0.0000E+00  6.7709E-03  0.0000E+00  5.8665E-02
 24  1.5661E+00  5.2349E-01  8.0471E-01  6.2113E-01  2.2052E-01  5.0007E-01  5.7295E-01  5.9107E-01  3.2181E-01
 25  7.3442E-01  4.0456E-01  5.6178E-01  5.7782E-02  2.2483E-01  3.5862E-01  3.8761E-01  7.3063E-01  6.1000E-01
 26  1.2413E+00  9.3520E-01  1.3681E+00  1.4458E+00  5.4556E-01  1.6581E+00  1.1533E+00  7.6888E-01  8.9426E-01
 27  0.0000E+00  1.0032E+00  6.1666E-01  7.9692E-01  4.4595E-01  0.0000E+00  0.0000E+00  0.0000E+00  0.0000E+00
 28  0.0000E+00  5.8680E-01  0.0000E+00  0.0000E+00  0.0000E+00  0.0000E+00  3.3368E-01  0.0000E+00  1.2710E+00
 29  0.0000E+00  1.2084E-01  0.0000E+00  6.5796E-01  0.0000E+00  0.0000E+00  0.0000E+00  7.9886E-03  0.0000E+00
 30  0.0000E+00  3.3086E-01  0.0000E+00  0.0000E+00  0.0000E+00  0.0000E+00  0.0000E+00  0.0000E+00  0.0000E+00
 31  0.0000E+00  1.8859E-01  1.0657E+00  0.0000E+00  0.0000E+00  0.0000E+00  0.0000E+00  0.0000E+00  0.0000E+00
 32  0.0000E+00  4.1501E-01  0.0000E+00  0.0000E+00  0.0000E+00  0.0000E+00  0.0000E+00  0.0000E+00  0.0000E+00
 33  0.0000E+00  1.4705E+00  0.0000E+00  0.0000E+00  0.0000E+00  0.0000E+00  0.0000E+00  0.0000E+00  0.0000E+00
 34  0.0000E+00  5.6126E-02  0.0000E+00  0.0000E+00  0.0000E+00  0.0000E+00  0.0000E+00  0.0000E+00  0.0000E+00
 35  0.0000E+00  1.3600E-02  0.0000E+00  0.0000E+00  4.7957E-02  0.0000E+00  1.0503E-02  2.1314E-02  3.3417E-03
 36  0.0000E+00  8.2921E-03  0.0000E+00  0.0000E+00  4.2085E-02  0.0000E+00  0.0000E+00  0.0000E+00  4.2435E-03
 37  0.0000E+00  8.9774E-03  0.0000E+00  0.0000E+00  0.0000E+00  0.0000E+00  0.0000E+00  2.8499E-03  0.0000E+00
 38  9.7941E-01  7.4848E-01  6.9781E-01  9.9733E-01  5.1546E-01  1.0391E+00  7.9174E-01  6.6301E-01  8.3167E-01
 39  0.0000E+00  5.5598E-02  9.5077E-02  4.8025E-02  6.9017E-03  0.0000E+00  2.1589E-02  6.9762E-02  0.0000E+00
 40  0.0000E+00  1.0859E-01  0.0000E+00  9.9010E-02  3.7440E-01  0.0000E+00  6.2613E-02  0.0000E+00  2.1806E-01
 41  9.8412E-01  1.1254E+00  1.2766E+00  1.6460E-02  1.5602E+00  1.3386E+00  1.7757E+00  8.7607E-01  5.8218E-01
 42  0.0000E+00  4.3108E-01  6.6388E-01  6.3764E-02  6.9840E-01  1.3023E-01  0.0000E+00  0.0000E+00  0.0000E+00
 43  1.0676E-01  3.5604E+00  2.0813E+00  1.3777E+00  3.7158E+00  4.8764E+00  3.0271E+00  2.6078E+00  4.0914E+00
 44  0.0000E+00  2.9594E+00  9.7901E-01  9.4827E-01  0.0000E+00  0.0000E+00  0.0000E+00  2.1236E+00  1.4690E+00
 45  0.0000E+00  1.0157E+00  0.0000E+00  0.0000E+00  2.2330E+00  1.3263E+00  2.5363E+00  0.0000E+00  0.0000E+00
 46  0.0000E+00  3.4840E-01  1.9737E+00  0.0000E+00  0.0000E+00  0.0000E+00  0.0000E+00  0.0000E+00  0.0000E+00
 47  0.0000E+00  3.9973E+00  0.0000E+00  5.6179E+00  9.4388E+00  0.0000E+00  5.0770E+00  1.3247E+00  4.1519E+00
 48  0.0000E+00  1.4112E+00  0.0000E+00  0.0000E+00  0.0000E+00  0.0000E+00  4.4602E+00  0.0000E+00  0.0000E+00
 49  0.0000E+00  1.2666E+00  0.0000E+00  0.0000E+00  0.0000E+00  0.0000E+00  0.0000E+00  0.0000E+00  0.0000E+00
 50  0.0000E+00  3.6653E-01  0.0000E+00  0.0000E+00  0.0000E+00  0.0000E+00  0.0000E+00  0.0000E+00  0.0000E+00
 51  0.0000E+00  7.6444E-03  1.3201E-02  6.7916E-02  0.0000E+00  2.6196E-02  2.9725E-02  0.0000E+00  1.1234E-02
 52  0.0000E+00  2.4565E-03  1.8778E-02  0.0000E+00  0.0000E+00  0.0000E+00  6.8666E-03  5.2641E-03  0.0000E+00
 53  0.0000E+00  4.8793E-03  0.0000E+00  0.0000E+00  0.0000E+00  0.0000E+00  0.0000E+00  0.0000E+00  0.0000E+00
 54  0.0000E+00  9.9044E-03  0.0000E+00  0.0000E+00  0.0000E+00  0.0000E+00  0.0000E+00  0.0000E+00  0.0000E+00
 55  0.0000E+00  2.0844E-02  9.2071E-03  0.0000E+00  4.8674E-02  0.0000E+00  0.0000E+00  3.5115E-02  0.0000E+00
 56  0.0000E+00  3.3788E-02  0.0000E+00  0.0000E+00  0.0000E+00  0.0000E+00  1.4074E-02  0.0000E+00  0.0000E+00
 57  0.0000E+00  9.0200E-02  0.0000E+00  0.0000E+00  0.0000E+00  0.0000E+00  0.0000E+00  0.0000E+00  0.0000E+00
 58  8.1588E-03  2.8364E-01  2.5587E-01  1.8517E+00  0.0000E+00  4.1271E-01  0.0000E+00  5.3891E-01  2.1061E-01
 59  7.7246E+00  1.3148E+01  1.6557E+01  1.8383E+01  1.0609E+01  1.1868E+01  1.4121E+01  1.1911E+01  1.4409E+01
 60  4.8942E+01  2.6604E+01  3.1696E+01  3.4036E+01  2.7556E+01  3.8543E+01  2.7873E+01  2.6413E+01  3.1945E+01
 61  2.3776E+01  1.1948E+01  1.6397E+01  1.6042E+01  1.1410E+01  1.6330E+01  1.1477E+01  1.2690E+01  1.2725E+01
 62  0.0000E+00  1.0764E-01  0.0000E+00  1.3616E+00  0.0000E+00  0.0000E+00  0.0000E+00  0.0000E+00  0.0000E+00
 63  0.0000E+00  6.5236E-01  0.0000E+00  0.0000E+00  0.0000E+00  3.9736E+00  0.0000E+00  0.0000E+00  5.4598E+00
 64  0.0000E+00  3.2069E-01  0.0000E+00  0.0000E+00  0.0000E+00  0.0000E+00  0.0000E+00  0.0000E+00  0.0000E+00
 65  0.0000E+00  3.4383E-01  0.0000E+00  0.0000E+00  0.0000E+00  0.0000E+00  0.0000E+00  0.0000E+00  0.0000E+00
 66  0.0000E+00  2.8009E+00  0.0000E+00  0.0000E+00  1.7334E+01  0.0000E+00  0.0000E+00  1.8590E+01  0.0000E+00

# AV, chi2 & Mass for <> & i_chain = 1 ...  7 solutions
AV       0.3544      0.3909      0.3804      0.3931      0.3876      0.3896      0.3875      0.3858      0.3822
chi2 3.0555E-01  3.1135E-01  3.0896E-01  3.0922E-01  3.0975E-01  3.0868E-01  3.0930E-01  3.0900E-01  3.0914E-01
Mass 2.4152E-13  2.7411E-13  2.5374E-13  2.4969E-13  3.1074E-13  2.3540E-13  2.7827E-13  3.0716E-13  2.5470E-13
   0.00                                  [v0_min (km/s) before EX0s...]
 309.96                                  [vd_min (km/s) before EX0s...]


## Synthetic spectrum (Best Model) ##l_obs f_obs f_syn wei
 3478    [Nl_obs]
 3741.00    0.65507   0.67749    0.000
 3742.00    0.65963   0.68020    0.000
 3743.00    0.64290   0.67617    0.000
 3744.00    0.62035   0.66708    0.000
 3745.00    0.60420   0.65316   16.551
 3746.00    0.59985   0.63664   16.671
 3747.00    0.60448   0.62157   16.543
 3748.00    0.60914   0.60948   16.417
 3749.00    0.60312   0.60211   16.580
 3750.00    0.58922   0.60206   16.972
 3751.00    0.58566   0.60990   17.075
 3752.00    0.60027   0.62400   16.659
 3753.00    0.62397   0.64261   16.026
 3754.00    0.65207   0.66414   15.336
 3755.00    0.68821   0.68608   14.531
 3756.00    0.72909   0.70647   13.716
 3757.00    0.76289   0.72355   13.108
 3758.00    0.78029   0.73624   12.816
 3759.00    0.77807   0.74507   12.852
 3760.00    0.75925   0.74922   13.171
 3761.00    0.73281   0.74781   13.646
 3762.00    0.71283   0.74220   14.029
 3763.00    0.70968   0.73193   14.091
 3764.00    0.71402   0.71684   14.005
 3765.00    0.70742   0.69948   14.136
 3766.00    0.68575   0.68006   14.582
 3767.00    0.65612   0.66001   15.241
 3768.00    0.62609   0.64359   15.972
 3769.00    0.60261   0.63193   16.594
 3770.00    0.59252   0.62555   16.877
 3771.00    0.60102   0.62775   16.638
 3772.00    0.62915   0.63894   15.894
 3773.00    0.66638   0.65654   15.006
 3774.00    0.68671   0.67991   14.562
 3775.00    0.68040   0.70750   14.697
 3776.00    0.67702   0.73674   14.771
 3777.00    0.69690   0.76604   14.349
 3778.00    0.71830   0.79308   13.922
 3779.00    0.72494   0.81670   13.794
 3780.00    0.73446   0.83647   13.615
 3781.00    0.76105   0.85113   13.140
 3782.00    0.79476   0.86031   12.582
 3783.00    0.81818   0.86436   12.222
 3784.00    0.81855   0.86391   12.217
 3785.00    0.79934   0.85856   12.510
 3786.00    0.78021   0.84831   12.817
 3787.00    0.77625   0.83480   12.882
 3788.00    0.78832   0.81789   12.685
 3789.00    0.79987   0.79712   12.502
 3790.00    0.78760   0.77348   12.697
 3791.00    0.75560   0.74739   13.234
 3792.00    0.72855   0.71938   13.726
 3793.00    0.70664   0.69085   14.151
 3794.00    0.67340   0.66333   14.850
 3795.00    0.64089   0.63937   15.603
 3796.00    0.63535   0.62156   15.739
 3797.00    0.64798   0.61066   15.433
 3798.00    0.65153   0.60840   15.348
 3799.00    0.64662   0.61653   15.465
 3800.00    0.65290   0.63327   15.316
 3801.00    0.68226   0.65627   14.657
 3802.00    0.72946   0.68426   13.709
 3803.00    0.76715   0.71508   13.035
 3804.00    0.77247   0.74618   12.945
 3805.00    0.75761   0.77594   13.199
 3806.00    0.74816   0.80301   13.366
 3807.00    0.75709   0.82693   13.208
 3808.00    0.78598   0.84765   12.723
 3809.00    0.82827   0.86414   12.073
 3810.00    0.86804   0.87629   11.520
 3811.00    0.88197   0.88478   11.338
 3812.00    0.86162   0.88943   11.606
 3813.00    0.82551   0.89028   12.114
 3814.00    0.79539   0.88891   12.572
 3815.00    0.78189   0.88565   12.789
 3816.00    0.78934   0.88028   12.669
 3817.00    0.81596   0.87477   12.255
 3818.00    0.84128   0.86900   11.887
 3819.00    0.83198   0.86145   12.020
 3820.00    0.78968   0.85399   12.663
 3821.00    0.75517   0.84699   13.242
 3822.00    0.75282   0.83879   13.283
 3823.00    0.77468   0.82854   12.909
 3824.00    0.79567   0.81522   12.568
 3825.00    0.78933   0.79957   12.669
 3826.00    0.75565   0.78112   13.234
 3827.00    0.71539   0.75871   13.978
 3828.00    0.67896   0.73342   14.728
 3829.00    0.64557   0.70566   15.490
 3830.00    0.61725   0.67669   16.201
 3831.00    0.59751   0.64831   16.736
 3832.00    0.58392   0.62141   17.126
 3833.00    0.57203   0.59945   17.482
 3834.00    0.56379   0.58427   17.737
 3835.00    0.56571   0.57616   17.677
 3836.00    0.58386   0.57808   17.127
 3837.00    0.61576   0.58948   16.240
 3838.00    0.64312   0.60803   15.549
 3839.00    0.65475   0.63380   15.273
 3840.00    0.66840   0.66403   14.961
 3841.00    0.69580   0.69646   14.372
 3842.00    0.71304   0.73017   14.025
 3843.00    0.70676   0.76230   14.149
 3844.00    0.70745   0.79211   14.135
 3845.00    0.73614   0.81918   13.584
 3846.00    0.77107   0.84260   12.969
 3847.00    0.79324   0.86303    0.000
 3848.00    0.81171   0.88053    0.000
 3849.00    0.83463   0.89482    0.000
 3850.00    0.85554   0.90627    0.000
 3851.00    0.86938   0.91631    0.000
 3852.00    0.87808   0.92473    0.000
 3853.00    0.87950   0.93045    0.000
 3854.00    0.87182   0.93549    0.000
 3855.00    0.88600   0.93950    0.000
 3856.00    0.96220   0.94188    0.000
 3857.00    1.03969   0.94530    0.000
 3858.00    1.00193   0.94825    0.000
 3859.00    0.89596   0.94985    0.000
 3860.00    0.88289   0.95242    0.000
 3861.00    0.97021   0.95532    0.000
 3862.00    1.03913   0.95695    0.000
 3863.00    1.04274   0.95798    0.000
 3864.00    1.01323   0.95835    0.000
 3865.00    0.99388   0.95764    0.000
 3866.00    1.01659   0.95585    0.000
 3867.00    1.08601   0.95219    0.000
 3868.00    1.16630   0.94779    0.000
 3869.00    1.17236   0.94266    0.000
 3870.00    1.05967   0.93577    0.000
 3871.00    0.92748   0.92796    0.000
 3872.00    0.89080   0.91893    0.000
 3873.00    0.93331   0.90947    0.000
 3874.00    0.97715   0.89984    0.000
 3875.00    0.96828   0.88835    0.000
 3876.00    0.90656   0.87527    0.000
 3877.00    0.85446   0.86054    0.000
 3878.00    0.85655   0.84264    0.000
 3879.00    0.88716   0.82297    0.000
 3880.00    0.90398   0.80124    0.000
 3881.00    0.88735   0.77555   11.270
 3882.00    0.85011   0.74744   11.763
 3883.00    0.83037   0.71809   12.043
 3884.00    0.83472   0.68845   11.980
 3885.00    0.82997   0.65995   12.049
 3886.00    0.82892   0.63426   12.064
 3887.00    0.89547   0.61472   11.167
 3888.00    1.02348   0.60212   -1.000
 3889.00    1.12249   0.59733   -1.000
 3890.00    1.12406   0.60243   -1.000
 3891.00    1.02719   0.61588   -1.000
 3892.00    0.92049   0.63578   10.864
 3893.00    0.91386   0.66072   10.943
 3894.00    0.95940   0.68845   10.423
 3895.00    0.91760   0.71736   10.898
 3896.00    0.79580   0.74635   12.566
 3897.00    0.71494   0.77378   13.987
 3898.00    0.74481   0.79868   13.426
 3899.00    0.86790   0.82127   11.522
 3900.00    0.97872   0.84117   10.217
 3901.00    0.98082   0.85955   10.196
 3902.00    0.92149   0.87586   10.852
 3903.00    0.90264   0.88945   11.079
 3904.00    0.94409   0.90290   10.592
 3905.00    1.00801   0.91500    9.921
 3906.00    1.04874   0.92554    9.535
 3907.00    1.05032   0.93643    9.521
 3908.00    1.05061   0.94594    9.518
 3909.00    1.07002   0.95410    9.346
 3910.00    1.06075   0.96095    9.427
 3911.00    1.00931   0.96561    9.907
 3912.00    0.99525   0.96897   10.048
 3913.00    1.03922   0.97017    9.624
 3914.00    1.03469   0.96960    9.664
 3915.00    0.95949   0.96865   10.417
 3916.00    0.95249   0.96624   10.504
 3917.00    1.06025   0.96350    9.443
 3918.00    1.15303   0.96059    8.662
 3919.00    1.13970   0.95731    8.748
 3920.00    1.04821   0.95397    9.584
 3921.00    0.95193   0.95008   10.607
 3922.00    0.91967   0.94578   10.696
 3923.00    0.95339   0.93947   10.235
 3924.00    0.99526   0.93144   10.554
 3925.00    1.00946   0.92105   10.583
 3926.00    0.99932   0.90745    8.330
 3927.00    0.98642   0.89255    6.128
 3928.00    0.98746   0.87559    5.272
 3929.00    0.97708   0.85788    5.626
 3930.00    0.91783   0.84126    7.168
 3931.00    0.83301   0.82666    7.084
 3932.00    0.78042   0.81607    4.351
 3933.00    0.78323   0.80915    3.230
 3934.00    0.82355   0.80845    3.795
 3935.00    0.85374   0.81490    6.315
 3936.00    0.84489   0.82548    8.465
 3937.00    0.84224   0.83968    7.934
 3938.00    0.88952   0.85538    8.347
 3939.00    0.94106   0.87159    8.127
 3940.00    0.94192   0.88792    6.002
 3941.00    0.91292   0.90164    4.920
 3942.00    0.89637   0.91281    5.276
 3943.00    0.90278   0.92164    6.349
 3944.00    0.92680   0.92757    6.846
 3945.00    0.96047   0.93221    6.757
 3946.00    0.97585   0.93554    6.862
 3947.00    0.92847   0.93629    7.275
 3948.00    0.85234   0.93553    7.723
 3949.00    0.87516   0.93409    7.726
 3950.00    1.00187   0.93166    7.225
 3951.00    1.06300   0.92783    6.715
 3952.00    0.99870   0.92199    6.508
 3953.00    0.93419   0.91479    6.615
 3954.00    0.95294   0.90667    6.550
 3955.00    1.02211   0.89602    5.764
 3956.00    1.06077   0.88203    5.095
 3957.00    1.00043   0.86577    5.507
 3958.00    0.88623   0.84703    7.292
 3959.00    0.83448   0.82486    9.009
 3960.00    0.84459   0.79887    0.000
 3961.00    0.82597   0.76868    0.000
 3962.00    0.77277   0.73582    0.000
 3963.00    0.74333   0.70146    0.000
 3964.00    0.73879   0.66549    0.000
 3965.00    0.72956   0.63032    0.000
 3966.00    0.74205   0.59844    0.000
 3967.00    0.81199   0.57125    0.000
 3968.00    0.89358   0.55107    0.000
 3969.00    0.91706   0.53961    0.000
 3970.00    0.88248   0.53809    0.000
 3971.00    0.83384   0.54723    0.000
 3972.00    0.81226   0.56547    0.000
 3973.00    0.83435   0.59074    0.000
 3974.00    0.87810   0.62167    0.000
 3975.00    0.91006   0.65634    0.000
 3976.00    0.91208   0.69202    0.000
 3977.00    0.88631   0.72689    0.000
 3978.00    0.85465   0.76000    0.000
 3979.00    0.83909   0.79022    0.000
 3980.00    0.84719   0.81748    0.000
 3981.00    0.86886   0.84108    8.699
 3982.00    0.88121   0.86125    8.311
 3983.00    0.88131   0.87956    8.344
 3984.00    0.89295   0.89560    8.493
 3985.00    0.91617   0.90986    8.500
 3986.00    0.92069   0.92236    8.399
 3987.00    0.91573   0.93322    8.245
 3988.00    0.95224   0.94349    7.983
 3989.00    1.02912   0.95196    7.467
 3990.00    1.08422   0.95891    6.716
 3991.00    1.07185   0.96499    6.199
 3992.00    0.99399   0.96971    6.316
 3993.00    0.91473   0.97373    6.740
 3994.00    0.91438   0.97671    6.625
 3995.00    0.97678   0.97880    6.329
 3996.00    1.02320   0.98082    6.742
 3997.00    1.03533   0.98243    7.432
 3998.00    1.04107   0.98404    6.997
 3999.00    1.04330   0.98586    6.220
 4000.00    1.02318   0.98690    6.292
 4001.00    0.96698   0.98741    7.104
 4002.00    0.88527   0.98768    7.885
 4003.00    0.83009   0.98778    8.101
 4004.00    0.84740   0.98756    7.928
 4005.00    0.91929   0.98680    7.762
 4006.00    0.99154   0.98706    7.784
 4007.00    1.01390   0.98848    7.821
 4008.00    0.97826   0.99054    7.748
 4009.00    0.94174   0.99282    7.813
 4010.00    0.94996   0.99593    8.103
 4011.00    0.98025   1.00023    8.132
 4012.00    1.00000   1.00410    7.663
 4013.00    1.00738   1.00814    7.233
 4014.00    1.00401   1.01179    7.221
 4015.00    0.98161   1.01466    7.634
 4016.00    0.95223   1.01700    8.119
 4017.00    0.95317   1.01749    7.923
 4018.00    0.98916   1.01694    7.203
 4019.00    1.01922   1.01544    6.888
 4020.00    1.01956   1.01202    7.205
 4021.00    1.00315   1.00733    7.761
 4022.00    0.99187   1.00215    7.968
 4023.00    0.99909   0.99667    7.546
 4024.00    1.00972   0.99112    7.022
 4025.00    0.99624   0.98555    7.040
 4026.00    0.97824   0.98125    7.586
 4027.00    0.99942   0.97931    8.133
 4028.00    1.03439   0.97837    8.460
 4029.00    1.02278   0.97838    8.754
 4030.00    0.98626   0.97902    8.612
 4031.00    0.98912   0.98124    7.713
 4032.00    1.02226   0.98575    7.039
 4033.00    1.03873   0.99064    7.328
 4034.00    1.04347   0.99609    8.362
 4035.00    1.06399   1.00131    9.192
 4036.00    1.08995   1.00642    9.276
 4037.00    1.09197   1.01159    8.590
 4038.00    1.05635   1.01497    6.921
 4039.00    0.99774   1.01642    5.323
 4040.00    0.96278   1.01590    4.866
 4041.00    0.97126   1.01414    5.776
 4042.00    0.97109   1.01269    7.697
 4043.00    0.94079   1.01023    8.585
 4044.00    0.95993   1.00683    8.057
 4045.00    1.06462   1.00379    7.585
 4046.00    1.15959   1.00190    7.409
 4047.00    1.16663   1.00229    7.428
 4048.00    1.11118   1.00265    7.676
 4049.00    1.04499   1.00217    8.099
 4050.00    0.99750   1.00212    8.402
 4051.00    0.96788   1.00212    8.355
 4052.00    0.93480   1.00158    8.083
 4053.00    0.90881   1.00036    7.942
 4054.00    0.93477   0.99847    8.270
 4055.00    1.01686   0.99662    8.828
 4056.00    1.10451   0.99500    8.711
 4057.00    1.14042   0.99249    8.041
 4058.00    1.09478   0.98968    7.781
 4059.00    1.01293   0.98763    8.178
 4060.00    0.97941   0.98594    8.981
 4061.00    0.99835   0.98380    9.780
 4062.00    1.01499   0.98092   10.093
 4063.00    1.02531   0.97800    9.819
 4064.00    1.05443   0.97620    9.367
 4065.00    1.07303   0.97533    9.280
 4066.00    1.04733   0.97341    9.726
 4067.00    1.04152   0.97078    9.677
 4068.00    1.11960   0.96890    8.134
 4069.00    1.18899   0.96708    6.279
 4070.00    1.13821   0.96424    5.142
 4071.00    1.02987   0.95993    4.962
 4072.00    0.97918   0.95507    5.845
 4073.00    0.99657   0.95144    7.306
 4074.00    1.03179   0.94787    7.592
 4075.00    1.03779   0.94367    6.869
 4076.00    1.01140   0.93975    6.441
 4077.00    1.01047   0.93641    6.553
 4078.00    1.05304   0.93480    7.171
 4079.00    1.06123   0.93439    8.210
 4080.00    1.00349   0.93386    9.177
 4081.00    0.96470   0.93320    9.018
 4082.00    0.98916   0.93181    7.973
 4083.00    1.01145   0.92964    7.383
 4084.00    0.98160   0.92670    7.616
 4085.00    0.92041   0.92239    8.362
 4086.00    0.87187   0.91674    9.052
 4087.00    0.87093   0.90943    9.018
 4088.00    0.90799   0.90003    8.270
 4089.00    0.93506   0.88830    7.487
 4090.00    0.92987   0.87368    7.230
 4091.00    0.90636   0.85634    7.824
 4092.00    0.88083   0.83599    0.000
 4093.00    0.86018   0.81263    0.000
 4094.00    0.83892   0.78682    0.000
 4095.00    0.80897   0.75830    0.000
 4096.00    0.78232   0.72865    0.000
 4097.00    0.78349   0.69993    0.000
 4098.00    0.82537   0.67370    0.000
 4099.00    0.90685   0.65125    0.000
 4100.00    1.01699   0.63383    0.000
 4101.00    1.13603   0.62258    0.000
 4102.00    1.23599   0.61959    0.000
 4103.00    1.28532   0.62560    0.000
 4104.00    1.25628   0.63836    0.000
 4105.00    1.14574   0.65663    0.000
 4106.00    0.99536   0.67909    0.000
 4107.00    0.86328   0.70409    0.000
 4108.00    0.79186   0.73063    0.000
 4109.00    0.79142   0.75683    0.000
 4110.00    0.83257   0.78160    0.000
 4111.00    0.88005   0.80464    0.000
 4112.00    0.91737   0.82533    0.000
 4113.00    0.93250   0.84344    9.163
 4114.00    0.91280   0.85904    9.709
 4115.00    0.87865   0.87208    9.526
 4116.00    0.88586   0.88295    8.894
 4117.00    0.93489   0.89189    8.393
 4118.00    0.95190   0.89864    8.363
 4119.00    0.91655   0.90426    8.643
 4120.00    0.89236   0.90928    8.608
 4121.00    0.91368   0.91345    8.273
 4122.00    0.95550   0.91712    8.331
 4123.00    0.98772   0.91994    8.942
 4124.00    0.99646   0.92254    9.560
 4125.00    0.98832   0.92462    9.547
 4126.00    0.97801   0.92566    8.909
 4127.00    0.95464   0.92619    8.382
 4128.00    0.90197   0.92635    8.593
 4129.00    0.86191   0.92752    9.394
 4130.00    0.88931   0.92905    9.958
 4131.00    0.93761   0.93102    9.813
 4132.00    0.92570   0.93370    9.320
 4133.00    0.88856   0.93757    8.977
 4134.00    0.90587   0.94231    9.024
 4135.00    0.95785   0.94691    9.329
 4136.00    0.98197   0.95105    9.577
 4137.00    0.97551   0.95345    9.598
 4138.00    0.97097   0.95488    9.379
 4139.00    0.99011   0.95533    8.978
 4140.00    1.02584   0.95460    8.559
 4141.00    1.03502   0.95277    8.382
 4142.00    0.99785   0.94993    8.558
 4143.00    0.96229   0.94679    8.920
 4144.00    0.96169   0.94501    9.291
 4145.00    0.95822   0.94555    9.748
 4146.00    0.92639   0.94642   10.181
 4147.00    0.90275   0.94745    9.992
 4148.00    0.91564   0.94880    9.298
 4149.00    0.94770   0.94991    9.052
 4150.00    0.97500   0.95137    9.474
 4151.00    0.98778   0.95295    9.834
 4152.00    0.98329   0.95402    9.642
 4153.00    0.96525   0.95496    9.339
 4154.00    0.95617   0.95549    9.247
 4155.00    0.98634   0.95661    9.308
 4156.00    1.03914   0.95819    9.423
 4157.00    1.05752   0.95998    9.568
 4158.00    1.02247   0.96259    9.833
 4159.00    0.96477   0.96491   10.318
 4160.00    0.92953   0.96720   10.739
 4161.00    0.94683   0.96886   10.580
 4162.00    0.98905   0.97025   10.116
 4163.00    1.00158   0.97134    9.977
 4164.00    0.98408   0.97095   10.160
 4165.00    0.97615   0.96981   10.249
 4166.00    1.00145   0.96734    9.987
 4167.00    1.04955   0.96378    9.521
 4168.00    1.06711   0.95977    9.369
 4169.00    1.01487   0.95544    9.872
 4170.00    0.94190   0.95081   10.620
 4171.00    0.91616   0.94569   10.848
 4172.00    0.93293   0.94074   10.720
 4173.00    0.95398   0.93709   10.745
 4174.00    0.96005   0.93490   10.815
 4175.00    0.95153   0.93395   10.755
 4176.00    0.94248   0.93377   10.850
 4177.00    0.94390   0.93404   11.319
 4178.00    0.95199   0.93527   11.875
 4179.00    0.95852   0.93730   12.127
 4180.00    0.95910   0.94014   12.073
 4181.00    0.95473   0.94281   11.885
 4182.00    0.95128   0.94479   11.659
 4183.00    0.95260   0.94712   11.379
 4184.00    0.95846   0.94909   10.988
 4185.00    0.97213   0.95119   10.624
 4186.00    0.99888   0.95321   10.531
 4187.00    1.02505   0.95426   10.507
 4188.00    1.02021   0.95579   10.041
 4189.00    0.97579   0.95749    9.480
 4190.00    0.91582   0.95865    9.584
 4191.00    0.88429   0.95892   10.105
 4192.00    0.91747   0.95863    9.928
 4193.00    0.98227   0.95819    9.317
 4194.00    1.00480   0.95639    9.423
 4195.00    0.97742   0.95345   10.312
 4196.00    0.94929   0.95022   11.007
 4197.00    0.95185   0.94717   10.487
 4198.00    0.98220   0.94397    9.167
 4199.00    1.00382   0.94158    8.471
 4200.00    0.98323   0.94078    9.086
 4201.00    0.94533   0.94054   10.255
 4202.00    0.93736   0.94082   10.191
 4203.00    0.96676   0.94262    9.585
 4204.00    1.00817   0.94527    9.806
 4205.00    1.02481   0.94814   10.296
 4206.00    0.99825   0.95161   10.011
 4207.00    0.95449   0.95489    9.539
 4208.00    0.93005   0.95760    9.638
 4209.00    0.93742   0.95954   10.130
 4210.00    0.96720   0.96105   10.527
 4211.00    0.99495   0.96230   10.615
 4212.00    1.00194   0.96308   10.509
 4213.00    0.98819   0.96312   10.509
 4214.00    0.96019   0.96291   10.750
 4215.00    0.92459   0.96177   11.044
 4216.00    0.89975   0.96082   11.059
 4217.00    0.91324   0.96036   10.576
 4218.00    0.95850   0.95906    9.826
 4219.00    0.98822   0.95680    9.281
 4220.00    0.97630   0.95335    9.147
 4221.00    0.94000   0.94987    9.412
 4222.00    0.92045   0.94531    9.909
 4223.00    0.95343   0.94062   10.310
 4224.00    1.00365   0.93637   -2.000
 4225.00    0.99418   0.93234   -2.000
 4226.00    0.94567   0.92935   -2.000
 4227.00    0.94605   0.92781   -2.000
 4228.00    0.98177   0.92876   -2.000
 4229.00    0.97128   0.93057   -2.000
 4230.00    0.92454   0.93243   -2.000
 4231.00    0.91260   0.93446   -2.000
 4232.00    0.94703   0.93600   -2.000
 4233.00    0.98882   0.93693   -2.000
 4234.00    1.00194   0.93859   -2.000
 4235.00    0.97795   0.94047   -2.000
 4236.00    0.95486   0.94173   -2.000
 4237.00    0.96594   0.94359   -2.000
 4238.00    0.97749   0.94536   -2.000
 4239.00    0.95537   0.94707   10.362
 4240.00    0.94011   0.94886   10.106
 4241.00    0.97456   0.95094    9.936
 4242.00    1.03093   0.95237    9.927
 4243.00    1.05526   0.95269   10.058
 4244.00    1.01548   0.95284   10.164
 4245.00    0.93675   0.95193   10.157
 4246.00    0.90742   0.94983   10.195
 4247.00    0.96186   0.94732   10.420
 4248.00    1.02346   0.94505   10.809
 4249.00    1.02377   0.94312   11.280
 4250.00    0.96759   0.94077   11.747
 4251.00    0.90215   0.93910   12.066
 4252.00    0.88549   0.93858   12.068
 4253.00    0.92600   0.93791   11.823
 4254.00    0.97479   0.93748   11.631
 4255.00    0.99574   0.93793   11.668
 4256.00    0.98789   0.93898   11.867
 4257.00    0.96758   0.94011   11.772
 4258.00    0.95344   0.94078   11.001
 4259.00    0.94268   0.94189   10.372
 4260.00    0.92127   0.94286   10.865
 4261.00    0.90569   0.94398   11.991
 4262.00    0.92636   0.94553   11.847
 4263.00    0.96905   0.94658   10.824
 4264.00    0.99371   0.94648   10.565
 4265.00    0.99451   0.94525   10.935
 4266.00    0.98709   0.94305   11.019
 4267.00    0.96877   0.93929   10.841
 4268.00    0.93660   0.93534   11.002
 4269.00    0.92103   0.93132   11.607
 4270.00    0.94592   0.92727   12.248
 4271.00    0.97495   0.92353   12.108
 4272.00    0.96523   0.92091   11.185
 4273.00    0.93201   0.92039   10.848
 4274.00    0.91195   0.92061   11.807
 4275.00    0.91950   0.92180   12.968
 4276.00    0.94598   0.92423   12.644
 4277.00    0.96595   0.92689   11.704
 4278.00    0.96651   0.92902   11.291
 4279.00    0.96388   0.93059   11.318
 4280.00    0.96514   0.93103   11.342
 4281.00    0.94957   0.93060   10.988
 4282.00    0.91564   0.92901   10.511
 4283.00    0.89868   0.92643   10.649
 4284.00    0.91598   0.92361   11.411
 4285.00    0.94592   0.91983   11.637
 4286.00    0.96484   0.91604   10.999
 4287.00    0.96282   0.91207   10.688
 4288.00    0.93762   0.90827   11.207
 4289.00    0.89529   0.90461   12.174
 4290.00    0.86076   0.90116   12.662
 4291.00    0.86578   0.89905   11.871
 4292.00    0.90400   0.89692   10.669
 4293.00    0.93456   0.89447   10.237
 4294.00    0.92669   0.89090   10.677
 4295.00    0.87873   0.88710   11.516
 4296.00    0.83217   0.88286   12.069
 4297.00    0.83537   0.87787   11.864
 4298.00    0.86879   0.87285   11.466
 4299.00    0.88188   0.86722   11.523
 4300.00    0.87994   0.86211   11.446
 4301.00    0.89333   0.85818   10.536
 4302.00    0.91072   0.85494    9.664
 4303.00    0.90804   0.85245    9.587
 4304.00    0.89754   0.85162   10.011
 4305.00    0.89548   0.85134   10.320
 4306.00    0.88101   0.85181   10.413
 4307.00    0.83810   0.85321   10.512
 4308.00    0.79828   0.85514   10.705
 4309.00    0.79788   0.85842   10.957
 4310.00    0.83690   0.86239   11.170
 4311.00    0.88614   0.86709   11.340
 4312.00    0.90291   0.87155   11.646
 4313.00    0.88325   0.87585   12.056
 4314.00    0.88117   0.87986   12.080
 4315.00    0.91165   0.88330   11.621
 4316.00    0.91498   0.88645   11.289
 4317.00    0.88322   0.88779   11.290
 4318.00    0.89478   0.88730   11.250
 4319.00    0.96163   0.88492   11.114
 4320.00    0.99473   0.88088   11.317
 4321.00    0.95268   0.87500   11.868
 4322.00    0.88048   0.86832   12.122
 4323.00    0.83002   0.86050   11.777
 4324.00    0.82494   0.85177   11.264
 4325.00    0.84448   0.84258   11.059
 4326.00    0.84512   0.83331   11.409
 4327.00    0.82823   0.82461   12.052
 4328.00    0.82856   0.81501   12.290
 4329.00    0.84626   0.80399   12.040
 4330.00    0.85422   0.79075    0.000
 4331.00    0.84495   0.77535    0.000
 4332.00    0.82896   0.75796    0.000
 4333.00    0.81512   0.73806    0.000
 4334.00    0.81494   0.71640    0.000
 4335.00    0.85341   0.69375    0.000
 4336.00    0.95037   0.67116    0.000
 4337.00    1.09421   0.64973    0.000
 4338.00    1.25656   0.63155    0.000
 4339.00    1.41383   0.61843    0.000
 4340.00    1.54768   0.61066    0.000
 4341.00    1.64222   0.61006    0.000
 4342.00    1.67707   0.61654    0.000
 4343.00    1.62419   0.62838    0.000
 4344.00    1.47254   0.64449    0.000
 4345.00    1.24827   0.66398    0.000
 4346.00    1.01482   0.68525    0.000
 4347.00    0.85941   0.70678    0.000
 4348.00    0.81520   0.72812    0.000
 4349.00    0.82851   0.74827    0.000
 4350.00    0.84139   0.76671    0.000
 4351.00    0.83499   0.78325   12.680
 4352.00    0.81553   0.79854   13.100
 4353.00    0.80263   0.81344   13.262
 4354.00    0.81364   0.82731   12.909
 4355.00    0.85214   0.84008   12.441
 4356.00    0.89100   0.85216   12.286
 4357.00    0.88824   0.86335   12.650
 4358.00    0.85299   0.87338   13.226
 4359.00    0.83803   0.88235   13.260
 4360.00    0.86346   0.89066   12.745
 4361.00    0.90865   0.89801   12.311
 4362.00    0.94418   0.90414   12.106
 4363.00    0.94934   0.90889   11.951
 4364.00    0.93093   0.91240   11.891
 4365.00    0.91411   0.91474   12.064
 4366.00    0.91843   0.91572   12.352
 4367.00    0.94502   0.91560   12.497
 4368.00    0.96535   0.91484   12.485
 4369.00    0.95080   0.91412   12.443
 4370.00    0.91435   0.91303   12.385
 4371.00    0.88638   0.91206   12.297
 4372.00    0.87861   0.91111   12.268
 4373.00    0.88554   0.91020   12.407
 4374.00    0.89202   0.90896   12.735
 4375.00    0.88787   0.90779   13.109
 4376.00    0.87965   0.90689   13.168
 4377.00    0.88028   0.90570   12.774
 4378.00    0.89773   0.90345   12.313
 4379.00    0.92157   0.90003   12.148
 4380.00    0.92074   0.89572   12.356
 4381.00    0.88831   0.89089   12.693
 4382.00    0.85987   0.88576   12.608
 4383.00    0.85679   0.88031   12.188
 4384.00    0.86112   0.87608   12.251
 4385.00    0.85097   0.87371   12.760
 4386.00    0.82243   0.87329   12.514
 4387.00    0.80480   0.87398   11.574
 4388.00    0.84330   0.87587   11.298
 4389.00    0.91574   0.87948   11.986
 4390.00    0.94238   0.88372   12.921
 4391.00    0.91437   0.88815   13.376
 4392.00    0.89487   0.89305   13.299
 4393.00    0.90628   0.89743   13.137
 4394.00    0.92099   0.90109   13.330
 4395.00    0.91792   0.90391   13.671
 4396.00    0.89738   0.90653   13.496
 4397.00    0.88096   0.90859   12.675
 4398.00    0.89283   0.90933   11.647
 4399.00    0.92608   0.90937   10.833
 4400.00    0.95257   0.90869   10.447
 4401.00    0.94958   0.90803   10.524
 4402.00    0.91362   0.90771   10.973
 4403.00    0.87165   0.90716   11.476
 4404.00    0.85435   0.90636   11.663
 4405.00    0.86187   0.90614   11.601
 4406.00    0.87691   0.90698   11.501
 4407.00    0.88465   0.90788   11.292
 4408.00    0.88391   0.90865   11.048
 4409.00    0.89269   0.90971   11.286
 4410.00    0.91911   0.91087   12.236
 4411.00    0.94113   0.91151   13.082
 4412.00    0.94303   0.91180   13.100
 4413.00    0.93852   0.91183   13.219
 4414.00    0.93626   0.91129   13.969
 4415.00    0.92268   0.91066   14.225
 4416.00    0.89833   0.91086   13.536
 4417.00    0.89025   0.91149   13.270
 4418.00    0.90744   0.91252   13.895
 4419.00    0.92698   0.91417   14.419
 4420.00    0.93174   0.91576   14.159
 4421.00    0.92316   0.91717   13.691
 4422.00    0.90519   0.91815   13.499
 4423.00    0.88113   0.91895   13.602
 4424.00    0.86391   0.91973   13.835
 4425.00    0.87030   0.91984   13.975
 4426.00    0.89545   0.91948   13.970
 4427.00    0.91642   0.91866   13.953
 4428.00    0.91949   0.91766   14.049
 4429.00    0.90526   0.91656   14.292
 4430.00    0.88406   0.91498   14.543
 4431.00    0.86856   0.91371   14.564
 4432.00    0.86214   0.91292   14.277
 4433.00    0.86148   0.91204   13.806
 4434.00    0.86455   0.91153   13.386
 4435.00    0.86927   0.91131   13.242
 4436.00    0.87009   0.91170   13.515
 4437.00    0.86545   0.91243   14.142
 4438.00    0.86666   0.91308   14.551
 4439.00    0.88190   0.91370   14.260
 4440.00    0.89861   0.91390   13.786
 4441.00    0.90006   0.91384   13.724
 4442.00    0.88353   0.91373   14.046
 4443.00    0.85968   0.91376   14.516
 4444.00    0.84797   0.91420   14.988
 4445.00    0.85674   0.91507   15.248
 4446.00    0.87207   0.91574   14.963
 4447.00    0.88332   0.91573   14.297
 4448.00    0.89690   0.91544   13.938
 4449.00    0.91324   0.91469   14.067
 4450.00    0.91857   0.91283   14.165
 4451.00    0.91402   0.91052   13.970
 4452.00    0.92096   0.90777   13.837
 4453.00    0.93851   0.90440   13.949
 4454.00    0.93692   0.90076   14.124
 4455.00    0.90646   0.89690   14.305
 4456.00    0.86881   0.89396   14.631
 4457.00    0.84960   0.89138   14.926
 4458.00    0.86101   0.88925   14.749
 4459.00    0.88073   0.88753   14.269
 4460.00    0.87059   0.88647   14.077
 4461.00    0.83851   0.88573    0.000
 4462.00    0.82551   0.88502    0.000
 4463.00    0.84146   0.88505    0.000
 4464.00    0.86602   0.88474    0.000
 4465.00    0.87969   0.88424    0.000
 4466.00    0.87493   0.88387    0.000
 4467.00    0.86377   0.88360    0.000
 4468.00    0.86656   0.88381    0.000
 4469.00    0.89290   0.88431    0.000
 4470.00    0.93542   0.88589    0.000
 4471.00    0.96749   0.88792    0.000
 4472.00    0.97230   0.89090    0.000
 4473.00    0.97289   0.89442    0.000
 4474.00    0.99278   0.89772    0.000
 4475.00    1.01564   0.90042    0.000
 4476.00    1.01273   0.90237    0.000
 4477.00    0.97199   0.90386    0.000
 4478.00    0.90888   0.90443    0.000
 4479.00    0.86627   0.90439    0.000
 4480.00    0.86769   0.90381    0.000
 4481.00    0.89179   0.90342    0.000
 4482.00    0.91302   0.90375   12.411
 4483.00    0.92459   0.90513   12.608
 4484.00    0.92507   0.90642   13.565
 4485.00    0.91323   0.90791   14.525
 4486.00    0.89903   0.90922   14.804
 4487.00    0.89977   0.91031   14.638
 4488.00    0.90544   0.91091   14.474
 4489.00    0.88486   0.91129   14.497
 4490.00    0.85335   0.91176   14.593
 4491.00    0.86312   0.91239   14.504
 4492.00    0.90466   0.91314   14.340
 4493.00    0.91817   0.91419   14.472
 4494.00    0.90154   0.91522   14.917
 4495.00    0.90075   0.91689   15.310
 4496.00    0.92250   0.91918   15.272
 4497.00    0.93936   0.92183   14.782
 4498.00    0.94106   0.92498   14.438
 4499.00    0.93442   0.92815   14.752
 4500.00    0.92492   0.93138   15.212
 4501.00    0.91531   0.93429   14.986
 4502.00    0.90846   0.93728   14.605
 4503.00    0.90450   0.94025   14.905
 4504.00    0.89725   0.94236   15.578
 4505.00    0.88533   0.94376   15.770
 4506.00    0.88403   0.94435   15.291
 4507.00    0.90655   0.94419   14.655
 4508.00    0.94396   0.94335   14.527
 4509.00    0.97383   0.94205   15.039
 4510.00    0.97269   0.94040   15.317
 4511.00    0.94002   0.93819   14.792
 4512.00    0.91000   0.93558   14.328
 4513.00    0.90386   0.93282   14.480
 4514.00    0.90293   0.93000   14.765
 4515.00    0.89270   0.92712   14.684
 4516.00    0.88577   0.92442   14.385
 4517.00    0.89280   0.92181   14.204
 4518.00    0.90887   0.91877   14.354
 4519.00    0.92620   0.91592   14.791
 4520.00    0.93961   0.91256   15.183
 4521.00    0.94253   0.90920   15.210
 4522.00    0.92889   0.90529   14.865
 4523.00    0.90512   0.90104   14.640
 4524.00    0.88928   0.89719   15.103
 4525.00    0.89494   0.89303   15.758
 4526.00    0.91941   0.88934   15.260
 4527.00    0.92776   0.88596   14.145
 4528.00    0.88383   0.88342   13.889
 4529.00    0.82994   0.88152   14.624
 4530.00    0.83981   0.88102   15.564
 4531.00    0.88674   0.88121   15.866
 4532.00    0.89372   0.88263   15.335
 4533.00    0.86918   0.88454   14.798
 4534.00    0.86700   0.88703   14.979
 4535.00    0.88672   0.89029   15.440
 4536.00    0.89519   0.89382   15.362
 4537.00    0.87831   0.89751   15.054
 4538.00    0.84799   0.90049   15.160
 4539.00    0.83866   0.90273   15.569
 4540.00    0.86830   0.90419   15.857
 4541.00    0.90239   0.90480   15.900
 4542.00    0.90367   0.90477   15.863
 4543.00    0.87895   0.90397   16.021
 4544.00    0.85418   0.90226   16.370
 4545.00    0.84899   0.89985   16.389
 4546.00    0.86515   0.89731   15.887
 4547.00    0.88339   0.89454   15.463
 4548.00    0.88892   0.89176   15.462
 4549.00    0.88474   0.88908   15.620
 4550.00    0.87530   0.88702    0.000
 4551.00    0.86019   0.88625    0.000
 4552.00    0.84853   0.88570    0.000
 4553.00    0.85851   0.88611    0.000
 4554.00    0.88605   0.88714    0.000
 4555.00    0.90298   0.88902    0.000
 4556.00    0.89804   0.89149    0.000
 4557.00    0.88469   0.89456    0.000
 4558.00    0.87717   0.89745    0.000
 4559.00    0.88148   0.90015    0.000
 4560.00    0.89295   0.90269    0.000
 4561.00    0.90133   0.90473    0.000
 4562.00    0.90405   0.90644    0.000
 4563.00    0.90589   0.90750    0.000
 4564.00    0.91115   0.90830    0.000
 4565.00    0.91897   0.90906    0.000
 4566.00    0.91852   0.90974    0.000
 4567.00    0.90315   0.91038    0.000
 4568.00    0.89285   0.91078    0.000
 4569.00    0.90904   0.91094    0.000
 4570.00    0.93575   0.91091    0.000
 4571.00    0.94234   0.91045    0.000
 4572.00    0.91869   0.90969    0.000
 4573.00    0.87941   0.90910    0.000
 4574.00    0.86003   0.90792    0.000
 4575.00    0.87613   0.90625    0.000
 4576.00    0.89160   0.90425    0.000
 4577.00    0.87953   0.90198    0.000
 4578.00    0.86802   0.89953    0.000
 4579.00    0.88122   0.89687    0.000
 4580.00    0.89971   0.89433    0.000
 4581.00    0.90199   0.89222    0.000
 4582.00    0.89075   0.89056    0.000
 4583.00    0.87884   0.88939    0.000
 4584.00    0.87857   0.88872    0.000
 4585.00    0.89232   0.88886    0.000
 4586.00    0.90994   0.88914    0.000
 4587.00    0.91655   0.88984    0.000
 4588.00    0.90111   0.89049    0.000
 4589.00    0.87458   0.89126    0.000
 4590.00    0.86447   0.89178    0.000
 4591.00    0.87605   0.89220    0.000
 4592.00    0.89055   0.89243    0.000
 4593.00    0.89645   0.89274    0.000
 4594.00    0.89496   0.89305    0.000
 4595.00    0.89072   0.89331    0.000
 4596.00    0.88791   0.89365    0.000
 4597.00    0.88754   0.89421    0.000
 4598.00    0.88741   0.89484    0.000
 4599.00    0.88352   0.89570    0.000
 4600.00    0.87301   0.89666    0.000
 4601.00    0.85842   0.89776    0.000
 4602.00    0.84886   0.89938    0.000
 4603.00    0.85945   0.90097    0.000
 4604.00    0.89562   0.90297    0.000
 4605.00    0.93516   0.90482    0.000
 4606.00    0.95027   0.90691    0.000
 4607.00    0.93441   0.90883    0.000
 4608.00    0.90026   0.91061    0.000
 4609.00    0.87303   0.91198    0.000
 4610.00    0.87210   0.91279    0.000
 4611.00    0.89598   0.91313    0.000
 4612.00    0.92464   0.91302    0.000
 4613.00    0.92802   0.91264    0.000
 4614.00    0.90524   0.91186    0.000
 4615.00    0.89835   0.91125    0.000
 4616.00    0.92375   0.91023    0.000
 4617.00    0.94455   0.90961    0.000
 4618.00    0.93541   0.90899    0.000
 4619.00    0.90899   0.90853    0.000
 4620.00    0.88280   0.90833    0.000
 4621.00    0.86599   0.90843    0.000
 4622.00    0.86790   0.90839    0.000
 4623.00    0.89390   0.90833    0.000
 4624.00    0.92112   0.90811    0.000
 4625.00    0.91344   0.90762    0.000
 4626.00    0.88693   0.90693    0.000
 4627.00    0.89215   0.90607    0.000
 4628.00    0.92206   0.90498    0.000
 4629.00    0.92848   0.90356    0.000
 4630.00    0.91007   0.90218    0.000
 4631.00    0.89962   0.90079    0.000
 4632.00    0.90184   0.89927    0.000
 4633.00    0.90297   0.89753    0.000
 4634.00    0.90673   0.89591    0.000
 4635.00    0.91990   0.89437    0.000
 4636.00    0.92378   0.89292    0.000
 4637.00    0.90317   0.89150    0.000
 4638.00    0.88579   0.89003    0.000
 4639.00    0.89587   0.88872    0.000
 4640.00    0.90142   0.88724    0.000
 4641.00    0.87679   0.88587    0.000
 4642.00    0.86321   0.88436    0.000
 4643.00    0.89317   0.88281    0.000
 4644.00    0.92735   0.88124    0.000
 4645.00    0.92322   0.87991    0.000
 4646.00    0.88844   0.87868    0.000
 4647.00    0.85557   0.87798    0.000
 4648.00    0.85619   0.87777    0.000
 4649.00    0.88514   0.87820    0.000
 4650.00    0.89480   0.87904    0.000
 4651.00    0.87058   0.88038    0.000
 4652.00    0.85370   0.88180    0.000
 4653.00    0.86507   0.88363    0.000
 4654.00    0.88288   0.88518    0.000
 4655.00    0.89412   0.88674    0.000
 4656.00    0.90730   0.88805    0.000
 4657.00    0.92422   0.88889    0.000
 4658.00    0.93476   0.88933    0.000
 4659.00    0.93197   0.88890    0.000
 4660.00    0.91773   0.88771    0.000
 4661.00    0.90500   0.88551    0.000
 4662.00    0.90728   0.88271    0.000
 4663.00    0.91438   0.87935    0.000
 4664.00    0.90590   0.87596    0.000
 4665.00    0.88792   0.87269    0.000
 4666.00    0.88014   0.86985    0.000
 4667.00    0.88148   0.86768    0.000
 4668.00    0.87771   0.86667    0.000
 4669.00    0.86255   0.86669    0.000
 4670.00    0.84275   0.86763    0.000
 4671.00    0.83898   0.86925    0.000
 4672.00    0.86220   0.87130    0.000
 4673.00    0.88898   0.87340    0.000
 4674.00    0.89394   0.87553    0.000
 4675.00    0.88406   0.87732    0.000
 4676.00    0.87908   0.87885    0.000
 4677.00    0.89003   0.87984    0.000
 4678.00    0.91176   0.88044    0.000
 4679.00    0.92260   0.88072    0.000
 4680.00    0.91389   0.88091    0.000
 4681.00    0.90459   0.88097    0.000
 4682.00    0.90472   0.88109    0.000
 4683.00    0.89960   0.88123    0.000
 4684.00    0.88802   0.88147    0.000
 4685.00    0.89343   0.88157    0.000
 4686.00    0.91926   0.88182    0.000
 4687.00    0.93860   0.88189    0.000
 4688.00    0.93746   0.88202    0.000
 4689.00    0.92609   0.88195    0.000
 4690.00    0.91508   0.88186    0.000
 4691.00    0.90759   0.88145    0.000
 4692.00    0.90300   0.88095    0.000
 4693.00    0.89921   0.88016    0.000
 4694.00    0.89555   0.87905    0.000
 4695.00    0.89257   0.87764    0.000
 4696.00    0.88968   0.87585    0.000
 4697.00    0.88510   0.87378    0.000
 4698.00    0.87692   0.87139    0.000
 4699.00    0.86617   0.86901    0.000
 4700.00    0.86125   0.86673    0.000
 4701.00    0.87007   0.86462    0.000
 4702.00    0.88706   0.86273    0.000
 4703.00    0.89876   0.86123    0.000
 4704.00    0.89468   0.86014    0.000
 4705.00    0.87373   0.85958    0.000
 4706.00    0.84914   0.85918    0.000
 4707.00    0.83600   0.85935    0.000
 4708.00    0.83804   0.85957    0.000
 4709.00    0.85302   0.86055    0.000
 4710.00    0.87834   0.86143    0.000
 4711.00    0.90591   0.86324    0.000
 4712.00    0.91981   0.86477    0.000
 4713.00    0.91257   0.86715    0.000
 4714.00    0.89411   0.86934    0.000
 4715.00    0.87433   0.87234    0.000
 4716.00    0.85514   0.87503    0.000
 4717.00    0.84808   0.87807    0.000
 4718.00    0.87452   0.88048    0.000
 4719.00    0.92028   0.88275    0.000
 4720.00    0.93419   0.88421    0.000
 4721.00    0.91141   0.88506    0.000
 4722.00    0.90257   0.88500    0.000
 4723.00    0.92138   0.88416    0.000
 4724.00    0.93191   0.88266    0.000
 4725.00    0.91625   0.88053    0.000
 4726.00    0.88796   0.87803    0.000
 4727.00    0.86802   0.87529    0.000
 4728.00    0.86820   0.87271    0.000
 4729.00    0.86958   0.87050    0.000
 4730.00    0.84559   0.86877    0.000
 4731.00    0.81892   0.86765    0.000
 4732.00    0.83139   0.86712    0.000
 4733.00    0.86912   0.86727    0.000
 4734.00    0.88888   0.86778    0.000
 4735.00    0.88147   0.86875    0.000
 4736.00    0.86463   0.86989    0.000
 4737.00    0.85787   0.87114    0.000
 4738.00    0.86661   0.87261    0.000
 4739.00    0.86973   0.87393    0.000
 4740.00    0.85349   0.87524    0.000
 4741.00    0.84463   0.87633    0.000
 4742.00    0.85912   0.87742    0.000
 4743.00    0.85876   0.87822    0.000
 4744.00    0.82391   0.87891    0.000
 4745.00    0.80549   0.87923    0.000
 4746.00    0.83635   0.87938    0.000
 4747.00    0.87531   0.87919    0.000
 4748.00    0.88363   0.87864    0.000
 4749.00    0.87065   0.87783    0.000
 4750.00    0.86005   0.87668    0.000
 4751.00    0.86655   0.87536    0.000
 4752.00    0.88251   0.87371    0.000
 4753.00    0.88160   0.87206    0.000
 4754.00    0.85902   0.87019    0.000
 4755.00    0.83914   0.86840    0.000
 4756.00    0.83914   0.86646    0.000
 4757.00    0.85514   0.86459    0.000
 4758.00    0.86284   0.86261    0.000
 4759.00    0.83717   0.86069    0.000
 4760.00    0.80385   0.85872    0.000
 4761.00    0.81692   0.85691   18.217
 4762.00    0.86980   0.85519   17.279
 4763.00    0.90843   0.85391   16.827
 4764.00    0.90672   0.85301   17.043
 4765.00    0.87575   0.85268   17.662
 4766.00    0.84837   0.85289   18.351
 4767.00    0.85208   0.85370   18.757
 4768.00    0.87142   0.85500   18.654
 4769.00    0.87551   0.85666   18.122
 4770.00    0.86503   0.85860   17.557
 4771.00    0.85614   0.86055   17.317
 4772.00    0.85228   0.86249   17.458
 4773.00    0.84760   0.86424   17.904
 4774.00    0.83566   0.86570   18.559
 4775.00    0.82087   0.86674   19.224
 4776.00    0.82510   0.86727   19.508
 4777.00    0.85593   0.86739   19.132
 4778.00    0.88390   0.86698   18.275
 4779.00    0.88091   0.86617   17.541
 4780.00    0.84925   0.86500   17.670
 4781.00    0.81433   0.86366   18.635
 4782.00    0.81084   0.86220   19.104
 4783.00    0.83971   0.86081   18.487
 4784.00    0.85801   0.85959   18.096
 4785.00    0.85049   0.85876   18.343
 4786.00    0.84946   0.85825   18.202
 4787.00    0.86262   0.85824   17.648
 4788.00    0.85884   0.85871   17.907
 4789.00    0.83592   0.85955   18.856
 4790.00    0.82822   0.86074   18.744
 4791.00    0.84466   0.86210   17.711
 4792.00    0.86118   0.86348   17.593
 4793.00    0.86018   0.86476   18.430
 4794.00    0.84306   0.86575   18.733
 4795.00    0.83116   0.86641   18.144
 4796.00    0.84733   0.86660   17.580
 4797.00    0.87678   0.86642   17.222
 4798.00    0.88560   0.86585   16.817
 4799.00    0.87214   0.86498   16.674
 4800.00    0.85841   0.86394   17.233
 4801.00    0.85863   0.86273   18.182
 4802.00    0.87034   0.86157   18.717
 4803.00    0.87111   0.86032   18.641
 4804.00    0.84667   0.85928   18.389
 4805.00    0.82457   0.85824   18.436
 4806.00    0.83321   0.85754   18.913
 4807.00    0.85416   0.85696   19.287
 4808.00    0.85895   0.85669   19.000
 4809.00    0.84884   0.85664   18.314
 4810.00    0.83875   0.85683   17.775
 4811.00    0.83899   0.85722   17.688
 4812.00    0.84771   0.85770   18.041
 4813.00    0.84970   0.85823   18.452
 4814.00    0.84019   0.85865   18.569
 4815.00    0.83561   0.85887   18.440
 4816.00    0.84174   0.85875   18.408
 4817.00    0.84244   0.85823   18.867
 4818.00    0.84043   0.85725   19.506
 4819.00    0.86421   0.85579   19.165
 4820.00    0.90446   0.85393   17.986
 4821.00    0.90895   0.85172   17.382
 4822.00    0.87405   0.84932   17.595
 4823.00    0.85207   0.84681   17.787
 4824.00    0.85334   0.84436   17.688
 4825.00    0.84133   0.84206   17.819
 4826.00    0.81835   0.83992   18.250
 4827.00    0.81940   0.83802   18.514
 4828.00    0.83072   0.83624   18.452
 4829.00    0.80990   0.83466   18.348
 4830.00    0.77721   0.83304   18.502
 4831.00    0.78510   0.83153   18.962
 4832.00    0.81952   0.82978   19.119
 4833.00    0.83228   0.82806   18.439
 4834.00    0.82845   0.82597   17.846
 4835.00    0.83532   0.82381   18.339
 4836.00    0.83577   0.82122   19.426
 4837.00    0.80815   0.81849   19.853
 4838.00    0.78751   0.81535   19.530
 4839.00    0.80752   0.81198   19.164
 4840.00    0.83027   0.80822   19.060
 4841.00    0.81501   0.80412   19.160
 4842.00    0.78985   0.79958   19.211
 4843.00    0.79170   0.79453   19.075
 4844.00    0.81012   0.78887   18.981
 4845.00    0.81747   0.78246   19.152
 4846.00    0.79821   0.77519   19.542
 4847.00    0.76217   0.76688   19.895
 4848.00    0.74448   0.75742    0.000
 4849.00    0.75801   0.74668    0.000
 4850.00    0.77407   0.73459    0.000
 4851.00    0.77288   0.72113    0.000
 4852.00    0.76421   0.70634    0.000
 4853.00    0.75578   0.69049    0.000
 4854.00    0.74623   0.67379    0.000
 4855.00    0.75755   0.65687    0.000
 4856.00    0.83959   0.64020    0.000
 4857.00    1.03997   0.62473    0.000
 4858.00    1.38654   0.61097    0.000
 4859.00    1.86820   0.59999    0.000
 4860.00    2.42313   0.59209    0.000
 4861.00    2.92514   0.58810    0.000
 4862.00    3.22011   0.58787    0.000
 4863.00    3.21707   0.59172    0.000
 4864.00    2.91339   0.59878    0.000
 4865.00    2.39949   0.60892    0.000
 4866.00    1.82362   0.62106    0.000
 4867.00    1.32677   0.63473    0.000
 4868.00    0.99791   0.64899    0.000
 4869.00    0.82655   0.66347    0.000
 4870.00    0.74999   0.67755    0.000
 4871.00    0.72645   0.69107    0.000
 4872.00    0.72988   0.70377    0.000
 4873.00    0.73340   0.71575    0.000
 4874.00    0.72415   0.72672    0.000
 4875.00    0.71790   0.73692   20.529
 4876.00    0.73146   0.74601   20.039
 4877.00    0.75788   0.75430   19.764
 4878.00    0.78206   0.76140   20.148
 4879.00    0.79520   0.76760   20.545
 4880.00    0.79575   0.77264   20.414
 4881.00    0.78869   0.77675   20.219
 4882.00    0.78109   0.77993   20.307
 4883.00    0.77886   0.78248   20.377
 4884.00    0.78437   0.78451   20.318
 4885.00    0.79508   0.78629   20.513
 4886.00    0.80330   0.78811   20.991
 4887.00    0.79957   0.79012   21.193
 4888.00    0.78641   0.79264   20.907
 4889.00    0.77719   0.79553   20.588
 4890.00    0.77184   0.79913   20.734
 4891.00    0.75913   0.80303   21.590
 4892.00    0.75035   0.80751   22.636
 4893.00    0.76987   0.81207   22.707
 4894.00    0.80179   0.81658   21.944
 4895.00    0.80687   0.82077   21.468
 4896.00    0.79582   0.82440   21.342
 4897.00    0.80755   0.82745   21.021
 4898.00    0.82957   0.82969   20.748
 4899.00    0.82586   0.83133   21.000
 4900.00    0.81518   0.83220   21.200
 4901.00    0.83360   0.83271   20.585
 4902.00    0.85591   0.83270   19.992
 4903.00    0.84114   0.83239   20.340
 4904.00    0.80969   0.83181   20.842
 4905.00    0.80260   0.83109   20.368
 4906.00    0.82072   0.83019   19.650
 4907.00    0.84290   0.82909   19.626
 4908.00    0.85326   0.82778   19.939
 4909.00    0.84462   0.82630   19.992
 4910.00    0.81938   0.82452   19.976
 4911.00    0.79172   0.82250   20.199
 4912.00    0.78537   0.82013   20.483
 4913.00    0.80472   0.81733   20.534
 4914.00    0.82063   0.81414   20.278
 4915.00    0.81333   0.81047   19.887
 4916.00    0.79563   0.80673   19.668
 4917.00    0.78602   0.80264   19.761
 4918.00    0.79191   0.79919   20.053
 4919.00    0.80540   0.79583   20.344
 4920.00    0.80819   0.79406   20.459
 4921.00    0.79839   0.79277   20.442
 4922.00    0.79236   0.79366   20.524
 4923.00    0.79027   0.79503   20.742
 4924.00    0.77639   0.79828   20.875
 4925.00    0.76085   0.80166   20.721
 4926.00    0.77253   0.80622   20.287
 4927.00    0.80228   0.81019   19.912
 4928.00    0.81285   0.81422   19.994
 4929.00    0.80108   0.81727   20.463
 4930.00    0.79162   0.81966   20.908
 4931.00    0.79108   0.82095   21.201
 4932.00    0.78934   0.82151   21.478
 4933.00    0.78055   0.82131   21.746
 4934.00    0.76858   0.82071   21.885
 4935.00    0.76809   0.82019   21.828
 4936.00    0.78724   0.81970   21.537
 4937.00    0.80478   0.81962   20.950
 4938.00    0.79791   0.81993   20.261
 4939.00    0.77906   0.82100   20.095
 4940.00    0.77254   0.82256    0.000
 4941.00    0.78457   0.82474    0.000
 4942.00    0.80737   0.82697    0.000
 4943.00    0.82692   0.82946    0.000
 4944.00    0.83114   0.83172    0.000
 4945.00    0.81682   0.83380    0.000
 4946.00    0.79473   0.83527    0.000
 4947.00    0.78881   0.83641    0.000
 4948.00    0.80803   0.83677    0.000
 4949.00    0.83287   0.83658    0.000
 4950.00    0.84264   0.83567    0.000
 4951.00    0.83247   0.83426    0.000
 4952.00    0.81707   0.83240    0.000
 4953.00    0.82537   0.83018    0.000
 4954.00    0.87171   0.82802    0.000
 4955.00    0.94957   0.82583    0.000
 4956.00    1.05520   0.82403    0.000
 4957.00    1.19012   0.82239    0.000
 4958.00    1.33933   0.82140    0.000
 4959.00    1.46932   0.82110    0.000
 4960.00    1.54348   0.82104    0.000
 4961.00    1.53532   0.82128    0.000
 4962.00    1.44917   0.82152    0.000
 4963.00    1.31272   0.82199    0.000
 4964.00    1.15007   0.82229    0.000
 4965.00    0.98520   0.82259    0.000
 4966.00    0.85898   0.82277    0.000
 4967.00    0.80390   0.82307    0.000
 4968.00    0.79897   0.82324    0.000
 4969.00    0.80024   0.82347    0.000
 4970.00    0.79506   0.82357    0.000
 4971.00    0.79070   0.82349    0.000
 4972.00    0.78983   0.82319    0.000
 4973.00    0.79231   0.82234    0.000
 4974.00    0.79992   0.82103    0.000
 4975.00    0.80934   0.81903    0.000
 4976.00    0.80692   0.81643    0.000
 4977.00    0.78787   0.81330    0.000
 4978.00    0.76998   0.80974    0.000
 4979.00    0.76587   0.80607    0.000
 4980.00    0.76496   0.80251    0.000
 4981.00    0.75893   0.79931    0.000
 4982.00    0.75653   0.79660    0.000
 4983.00    0.76433   0.79473    0.000
 4984.00    0.77670   0.79380    0.000
 4985.00    0.78392   0.79370    0.000
 4986.00    0.77941   0.79432    0.000
 4987.00    0.77069   0.79550    0.000
 4988.00    0.77649   0.79697    0.000
 4989.00    0.79770   0.79842    0.000
 4990.00    0.81496   0.79986    0.000
 4991.00    0.81894   0.80090    0.000
 4992.00    0.81437   0.80170    0.000
 4993.00    0.80124   0.80191    0.000
 4994.00    0.77812   0.80150    0.000
 4995.00    0.76405   0.80066    0.000
 4996.00    0.78124   0.79916    0.000
 4997.00    0.80551   0.79720    0.000
 4998.00    0.79460   0.79478    0.000
 4999.00    0.76324   0.79210    0.000
 5000.00    0.76180   0.78916    0.000
 5001.00    0.81564   0.78642    0.000
 5002.00    0.93608   0.78365    0.000
 5003.00    1.15118   0.78135    0.000
 5004.00    1.48848   0.77907    0.000
 5005.00    1.94476   0.77715    0.000
 5006.00    2.46301   0.77525    0.000
 5007.00    2.91552   0.77380    0.000
 5008.00    3.15980   0.77236    0.000
 5009.00    3.10242   0.77093    0.000
 5010.00    2.75085   0.76925    0.000
 5011.00    2.24088   0.76761    0.000
 5012.00    1.72847   0.76589    0.000
 5013.00    1.30551   0.76426    0.000
 5014.00    1.01520   0.76306    0.000
 5015.00    0.86472   0.76205    0.000
 5016.00    0.81519   0.76193    0.000
 5017.00    0.79088   0.76206    0.000
 5018.00    0.75947   0.76300    0.000
 5019.00    0.75354   0.76440    0.000
 5020.00    0.77730   0.76671    0.000
 5021.00    0.78450   0.76909    0.000
 5022.00    0.76321   0.77195    0.000
 5023.00    0.74958   0.77478    0.000
 5024.00    0.75650   0.77796    0.000
 5025.00    0.76387   0.78066    0.000
 5026.00    0.76583   0.78336    0.000
 5027.00    0.77313   0.78545    0.000
 5028.00    0.78142   0.78724    0.000
 5029.00    0.77631   0.78866   23.391
 5030.00    0.76404   0.78934   23.408
 5031.00    0.76362   0.78948   23.680
 5032.00    0.77711   0.78885   23.979
 5033.00    0.79052   0.78782   23.857
 5034.00    0.78676   0.78598   23.510
 5035.00    0.76166   0.78388   23.417
 5036.00    0.74282   0.78130   23.622
 5037.00    0.75619   0.77928   23.897
 5038.00    0.78027   0.77715   24.054
 5039.00    0.78234   0.77562   23.984
 5040.00    0.76636   0.77438   23.656
 5041.00    0.75300   0.77399   23.143
 5042.00    0.75323   0.77426   22.607
 5043.00    0.76695   0.77545   22.136
 5044.00    0.78484   0.77658   21.671
 5045.00    0.79540   0.77811   21.366
 5046.00    0.79139   0.77961   21.720
 5047.00    0.77586   0.78095   22.760
 5048.00    0.76318   0.78226   23.481
 5049.00    0.76091   0.78338   23.445
 5050.00    0.76215   0.78489   23.799
 5051.00    0.76479   0.78608   24.949
 5052.00    0.77729   0.78776   25.528
 5053.00    0.79624   0.78919   24.901
 5054.00    0.80356   0.79116   24.282
 5055.00    0.79831   0.79255   24.317
 5056.00    0.80008   0.79428   24.616
 5057.00    0.81443   0.79537   24.665
 5058.00    0.82706   0.79665   24.257
 5059.00    0.82503   0.79692   23.766
 5060.00    0.80534   0.79703   23.761
 5061.00    0.77903   0.79635   24.094
 5062.00    0.76348   0.79531   24.092
 5063.00    0.76220   0.79364   23.635
 5064.00    0.76761   0.79166   23.149
 5065.00    0.77659   0.78936   22.978
 5066.00    0.78841   0.78734   23.207
 5067.00    0.79579   0.78518   23.535
 5068.00    0.79027   0.78309   23.567
 5069.00    0.77321   0.78111   23.395
 5070.00    0.75525   0.77935   23.334
 5071.00    0.75203   0.77759   23.420
 5072.00    0.76865   0.77571   23.489
 5073.00    0.78383   0.77400   23.367
 5074.00    0.77711   0.77241   23.139
 5075.00    0.75731   0.77057   23.314
 5076.00    0.74115   0.76903   24.082
 5077.00    0.73174   0.76746   24.647
 5078.00    0.72821   0.76638   24.328
 5079.00    0.73388   0.76511   23.682
 5080.00    0.74767   0.76468   23.225
 5081.00    0.75949   0.76476   22.736
 5082.00    0.76316   0.76556   22.242
 5083.00    0.76295   0.76663   22.304
 5084.00    0.76400   0.76824   22.869
 5085.00    0.76657   0.77021   22.941
 5086.00    0.76550   0.77227   22.477
 5087.00    0.75461   0.77427   22.711
 5088.00    0.74518   0.77609   23.594
 5089.00    0.76085   0.77770   23.419
 5090.00    0.79238   0.77876   22.257
 5091.00    0.80139   0.77930   21.947
 5092.00    0.78386   0.77932   22.705
 5093.00    0.77005   0.77879   23.246
 5094.00    0.76779   0.77777   23.099
 5095.00    0.76213   0.77623   22.950
 5096.00    0.75283   0.77456   23.063
 5097.00    0.75121   0.77263   23.208
 5098.00    0.75440   0.77095   23.288
 5099.00    0.75105   0.76926   23.355
 5100.00    0.74175   0.76815   23.393
 5101.00    0.73658   0.76730   23.331
 5102.00    0.74469   0.76678   23.155
 5103.00    0.76544   0.76638   22.972
 5104.00    0.77976   0.76623   23.052
 5105.00    0.77172   0.76629   23.489
 5106.00    0.75448   0.76656   23.794
 5107.00    0.74645   0.76698   23.590
 5108.00    0.74380   0.76758   23.456
 5109.00    0.73942   0.76857   24.034
 5110.00    0.74185   0.76948   25.242
 5111.00    0.75827   0.77070   26.380
 5112.00    0.78010   0.77195   26.390
 5113.00    0.79296   0.77293   25.355
 5114.00    0.78665   0.77379   24.892
 5115.00    0.76708   0.77418   25.631
 5116.00    0.75799   0.77415   26.401
 5117.00    0.76977   0.77355   26.151
 5118.00    0.78686   0.77242   25.340
 5119.00    0.79347   0.77054   24.725
 5120.00    0.78572   0.76833   24.635
 5121.00    0.76691   0.76561   24.843
 5122.00    0.74522   0.76292   24.740
 5123.00    0.73362   0.76005   24.353
 5124.00    0.74357   0.75749   24.323
 5125.00    0.76558   0.75541   24.712
 5126.00    0.77452   0.75371   24.992
 5127.00    0.76228   0.75254   25.093
 5128.00    0.74073   0.75173   25.387
 5129.00    0.72540   0.75151   25.731
 5130.00    0.72716   0.75144   25.617
 5131.00    0.74383   0.75190   25.129
 5132.00    0.76300   0.75212   24.766
 5133.00    0.77094   0.75247   24.737
 5134.00    0.76114   0.75250   24.886
 5135.00    0.74457   0.75262   24.724
 5136.00    0.73598   0.75224   24.057
 5137.00    0.73236   0.75148   23.723
 5138.00    0.72411   0.75074   24.398
 5139.00    0.71262   0.74966   25.315
 5140.00    0.70721   0.74873   25.300
 5141.00    0.71819   0.74796   24.659
 5142.00    0.74588   0.74674   24.180
 5143.00    0.77250   0.74584   23.968
 5144.00    0.77953   0.74523   23.973
 5145.00    0.76344   0.74468   24.384
 5146.00    0.73735   0.74408   25.079
 5147.00    0.72679   0.74391   25.230
 5148.00    0.73966   0.74380   24.417
 5149.00    0.75295   0.74418   23.335
 5150.00    0.75061   0.74454   22.749
 5151.00    0.74185   0.74513   23.019
 5152.00    0.73914   0.74588   23.896
 5153.00    0.74660   0.74673   24.424
 5154.00    0.76059   0.74753   24.205
 5155.00    0.77218   0.74824   23.892
 5156.00    0.77470   0.74874   23.851
 5157.00    0.76787   0.74849   23.857
 5158.00    0.76173   0.74764   23.642
 5159.00    0.76836   0.74560   23.198
 5160.00    0.77547   0.74276   23.012
 5161.00    0.75878   0.73884   23.667
 5162.00    0.73191   0.73395   24.800
 5163.00    0.72893   0.72842   25.256
 5164.00    0.73919   0.72266   24.871
 5165.00    0.72771   0.71646   24.467
 5166.00    0.70156   0.71066   24.479
 5167.00    0.68992   0.70536   24.837
 5168.00    0.68977   0.70138   25.091
 5169.00    0.68258   0.69888   24.919
 5170.00    0.67190   0.69792   24.887
 5171.00    0.67170   0.69795   25.505
 5172.00    0.68414   0.69867   25.958
 5173.00    0.70057   0.70074   25.421
 5174.00    0.70735   0.70385   24.895
 5175.00    0.70111   0.70717   25.294
 5176.00    0.70043   0.71000   25.869
 5177.00    0.71764   0.71250   25.730
 5178.00    0.73648   0.71453   25.405
 5179.00    0.74009   0.71582   25.512
 5180.00    0.73193   0.71658   25.789
 5181.00    0.72111   0.71684   25.849
 5182.00    0.71161   0.71680   25.717
 5183.00    0.70396   0.71648   25.628
 5184.00    0.69768   0.71653   25.801
 5185.00    0.69663   0.71763   26.131
 5186.00    0.70829   0.71874   26.142
 5187.00    0.72849   0.72006   25.659
 5188.00    0.74043   0.72135   25.030
 5189.00    0.73808   0.72275   24.706
 5190.00    0.73078   0.72458    0.000
 5191.00    0.72687   0.72577    0.000
 5192.00    0.72878   0.72694    0.000
 5193.00    0.73622   0.72828    0.000
 5194.00    0.74709   0.72977    0.000
 5195.00    0.75742   0.73063    0.000
 5196.00    0.76481   0.73139    0.000
 5197.00    0.77593   0.73205    0.000
 5198.00    0.80009   0.73209    0.000
 5199.00    0.83326   0.73215    0.000
 5200.00    0.85927   0.73140    0.000
 5201.00    0.85827   0.73060    0.000
 5202.00    0.82428   0.72914    0.000
 5203.00    0.78703   0.72794    0.000
 5204.00    0.77448   0.72640    0.000
 5205.00    0.76259   0.72519    0.000
 5206.00    0.72642   0.72445    0.000
 5207.00    0.70163   0.72469    0.000
 5208.00    0.71957   0.72516    0.000
 5209.00    0.74086   0.72642    0.000
 5210.00    0.72548   0.72858    0.000
 5211.00    0.69586   0.73091   25.041
 5212.00    0.68789   0.73386   24.986
 5213.00    0.70847   0.73655   24.240
 5214.00    0.73797   0.73929   23.494
 5215.00    0.74171   0.74141   23.555
 5216.00    0.71559   0.74327   24.415
 5217.00    0.70089   0.74481   24.896
 5218.00    0.71702   0.74576   24.484
 5219.00    0.73704   0.74618   24.212
 5220.00    0.74356   0.74567   24.523
 5221.00    0.74705   0.74471   24.752
 5222.00    0.75149   0.74311   24.541
 5223.00    0.74718   0.74120   24.278
 5224.00    0.73616   0.73907   24.274
 5225.00    0.73285   0.73700   24.532
 5226.00    0.73833   0.73521   24.912
 5227.00    0.73988   0.73388   25.180
 5228.00    0.73087   0.73380   25.087
 5229.00    0.71453   0.73443   24.656
 5230.00    0.69921   0.73516   24.616
 5231.00    0.69306   0.73667   25.754
 5232.00    0.69565   0.73832   27.467
 5233.00    0.70182   0.74014   28.052
 5234.00    0.71128   0.74261   27.380
 5235.00    0.72381   0.74519   26.675
 5236.00    0.72991   0.74804   26.544
 5237.00    0.72283   0.75061   26.974
 5238.00    0.71567   0.75287   27.541
 5239.00    0.72408   0.75481   27.703
 5240.00    0.74385   0.75620   27.299
 5241.00    0.76124   0.75727   26.644
 5242.00    0.76701   0.75764   26.354
 5243.00    0.76161   0.75750   26.732
 5244.00    0.75655   0.75705   27.372
 5245.00    0.75722   0.75627   27.839
 5246.00    0.75193   0.75494   28.283
 5247.00    0.73545   0.75334   28.833
 5248.00    0.72234   0.75211   29.126
 5249.00    0.72233   0.75103   28.900
 5250.00    0.72772   0.74974   28.374
 5251.00    0.73188   0.74880   27.797
 5252.00    0.73736   0.74814   27.234
 5253.00    0.74433   0.74737   26.741
 5254.00    0.74778   0.74643   26.415
 5255.00    0.74955   0.74499   26.275
 5256.00    0.75828   0.74357   26.270
 5257.00    0.77090   0.74162   26.433
 5258.00    0.77307   0.73887   26.850
 5259.00    0.76114   0.73536   27.361
 5260.00    0.74447   0.73110   27.596
 5261.00    0.73196   0.72638   27.482
 5262.00    0.72674   0.72126   27.269
 5263.00    0.72297   0.71622   27.157
 5264.00    0.71277   0.71143   27.183
 5265.00    0.70157   0.70739   27.171
 5266.00    0.70000   0.70412   26.965
 5267.00    0.70389   0.70221   26.824
 5268.00    0.70336   0.70130   27.016
 5269.00    0.70249   0.70074   27.124
 5270.00    0.70801   0.70152   26.739
 5271.00    0.71045   0.70395   26.534
 5272.00    0.70214   0.70724   27.178
 5273.00    0.70006   0.71051   28.059
 5274.00    0.71735   0.71449   28.221
 5275.00    0.73312   0.71836   27.893
 5276.00    0.72804   0.72251   27.681
 5277.00    0.71737   0.72705   27.595
 5278.00    0.72009   0.73120   27.384
 5279.00    0.73274   0.73491   26.906
 5280.00    0.74326   0.73821   26.412
 5281.00    0.74365   0.74143   26.528
 5282.00    0.73692   0.74444   27.367
 5283.00    0.73712   0.74740   28.112
 5284.00    0.74778   0.75003   28.289
 5285.00    0.75478   0.75304   28.508
 5286.00    0.75099   0.75570   29.050
 5287.00    0.74493   0.75770   29.313
 5288.00    0.74512   0.75919   28.855
 5289.00    0.75227   0.76007   27.932
 5290.00    0.75693   0.76059   27.198
 5291.00    0.74603   0.76024   27.242
 5292.00    0.72621   0.75947   27.874
 5293.00    0.71858   0.75805   28.261
 5294.00    0.72356   0.75656   28.179
 5295.00    0.72371   0.75486   -2.000
 5296.00    0.71487   0.75306   -2.000
 5297.00    0.70659   0.75140   -2.000
 5298.00    0.70604   0.75023   -2.000
 5299.00    0.71512   0.75006   -2.000
 5300.00    0.73173   0.75040   -2.000
 5301.00    0.75035   0.75095   -2.000
 5302.00    0.76308   0.75198   -2.000
 5303.00    0.76440   0.75353   -2.000
 5304.00    0.75765   0.75535   -2.000
 5305.00    0.75112   0.75704   -2.000
 5306.00    0.75162   0.75844   -2.000
 5307.00    0.75898   0.75962   -2.000
 5308.00    0.76235   0.76053   -2.000
 5309.00    0.75553   0.76118   28.569
 5310.00    0.75030   0.76136   28.458
 5311.00    0.75849   0.76092   28.092
 5312.00    0.77635   0.76011   27.454
 5313.00    0.78990   0.75867   26.908
 5314.00    0.78262   0.75713   27.260
 5315.00    0.75392   0.75525   28.702
 5316.00    0.72620   0.75283   30.113
 5317.00    0.71699   0.75022   30.353
 5318.00    0.72412   0.74785   29.654
 5319.00    0.73316   0.74517   28.802
 5320.00    0.72725   0.74219   28.339
 5321.00    0.71038   0.73920   28.249
 5322.00    0.70690   0.73601   28.098
 5323.00    0.72151   0.73300   27.820
 5324.00    0.73426   0.72978   27.788
 5325.00    0.73469   0.72747   28.116
 5326.00    0.72844   0.72558   28.532
 5327.00    0.72222   0.72406   28.635
 5328.00    0.71936   0.72257   28.168
 5329.00    0.72016   0.72267   27.442
 5330.00    0.72283   0.72388   26.977
 5331.00    0.72558   0.72523   26.792
 5332.00    0.72813   0.72674   26.652
 5333.00    0.73352   0.72824   26.674
 5334.00    0.74385   0.73006   27.121
 5335.00    0.75300   0.73166   27.906
 5336.00    0.75328   0.73301   28.700
 5337.00    0.74675   0.73405   29.288
 5338.00    0.74118   0.73500   29.574
 5339.00    0.74255   0.73567   29.489
 5340.00    0.75108   0.73607   29.134
 5341.00    0.75873   0.73673   28.904
 5342.00    0.75859   0.73792   29.128
 5343.00    0.75356   0.73881   29.795
 5344.00    0.74810   0.73992   30.679
 5345.00    0.74118   0.74102   31.443
 5346.00    0.73320   0.74232   31.701
 5347.00    0.73020   0.74424   31.213
 5348.00    0.73412   0.74615   30.401
 5349.00    0.73796   0.74816   30.232
 5350.00    0.73754   0.75056   30.788
 5351.00    0.73709   0.75309   30.897
 5352.00    0.74140   0.75550   30.400
 5353.00    0.75126   0.75743   30.667
 5354.00    0.76223   0.75919   31.392
 5355.00    0.76663   0.76059   30.489
 5356.00    0.76288   0.76124   29.867
 5357.00    0.75692   0.76136   33.700
 5358.00    0.75460   0.76069   34.885
 5359.00    0.75796   0.75948   22.545
 5360.00    0.76283   0.75749   14.401
 5361.00    0.76188   0.75497   12.321
 5362.00    0.75420   0.75189   12.964
 5363.00    0.74497   0.74882   13.772
 5364.00    0.73886   0.74589   13.645
 5365.00    0.73722   0.74277   13.373
 5366.00    0.73586   0.74031   13.517
 5367.00    0.72958   0.73802   13.989
 5368.00    0.72037   0.73638   13.994
 5369.00    0.71294   0.73525   13.319
 5370.00    0.70629   0.73446   13.944
 5371.00    0.69990   0.73447   18.760
 5372.00    0.70242   0.73536   29.873
 5373.00    0.71794   0.73716   35.502
 5374.00    0.73084   0.73876   31.490
 5375.00    0.72889   0.74054   30.447
 5376.00    0.72577   0.74214   31.166
 5377.00    0.73431   0.74345   30.095
 5378.00    0.74353   0.74474   29.182
 5379.00    0.74175   0.74558   30.162
 5380.00    0.73395   0.74599   31.118
 5381.00    0.72566   0.74599   30.453
 5382.00    0.71367   0.74589   29.981
 5383.00    0.70219   0.74521   30.791
 5384.00    0.70762   0.74438   31.514
 5385.00    0.73021   0.74344   31.228
 5386.00    0.74651   0.74193   30.963
 5387.00    0.74458   0.74019   31.334
 5388.00    0.73489   0.73812   31.801
 5389.00    0.72807   0.73597   31.863
 5390.00    0.72648   0.73358   31.593
 5391.00    0.72766   0.73133   31.442
 5392.00    0.72752   0.72896   31.888
 5393.00    0.72564   0.72671   32.737
 5394.00    0.72477   0.72448   33.192
 5395.00    0.72504   0.72230   32.950
 5396.00    0.72409   0.72006   32.409
 5397.00    0.72113   0.71764   32.094
 5398.00    0.71767   0.71624   32.307
 5399.00    0.71726   0.71497   32.782
 5400.00    0.72197   0.71348   32.946
 5401.00    0.72686   0.71202   32.613
 5402.00    0.72511   0.71111   31.924
 5403.00    0.71738   0.71017   30.995
 5404.00    0.71143   0.70926   -2.000
 5405.00    0.71850   0.70879   -2.000
 5406.00    0.73663   0.70893   -2.000
 5407.00    0.73535   0.71011   -2.000
 5408.00    0.70040   0.71155   -2.000
 5409.00    0.67435   0.71305   -2.000
 5410.00    0.67953   0.71469   -2.000
 5411.00    0.65839   0.71720   -2.000
 5412.00    0.59745   0.71991   -2.000
 5413.00    0.60536   0.72246   -2.000
 5414.00    0.72623   0.72470   -2.000
 5415.00    0.83669   0.72666   -2.000
 5416.00    0.85331   0.72885   -2.000
 5417.00    0.83601   0.73060   -2.000
 5418.00    0.82743   0.73165   -2.000
 5419.00    0.79108   0.73214   -2.000
 5420.00    0.74558   0.73207   -2.000
 5421.00    0.78239   0.73183   -2.000
 5422.00    0.87391   0.73148   -2.000
 5423.00    0.86864   0.73048   -2.000
 5424.00    0.75606   0.72888   -2.000
 5425.00    0.68199   0.72767   -2.000
 5426.00    0.69688   0.72672   -2.000
 5427.00    0.73054   0.72551   36.610
 5428.00    0.74229   0.72426   33.082
 5429.00    0.74213   0.72268   30.462
 5430.00    0.74021   0.72182   31.963
 5431.00    0.73719   0.72221   33.106
 5432.00    0.73061   0.72218   32.427
 5433.00    0.71922   0.72250   32.056
 5434.00    0.70825   0.72327   32.530
 5435.00    0.70505   0.72448   33.068
 5436.00    0.71094   0.72605   33.175
 5437.00    0.72142   0.72739   32.919
 5438.00    0.72879   0.72890   32.839
 5439.00    0.72863   0.73016   33.251
 5440.00    0.72655   0.73128   33.557
 5441.00    0.73030   0.73189   33.189
 5442.00    0.74064   0.73188   32.721
 5443.00    0.75229   0.73178   32.701
 5444.00    0.75656   0.73102   32.724
 5445.00    0.74798   0.73001   32.536
 5446.00    0.72922   0.72853   32.805
 5447.00    0.70734   0.72728   33.842
 5448.00    0.69042   0.72687   34.719
 5449.00    0.68475   0.72626   34.556
 5450.00    0.69250   0.72566   33.617
 5451.00    0.70854   0.72486   32.449
 5452.00    0.72128   0.72435   31.375
 5453.00    0.72500   0.72365   30.914
 5454.00    0.72363   0.72307   31.717
 5455.00    0.72103   0.72235   33.399
 5456.00    0.71751   0.72225   34.216
 5457.00    0.71272   0.72288   33.834
 5458.00    0.70738   0.72325   33.728
 5459.00    0.70527   0.72344   33.519
 5460.00    0.71094   0.72327   31.954
 5461.00    0.72200   0.72317   31.897
 5462.00    0.73030   0.72299   36.769
 5463.00    0.73005   0.72258   36.087
 5464.00    0.72193   0.72252   22.465
 5465.00    0.71669   0.72256   14.770
 5466.00    0.72440   0.72206   12.914
 5467.00    0.73397   0.72129   13.462
 5468.00    0.72868   0.72043   14.047
 5469.00    0.71637   0.71923   13.997
 5470.00    0.71441   0.71779   13.916
 5471.00    0.72196   0.71636   13.851
 5472.00    0.72833   0.71496   13.660
 5473.00    0.72838   0.71333   13.726
 5474.00    0.72403   0.71193   14.128
 5475.00    0.72302   0.71103   13.791
 5476.00    0.72858   0.70973   12.857
 5477.00    0.73139   0.70900   13.974
 5478.00    0.72483   0.70935   20.822
 5479.00    0.71670   0.70989   36.478
 5480.00    0.71535   0.71046   40.185
 5481.00    0.71960   0.71084   33.277
 5482.00    0.72491   0.71202   32.133
 5483.00    0.72773   0.71333   33.774
 5484.00    0.72589   0.71472   34.355
 5485.00    0.71914   0.71613   34.321
 5486.00    0.71205   0.71710   34.658
 5487.00    0.71241   0.71784   34.835
 5488.00    0.71832   0.71845   34.666
 5489.00    0.71813   0.71931   34.812
 5490.00    0.71071   0.71964   35.331
 5491.00    0.70654   0.71994   35.482
 5492.00    0.70630   0.72022   35.054
 5493.00    0.70130   0.71989   34.555
 5494.00    0.69517   0.71952   34.282
 5495.00    0.69996   0.71922   34.185
 5496.00    0.71086   0.71864   34.133
 5497.00    0.71323   0.71765   34.010
 5498.00    0.71075   0.71688   33.798
 5499.00    0.71590   0.71645   33.632
 5500.00    0.72063   0.71536   33.833
 5501.00    0.71128   0.71412   34.463
 5502.00    0.70108   0.71294   34.546
 5503.00    0.70936   0.71202   33.384
 5504.00    0.72491   0.71121   32.477
 5505.00    0.72671   0.71034   33.219
 5506.00    0.71620   0.70942   34.672
 5507.00    0.70616   0.70882   35.084
 5508.00    0.70360   0.70899   34.552
 5509.00    0.70854   0.70888   34.025
 5510.00    0.71514   0.70899   33.720
 5511.00    0.71778   0.70947   33.566
 5512.00    0.71584   0.70991   33.623
 5513.00    0.71087   0.71079   33.728
 5514.00    0.70436   0.71186   33.344
 5515.00    0.69967   0.71312   32.471
 5516.00    0.70231   0.71437   31.900
 5517.00    0.71445   0.71544   31.824
 5518.00    0.73218   0.71651   31.476
 5519.00    0.74840   0.71708   30.569
 5520.00    0.75623   0.71735   29.754
 5521.00    0.75653   0.71731   29.659
 5522.00    0.75674   0.71716   30.578
 5523.00    0.75406   0.71682   32.252
 5524.00    0.73662   0.71621   33.738
 5525.00    0.70944   0.71531   34.364
 5526.00    0.69309   0.71430   34.293
 5527.00    0.69405   0.71335   33.997
 5528.00    0.70234   0.71222   33.884
 5529.00    0.70817   0.71195   34.088
 5530.00    0.70759   0.71208   34.527
 5531.00    0.70477   0.71216   35.080
 5532.00    0.70648   0.71234   35.601
 5533.00    0.71072   0.71262   35.868
 5534.00    0.71153   0.71315   35.746
 5535.00    0.71070   0.71351   35.454
 5536.00    0.71364   0.71453   35.278
 5537.00    0.72027   0.71561   35.137
 5538.00    0.72685   0.71644   34.875
 5539.00    0.73019   0.71739   34.680
 5540.00    0.72926   0.71827   34.801
 5541.00    0.72606   0.71909   35.208
 5542.00    0.72272   0.71965   35.664
 5543.00    0.71876   0.72010   35.854
 5544.00    0.71409   0.72070   35.743
 5545.00    0.71154   0.72129   35.790
 5546.00    0.71356   0.72166   36.115
 5547.00    0.71951   0.72206   36.031
 5548.00    0.72636   0.72249   35.400
 5549.00    0.72991   0.72266   35.232
 5550.00    0.72844   0.72257   35.831
 5551.00    0.72412   0.72239   36.134
 5552.00    0.71886   0.72206   35.795
 5553.00    0.71300   0.72143   35.908
 5554.00    0.70920   0.72068   36.641
 5555.00    0.71207   0.71989   36.755
 5556.00    0.71935   0.71903   36.274
 5557.00    0.72252   0.71797   36.704
 5558.00    0.72082   0.71667   37.921
 5559.00    0.72131   0.71548   38.006
 5560.00    0.72446   0.71414   36.865
 5561.00    0.72465   0.71283   36.213
 5562.00    0.72304   0.71147   36.374
 5563.00    0.72515   0.71010   36.515
 5564.00    0.72788   0.70924   36.361
 5565.00    0.72351   0.70812   36.252
 5566.00    0.71355   0.70710   36.390
 5567.00    0.70619   0.70659   36.769
 5568.00    0.70676   0.70616   37.286
 5569.00    0.71485   0.70575   37.696
 5570.00    0.72299   0.70555   37.544
 5571.00    0.72336   0.70600   36.689
 5572.00    0.71691   0.70594   35.851
 5573.00    0.70953   0.70583   35.738
 5574.00    0.70604   0.70645   36.278
 5575.00    0.70767   0.70668   37.123
 5576.00    0.71064   0.70651   38.128
 5577.00    0.71056   0.70643   39.046
 5578.00    0.70663   0.70609   39.227
 5579.00    0.70237   0.70509   38.458
 5580.00    0.70442   0.70393   37.502
 5581.00    0.71277   0.70261   36.982
 5582.00    0.71654   0.70081   36.848
 5583.00    0.71092   0.69913   36.809
 5584.00    0.70418   0.69732   36.620
 5585.00    0.69892   0.69533   36.417
 5586.00    0.68672   0.69324   36.660
 5587.00    0.67128   0.69120   37.165
 5588.00    0.67105   0.68996   37.010
 5589.00    0.68593   0.68908   36.255
 5590.00    0.69455   0.68873   36.006
 5591.00    0.69340   0.68860   36.379
 5592.00    0.69857   0.68857   36.461
 5593.00    0.70798   0.68886   36.105
 5594.00    0.70331   0.68905   36.001
 5595.00    0.68715   0.68987   36.243
 5596.00    0.67913   0.69119   36.352
 5597.00    0.68343   0.69246   36.191
 5598.00    0.69027   0.69332   35.984
 5599.00    0.69487   0.69463   35.874
 5600.00    0.69828   0.69612   35.852
 5601.00    0.70155   0.69731   35.804
 5602.00    0.70468   0.69887   35.680
 5603.00    0.70680   0.70046   35.729
 5604.00    0.70774   0.70260   36.233
 5605.00    0.71001   0.70417   37.112
 5606.00    0.71515   0.70567   38.003
 5607.00    0.71938   0.70675   38.453
 5608.00    0.71793   0.70697   38.304
 5609.00    0.71005   0.70734   38.008
 5610.00    0.69899   0.70731   38.008
 5611.00    0.69080   0.70719   38.227
 5612.00    0.68870   0.70656   38.350
 5613.00    0.68923   0.70547   38.124
 5614.00    0.68728   0.70413   37.691
 5615.00    0.68051   0.70208   37.629
 5616.00    0.67242   0.70077   38.079
 5617.00    0.67198   0.69997   38.367
 5618.00    0.68167   0.69901   37.890
 5619.00    0.69338   0.69833   36.728
 5620.00    0.70066   0.69766   35.492
 5621.00    0.70352   0.69744   34.904
 5622.00    0.70291   0.69738   35.110
 5623.00    0.69925   0.69748   35.683
 5624.00    0.69554   0.69775   36.213
 5625.00    0.69631   0.69808   36.505
 5626.00    0.70097   0.69899   36.491
 5627.00    0.70439   0.69972   36.303
 5628.00    0.70433   0.70034   36.522
 5629.00    0.70293   0.70110   37.717
 5630.00    0.70486   0.70144   39.083
 5631.00    0.71315   0.70159   38.958
 5632.00    0.72179   0.70161   37.743
 5633.00    0.72227   0.70161   37.088
 5634.00    0.71781   0.70123   37.427
 5635.00    0.71624   0.70077   38.295
 5636.00    0.71463   0.70028   39.012
 5637.00    0.70700   0.69954   39.128
 5638.00    0.69784   0.69902   39.013
 5639.00    0.69429   0.69859   39.251
 5640.00    0.69460   0.69828   39.818
 5641.00    0.69455   0.69772   40.329
 5642.00    0.69562   0.69761   40.446
 5643.00    0.70128   0.69765   40.102
 5644.00    0.71258   0.69758   39.609
 5645.00    0.72676   0.69780   39.201
 5646.00    0.73719   0.69791   38.769
 5647.00    0.73851   0.69787   38.367
 5648.00    0.73055   0.69749   38.439
 5649.00    0.71830   0.69719   39.012
 5650.00    0.71038   0.69660   39.324
 5651.00    0.71126   0.69563   38.952
 5652.00    0.71810   0.69476   38.367
 5653.00    0.72645   0.69384   37.968
 5654.00    0.73303   0.69246   37.702
 5655.00    0.73515   0.69083   37.366
 5656.00    0.73080   0.68972   36.852
 5657.00    0.72033   0.68869   36.553
 5658.00    0.70647   0.68721   37.111
 5659.00    0.69202   0.68656   38.275
 5660.00    0.67988   0.68671   38.917
 5661.00    0.67520   0.68664   38.725
 5662.00    0.68270   0.68650   38.340
 5663.00    0.69909   0.68699   37.887
 5664.00    0.71511   0.68819   37.197
 5665.00    0.72406   0.68930   36.912
 5666.00    0.72372   0.69059   37.794
 5667.00    0.71617   0.69203   39.143
 5668.00    0.70665   0.69325   39.466
 5669.00    0.70136   0.69460   38.816
 5670.00    0.70321   0.69595   38.217
 5671.00    0.70680   0.69720   37.984
 5672.00    0.70597   0.69832   38.009
 5673.00    0.70387   0.69919   38.294
 5674.00    0.70642   0.69963   38.790
 5675.00    0.71394   0.69944   39.171
 5676.00    0.72312   0.69938   39.189
 5677.00    0.73008   0.69929   39.055
 5678.00    0.73209   0.69870   38.944
 5679.00    0.72880   0.69787   38.645
 5680.00    0.72164   0.69699   38.233
 5681.00    0.71327   0.69609   38.371
 5682.00    0.70697   0.69481   39.120
 5683.00    0.70570   0.69393   39.376
 5684.00    0.70831   0.69353   38.752
 5685.00    0.70888   0.69325   38.380
 5686.00    0.70382   0.69283   38.855
 5687.00    0.69492   0.69246   39.568
 5688.00    0.68631   0.69246   39.784
 5689.00    0.68249   0.69259   39.230
 5690.00    0.68644   0.69309   38.125
 5691.00    0.69793   0.69323   36.961
 5692.00    0.71080   0.69357   36.104
 5693.00    0.71629   0.69346   35.667
 5694.00    0.71518   0.69291   35.409
 5695.00    0.71549   0.69241   35.003
 5696.00    0.71789   0.69168   34.735
 5697.00    0.71737   0.69099   35.084
 5698.00    0.71524   0.68950   35.555
 5699.00    0.71630   0.68807   35.292
 5700.00    0.71831   0.68656   34.927
 5701.00    0.71588   0.68457   35.548
 5702.00    0.71020   0.68281   36.580
 5703.00    0.70566   0.68143   36.781
 5704.00    0.70259   0.68015   36.651
 5705.00    0.69877   0.67884   37.289
 5706.00    0.69293   0.67774   38.394
 5707.00    0.68558   0.67708   39.039
 5708.00    0.67931   0.67691   39.081
 5709.00    0.67759   0.67687   38.920
 5710.00    0.68321   0.67777   38.894
 5711.00    0.69459   0.67893   39.007
 5712.00    0.70382   0.68009   -2.000
 5713.00    0.70474   0.68216   -2.000
 5714.00    0.69875   0.68415   -2.000
 5715.00    0.69033   0.68625   -2.000
 5716.00    0.68355   0.68845   -2.000
 5717.00    0.68149   0.69059   -2.000
 5718.00    0.68576   0.69267   -2.000
 5719.00    0.69539   0.69446   -2.000
 5720.00    0.70687   0.69603   -2.000
 5721.00    0.71684   0.69738   -2.000
 5722.00    0.72283   0.69844   -2.000
 5723.00    0.72143   0.69924   -2.000
 5724.00    0.71013   0.69961   -2.000
 5725.00    0.69560   0.69981   -2.000
 5726.00    0.69036   0.69983   -2.000
 5727.00    0.69465   0.69946   -2.000
 5728.00    0.69777   0.69952   -2.000
 5729.00    0.69574   0.69955   -2.000
 5730.00    0.69239   0.69938   -2.000
 5731.00    0.69107   0.69883   -2.000
 5732.00    0.69231   0.69844   35.726
 5733.00    0.69348   0.69864   35.398
 5734.00    0.69186   0.69855   35.900
 5735.00    0.68996   0.69857   36.786
 5736.00    0.69188   0.69832   37.470
 5737.00    0.69667   0.69810   37.787
 5738.00    0.69973   0.69797   37.879
 5739.00    0.69650   0.69777   37.814
 5740.00    0.68742   0.69766    0.000
 5741.00    0.68213   0.69722    0.000
 5742.00    0.68872   0.69678    0.000
 5743.00    0.70284   0.69612    0.000
 5744.00    0.71453   0.69577    0.000
 5745.00    0.71606   0.69542    0.000
 5746.00    0.70785   0.69478    0.000
 5747.00    0.70056   0.69385    0.000
 5748.00    0.70070   0.69273    0.000
 5749.00    0.70262   0.69227    0.000
 5750.00    0.70153   0.69199    0.000
 5751.00    0.70039   0.69159    0.000
 5752.00    0.70158   0.69092    0.000
 5753.00    0.70323   0.69011    0.000
 5754.00    0.70290   0.68959    0.000
 5755.00    0.69971   0.68947    0.000
 5756.00    0.69492   0.68967    0.000
 5757.00    0.69110   0.68981    0.000
 5758.00    0.68833   0.68985    0.000
 5759.00    0.68472   0.68996    0.000
 5760.00    0.68213   0.69008    0.000
 5761.00    0.68460   0.69033    0.000
 5762.00    0.68969   0.69066    0.000
 5763.00    0.69032   0.69102    0.000
 5764.00    0.68438   0.69184    0.000
 5765.00    0.67585   0.69234    0.000
 5766.00    0.67222   0.69258    0.000
 5767.00    0.67905   0.69267    0.000
 5768.00    0.69167   0.69264    0.000
 5769.00    0.70031   0.69254    0.000
 5770.00    0.70036   0.69217    0.000
 5771.00    0.69249   0.69176    0.000
 5772.00    0.68048   0.69081    0.000
 5773.00    0.66983   0.68965    0.000
 5774.00    0.66599   0.68819    0.000
 5775.00    0.67112   0.68650    0.000
 5776.00    0.68117   0.68496    0.000
 5777.00    0.69016   0.68329    0.000
 5778.00    0.69442   0.68149    0.000
 5779.00    0.69312   0.67969    0.000
 5780.00    0.68809   0.67786    0.000
 5781.00    0.68181   0.67614    0.000
 5782.00    0.67589   0.67529    0.000
 5783.00    0.67119   0.67471    0.000
 5784.00    0.66799   0.67429    0.000
 5785.00    0.66708   0.67384    0.000
 5786.00    0.66984   0.67386    0.000
 5787.00    0.67670   0.67495    0.000
 5788.00    0.68613   0.67583    0.000
 5789.00    0.69409   0.67712    0.000
 5790.00    0.69594   0.67821    0.000
 5791.00    0.69407   0.67910    0.000
 5792.00    0.69642   0.68064    0.000
 5793.00    0.70334   0.68196    0.000
 5794.00    0.70791   0.68353    0.000
 5795.00    0.70788   0.68496    0.000
 5796.00    0.70677   0.68587    0.000
 5797.00    0.70819   0.68654    0.000
 5798.00    0.71320   0.68708    0.000
 5799.00    0.71817   0.68800    0.000
 5800.00    0.71812   0.68891    0.000
 5801.00    0.71352   0.68928    0.000
 5802.00    0.70806   0.68958    0.000
 5803.00    0.70309   0.68967    0.000
 5804.00    0.69833   0.68946    0.000
 5805.00    0.69401   0.68958    0.000
 5806.00    0.69023   0.68969    0.000
 5807.00    0.68617   0.68985    0.000
 5808.00    0.68343   0.68985    0.000
 5809.00    0.68874   0.68957    0.000
 5810.00    0.70363   0.68960    0.000
 5811.00    0.71616   0.68965    0.000
 5812.00    0.71631   0.68983    0.000
 5813.00    0.70799   0.69012    0.000
 5814.00    0.69827   0.69028    0.000
 5815.00    0.68959   0.69049    0.000
 5816.00    0.68450   0.69056    0.000
 5817.00    0.68753   0.69097    0.000
 5818.00    0.69695   0.69169    0.000
 5819.00    0.70295   0.69211    0.000
 5820.00    0.70177   0.69255    0.000
 5821.00    0.69993   0.69283    0.000
 5822.00    0.70263   0.69311    0.000
 5823.00    0.70922   0.69343    0.000
 5824.00    0.71580   0.69365    0.000
 5825.00    0.71777   0.69402    0.000
 5826.00    0.71457   0.69401    0.000
 5827.00    0.70982   0.69392    0.000
 5828.00    0.70727   0.69378    0.000
 5829.00    0.70910   0.69365    0.000
 5830.00    0.71445   0.69352    0.000
 5831.00    0.71963   0.69325    0.000
 5832.00    0.71939   0.69306    0.000
 5833.00    0.71103   0.69271    0.000
 5834.00    0.70125   0.69236    0.000
 5835.00    0.69907   0.69199    0.000
 5836.00    0.70278   0.69191    0.000
 5837.00    0.70517   0.69173    0.000
 5838.00    0.70404   0.69122    0.000
 5839.00    0.70129   0.69080    0.000
 5840.00    0.69983   0.69036    0.000
 5841.00    0.70143   0.68994    0.000
 5842.00    0.70482   0.68921    0.000
 5843.00    0.70765   0.68839    0.000
 5844.00    0.70841   0.68745    0.000
 5845.00    0.70630   0.68620    0.000
 5846.00    0.70104   0.68490    0.000
 5847.00    0.69349   0.68324    0.000
 5848.00    0.68595   0.68166    0.000
 5849.00    0.68102   0.68021    0.000
 5850.00    0.68048   0.67856    0.000
 5851.00    0.68335   0.67695    0.000
 5852.00    0.68578   0.67496    0.000
 5853.00    0.68562   0.67319    0.000
 5854.00    0.68412   0.67216    0.000
 5855.00    0.68260   0.67137    0.000
 5856.00    0.68129   0.67071    0.000
 5857.00    0.68047   0.66949    0.000
 5858.00    0.68055   0.66891    0.000
 5859.00    0.68058   0.66926    0.000
 5860.00    0.67877   0.66964    0.000
 5861.00    0.67541   0.67025    0.000
 5862.00    0.67312   0.67029    0.000
 5863.00    0.67527   0.67080    0.000
 5864.00    0.68339   0.67173    0.000
 5865.00    0.69267   0.67244    0.000
 5866.00    0.69601   0.67304    0.000
 5867.00    0.69343   0.67304    0.000
 5868.00    0.68993   0.67351    0.000
 5869.00    0.68889   0.67364    0.000
 5870.00    0.69450   0.67345    0.000
 5871.00    0.71646   0.67318    0.000
 5872.00    0.76149   0.67221    0.000
 5873.00    0.82233   0.67164    0.000
 5874.00    0.88680   0.67032    0.000
 5875.00    0.94880   0.66881    0.000
 5876.00    1.00077   0.66724    0.000
 5877.00    1.02654   0.66510    0.000
 5878.00    1.01460   0.66312    0.000
 5879.00    0.96942   0.65990    0.000
 5880.00    0.90411   0.65661    0.000
 5881.00    0.83369   0.65329    0.000
 5882.00    0.77265   0.64948    0.000
 5883.00    0.73221   0.64503    0.000
 5884.00    0.71262   0.63947    0.000
 5885.00    0.70136   0.63402    0.000
 5886.00    0.68686   0.62961    0.000
 5887.00    0.66552   0.62549    0.000
 5888.00    0.64067   0.62070    0.000
 5889.00    0.61987   0.61548    0.000
 5890.00    0.60684   0.61046    0.000
 5891.00    0.59994   0.60839    0.000
 5892.00    0.59750   0.60842    0.000
 5893.00    0.59883   0.60812    0.000
 5894.00    0.60174   0.60844    0.000
 5895.00    0.60362   0.60845    0.000
 5896.00    0.60640   0.61013    0.000
 5897.00    0.61455   0.61484    0.000
 5898.00    0.62790   0.61968    0.000
 5899.00    0.64192   0.62413    0.000
 5900.00    0.65159   0.62817    0.000
 5901.00    0.65477   0.63241   44.423
 5902.00    0.65638   0.63742   44.597
 5903.00    0.66236   0.64221   43.663
 5904.00    0.67001   0.64627   42.692
 5905.00    0.67383   0.64971   42.779
 5906.00    0.67471   0.65259   43.609
 5907.00    0.67592   0.65520   44.198
 5908.00    0.67736   0.65736   43.999
 5909.00    0.67795   0.65870   43.551
 5910.00    0.67856   0.65993   44.483
 5911.00    0.67960   0.66082   46.417
 5912.00    0.67903   0.66155   44.627
 5913.00    0.67580   0.66193   41.089
 5914.00    0.67212   0.66172   46.367
 5915.00    0.67032   0.66213   57.129
 5916.00    0.67057   0.66236   37.544
 5917.00    0.67166   0.66262   19.099
 5918.00    0.67195   0.66290   14.102
 5919.00    0.67149   0.66280   14.123
 5920.00    0.67225   0.66316   15.213
 5921.00    0.67445   0.66350   15.137
 5922.00    0.67556   0.66356   14.618
 5923.00    0.67381   0.66379   14.630
 5924.00    0.66967   0.66380   15.197
 5925.00    0.66603   0.66370   15.399
 5926.00    0.66655   0.66405   14.344
 5927.00    0.67069   0.66401   14.025
 5928.00    0.67433   0.66390   18.097
 5929.00    0.67539   0.66365   33.307
 5930.00    0.67463   0.66310   53.839
 5931.00    0.67385   0.66351   44.899
 5932.00    0.67358   0.66371   38.555
 5933.00    0.66958   0.66356   40.070
 5934.00    0.65808   0.66335   41.929
 5935.00    0.64577   0.66289   41.739
 5936.00    0.64242   0.66319   41.890
 5937.00    0.64719   0.66341   42.655
 5938.00    0.65273   0.66328   42.991
 5939.00    0.65363   0.66328   43.235
 5940.00    0.64963   0.66301   44.085
 5941.00    0.64725   0.66282   44.893
 5942.00    0.65200   0.66272   44.835
 5943.00    0.66057   0.66240   44.516
 5944.00    0.66756   0.66217   44.673
 5945.00    0.67201   0.66205   44.988
 5946.00    0.67578   0.66177   44.968
 5947.00    0.68132   0.66132   44.692
 5948.00    0.68798   0.66063   44.291
 5949.00    0.69064   0.66033   43.645
 5950.00    0.68675   0.66051   42.951
 5951.00    0.67961   0.66045   42.816
 5952.00    0.67274   0.66004   43.213
 5953.00    0.66707   0.65959   43.268
 5954.00    0.66281   0.65993   42.886
 5955.00    0.66036   0.66059   43.034
 5956.00    0.66028   0.66079   43.668
 5957.00    0.66292   0.66102   43.484
 5958.00    0.66737   0.66131   42.395
 5959.00    0.67139   0.66218   41.666
 5960.00    0.67249   0.66307   41.726
 5961.00    0.66910   0.66350   42.077
 5962.00    0.66285   0.66420   42.300
 5963.00    0.65761   0.66471   42.321
 5964.00    0.65603   0.66541   42.369
 5965.00    0.65834   0.66589   42.748
 5966.00    0.66191   0.66594   43.423
 5967.00    0.66409   0.66633   44.074
 5968.00    0.66714   0.66635   44.411
 5969.00    0.67458   0.66626   44.315
 5970.00    0.68419   0.66600   43.940
 5971.00    0.69072   0.66532   43.677
 5972.00    0.69126   0.66482   44.043
 5973.00    0.68595   0.66405   45.129
 5974.00    0.67762   0.66315   45.905
 5975.00    0.66926   0.66234   45.506
 5976.00    0.66145   0.66120   44.874
 5977.00    0.65423   0.66020   45.004
 5978.00    0.64905   0.65913   45.469
 5979.00    0.64797   0.65795   45.583
 5980.00    0.65262   0.65744   45.398
 5981.00    0.66168   0.65677   45.053
 5982.00    0.66992   0.65605   44.343
 5983.00    0.67323   0.65551   43.330
 5984.00    0.67164   0.65478   42.525
 5985.00    0.66802   0.65491   42.121
 5986.00    0.66640   0.65500   41.794
 5987.00    0.66767   0.65478   41.299
 5988.00    0.66872   0.65495   40.751
 5989.00    0.66740   0.65499   40.602
 5990.00    0.66438   0.65533   41.358
 5991.00    0.66212   0.65545   42.570
 5992.00    0.66307   0.65518   42.920
 5993.00    0.66547   0.65534   42.590
 5994.00    0.66444   0.65552   43.070
 5995.00    0.65864   0.65543   44.251
 5996.00    0.65092   0.65515   44.633
 5997.00    0.64528   0.65439   44.332
 5998.00    0.64498   0.65370   44.701
 5999.00    0.65046   0.65370   45.633
 6000.00    0.65955   0.65329   45.965
 6001.00    0.66878   0.65272   45.497
 6002.00    0.67444   0.65176   44.933
 6003.00    0.67382   0.65038   44.893
 6004.00    0.66633   0.65040   45.563
 6005.00    0.65452   0.65031   46.408
 6006.00    0.64275   0.64963   46.830
 6007.00    0.63508   0.64886   47.171
 6008.00    0.63311   0.64752   47.824
 6009.00    0.63431   0.64752   48.109
 6010.00    0.63604   0.64789   47.329
 6011.00    0.63913   0.64728   45.946
 6012.00    0.64420   0.64664   44.767
 6013.00    0.64891   0.64590   44.236
 6014.00    0.65197   0.64576   44.269
 6015.00    0.65557   0.64617   44.258
 6016.00    0.65991   0.64585   43.903
 6017.00    0.66075   0.64548   43.611
 6018.00    0.65611   0.64564   43.633
 6019.00    0.64942   0.64570   43.703
 6020.00    0.64533   0.64624   43.566
 6021.00    0.64710   0.64671   43.221
 6022.00    0.65500   0.64701   42.776
 6023.00    0.66598   0.64807   42.394
 6024.00    0.67499   0.64879   42.393
 6025.00    0.67707   0.64982   43.103
 6026.00    0.67243   0.65098   44.259
 6027.00    0.66602   0.65178   45.075
 6028.00    0.66171   0.65322   45.439
 6029.00    0.66083   0.65427   45.900
 6030.00    0.66303   0.65525   46.391
 6031.00    0.66682   0.65627   46.336
 6032.00    0.67034   0.65690   45.773
 6033.00    0.67196   0.65795   45.274
 6034.00    0.67104   0.65857   45.281
 6035.00    0.66765   0.65890   45.859
 6036.00    0.66186   0.65936   46.430
 6037.00    0.65440   0.65949   46.383
 6038.00    0.64777   0.65999   46.125
 6039.00    0.64490   0.66014   46.228
 6040.00    0.64721   0.65999   46.246
 6041.00    0.65346   0.66012   45.732
 6042.00    0.65917   0.66000   45.393
 6043.00    0.66178   0.66012   45.780
 6044.00    0.66488   0.66007   46.128
 6045.00    0.67109   0.65978   45.805
 6046.00    0.67632   0.65963   45.537
 6047.00    0.67712   0.65932   45.763
 6048.00    0.67566   0.65898   45.602
 6049.00    0.67434   0.65862   44.559
 6050.00    0.67237   0.65813   43.396
 6051.00    0.66892   0.65756   42.418
 6052.00    0.66488   0.65696   41.056
 6053.00    0.66196   0.65625   39.571
 6054.00    0.66174   0.65572   39.142
 6055.00    0.66448   0.65507   40.063
 6056.00    0.66872   0.65440   41.476
 6057.00    0.67234   0.65394   42.676
 6058.00    0.67335   0.65337   43.599
 6059.00    0.67095   0.65318   44.155
 6060.00    0.66578   0.65257   44.165
 6061.00    0.65947   0.65233   44.038
 6062.00    0.65427   0.65262   44.520
 6063.00    0.65252   0.65255   45.617
 6064.00    0.65546   0.65288   46.633
 6065.00    0.66113   0.65264   47.037
 6066.00    0.66525   0.65287   46.833
 6067.00    0.66417   0.65390   46.634
 6068.00    0.65717   0.65410   46.993
 6069.00    0.64925   0.65444   47.409
 6070.00    0.64645   0.65446   46.958
 6071.00    0.64839   0.65443   45.640
 6072.00    0.65131   0.65492   43.949
 6073.00    0.65330   0.65451   42.084
 6074.00    0.65423   0.65399   40.377
 6075.00    0.65473   0.65358   39.625
 6076.00    0.65574   0.65268   40.180
 6077.00    0.65800   0.65191   41.253
 6078.00    0.66094   0.65080   41.978
 6079.00    0.66219   0.64970   42.563
 6080.00    0.66100   0.64892   43.395
 6081.00    0.66036   0.64784   44.188
 6082.00    0.66200   0.64672   44.600
 6083.00    0.66351   0.64590   44.764
 6084.00    0.66208   0.64526   45.064
 6085.00    0.65692   0.64457   45.869
 6086.00    0.65026   0.64407   47.069
 6087.00    0.64662   0.64360   47.895
 6088.00    0.64785   0.64329   47.739
 6089.00    0.65164   0.64322   46.735
 6090.00    0.65437   0.64288   45.737
 6091.00    0.65287   0.64274   45.709
 6092.00    0.64610   0.64251   46.379
 6093.00    0.63553   0.64208   46.516
 6094.00    0.62465   0.64212   46.300
 6095.00    0.61733   0.64201   47.025
 6096.00    0.61435   0.64179   48.317
 6097.00    0.61387   0.64088   48.446
 6098.00    0.61471   0.63998   47.445
 6099.00    0.61677   0.64030   46.609
 6100.00    0.62014   0.64034   45.876
 6101.00    0.62467   0.64012   44.458
 6102.00    0.62948   0.63905   42.460
 6103.00    0.63334   0.63813   40.646
 6104.00    0.63523   0.63930   39.820
 6105.00    0.63530   0.63999   40.415
 6106.00    0.63566   0.63984   42.098
 6107.00    0.63729   0.63953   44.021
 6108.00    0.63690   0.63931   45.285
 6109.00    0.63359   0.64046   45.729
 6110.00    0.63494   0.64126   46.442
 6111.00    0.64534   0.64064   -2.000
 6112.00    0.65622   0.64016   -2.000
 6113.00    0.65730   0.64022   -2.000
 6114.00    0.64631   0.64024   -2.000
 6115.00    0.62977   0.63999   -2.000
 6116.00    0.62098   0.63880   -2.000
 6117.00    0.62678   0.63740   -2.000
 6118.00    0.64120   0.63721   -2.000
 6119.00    0.65463   0.63670   -2.000
 6120.00    0.65957   0.63571   -2.000
 6121.00    0.65362   0.63476   -2.000
 6122.00    0.64043   0.63328   -2.000
 6123.00    0.62848   0.63302   42.615
 6124.00    0.62723   0.63315   41.995
 6125.00    0.63599   0.63245   42.935
 6126.00    0.64441   0.63188   44.570
 6127.00    0.64620   0.63097   45.735
 6128.00    0.64213   0.63056   45.862
 6129.00    0.63600   0.63053   45.404
 6130.00    0.63221   0.63003   45.258
 6131.00    0.63251   0.62913   45.430
 6132.00    0.63551   0.62780   45.348
 6133.00    0.63722   0.62733   45.079
 6134.00    0.63425   0.62723   45.080
 6135.00    0.62924   0.62676   45.352
 6136.00    0.62745   0.62563   45.479
 6137.00    0.63007   0.62417   44.980
 6138.00    0.63382   0.62462   44.017
 6139.00    0.63237   0.62573   43.970
 6140.00    0.62281   0.62599   45.722
 6141.00    0.61257   0.62560   47.635
 6142.00    0.61008   0.62518   47.339
 6143.00    0.61463   0.62648   45.298
 6144.00    0.62097   0.62788   43.351
 6145.00    0.62488   0.62818   42.625
 6146.00    0.62560   0.62831   43.280
 6147.00    0.62661   0.62826   44.498
 6148.00    0.62994   0.62873   45.653
 6149.00    0.63272   0.62881   47.178
 6150.00    0.63208   0.62810   49.021
 6151.00    0.62822   0.62757   49.608
 6152.00    0.62332   0.62666   48.360
 6153.00    0.62024   0.62564   46.826
 6154.00    0.61981   0.62432   45.950
 6155.00    0.62026   0.62254   45.458
 6156.00    0.62024   0.62077   45.240
 6157.00    0.61924   0.61885   45.645
 6158.00    0.61499   0.61705   46.813
 6159.00    0.60457   0.61558   48.353
 6160.00    0.59110   0.61403   49.069
 6161.00    0.58236   0.61189   47.770
 6162.00    0.58117   0.61034   45.692
 6163.00    0.58464   0.60973   45.048
 6164.00    0.58895   0.60916   46.102
 6165.00    0.59193   0.60891   47.666
 6166.00    0.59554   0.60863   48.522
 6167.00    0.60231   0.60902   48.048
 6168.00    0.60813   0.61001   46.686
 6169.00    0.60771   0.61027   45.387
 6170.00    0.60520   0.61103   44.779
 6171.00    0.60830   0.61271   44.986
 6172.00    0.61773   0.61430   45.462
 6173.00    0.62891   0.61559   45.331
 6174.00    0.63617   0.61660   44.025
 6175.00    0.63598   0.61773   41.657
 6176.00    0.62981   0.61924   38.994
 6177.00    0.62178   0.62039   36.939
 6178.00    0.61598   0.62117   36.258
 6179.00    0.61441   0.62195   37.293
 6180.00    0.61569   0.62233   39.790
 6181.00    0.61709   0.62250   43.128
 6182.00    0.61633   0.62271   46.333
 6183.00    0.61335   0.62236   48.307
 6184.00    0.61071   0.62215   48.545
 6185.00    0.61042   0.62198   47.614
 6186.00    0.61230   0.62076   46.754
 6187.00    0.61519   0.62014   46.647
 6188.00    0.61775   0.61990   47.140
 6189.00    0.61892   0.61941   47.577
 6190.00    0.61821   0.61937   47.220
 6191.00    0.61572   0.61820   46.479
 6192.00    0.61243   0.61788   46.599
 6193.00    0.61080   0.61902   47.629
 6194.00    0.61338   0.61898   48.461
 6195.00    0.61820   0.61915   48.872
 6196.00    0.62043   0.61946   49.471
 6197.00    0.61958   0.62001   49.614
 6198.00    0.61879   0.62125   48.179
 6199.00    0.61941   0.62131   46.388
 6200.00    0.62056   0.62131   46.054
 6201.00    0.62074   0.62216   46.665
 6202.00    0.61930   0.62264   46.747
 6203.00    0.61833   0.62280   46.678
 6204.00    0.62009   0.62252   47.515
 6205.00    0.62306   0.62186   48.609
 6206.00    0.62395   0.62158   48.770
 6207.00    0.62113   0.62108   48.488
 6208.00    0.61522   0.61982   48.648
 6209.00    0.60910   0.61870   48.826
 6210.00    0.60623   0.61735   48.380
 6211.00    0.60864   0.61579   47.637
 6212.00    0.61466   0.61479   47.135
 6213.00    0.61793   0.61308   46.989
 6214.00    0.61456   0.61133   47.178
 6215.00    0.60765   0.61023   47.737
 6216.00    0.60119   0.60884   48.487
 6217.00    0.59625   0.60821   48.947
 6218.00    0.59292   0.60760   49.157
 6219.00    0.59160   0.60623   49.901
 6220.00    0.59284   0.60564   51.131
 6221.00    0.59705   0.60532   51.482
 6222.00    0.60339   0.60499   50.627
 6223.00    0.60992   0.60501   49.846
 6224.00    0.61569   0.60434   49.644
 6225.00    0.62074   0.60370   49.488
 6226.00    0.62362   0.60375   49.366
 6227.00    0.62189   0.60341   49.830
 6228.00    0.61591   0.60321   50.634
 6229.00    0.60866   0.60306   50.804
 6230.00    0.60214   0.60207   50.074
 6231.00    0.59723   0.60178   49.054
 6232.00    0.59511   0.60174   48.498
 6233.00    0.59634   0.60114   48.749
 6234.00    0.59846   0.60110   49.053
 6235.00    0.59835   0.60049   48.499
 6236.00    0.59666   0.60010   47.875
 6237.00    0.59591   0.59990   48.312
 6238.00    0.59637   0.59882   49.182
 6239.00    0.59676   0.59845   49.334
 6240.00    0.59588   0.59790   49.243
 6241.00    0.59318   0.59742   49.800
 6242.00    0.58909   0.59734   50.634
 6243.00    0.58411   0.59609   50.961
 6244.00    0.57808   0.59559   50.728
 6245.00    0.57213   0.59556   50.297
 6246.00    0.57001   0.59466   49.976
 6247.00    0.57416   0.59425   49.869
 6248.00    0.58296   0.59384   49.847
 6249.00    0.59243   0.59336   49.862
 6250.00    0.59807   0.59335   50.095
 6251.00    0.59766   0.59275   50.532
 6252.00    0.59254   0.59199   50.780
 6253.00    0.58585   0.59177   50.520
 6254.00    0.58095   0.59179   49.815
 6255.00    0.57933   0.59221   49.188
 6256.00    0.58010   0.59217   49.315
 6257.00    0.58206   0.59221   49.972
 6258.00    0.58446   0.59277   50.051
 6259.00    0.58661   0.59351   49.247
 6260.00    0.58806   0.59476   48.293
 6261.00    0.58933   0.59546   47.665
 6262.00    0.59148   0.59646   47.399
 6263.00    0.59425   0.59818   47.464
 6264.00    0.59685   0.59920   47.767
 6265.00    0.60054   0.60000   47.972
 6266.00    0.60656   0.60111   47.816
 6267.00    0.61115   0.60242   47.801
 6268.00    0.60951   0.60366   48.600
 6269.00    0.60425   0.60418   49.824
 6270.00    0.60171   0.60470   50.456
 6271.00    0.60420   0.60560   50.120
 6272.00    0.60973   0.60610   49.080
 6273.00    0.61346   0.60662   47.714
 6274.00    0.61208   0.60685   46.439
 6275.00    0.60826   0.60691   45.697
 6276.00    0.60551   0.60754   45.574
 6277.00    0.60290   0.60754   45.518
 6278.00    0.59943   0.60766   45.101
 6279.00    0.59790   0.60818   44.643
 6280.00    0.60048   0.60782    0.000
 6281.00    0.60530   0.60824    0.000
 6282.00    0.60920   0.60862    0.000
 6283.00    0.60992   0.60852    0.000
 6284.00    0.60693   0.60920    0.000
 6285.00    0.60156   0.60888    0.000
 6286.00    0.59543   0.60886    0.000
 6287.00    0.58988   0.60932    0.000
 6288.00    0.58677   0.60875    0.000
 6289.00    0.58821   0.60878    0.000
 6290.00    0.59369   0.60842    0.000
 6291.00    0.60008   0.60759    0.000
 6292.00    0.60574   0.60731    0.000
 6293.00    0.61108   0.60627    0.000
 6294.00    0.61572   0.60571    0.000
 6295.00    0.61918   0.60543    0.000
 6296.00    0.62495   0.60427    0.000
 6297.00    0.63907   0.60342    0.000
 6298.00    0.66422   0.60290    0.000
 6299.00    0.69750   0.60273    0.000
 6300.00    0.72901   0.60262    0.000
 6301.00    0.74700   0.60194    0.000
 6302.00    0.74721   0.60159    0.000
 6303.00    0.73237   0.60194    0.000
 6304.00    0.70855   0.60223    0.000
 6305.00    0.68241   0.60204    0.000
 6306.00    0.65830   0.60178    0.000
 6307.00    0.63799   0.60195    0.000
 6308.00    0.62119   0.60237    0.000
 6309.00    0.60862   0.60210    0.000
 6310.00    0.60455   0.60138    0.000
 6311.00    0.60973   0.60122    0.000
 6312.00    0.61579   0.60105    0.000
 6313.00    0.61463   0.60092    0.000
 6314.00    0.60612   0.60044    0.000
 6315.00    0.59537   0.59963    0.000
 6316.00    0.58937   0.60004    0.000
 6317.00    0.59061   0.60018    0.000
 6318.00    0.59455   0.59959    0.000
 6319.00    0.59677   0.59987    0.000
 6320.00    0.59675   0.60049    0.000
 6321.00    0.59621   0.60125   48.733
 6322.00    0.59767   0.60145   48.845
 6323.00    0.60215   0.60164   49.092
 6324.00    0.60835   0.60266   49.354
 6325.00    0.61334   0.60323   49.710
 6326.00    0.61410   0.60360   50.482
 6327.00    0.61138   0.60352   51.385
 6328.00    0.60945   0.60361   51.497
 6329.00    0.61178   0.60429   50.272
 6330.00    0.61882   0.60367   48.034
 6331.00    0.62567   0.60295   45.861
 6332.00    0.62575   0.60293   44.728
 6333.00    0.61928   0.60257   44.691
 6334.00    0.61145   0.60214   45.348
 6335.00    0.60598   0.60102   46.538
 6336.00    0.60396   0.59988   47.981
 6337.00    0.60413   0.60003   48.488
 6338.00    0.60398   0.59965   47.135
 6339.00    0.60115   0.59853   45.094
 6340.00    0.59522   0.59843   43.710
 6341.00    0.58921   0.59828   42.798
 6342.00    0.58657   0.59798   42.062
 6343.00    0.58778   0.59771   42.235
 6344.00    0.59196   0.59714   43.786
 6345.00    0.59851   0.59753   45.707
 6346.00    0.60532   0.59758   46.971
 6347.00    0.60777   0.59691   48.277
 6348.00    0.60319   0.59711   50.101
 6349.00    0.59387   0.59719   50.934
 6350.00    0.58506   0.59662   49.734
 6351.00    0.58240   0.59623   47.727
 6352.00    0.58595   0.59582   46.308
 6353.00    0.58894   0.59532   46.022
 6354.00    0.58786   0.59450   46.629
 6355.00    0.58576   0.59340   47.269
 6356.00    0.58530   0.59296   47.502
 6357.00    0.58602   0.59256   47.601
 6358.00    0.58588   0.59143   47.535
 6359.00    0.58336   0.59064   46.843
 6360.00    0.58214   0.59059   45.521
 6361.00    0.58871   0.59044   44.074
 6362.00    0.60151   0.59003   42.973
 6363.00    0.61270   0.59006   42.526
 6364.00    0.61976   0.59074   42.891
 6365.00    0.62458   0.59151   44.066
 6366.00    0.62571   0.59207   45.748
 6367.00    0.62013   0.59274   47.373
 6368.00    0.60996   0.59401   48.490
 6369.00    0.60026   0.59523   48.907
 6370.00    0.59363   0.59577   48.683
 6371.00    0.58974   0.59657   48.184
 6372.00    0.58621   0.59779   48.065
 6373.00    0.58132   0.59881   48.614
 6374.00    0.57707   0.59951   49.012
 6375.00    0.57615   0.59982   48.499
 6376.00    0.57837   0.60033   47.770
 6377.00    0.58212   0.60092   47.626
 6378.00    0.58610   0.60096   47.794
 6379.00    0.58947   0.60097   47.827
 6380.00    0.59187   0.60109   47.825
 6381.00    0.59273   0.60105   47.729
 6382.00    0.59102   0.60111   46.928
 6383.00    0.58675   0.60099   45.446
 6384.00    0.58181   0.60056   44.285
 6385.00    0.57905   0.60009   43.987
 6386.00    0.58126   0.59996   44.242
 6387.00    0.58859   0.59977   44.636
 6388.00    0.59763   0.59918   44.995
 6389.00    0.60288   0.59873   45.475
 6390.00    0.59925   0.59846   46.453
 6391.00    0.58895   0.59804   47.928
 6392.00    0.58077   0.59730   49.371
 6393.00    0.57941   0.59653   50.315
 6394.00    0.58324   0.59630   50.641
 6395.00    0.58850   0.59624   50.475
 6396.00    0.59135   0.59604   50.097
 6397.00    0.59005   0.59562   49.849
 6398.00    0.58517   0.59571   49.980
 6399.00    0.57905   0.59552   50.411
 6400.00    0.57435   0.59441   50.812
 6401.00    0.57169   0.59494   50.868
 6402.00    0.57107   0.59560   50.434
 6403.00    0.57483   0.59491   49.656
 6404.00    0.58421   0.59517   48.945
 6405.00    0.59405   0.59510   48.887
 6406.00    0.59797   0.59491   49.665
 6407.00    0.59582   0.59503   50.336
 6408.00    0.59112   0.59397   49.693
 6409.00    0.58699   0.59429   47.701
 6410.00    0.58453   0.59505   45.387
 6411.00    0.58191   0.59392   44.082
 6412.00    0.57749   0.59368   44.240
 6413.00    0.57241   0.59399   44.998
 6414.00    0.56934   0.59370   45.725
 6415.00    0.57093   0.59397   47.117
 6416.00    0.57780   0.59378   49.263
 6417.00    0.58743   0.59372   50.261
 6418.00    0.59553   0.59448   49.395
 6419.00    0.59785   0.59444   48.813
 6420.00    0.59461   0.59439   49.475
 6421.00    0.59126   0.59479   50.023
 6422.00    0.59151   0.59496   49.773
 6423.00    0.59476   0.59554   49.684
 6424.00    0.59821   0.59581   50.116
 6425.00    0.59870   0.59561   50.403
 6426.00    0.59564   0.59597   50.423
 6427.00    0.59098   0.59609   50.739
 6428.00    0.58615   0.59591   51.264
 6429.00    0.58169   0.59610   51.289
 6430.00    0.57855   0.59552   50.718
 6431.00    0.57804   0.59494   49.993
 6432.00    0.58075   0.59543   49.160
 6433.00    0.58584   0.59530   48.102
 6434.00    0.59012   0.59504   47.260
 6435.00    0.59017   0.59515   47.197
 6436.00    0.58601   0.59489   47.825
 6437.00    0.58071   0.59528   48.521
 6438.00    0.57839   0.59500   48.459
 6439.00    0.58226   0.59414   47.419
 6440.00    0.59213   0.59498   46.521
 6441.00    0.60396   0.59507   46.833
 6442.00    0.61024   0.59434   48.166
 6443.00    0.60664   0.59458   49.661
 6444.00    0.59801   0.59415   50.493
 6445.00    0.59156   0.59380   50.435
 6446.00    0.59025   0.59347   50.182
 6447.00    0.59330   0.59231   50.234
 6448.00    0.59742   0.59214   50.179
 6449.00    0.59957   0.59144   49.669
 6450.00    0.59886   0.59012   49.040
 6451.00    0.59684   0.59026   48.774
 6452.00    0.59670   0.58996   49.135
 6453.00    0.59817   0.58940   49.935
 6454.00    0.59645   0.58917   50.525
 6455.00    0.58967   0.58845   50.661
 6456.00    0.58118   0.58840   50.714
 6457.00    0.57499   0.58851   50.552
 6458.00    0.57355   0.58846   49.580
 6459.00    0.57702   0.58880   48.365
 6460.00    0.58309   0.58912   48.217
 6461.00    0.58752   0.58952   49.064
 6462.00    0.58637   0.58933   49.699
 6463.00    0.58120   0.58906   49.992
 6464.00    0.57794   0.58989   50.696
 6465.00    0.58098   0.59052   51.231
 6466.00    0.59037   0.59063   50.423
 6467.00    0.59937   0.59096   49.265
 6468.00    0.60026   0.59133   49.446
 6469.00    0.59494   0.59156   50.555
 6470.00    0.59043   0.59162   51.110
 6471.00    0.58899   0.59134   50.955
 6472.00    0.58892   0.59150   50.715
 6473.00    0.58772   0.59197   50.344
 6474.00    0.58480   0.59157   49.636
 6475.00    0.58361   0.59099   48.960
 6476.00    0.58686   0.59092   48.697
 6477.00    0.59166   0.59065   48.707
 6478.00    0.59376   0.58991   48.800
 6479.00    0.59179   0.58904   49.126
 6480.00    0.58702   0.58846   49.705
 6481.00    0.58249   0.58764   50.069
 6482.00    0.58034   0.58616   49.871
 6483.00    0.58033   0.58474   49.318
 6484.00    0.58239   0.58376   48.711
 6485.00    0.58772   0.58236   48.163
 6486.00    0.59556   0.58021   47.692
 6487.00    0.60214   0.57839   47.317
 6488.00    0.60427   0.57664   47.236
 6489.00    0.60128   0.57460   47.752
 6490.00    0.59557   0.57264   48.611
 6491.00    0.59147   0.57032   48.954
 6492.00    0.59034   0.56901   48.462
 6493.00    0.58986   0.56790   47.667
 6494.00    0.58723   0.56576   47.263
 6495.00    0.58103   0.56517   47.725
 6496.00    0.57313   0.56508   48.896
 6497.00    0.56781   0.56480   50.078
 6498.00    0.56851   0.56586   50.697
 6499.00    0.57589   0.56633   50.562
 6500.00    0.58561   0.56741   49.860
 6501.00    0.59104   0.56942   49.002
 6502.00    0.58893   0.57052   48.375
 6503.00    0.58154   0.57226   48.091
 6504.00    0.57773   0.57416   47.726
 6505.00    0.58445   0.57549   46.989
 6506.00    0.59538   0.57733   46.552
 6507.00    0.60030   0.57853   46.940
 6508.00    0.59811   0.57925   47.287
 6509.00    0.59308   0.58035   46.770
 6510.00    0.58905   0.58095   46.239
 6511.00    0.58748   0.58134   46.554
 6512.00    0.58663   0.58159   47.211
 6513.00    0.58485   0.58155   47.677
 6514.00    0.58319   0.58179   48.482
 6515.00    0.58380   0.58145   49.676
 6516.00    0.58817   0.58092   49.831
 6517.00    0.59368   0.58114   48.748
 6518.00    0.59329   0.58078   48.543
 6519.00    0.58581   0.58028   49.874
 6520.00    0.57909   0.58040   50.748
 6521.00    0.57826   0.58015   50.263
 6522.00    0.58118   0.57994   50.067
 6523.00    0.58450   0.57958   50.632
 6524.00    0.58641   0.57911   50.522
 6525.00    0.58690   0.57914   49.393
 6526.00    0.58717   0.57858   48.444
 6527.00    0.58741   0.57790   48.195
 6528.00    0.58682   0.57776    0.000
 6529.00    0.58565   0.57725    0.000
 6530.00    0.58527   0.57662    0.000
 6531.00    0.58690   0.57602    0.000
 6532.00    0.59037   0.57518    0.000
 6533.00    0.59224   0.57444    0.000
 6534.00    0.58884   0.57347    0.000
 6535.00    0.58250   0.57242    0.000
 6536.00    0.57864   0.57155    0.000
 6537.00    0.57938   0.57008    0.000
 6538.00    0.58338   0.56839    0.000
 6539.00    0.58733   0.56700    0.000
 6540.00    0.58913   0.56516    0.000
 6541.00    0.59135   0.56299    0.000
 6542.00    0.59948   0.56067    0.000
 6543.00    0.61989   0.55783    0.000
 6544.00    0.66250   0.55518    0.000
 6545.00    0.74184   0.55208    0.000
 6546.00    0.86110   0.54808    0.000
 6547.00    1.00019   0.54447    0.000
 6548.00    1.12760   0.54055    0.000
 6549.00    1.21172   0.53597    0.000
 6550.00    1.23164   0.53134    0.000
 6551.00    1.18378   0.52570    0.000
 6552.00    1.08104   0.52014    0.000
 6553.00    0.95047   0.51509    0.000
 6554.00    0.82552   0.50864    0.000
 6555.00    0.74196   0.50234    0.000
 6556.00    0.73759   0.49731    0.000
 6557.00    0.85870   0.49198    0.000
 6558.00    1.18386   0.48701    0.000
 6559.00    1.82075   0.48252    0.000
 6560.00    2.86623   0.47879    0.000
 6561.00    4.34465   0.47702    0.000
 6562.00    6.07631   0.47441    0.000
 6563.00    7.69236   0.47234    0.000
 6564.00    8.76937   0.47481    0.000
 6565.00    8.96689   0.47747    0.000
 6566.00    8.24374   0.47903    0.000
 6567.00    6.83972   0.48309    0.000
 6568.00    5.14468   0.48779    0.000
 6569.00    3.56241   0.49210    0.000
 6570.00    2.32973   0.49726    0.000
 6571.00    1.51138   0.50254    0.000
 6572.00    1.04158   0.50815    0.000
 6573.00    0.79710   0.51374    0.000
 6574.00    0.68286   0.51854    0.000
 6575.00    0.63701   0.52346    0.000
 6576.00    0.62447   0.52856    0.000
 6577.00    0.63429   0.53277    0.000
 6578.00    0.67710   0.53635    0.000
 6579.00    0.78031   0.54007    0.000
 6580.00    0.98025   0.54325    0.000
 6581.00    1.29214   0.54553    0.000
 6582.00    1.68810   0.54802    0.000
 6583.00    2.10060   0.55027    0.000
 6584.00    2.43252   0.55186    0.000
 6585.00    2.59590   0.55344    0.000
 6586.00    2.54037   0.55444    0.000
 6587.00    2.28141   0.55541    0.000
 6588.00    1.90186   0.55656    0.000
 6589.00    1.49778   0.55701    0.000
 6590.00    1.14780   0.55741    0.000
 6591.00    0.89135   0.55826    0.000
 6592.00    0.72703   0.55857    0.000
 6593.00    0.63427   0.55841    0.000
 6594.00    0.58621   0.55910    0.000
 6595.00    0.56420   0.55998    0.000
 6596.00    0.55910   0.56025    0.000
 6597.00    0.56346   0.56076    0.000
 6598.00    0.57006   0.56122    0.000
 6599.00    0.57331   0.56164    0.000
 6600.00    0.57055   0.56244    0.000
 6601.00    0.56384   0.56281    0.000
 6602.00    0.55839   0.56317    0.000
 6603.00    0.55915   0.56382    0.000
 6604.00    0.56720   0.56412    0.000
 6605.00    0.57571   0.56443    0.000
 6606.00    0.57761   0.56481    0.000
 6607.00    0.57561   0.56528    0.000
 6608.00    0.57439   0.56577    0.000
 6609.00    0.57078   0.56587   47.830
 6610.00    0.56188   0.56630   49.354
 6611.00    0.55329   0.56710   50.306
 6612.00    0.55031   0.56757   49.945
 6613.00    0.55031   0.56772   49.736
 6614.00    0.55063   0.56798   50.690
 6615.00    0.55411   0.56871   51.588
 6616.00    0.56199   0.56900   51.085
 6617.00    0.56968   0.56889   49.495
 6618.00    0.57299   0.56917   47.847
 6619.00    0.57159   0.56923   46.979
 6620.00    0.56692   0.56908   46.987
 6621.00    0.56108   0.56889   47.245
 6622.00    0.55726   0.56841   47.214
 6623.00    0.55848   0.56822   46.829
 6624.00    0.56212   0.56764   46.428
 6625.00    0.56102   0.56671   46.254
 6626.00    0.55475   0.56659   45.096
 6627.00    0.54985   0.56611   41.535
 6628.00    0.54884   0.56521   37.508
 6629.00    0.54956   0.56490   35.483
 6630.00    0.55227   0.56442   35.221
 6631.00    0.55856   0.56388   35.290
 6632.00    0.56468   0.56365   35.277
 6633.00    0.56471   0.56317   35.601
 6634.00    0.55988   0.56287   36.213
 6635.00    0.55618   0.56304   36.851
 6636.00    0.55714   0.56292   38.013
 6637.00    0.56270   0.56282   40.364
 6638.00    0.56975   0.56313   43.142
 6639.00    0.57402   0.56315   44.608
 6640.00    0.57258   0.56294   44.494
 6641.00    0.56542   0.56335   44.072
 6642.00    0.55653   0.56373   44.780
 6643.00    0.55052   0.56344   46.316
 6644.00    0.54921   0.56353   45.100
 6645.00    0.55307   0.56400   42.261
 6646.00    0.56259   0.56414   46.649
 6647.00    0.57561   0.56417   57.129
 6648.00    0.58596   0.56420   41.476
 6649.00    0.58901   0.56432   22.185
 6650.00    0.58549   0.56442   16.351
 6651.00    0.58001   0.56413   16.297
 6652.00    0.57891   0.56394   17.600
 6653.00    0.58490   0.56395   17.467
 6654.00    0.59488   0.56351   16.646
 6655.00    0.60312   0.56313   16.370
 6656.00    0.60426   0.56286   16.746
 6657.00    0.59865   0.56225   17.052
 6658.00    0.59184   0.56187   16.397
 6659.00    0.58511   0.56150   16.237
 6660.00    0.57482   0.56068   19.799
 6661.00    0.56097   0.56034   30.337
 6662.00    0.54798   0.56016   39.252
 6663.00    0.53961   0.55920   34.104
 6664.00    0.53730   0.55891   30.826
 6665.00    0.53955   0.55906   32.397
 6666.00    0.54410   0.55841   34.803
 6667.00    0.55224   0.55804   36.101
 6668.00    0.56730   0.55805   37.120
 6669.00    0.59020   0.55776   37.027
 6670.00    0.61707   0.55764   34.816
 6671.00    0.63749   0.55741   32.843
 6672.00    0.64375   0.55705   33.208
 6673.00    0.64300   0.55710   35.162
 6674.00    0.64647   0.55672   -1.000
 6675.00    0.65491   0.55634   -1.000
 6676.00    0.66463   0.55672   -1.000
 6677.00    0.67524   0.55641   -1.000
 6678.00    0.68617   0.55579   -1.000
 6679.00    0.69310   0.55632   -1.000
 6680.00    0.69224   0.55694   -1.000
 6681.00    0.68360   0.55688   -1.000
 6682.00    0.66741   0.55717   -1.000
 6683.00    0.64277   0.55782   -1.000
 6684.00    0.61558   0.55815   41.416
 6685.00    0.60032   0.55843   41.474
 6686.00    0.60161   0.55893   40.201
 6687.00    0.60766   0.55928   38.650
 6688.00    0.60734   0.55944   37.695
 6689.00    0.59820   0.55966   37.703
 6690.00    0.58404   0.55973   38.827
 6691.00    0.57206   0.55987   41.008
 6692.00    0.56714   0.55985   43.372
 6693.00    0.56919   0.55944   44.245
 6694.00    0.57190   0.55947   43.685
 6695.00    0.56776   0.55931   43.348
 6696.00    0.56250   0.55859    0.000
 6697.00    0.56815   0.55853    0.000
 6698.00    0.57725   0.55831    0.000
 6699.00    0.57267   0.55770    0.000
 6700.00    0.56030   0.55765    0.000
 6701.00    0.55801   0.55727    0.000
 6702.00    0.56315   0.55678    0.000
 6703.00    0.56274   0.55659    0.000
 6704.00    0.55882   0.55590    0.000
 6705.00    0.56009   0.55553    0.000
 6706.00    0.56498   0.55534    0.000
 6707.00    0.56747   0.55449    0.000
 6708.00    0.56726   0.55407    0.000
 6709.00    0.56988   0.55379    0.000
 6710.00    0.58507   0.55288    0.000
 6711.00    0.62241   0.55241    0.000
 6712.00    0.68789   0.55207    0.000
 6713.00    0.78919   0.55141    0.000
 6714.00    0.93798   0.55097    0.000
 6715.00    1.13148   0.55059    0.000
 6716.00    1.33975   0.55043    0.000
 6717.00    1.51305   0.55014    0.000
 6718.00    1.59410   0.54984    0.000
 6719.00    1.55706   0.55027    0.000
 6720.00    1.42338   0.55049    0.000
 6721.00    1.23252   0.55040    0.000
 6722.00    1.02610   0.55076    0.000
 6723.00    0.84441   0.55114    0.000
 6724.00    0.72043   0.55149    0.000
 6725.00    0.66298   0.55181    0.000
 6726.00    0.65920   0.55192    0.000
 6727.00    0.70247   0.55234    0.000
 6728.00    0.79537   0.55261    0.000
 6729.00    0.93139   0.55256    0.000
 6730.00    1.08996   0.55280    0.000
 6731.00    1.23763   0.55284    0.000
 6732.00    1.33413   0.55257    0.000
 6733.00    1.34513   0.55245    0.000
 6734.00    1.25789   0.55220    0.000
 6735.00    1.10399   0.55183    0.000
 6736.00    0.93752   0.55151    0.000
 6737.00    0.79246   0.55103    0.000
 6738.00    0.68282   0.55055    0.000
 6739.00    0.61320   0.54998    0.000
 6740.00    0.57999   0.54943    0.000
 6741.00    0.57156   0.54917    0.000
 6742.00    0.57410   0.54862    0.000
 6743.00    0.57804   0.54795    0.000
 6744.00    0.57793   0.54776    0.000
 6745.00    0.57166   0.54755    0.000
 6746.00    0.56030   0.54715    0.000
 6747.00    0.54756   0.54692    0.000
 6748.00    0.53644   0.54703    0.000
 6749.00    0.52734   0.54703    0.000
 6750.00    0.52297   0.54679    0.000
 6751.00    0.52944   0.54730    0.000
 6752.00    0.54398   0.54768    0.000
 6753.00    0.55178   0.54745   45.568
 6754.00    0.54640   0.54812   42.466
 6755.00    0.53663   0.54869   40.621
 6756.00    0.53052   0.54863   41.080
 6757.00    0.52922   0.54917   41.800
 6758.00    0.53147   0.54958   41.576
 6759.00    0.53584   0.54961   41.159
 6760.00    0.54186   0.54997   41.030
 6761.00    0.54970   0.55007   40.951
 6762.00    0.55807   0.54997   40.843
 6763.00    0.56406   0.55015   40.809
 6764.00    0.56452   0.55002   40.579
 6765.00    0.55793   0.54990   39.821
 6766.00    0.54753   0.55002   39.064
 6767.00    0.53935   0.54972   39.134
 6768.00    0.53691   0.54954   40.047
 6769.00    0.53927   0.54983   41.252
 6770.00    0.53993   0.54979   42.290
 6771.00    0.53337   0.54954   42.535
 6772.00    0.52442   0.54970   40.836
 6773.00    0.52183   0.54990   37.479
 6774.00    0.52814   0.54981   35.001
 6775.00    0.54010   0.54978   34.751
 6776.00    0.55109   0.54991   35.648
 6777.00    0.55658   0.54971   36.362
 6778.00    0.55861   0.54942   37.403
 6779.00    0.55927   0.54943   39.489
 6780.00    0.55544   0.54909   41.589
 6781.00    0.54541   0.54861   42.562
 6782.00    0.53358   0.54843   43.232
 6783.00    0.52562   0.54795   44.294
 6784.00    0.52432   0.54737   44.740
 6785.00    0.52597   0.54723   44.213
 6786.00    0.52136   0.54684   44.117
 6787.00    0.51079   0.54639   44.944
 6788.00    0.50726   0.54639   45.430
 6789.00    0.51563   0.54617   44.873
 6790.00    0.52682   0.54573   43.993
 6791.00    0.53300   0.54585   43.190
 6792.00    0.53284   0.54586   42.273
 6793.00    0.52840   0.54550   41.589
 6794.00    0.52323   0.54566   41.838
 6795.00    0.52027   0.54573   42.757
 6796.00    0.52153   0.54555   43.128
 6797.00    0.52884   0.54578   42.185
 6798.00    0.54203   0.54573   40.313
 6799.00    0.55443   0.54567   38.896
 6800.00    0.55769   0.54585   38.979
 6801.00    0.55262   0.54560   39.717
 6802.00    0.54571   0.54572   39.493
 6803.00    0.53928   0.54578   38.660
 6804.00    0.53332   0.54524   38.429
 6805.00    0.53060   0.54552   38.632
 6806.00    0.53368   0.54548   38.576
 6807.00    0.54015   0.54483   38.452
 6808.00    0.54510   0.54517   38.878
 6809.00    0.54493   0.54505   40.186
 6810.00    0.53982   0.54453   42.162
 6811.00    0.53516   0.54482   43.659
 6812.00    0.53545   0.54466   43.674
 6813.00    0.53897   0.54450   42.796
 6814.00    0.54163   0.54469   42.127
 6815.00    0.54048   0.54443   42.225
 6816.00    0.53569   0.54455   42.751
 6817.00    0.53099   0.54479   42.424
 6818.00    0.52970   0.54465   40.846
 6819.00    0.53217   0.54476   39.194
 6820.00    0.53590   0.54481   38.285
 6821.00    0.53715   0.54478   38.075
 6822.00    0.53766   0.54487   38.328
 6823.00    0.54449   0.54486   38.809
 6824.00    0.55700   0.54479   39.204
 6825.00    0.56557   0.54462   39.227
 6826.00    0.56571   0.54450   39.128
 6827.00    0.56081   0.54434   39.464
 6828.00    0.55520   0.54387   39.960
 6829.00    0.55134   0.54358   39.771
 6830.00    0.54869   0.54330   39.318
 6831.00    0.54507   0.54280   39.764
 6832.00    0.54049   0.54237   40.866
 6833.00    0.53699   0.54175   41.292
 6834.00    0.53672   0.54119   40.672
 6835.00    0.54010   0.54080   39.603
 6836.00    0.54369   0.54010   38.456
 6837.00    0.54379   0.53952   37.326
 6838.00    0.54238   0.53913   36.280
 6839.00    0.54285   0.53855   35.328
 6840.00    0.54319   0.53816   34.391
 6841.00    0.53957   0.53786   33.596
 6842.00    0.53163   0.53754   33.492
 6843.00    0.52352   0.53738   34.207
 6844.00    0.52339   0.53732   34.622
 6845.00    0.53547   0.53733   34.028
 6846.00    0.55340   0.53723   33.697
 6847.00    0.56643   0.53719   34.575
 6848.00    0.56584   0.53727   35.810
 6849.00    0.55206   0.53710   36.462
 6850.00    0.53725   0.53712   37.017
 6851.00    0.53136   0.53709   38.078
 6852.00    0.53419   0.53665   39.415
 6853.00    0.53990   0.53677   40.596
 6854.00    0.54150   0.53666   41.379
 6855.00    0.53875   0.53584   41.298
 6856.00    0.53866   0.53597   39.860
 6857.00    0.54202   0.53599   37.919
 6858.00    0.54164   0.53518   36.999
 6859.00    0.53619   0.53527   37.146
 6860.00    0.53200   0.53538   37.149
 6861.00    0.53277   0.53471   36.417
 6862.00    0.53677   0.53467   35.398
 6863.00    0.53835   0.53487   34.806
 6864.00    0.53286   0.53466   35.082
 6865.00    0.52648   0.53460   35.721
 6866.00    0.52988   0.53461   35.688
 6867.00    0.54040   0.53458   34.949
 6868.00    0.54701   0.53457   34.242
 6869.00    0.54609   0.53450   33.985
 6870.00    0.54059   0.53471   34.420
 6871.00    0.53416   0.53485   36.055
 6872.00    0.53045   0.53460   38.878
 6873.00    0.53322   0.53478   40.341
 6874.00    0.54223   0.53511   38.371
 6875.00    0.54883   0.53498   36.422
 6876.00    0.54615   0.53506   37.134
 6877.00    0.53943   0.53543   38.474
 6878.00    0.53623   0.53553   37.596
 6879.00    0.53664   0.53561   35.574
 6880.00    0.53747   0.53588   34.088
 6881.00    0.53645   0.53617   33.009
 6882.00    0.53228   0.53635   32.203
 6883.00    0.52485   0.53649   32.289
 6884.00    0.51828   0.53700   33.414
 6885.00    0.52063   0.53746   34.600
 6886.00    0.53236   0.53747   34.997
 6887.00    0.54288   0.53792   34.869
 6888.00    0.54549   0.53853   34.803
 6889.00    0.54342   0.53857   35.120
 6890.00    0.54296   0.53886   35.611
 6891.00    0.54873   0.53941   35.644
 6892.00    0.55732   0.53943   35.183
 6893.00    0.55939   0.53956   34.838
 6894.00    0.55343   0.53992   34.815
 6895.00    0.54624   0.53993   34.876
 6896.00    0.54178   0.53994   35.042
 6897.00    0.53912   0.54006   35.550
 6898.00    0.53555   0.54014   36.260
 6899.00    0.52889   0.54012   36.675
 6900.00    0.52061   0.53996   36.459
 6901.00    0.51563   0.54003   35.755
 6902.00    0.52020   0.53999   35.297
 6903.00    0.53544   0.53973   35.434
 6904.00    0.54821   0.53979   34.814
 6905.00    0.54416   0.53952   32.499
 6906.00    0.52779   0.53922   30.457
 6907.00    0.51258   0.53933   30.403
 6908.00    0.50513   0.53881   31.989
 6909.00    0.50569   0.53856   33.329
 6910.00    0.51104   0.53865   31.622
 6911.00    0.51835   0.53787   27.730
 6912.00    0.52791   0.53776   25.878
 6913.00    0.53789   0.53786   27.352
 6914.00    0.54109   0.53695   29.713
 6915.00    0.53602   0.53698   29.980
 6916.00    0.53286   0.53714   29.505
 6917.00    0.53652   0.53637   29.943
 6918.00    0.53817   0.53644   30.374
 6919.00    0.53194   0.53655   29.966
 6920.00    0.52262   0.53607   29.491
 6921.00    0.51467   0.53614   29.889
 6922.00    0.50815   0.53614   31.449
 6923.00    0.50585   0.53592   32.387
 6924.00    0.51297   0.53591   29.669
 6925.00    0.52374   0.53582   26.122
 6926.00    0.52392   0.53579   25.959
 6927.00    0.51525   0.53583   28.746
 6928.00    0.51342   0.53581   29.967
 6929.00    0.51888   0.53590   28.630
 6930.00    0.51917   0.53580   28.627
 6931.00    0.51595   0.53582   30.118
 6932.00    0.52070   0.53603   30.161
 6933.00    0.53074   0.53575   28.701
 6934.00    0.53402   0.53574   27.948
 6935.00    0.52858   0.53603   28.185
 6936.00    0.52094   0.53570   28.617
 6937.00    0.51704   0.53556   29.060
 6938.00    0.51941   0.53574   29.685
 6939.00    0.52543   0.53531   30.167
 6940.00    0.53045   0.53514   30.250
 6941.00    0.53205   0.53526   30.680
 6942.00    0.52900   0.53465   31.878
 6943.00    0.51985   0.53448   32.249
 6944.00    0.50746   0.53458   30.960
 6945.00    0.50213   0.53383   30.543
 6946.00    0.50906   0.53377   31.744
 6947.00    0.51905   0.53406   30.375
 6948.00    0.52334   0.53336   26.034
 6949.00    0.52397   0.53339   24.030
 6950.00    0.52259   0.53380   25.518
 6951.00    0.51464   0.53319   27.405
 6952.00    0.50246   0.53331   26.984
 6953.00    0.49928   0.53387   26.486
 6954.00    0.50921   0.53348   -2.000
 6955.00    0.52112   0.53366   -2.000
 6956.00    0.52823   0.53427   -2.000
 6957.00    0.53332   0.53404   -2.000
 6958.00    0.53424   0.53427   -2.000
 6959.00    0.52325   0.53476   -2.000
 6960.00    0.50397   0.53448   -2.000
 6961.00    0.49139   0.53473   -2.000
 6962.00    0.49490   0.53504   -2.000
 6963.00    0.51248   0.53456   -2.000
 6964.00    0.52985   0.53470   -2.000
 6965.00    0.53183   0.53472   -2.000
 6966.00    0.52727   0.53395   -2.000
 6967.00    0.53500   0.53388   -2.000
 6968.00    0.54614   0.53362   -2.000
 6969.00    0.53951   0.53267   -2.000
 6970.00    0.51976   0.53235   -2.000
 6971.00    0.50544   0.53181   -2.000
 6972.00    0.50146   0.53074   -2.000
 6973.00    0.50489   0.53037   -2.000
 6974.00    0.51741   0.52998   -2.000
 6975.00    0.53620   0.52893   -2.000
 6976.00    0.54377   0.52849   -2.000
 6977.00    0.53046   0.52857   -2.000
 6978.00    0.51524   0.52787   -2.000
 6979.00    0.51496   0.52749   -2.000
 6980.00    0.51839   0.52808   -2.000
 6981.00    0.51322   0.52804   -2.000
 6982.00    0.50668   0.52793   -2.000
 6983.00    0.50975   0.52864   -2.000
 6984.00    0.52462   0.52896   -2.000
 6985.00    0.54167   0.52908   -2.000
 6986.00    0.54292   0.52967   -2.000
 6987.00    0.52751   0.53007   -2.000
 6988.00    0.51790   0.53024   -2.000
 6989.00    0.52678   0.53056   -2.000
 6990.00    0.54472   0.53079   -2.000
 6991.00    0.55315   0.53081   -2.000
 6992.00    0.53738   0.53088   -2.000
 6993.00    0.51159   0.53090   -2.000
 6994.00    0.50884   0.53060   -2.000
 6995.00    0.52585   0.53041   -2.000
 6996.00    0.52972   0.53028   -2.000
 6997.00    0.51950   0.52981   -2.000
 6998.00    0.52051   0.52948   -2.000
 6999.00    0.53347   0.52923   -2.000
 7000.00    0.53927   0.52866   -2.000
 7001.00    0.53273   0.52828   -2.000
 7002.00    0.52120   0.52811   -2.000
 7003.00    0.51015   0.52767   -2.000
 7004.00    0.50339   0.52721   -2.000
 7005.00    0.50698   0.52697   -2.000
 7006.00    0.52178   0.52673   -2.000
 7007.00    0.53390   0.52635   -2.000
 7008.00    0.53148   0.52605   -2.000
 7009.00    0.52436   0.52596   -2.000
 7010.00    0.52545   0.52561   -2.000
 7011.00    0.53030   0.52526   -2.000
 7012.00    0.52988   0.52527   -2.000
 7013.00    0.52341   0.52492   -2.000
 7014.00    0.51250   0.52464   -2.000
 7015.00    0.49658   0.52483   -2.000
 7016.00    0.48061   0.52440   -2.000
 7017.00    0.47741   0.52413   -2.000
 7018.00    0.48714   0.52462   -2.000
 7019.00    0.49077   0.52448   -2.000
 7020.00    0.48395   0.52428   -2.000
 7021.00    0.48652   0.52475   -2.000
 7022.00    0.50032   0.52485   -2.000
 7023.00    0.50148   0.52480   -2.000
 7024.00    0.49096   0.52521   -2.000
 7025.00    0.49837   0.52553   -2.000
 7026.00    0.52052   0.52570   -2.000
 7027.00    0.52219   0.52617   -2.000
 7028.00    0.50711   0.52663   -2.000
 7029.00    0.51194   0.52678   -2.000
 7030.00    0.53011   0.52734   -2.000
 7031.00    0.52087   0.52800   -2.000
 7032.00    0.47982   0.52804   -2.000
 7033.00    0.43712   0.52867   -2.000
 7034.00    0.41818   0.52954   -2.000
 7035.00    0.43159   0.52947   -2.000
 7036.00    0.46314   0.53012   -2.000
 7037.00    0.48890   0.53122   -2.000
 7038.00    0.49742   0.53105   -2.000
 7039.00    0.49275   0.53145   -2.000
 7040.00    0.49235   0.53263   -2.000
 7041.00    0.50734   0.53258   -2.000
 7042.00    0.52151   0.53269   -2.000
 7043.00    0.52082   0.53350   -2.000
 7044.00    0.52365   0.53333   -2.000
 7045.00    0.54192   0.53311   -2.000
 7046.00    0.54775   0.53340   -2.000
 7047.00    0.52476   0.53301   -2.000
 7048.00    0.50506   0.53257   -2.000
 7049.00    0.51143   0.53232   -2.000
 7050.00    0.52110   0.53159   -2.000
 7051.00    0.51428   0.53094   -2.000
 7052.00    0.50115   0.53034   -2.000
 7053.00    0.49192   0.52939   -2.000
 7054.00    0.48332   0.52857   -2.000
 7055.00    0.47829   0.52797   -2.000
 7056.00    0.48886   0.52713   -2.000
 7057.00    0.50749   0.52619   -2.000
 7058.00    0.50694   0.52578   -2.000
 7059.00    0.48453   0.52515   -2.000
 7060.00    0.46681   0.52413   -2.000
 7061.00    0.47199   0.52401   -2.000
 7062.00    0.49677   0.52373   -2.000
 7063.00    0.51554   0.52282   -2.000
 7064.00    0.50150   0.52298   -2.000
 7065.00    0.47610   0.52297   -2.000
 7066.00    0.48562   0.52222   -2.000
 7067.00    0.52742   0.52255   -2.000
 7068.00    0.56330   0.52267   -2.000
 7069.00    0.57357   0.52210   -2.000
 7070.00    0.56439   0.52250   -2.000
 7071.00    0.56129   0.52270   -2.000
 7072.00    0.57812   0.52220   -2.000
 7073.00    0.57857   0.52230   -2.000
 7074.00    0.52977   0.52236   -2.000
 7075.00    0.47078   0.52179   -2.000
 7076.00    0.45364   0.52141   -2.000
 7077.00    0.47317   0.52119   -2.000
 7078.00    0.50046   0.52038   -2.000
 7079.00    0.52172   0.51950   -2.000
 7080.00    0.53629   0.51901   -2.000
 7081.00    0.54990   0.51790   -2.000
 7082.00    0.55776   0.51665   -2.000
 7083.00    0.53848   0.51607   -2.000
 7084.00    0.49432   0.51473   -2.000
 7085.00    0.46648   0.51337   -2.000
 7086.00    0.47186   0.51300   -2.000
 7087.00    0.47904   0.51179   -2.000
 7088.00    0.47111   0.51066   -2.000
 7089.00    0.46704   0.51053   -2.000
 7090.00    0.47544   0.50964   -2.000
 7091.00    0.48201   0.50897   -2.000
 7092.00    0.48000   0.50910   -2.000
 7093.00    0.47851   0.50865   -2.000
 7094.00    0.49048   0.50843   -2.000
 7095.00    0.51968   0.50869   -2.000
 7096.00    0.53717   0.50863   -2.000
 7097.00    0.50527   0.50870   -2.000
 7098.00    0.45137   0.50892   -2.000
 7099.00    0.43758   0.50910   -2.000
 7100.00    0.45685   0.50926   -2.000
 7101.00    0.46144   0.50933   -2.000
 7102.00    0.45831   0.50948   -2.000
 7103.00    0.47716   0.50957   -2.000
 7104.00    0.49033   0.50948   -2.000
 7105.00    0.46111   0.50952   -2.000
 7106.00    0.42851   0.50952   -2.000
 7107.00    0.44023   0.50925   -2.000
 7108.00    0.45865   0.50911   -2.000
 7109.00    0.44801   0.50908   -2.000
 7110.00    0.46963   0.50879   -2.000
 7111.00    0.51849   0.50850   -2.000
 7112.00    0.39289   0.50842   -2.000
 7113.00    0.06556   0.50817   -2.000
 7114.00   -0.06382   0.50789   -2.000
 7115.00    0.21255   0.50780   -2.000
 7116.00    0.52103   0.50748   -2.000
 7117.00    0.55860   0.50721   -2.000
 7118.00    0.47457   0.50715   -2.000
 7119.00    0.44957   0.50672   -2.000
 7120.00    0.46703   0.50648   -2.000
 7121.00    0.47442   0.50643   -2.000
 7122.00    0.46611   0.50592   -2.000
 7123.00    0.45600   0.50575   -2.000
 7124.00    0.46027   0.50566   -2.000
 7125.00    0.48435   0.50525   -2.000
 7126.00    0.51830   0.50522   -2.000
 7127.00    0.53852   0.50499   -2.000
 7128.00    0.52280   0.50482   -2.000
 7129.00    0.49085   0.50510   -2.000
 7130.00    0.48488   0.50474   -2.000
 7131.00    0.49212   0.50478   -2.000
 7132.00    0.47239   0.50538   -2.000
 7133.00    0.46071   0.50495   -2.000
 7134.00    0.50799   0.50522   -2.000
 7135.00    0.52766   0.50601   -2.000
 7136.00    0.41930   0.50541   -2.000
 7137.00    0.31759   0.50574   -2.000
 7138.00    0.40108   0.50664   -2.000
 7139.00    0.55888   0.50584   -2.000
 7140.00    0.59310   0.50609   -2.000
 7141.00    0.53591   0.50702   -2.000
 7142.00    0.50711   0.50611   -2.000
 7143.00    0.51077   0.50627   -2.000
 7144.00    0.50506   0.50717   -2.000
 7145.00    0.49155   0.50625   -2.000
 7146.00    0.48484   0.50639   -2.000
 7147.00    0.48025   0.50732   -2.000
 7148.00    0.46994   0.50655   -2.000
 7149.00    0.45685   0.50662   -2.000
 7150.00    0.44961   0.50760   -2.000
 7151.00    0.45678   0.50722   -2.000
 7152.00    0.47637   0.50717   -2.000
 7153.00    0.49387   0.50802   -2.000
 7154.00    0.50279   0.50804   -2.000
 7155.00    0.51025   0.50782   -2.000
 7156.00    0.51311   0.50840   -2.000
 7157.00    0.49599   0.50874   -2.000
 7158.00    0.46637   0.50842   -2.000
 7159.00    0.45456   0.50874   -2.000
 7160.00    0.46540   0.50922   -2.000
 7161.00    0.47515   0.50887   -2.000
 7162.00    0.47303   0.50907   -2.000
 7163.00    0.46694   0.50966   -2.000
 7164.00    0.46434   0.50937   -2.000
 7165.00    0.46726   0.50951   -2.000
 7166.00    0.47303   0.51015   -2.000
 7167.00    0.47657   0.51002   -2.000
 7168.00    0.47472   0.51018   -2.000
 7169.00    0.46910   0.51074   -2.000
 7170.00    0.46891   0.51058   -2.000
 7171.00    0.48071   0.51067   -2.000
 7172.00    0.49293   0.51105   -2.000
 7173.00    0.49065   0.51076   -2.000
 7174.00    0.47772   0.51069   -2.000
 7175.00    0.46734   0.51073   -2.000
 7176.00    0.46727   0.51022   -2.000
 7177.00    0.47617   0.50999   -2.000
 7178.00    0.48290   0.50967   -2.000
 7179.00    0.48052   0.50904   -2.000
 7180.00    0.47722   0.50874   -2.000
 7181.00    0.48056   0.50805   -2.000
 7182.00    0.48617   0.50743   -2.000
 7183.00    0.49145   0.50731   -2.000
 7184.00    0.50299   0.50644   -2.000
 7185.00    0.52020   0.50594   -2.000
 7186.00    0.52849   0.50608   -2.000
 7187.00    0.51869   0.50519   -2.000
 7188.00    0.49618   0.50488   -2.000
 7189.00    0.47360   0.50533   -2.000
 7190.00    0.46372   0.50461   -2.000
 7191.00    0.46635   0.50447   -2.000
 7192.00    0.46908   0.50514   -2.000
 7193.00    0.46849   0.50464   -2.000
 7194.00    0.47171   0.50454   -2.000
 7195.00    0.47749   0.50526   -2.000
 7196.00    0.47726   0.50499   -2.000
 7197.00    0.47352   0.50484   -2.000
 7198.00    0.47563   0.50537   -2.000
 7199.00    0.47861   0.50529   -2.000
 7200.00    0.47088   0.50512   -2.000
 7201.00    0.45957   0.50529   -2.000
 7202.00    0.46058   0.50534   -2.000
 7203.00    0.47174   0.50524   -2.000
 7204.00    0.47988   0.50506   -2.000
 7205.00    0.47922   0.50528   -2.000
 7206.00    0.47162   0.50534   -2.000
 7207.00    0.46249   0.50488   -2.000
 7208.00    0.45694   0.50527   -2.000
 7209.00    0.45596   0.50559   -2.000
 7210.00    0.45873   0.50510   -2.000
 7211.00    0.46527   0.50560   -2.000
 7212.00    0.47272   0.50616   -2.000
 7213.00    0.47309   0.50580   -2.000
 7214.00    0.46493   0.50629   -2.000
 7215.00    0.46044   0.50702   -2.000
 7216.00    0.46535   0.50694   -2.000
 7217.00    0.46808   0.50734   -2.000
 7218.00    0.46499   0.50815   -2.000
