###################################################################
## OUTPUT of StarlightChains_v04.for    [Cid@UFSC - 01/Apr/2007] ##
###################################################################

## Some input info
2003dt.txt                               [arq_obs]
Base.CB07.vall.4m                        [arq_base]
Masks.EmLines.NEW.gm                     [arq_masks]
StCv04.C11.config                        [arq_config]
   66                                    [N_base]
    0                                    [N_YAV_components = # of components with extra extinction!]
    0                                    [i_FitPowerLaw (1/0 = Yes/No)]
-9.99                                    [alpha_PowerLaw]
CCM                                      [red_law_option]
 1.458241                                [q_norm = A(l_norm)/A(V)]

## (Re)Sampling Parameters
 3741.00                                 [l_ini (A)]
 7218.00                                 [l_fin (A)]
    1.00                                 [dl    (A)]     (OBS: dl_cushion =    50.00 A)

## Normalization info
 4020.00                                 [l_norm (A) - for base]
 4010.00                                 [llow_norm (A) - window for f_obs]
 4060.00                                 [lupp_norm (A) - window for f_obs]
2.342265E-17                             [fobs_norm (in input units)]

## S/N
 3691.00                                 [llow_SN (A) - window for S/N]
 7268.00                                 [lupp_SN (A) - window for S/N]
   4.164                                 [S/N in S/N window]
   3.477                                 [S/N in norm. window]
  10.000                                 [S/N_err in S/N window]
   8.349                                 [S/N_err in norm. window]
  1.0000                                 [fscale_chi2]

## etc...
    -2007274                             [idum_orig]
  2380                                   [NOl_eff]
  1877                                   [Nl_eff]
   503    NSIGMA                         [Ntot_cliped & clip_method]
   615720                                [Nglobal_steps]
   7                                     [N_chains]
  11                                     [NEX0s_base = N_base in EX0s-fits]
 0   0   1        7   2.0   6.132E+01    [Clip-Bug, RC-Crash & Burn-In warning-flags, n_censored_weights, wei_nsig_threshold & wei_limit]
    10      9.227      8.733      0.494  [idt_all, wdt_TotTime, wdt_UsrTime & wdt_SysTime (sec)]

## Synthesis Results - Best model ##

 1.99097E+00                             [chi2/Nl_eff]
    11.73993                             [adev (%)]

    91.08302                             [sum-of-x (%)]
 9.52993E-18                             [Flux_tot (units of input spectrum!)]
 1.37000E-12                             [Mini_tot (???)]
 6.89384E-13                             [Mcor_tot (???)]

   1.92                                  [v0_min  (km/s)]
 272.20                                  [vd_min  (km/s)]
-0.6000                                  [AV_min  (mag)]
 0.0000                                  [YAV_min (mag)]

# j     x_j(%)      Mini_j(%)     Mcor_j(%)     age_j(yr)     Z_j      (L/M)_j    YAV?  Mstars   component_j        a/Fe...       SSP_chi2r SSP_adev(%)   SSP_AV   SSP_x(%)
  1      0.0000     0.0000E+00    0.0000E+00    1.000000E+06  0.00400  1.094E-02    0   1.0000   age020_m42            0.0000     3.9048E+00    14.6334   3.9616    69.8611
  2      0.0000     0.0000E+00    0.0000E+00    3.160000E+06  0.00400  4.007E-02    0   0.9999   age045_m42            0.0000     3.5016E+00    14.1701   3.1705    77.1608
  3      0.0000     0.0000E+00    0.0000E+00    5.010000E+06  0.00400  2.539E-02    0   0.9488   age055_m42            0.0000     3.6507E+00    14.3521   3.5122    74.4176
  4      0.0000     0.0000E+00    0.0000E+00    6.610000E+06  0.00400  2.620E-02    0   0.9220   age061_m42            0.0000     3.4751E+00    14.1644   3.0835    77.7909
  5      0.0000     0.0000E+00    0.0000E+00    1.000000E+07  0.00400  1.322E-02    0   0.8862   age070_m42            0.0000     3.8727E+00    14.8864   2.7923    79.3362
  6      0.0000     0.0000E+00    0.0000E+00    1.445000E+07  0.00400  7.883E-03    0   0.8571   age078_m42            0.0000     3.9368E+00    14.9207   3.1379    76.6370
  7      0.0000     0.0000E+00    0.0000E+00    2.512000E+07  0.00400  5.251E-03    0   0.8174   age090_m42            0.0000     3.9377E+00    15.0392   2.6570    79.9098
  8      0.0000     0.0000E+00    0.0000E+00    4.000000E+07  0.00400  3.649E-03    0   0.7851   age104_m42            0.0000     3.8175E+00    14.8659   2.4191    81.0717
  9      0.0000     0.0000E+00    0.0000E+00    5.500000E+07  0.00400  3.098E-03    0   0.7629   age110_m42            0.0000     3.5724E+00    14.4503   2.5639    81.6478
 10      0.0000     0.0000E+00    0.0000E+00    1.015200E+08  0.00400  2.228E-03    0   0.7207   age116_m42            0.0000     3.4078E+00    14.1759   2.5757    82.2993
 11      0.0000     0.0000E+00    0.0000E+00    2.861200E+08  0.00400  1.093E-03    0   0.6648   age125_m42            0.0000     3.4420E+00    14.2840   1.9764    85.8539
 12      3.9327     4.5528E-02    5.7589E-02    5.088000E+08  0.00400  6.597E-04    0   0.6365   age130_m42            0.0000     3.1660E+00    13.7986   1.9572    87.2615
 13      0.2944     1.0546E-02    1.2151E-02    1.434000E+09  0.00400  2.132E-04    0   0.5798   age139_m42            0.0000     2.8712E+00    13.3561   0.9770    89.6784
 14      0.0000     0.0000E+00    0.0000E+00    4.250000E+09  0.00400  5.895E-05    0   0.5377   age158_m42            0.0000     2.6680E+00    12.8691   0.5668    85.3114
 15      0.0000     0.0000E+00    0.0000E+00    7.500000E+09  0.00400  3.510E-05    0   0.5212   age171_m42            0.0000     2.5576E+00    12.6697   0.3777    84.9466
 16      0.0000     0.0000E+00    0.0000E+00    1.300000E+10  0.00400  2.005E-05    0   0.5034   age193_m42            0.0000     2.4623E+00    12.4934   0.2091    84.7630
 17      0.0000     0.0000E+00    0.0000E+00    1.800000E+10  0.00400  1.525E-05    0   0.4967   age213_m42            0.0000     2.4936E+00    12.5394   0.1890    84.2435
 18      0.0000     0.0000E+00    0.0000E+00    1.000000E+06  0.00800  1.238E-02    0   1.0000   age020_m52            0.0000     3.9045E+00    14.6307   3.9593    69.9567
 19      0.0000     0.0000E+00    0.0000E+00    3.160000E+06  0.00800  3.074E-02    0   0.9966   age045_m52            0.0000     3.8477E+00    14.5520   3.8776    70.7827
 20      0.0000     0.0000E+00    0.0000E+00    5.010000E+06  0.00800  2.668E-02    0   0.9443   age055_m52            0.0000     3.7076E+00    14.4190   3.6053    73.3616
 21      0.0000     0.0000E+00    0.0000E+00    6.610000E+06  0.00800  2.136E-02    0   0.9177   age061_m52            0.0000     3.7790E+00    14.6792   2.3022    79.9797
 22      0.0000     0.0000E+00    0.0000E+00    1.000000E+07  0.00800  1.215E-02    0   0.8827   age070_m52            0.0000     4.0670E+00    15.1838   2.9783    78.7395
 23      0.0000     0.0000E+00    0.0000E+00    1.445000E+07  0.00800  8.717E-03    0   0.8552   age078_m52            0.0000     3.9094E+00    14.8975   3.0977    77.9174
 24      0.0000     0.0000E+00    0.0000E+00    2.512000E+07  0.00800  5.592E-03    0   0.8162   age090_m52            0.0000     3.9433E+00    15.0585   2.7155    81.0461
 25      0.0000     0.0000E+00    0.0000E+00    4.000000E+07  0.00800  3.896E-03    0   0.7841   age104_m52            0.0000     3.7788E+00    14.8139   2.6164    82.2477
 26      0.0000     0.0000E+00    0.0000E+00    1.015200E+08  0.00800  2.148E-03    0   0.7226   age116_m52            0.0000     3.4938E+00    14.3437   2.5447    82.7843
 27      0.0000     0.0000E+00    0.0000E+00    2.861200E+08  0.00800  9.925E-04    0   0.6683   age125_m52            0.0000     3.1805E+00    13.8314   2.0221    88.0491
 28      0.0000     0.0000E+00    0.0000E+00    9.047900E+08  0.00800  3.141E-04    0   0.6138   age135_m52            0.0000     2.7383E+00    13.1233   1.2017    93.1643
 29      0.0000     0.0000E+00    0.0000E+00    1.434000E+09  0.00800  1.719E-04    0   0.5853   age139_m52            0.0000     2.6902E+00    12.9834   0.6411    90.4988
 30      0.0000     0.0000E+00    0.0000E+00    2.500000E+09  0.00800  7.872E-05    0   0.5600   age150_m52            0.0000     2.4573E+00    12.5381   0.3841    87.9835
 31      0.0000     0.0000E+00    0.0000E+00    4.250000E+09  0.00800  4.336E-05    0   0.5426   age158_m52            0.0000     2.4530E+00    12.5063   0.3712    87.0747
 32      0.0000     0.0000E+00    0.0000E+00    6.250000E+09  0.00800  3.159E-05    0   0.5319   age166_m52            0.0000     2.3035E+00    12.2440   0.1591    87.7147
 33      0.0000     0.0000E+00    0.0000E+00    1.300000E+10  0.00800  1.361E-05    0   0.5073   age193_m52            0.0000     2.1500E+00    11.9922  -0.3208    87.9253
 34      0.0000     0.0000E+00    0.0000E+00    1.800000E+10  0.00800  9.886E-06    0   0.4990   age213_m52            0.0000     2.0652E+00    11.8307  -0.4355    87.9902
 35      0.0000     0.0000E+00    0.0000E+00    1.000000E+06  0.02000  1.544E-02    0   1.0000   age020_m62            0.0000     3.9163E+00    14.6377   3.9569    70.0666
 36      0.0000     0.0000E+00    0.0000E+00    3.160000E+06  0.02000  3.762E-02    0   0.9858   age045_m62            0.0000     3.8762E+00    14.5827   3.8922    70.8304
 37      0.0000     0.0000E+00    0.0000E+00    5.010000E+06  0.02000  3.296E-02    0   0.9342   age055_m62            0.0000     3.5194E+00    14.1761   3.4605    75.8514
 38      0.0000     0.0000E+00    0.0000E+00    8.710000E+06  0.02000  1.154E-02    0   0.8861   age067_m62            0.0000     5.3889E+00    17.4523   2.4332    79.7326
 39      0.0000     0.0000E+00    0.0000E+00    1.445000E+07  0.02000  7.663E-03    0   0.8472   age078_m62            0.0000     4.3918E+00    15.7602   2.6201    80.4175
 40      0.0000     0.0000E+00    0.0000E+00    2.512000E+07  0.02000  4.532E-03    0   0.8099   age090_m62            0.0000     4.4200E+00    15.8617   2.6023    80.5341
 41      0.0000     0.0000E+00    0.0000E+00    5.500000E+07  0.02000  2.733E-03    0   0.7595   age110_m62            0.0000     3.7710E+00    14.7872   2.6017    81.5611
 42      0.0000     0.0000E+00    0.0000E+00    1.609000E+08  0.02000  1.369E-03    0   0.6985   age120_m62            0.0000     3.3735E+00    14.1432   2.4058    85.5705
 43      0.0000     0.0000E+00    0.0000E+00    2.861200E+08  0.02000  9.013E-04    0   0.6714   age125_m62            0.0000     3.1777E+00    13.8214   2.1331    89.1777
 44      0.0000     0.0000E+00    0.0000E+00    5.088000E+08  0.02000  5.028E-04    0   0.6449   age130_m62            0.0000     2.8290E+00    13.2456   1.7412    92.6009
 45      0.0000     0.0000E+00    0.0000E+00    9.047900E+08  0.02000  2.428E-04    0   0.6179   age135_m62            0.0000     2.5940E+00    12.8409   1.1625    91.9950
 46      0.0000     0.0000E+00    0.0000E+00    1.434000E+09  0.02000  1.263E-04    0   0.5908   age139_m62            0.0000     2.5223E+00    12.6753   0.7300    90.2769
 47      0.0000     0.0000E+00    0.0000E+00    2.500000E+09  0.02000  5.985E-05    0   0.5673   age150_m62            0.0000     2.3312E+00    12.3048   0.3637    89.3754
 48      0.0000     0.0000E+00    0.0000E+00    4.250000E+09  0.02000  3.271E-05    0   0.5468   age158_m62            0.0000     2.1469E+00    12.0096   0.0471    89.4600
 49      0.0021     1.2053E-03    1.2376E-03    1.000000E+10  0.02000  1.360E-05    0   0.5167   age181_m62            0.0000     2.0313E+00    11.8088  -0.3169    90.0997
 50     18.9759     2.0343E+01    2.0266E+01    1.800000E+10  0.02000  7.124E-06    0   0.5013   age213_m62            0.0000     1.9968E+00    11.7364  -0.5305    89.8091
 51      0.0000     0.0000E+00    0.0000E+00    1.000000E+06  0.05000  2.592E-02    0   0.9998   age020_m72            0.0000     3.9911E+00    14.7197   3.9569    69.7688
 52      0.0000     0.0000E+00    0.0000E+00    3.160000E+06  0.05000  4.845E-02    0   0.9577   age045_m72            0.0000     3.6970E+00    14.3725   3.7547    72.5627
 53      0.0000     0.0000E+00    0.0000E+00    5.010000E+06  0.05000  3.072E-02    0   0.9147   age055_m72            0.0000     4.1690E+00    15.2159   3.2321    76.7007
 54      0.0000     0.0000E+00    0.0000E+00    6.610000E+06  0.05000  1.455E-02    0   0.8877   age061_m72            0.0000     6.3518E+00    19.0934   2.4693    80.3423
 55      0.0000     0.0000E+00    0.0000E+00    1.000000E+07  0.05000  9.074E-03    0   0.8524   age070_m72            0.0000     4.3043E+00    15.4369   3.4094    76.6917
 56      0.0000     0.0000E+00    0.0000E+00    2.512000E+07  0.05000  4.250E-03    0   0.7902   age090_m72            0.0000     4.0742E+00    15.2091   3.0788    79.2897
 57      0.0000     0.0000E+00    0.0000E+00    4.000000E+07  0.05000  3.087E-03    0   0.7618   age104_m72            0.0000     4.0808E+00    15.2831   2.8343    81.2144
 58      0.0000     0.0000E+00    0.0000E+00    1.015200E+08  0.05000  1.700E-03    0   0.7096   age116_m72            0.0000     3.5644E+00    14.4665   2.5529    84.8314
 59      0.0000     0.0000E+00    0.0000E+00    2.861200E+08  0.05000  7.384E-04    0   0.6633   age125_m72            0.0000     3.0032E+00    13.5155   1.9942    90.9037
 60      0.0000     0.0000E+00    0.0000E+00    5.088000E+08  0.05000  3.819E-04    0   0.6372   age130_m72            0.0000     2.6760E+00    13.0003   1.5027    92.7613
 61      0.0000     0.0000E+00    0.0000E+00    9.047900E+08  0.05000  1.676E-04    0   0.6110   age135_m72            0.0000     2.3771E+00    12.4171   0.8221    90.9765
 62      0.0000     0.0000E+00    0.0000E+00    1.434000E+09  0.05000  8.837E-05    0   0.5874   age139_m72            0.0000     2.3075E+00    12.2833   0.3591    90.9214
 63      0.0000     0.0000E+00    0.0000E+00    2.500000E+09  0.05000  4.233E-05    0   0.5598   age150_m72            0.0000     2.1049E+00    11.9373   0.0423    90.5112
 64      0.0000     0.0000E+00    0.0000E+00    6.250000E+09  0.05000  1.435E-05    0   0.5249   age166_m72            0.0000     2.0191E+00    11.7911  -0.4114    89.7572
 65     67.8653     7.9579E+01    7.9642E+01    1.300000E+10  0.05000  6.513E-06    0   0.5036   age193_m72            0.0000     1.9970E+00    11.7479  -0.6958    91.1004
 66      0.0125     2.1064E-02    2.0700E-02    1.800000E+10  0.05000  4.527E-06    0   0.4945   age213_m72            0.0000     2.0284E+00    11.8201  -0.8546    90.9941


## Synthesis Results - Average & Chains ##

# j      x_j: min, <> & last-chain-values for 1 ...  7 chains
  1      0.0000      0.0088      0.0000      0.0000      0.0000      0.0000      0.0000      0.0000      0.0000
  2      0.0000      0.0094      0.0000      0.0000      0.0000      0.0000      0.0000      0.0000      0.0000
  3      0.0000      0.0132      0.0000      0.0000      0.0000      0.0000      0.0000      0.0000      0.0000
  4      0.0000      0.0410      0.0000      0.0342      0.0000      0.0000      0.0000      0.0000      0.0000
  5      0.0000      0.0134      0.0000      0.0000      0.0000      0.0000      0.0000      0.0000      0.0000
  6      0.0000      0.0220      0.0000      0.0000      0.0000      0.0000      0.0000      0.0000      0.0000
  7      0.0000      0.0175      0.0000      0.0000      0.0000      0.0000      0.0000      0.0000      0.0000
  8      0.0000      0.0759      0.0000      0.0000      0.0000      0.0000      0.0000      0.0000      0.2537
  9      0.0000      0.0287      0.0000      0.0000      0.0000      0.0000      0.0000      0.0000      0.0000
 10      0.0000      0.0525      0.0000      0.0000      0.0000      0.0000      0.0000      0.0000      0.0000
 11      0.0000      0.1387      0.0000      0.0000      0.0000      0.0000      0.0000      0.0000      0.5178
 12      3.9327      0.1001      0.0000      0.0000      0.0000      1.2783      0.0000      0.8368      0.0000
 13      0.2944      0.2095      0.2680      0.0000      0.1325      0.0000      0.0000      1.7928      0.0000
 14      0.0000      0.2201      0.7584      0.0000      0.0000      0.0000      1.4919      0.0000      0.0000
 15      0.0000      0.4568      0.0000      1.2913      0.2318      0.0000      0.0000      1.0269      0.0000
 16      0.0000      0.6475      0.0000      0.0000      0.0000      0.9520      0.0000      0.7220      1.2305
 17      0.0000      1.5202      2.6937      1.4608      1.9322      0.0000      0.0000      0.0000      5.0776
 18      0.0000      0.0133      0.0000      0.0000      0.0000      0.0000      0.0000      0.0000      0.0000
 19      0.0000      0.0115      0.0000      0.0000      0.0000      0.0000      0.0000      0.0000      0.0000
 20      0.0000      0.0462      0.0000      0.0000      0.0000      0.0000      0.0000      0.0000      0.0000
 21      0.0000      0.0414      0.0000      0.0000      0.0000      0.0000      0.0000      0.0000      0.0000
 22      0.0000      0.0126      0.0000      0.0000      0.0883      0.0000      0.0000      0.0000      0.0000
 23      0.0000      0.0169      0.0000      0.0000      0.0000      0.0000      0.0000      0.0000      0.0000
 24      0.0000      0.0316      0.0000      0.0000      0.0000      0.0000      0.0000      0.0000      0.0000
 25      0.0000      0.0179      0.0000      0.0000      0.0000      0.0000      0.6140      0.0000      0.0000
 26      0.0000      0.0486      0.0000      0.0000      0.0000      0.0000      0.4500      0.0000      0.0000
 27      0.0000      0.1729      0.0000      0.0000      0.4661      0.0000      0.0000      0.0000      0.1030
 28      0.0000      0.1790      0.5890      0.1522      0.0000      0.0000      0.0000      0.0000      0.0000
 29      0.0000      0.2015      0.1290      0.0000      0.0000      0.0000      0.0000      0.0514      0.9319
 30      0.0000      0.4535      1.2563      1.3059      0.0000      0.0000      0.0000      0.0000      1.0746
 31      0.0000      0.6665      0.0000      0.0000      1.7859      0.4392      0.0000      0.0000      0.0000
 32      0.0000      0.6983      0.0000      0.3383      0.3047      0.0000      2.1674      0.3212      0.0000
 33      0.0000      1.5363      0.0000      3.2614      0.0000      0.1280      0.0000      3.9981      1.4388
 34      0.0000      6.4145      0.0000      5.2229      8.9863      0.1068      3.1391      0.1269      0.0000
 35      0.0000      0.0070      0.0000      0.0000      0.0000      0.0000      0.0000      0.0000      0.0000
 36      0.0000      0.0047      0.0000      0.0000      0.0000      0.0000      0.0000      0.0000      0.0000
 37      0.0000      0.0639      0.0000      0.0000      0.0000      0.0000      0.0000      0.0000      0.0000
 38      0.0000      0.0115      0.0000      0.0000      0.0000      0.0000      0.0000      0.0000      0.0000
 39      0.0000      0.0149      0.0000      0.0000      0.0000      0.0000      0.0000      0.3632      0.0000
 40      0.0000      0.0155      0.0000      0.0000      0.0000      0.0000      0.0000      0.0000      0.0000
 41      0.0000      0.0288      0.0000      0.0000      0.0000      0.0000      0.0000      0.0000      0.0000
 42      0.0000      0.0406      0.0000      0.0000      0.0000      0.0000      0.0000      0.0000      0.0000
 43      0.0000      0.3531      0.0000      0.3022      0.0000      1.4108      0.0000      0.0000      0.0000
 44      0.0000      0.1305      0.2991      0.9423      0.0000      0.0000      0.0000      0.1086      0.0000
 45      0.0000      0.1416      0.9964      0.0000      0.4434      0.0000      0.0000      0.0000      0.0000
 46      0.0000      0.2929      0.0000      0.0000      0.5398      0.0000      0.0000      0.0000      0.0000
 47      0.0000      0.3726      0.0000      0.0000      0.0000      0.0000      1.9326      0.0000      0.0000
 48      0.0000      0.8159      3.1070      0.0000      0.9674      2.0934      0.0000      0.0000      2.9698
 49      0.0021      5.4019      4.4849      2.0078      1.4914      6.4846      3.8930      2.6606      8.6459
 50     18.9759     18.0617     15.4732     25.6175     17.4247     24.9820     25.4721     26.6896     13.2759
 51      0.0000      0.0123      0.0000      0.0000      0.0000      0.0000      0.0000      0.0000      0.0000
 52      0.0000      0.0093      0.0000      0.0000      0.0000      0.0000      0.0000      0.0000      0.0000
 53      0.0000      0.0125      0.0000      0.0000      0.0000      0.0000      0.0000      0.0000      0.0000
 54      0.0000      0.0065      0.0000      0.0000      0.0000      0.0000      0.0000      0.0000      0.0000
 55      0.0000      0.0123      0.0000      0.0000      0.0000      0.0000      0.0000      0.0000      0.0000
 56      0.0000      0.0353      0.0000      0.0000      0.0000      0.0000      0.0000      0.0000      0.0000
 57      0.0000      0.0464      0.0000      0.0000      0.0000      0.0000      0.0000      0.0000      0.0000
 58      0.0000      0.0430      0.0000      0.0000      0.0000      0.0000      0.0000      0.0000      0.0000
 59      0.0000      0.3629      0.3207      0.0000      0.3460      1.5162      0.0000      0.0000      0.0000
 60      0.0000      0.1258      0.0000      0.0000      0.0091      0.0000      0.4713      0.0000      0.0000
 61      0.0000      0.4509      0.8153      1.9661      0.0000      0.0331      0.0000      0.0543      0.0000
 62      0.0000      0.4029      0.9270      0.6795      1.0874      0.6242      1.0857      0.1174      0.0000
 63      0.0000      3.0225      5.2475      4.2350     11.1389      5.9313      2.4795      2.3930      7.4032
 64      0.0000     10.6639     19.9043     12.4217      6.3458      9.4995     16.1105     12.0351      8.4525
 65     67.8653     17.7899     16.6233     16.7812     20.7008     21.6436     18.8706     24.6337     17.9518
 66      0.0125     15.5839     16.1422     11.0360     14.6170     12.3102     10.6496     11.3634     19.0268

# j      m_j: min, <> & last-chain-values for 1 ...  7 chains
  1  0.0000E+00  1.4571E-05  0.0000E+00  0.0000E+00  0.0000E+00  0.0000E+00  0.0000E+00  0.0000E+00  0.0000E+00
  2  0.0000E+00  4.2539E-06  0.0000E+00  0.0000E+00  0.0000E+00  0.0000E+00  0.0000E+00  0.0000E+00  0.0000E+00
  3  0.0000E+00  8.9931E-06  0.0000E+00  0.0000E+00  0.0000E+00  0.0000E+00  0.0000E+00  0.0000E+00  0.0000E+00
  4  0.0000E+00  2.6287E-05  0.0000E+00  2.2380E-05  0.0000E+00  0.0000E+00  0.0000E+00  0.0000E+00  0.0000E+00
  5  0.0000E+00  1.6420E-05  0.0000E+00  0.0000E+00  0.0000E+00  0.0000E+00  0.0000E+00  0.0000E+00  0.0000E+00
  6  0.0000E+00  4.3660E-05  0.0000E+00  0.0000E+00  0.0000E+00  0.0000E+00  0.0000E+00  0.0000E+00  0.0000E+00
  7  0.0000E+00  4.9688E-05  0.0000E+00  0.0000E+00  0.0000E+00  0.0000E+00  0.0000E+00  0.0000E+00  0.0000E+00
  8  0.0000E+00  2.9767E-04  0.0000E+00  0.0000E+00  0.0000E+00  0.0000E+00  0.0000E+00  0.0000E+00  1.0020E-03
  9  0.0000E+00  1.2869E-04  0.0000E+00  0.0000E+00  0.0000E+00  0.0000E+00  0.0000E+00  0.0000E+00  0.0000E+00
 10  0.0000E+00  3.0945E-04  0.0000E+00  0.0000E+00  0.0000E+00  0.0000E+00  0.0000E+00  0.0000E+00  0.0000E+00
 11  0.0000E+00  1.5365E-03  0.0000E+00  0.0000E+00  0.0000E+00  0.0000E+00  0.0000E+00  0.0000E+00  5.7816E-03
 12  5.7589E-02  1.7586E-03  0.0000E+00  0.0000E+00  0.0000E+00  2.2299E-02  0.0000E+00  1.3924E-02  0.0000E+00
 13  1.2151E-02  1.0380E-02  1.3815E-02  0.0000E+00  6.6282E-03  0.0000E+00  0.0000E+00  8.4088E-02  0.0000E+00
 14  0.0000E+00  3.6575E-02  1.3113E-01  0.0000E+00  0.0000E+00  0.0000E+00  2.5107E-01  0.0000E+00  0.0000E+00
 15  0.0000E+00  1.2358E-01  0.0000E+00  3.5689E-01  6.3333E-02  0.0000E+00  0.0000E+00  2.6298E-01  0.0000E+00
 16  0.0000E+00  2.9616E-01  0.0000E+00  0.0000E+00  0.0000E+00  4.3215E-01  0.0000E+00  3.1261E-01  5.6716E-01
 17  0.0000E+00  9.0200E-01  1.6631E+00  8.8559E-01  1.1579E+00  0.0000E+00  0.0000E+00  0.0000E+00  3.0362E+00
 18  0.0000E+00  1.9605E-05  0.0000E+00  0.0000E+00  0.0000E+00  0.0000E+00  0.0000E+00  0.0000E+00  0.0000E+00
 19  0.0000E+00  6.8091E-06  0.0000E+00  0.0000E+00  0.0000E+00  0.0000E+00  0.0000E+00  0.0000E+00  0.0000E+00
 20  0.0000E+00  2.9795E-05  0.0000E+00  0.0000E+00  0.0000E+00  0.0000E+00  0.0000E+00  0.0000E+00  0.0000E+00
 21  0.0000E+00  3.2365E-05  0.0000E+00  0.0000E+00  0.0000E+00  0.0000E+00  0.0000E+00  0.0000E+00  0.0000E+00
 22  0.0000E+00  1.6628E-05  0.0000E+00  0.0000E+00  1.1803E-04  0.0000E+00  0.0000E+00  0.0000E+00  0.0000E+00
 23  0.0000E+00  3.0208E-05  0.0000E+00  0.0000E+00  0.0000E+00  0.0000E+00  0.0000E+00  0.0000E+00  0.0000E+00
 24  0.0000E+00  8.4040E-05  0.0000E+00  0.0000E+00  0.0000E+00  0.0000E+00  0.0000E+00  0.0000E+00  0.0000E+00
 25  0.0000E+00  6.5713E-05  0.0000E+00  0.0000E+00  0.0000E+00  0.0000E+00  2.2798E-03  0.0000E+00  0.0000E+00
 26  0.0000E+00  2.9765E-04  0.0000E+00  0.0000E+00  0.0000E+00  0.0000E+00  2.7934E-03  0.0000E+00  0.0000E+00
 27  0.0000E+00  2.1206E-03  0.0000E+00  0.0000E+00  5.7749E-03  0.0000E+00  0.0000E+00  0.0000E+00  1.2728E-03
 28  0.0000E+00  6.3720E-03  2.1819E-02  5.5373E-03  0.0000E+00  0.0000E+00  0.0000E+00  0.0000E+00  0.0000E+00
 29  0.0000E+00  1.2498E-02  8.3238E-03  0.0000E+00  0.0000E+00  0.0000E+00  0.0000E+00  3.0191E-03  5.8252E-02
 30  0.0000E+00  5.8766E-02  1.6941E-01  1.7292E-01  0.0000E+00  0.0000E+00  0.0000E+00  0.0000E+00  1.4034E-01
 31  0.0000E+00  1.5194E-01  0.0000E+00  0.0000E+00  4.1120E-01  9.9366E-02  0.0000E+00  0.0000E+00  0.0000E+00
 32  0.0000E+00  2.1419E-01  0.0000E+00  1.0603E-01  9.4391E-02  0.0000E+00  6.7331E-01  9.3273E-02  0.0000E+00
 33  0.0000E+00  1.0432E+00  0.0000E+00  2.2627E+00  0.0000E+00  8.6285E-02  0.0000E+00  2.5701E+00  9.8456E-01
 34  0.0000E+00  5.8984E+00  0.0000E+00  4.9067E+00  8.3457E+00  9.7488E-02  2.9234E+00  1.1048E-01  0.0000E+00
 35  0.0000E+00  8.2056E-06  0.0000E+00  0.0000E+00  0.0000E+00  0.0000E+00  0.0000E+00  0.0000E+00  0.0000E+00
 36  0.0000E+00  2.2273E-06  0.0000E+00  0.0000E+00  0.0000E+00  0.0000E+00  0.0000E+00  0.0000E+00  0.0000E+00
 37  0.0000E+00  3.2993E-05  0.0000E+00  0.0000E+00  0.0000E+00  0.0000E+00  0.0000E+00  0.0000E+00  0.0000E+00
 38  0.0000E+00  1.6144E-05  0.0000E+00  0.0000E+00  0.0000E+00  0.0000E+00  0.0000E+00  0.0000E+00  0.0000E+00
 39  0.0000E+00  3.0006E-05  0.0000E+00  0.0000E+00  0.0000E+00  0.0000E+00  0.0000E+00  6.9257E-04  0.0000E+00
 40  0.0000E+00  5.0353E-05  0.0000E+00  0.0000E+00  0.0000E+00  0.0000E+00  0.0000E+00  0.0000E+00  0.0000E+00
 41  0.0000E+00  1.4576E-04  0.0000E+00  0.0000E+00  0.0000E+00  0.0000E+00  0.0000E+00  0.0000E+00  0.0000E+00
 42  0.0000E+00  3.7720E-04  0.0000E+00  0.0000E+00  0.0000E+00  0.0000E+00  0.0000E+00  0.0000E+00  0.0000E+00
 43  0.0000E+00  4.7917E-03  0.0000E+00  4.1898E-03  0.0000E+00  1.9002E-02  0.0000E+00  0.0000E+00  0.0000E+00
 44  0.0000E+00  3.0493E-03  7.2718E-03  2.2496E-02  0.0000E+00  0.0000E+00  0.0000E+00  2.4020E-03  0.0000E+00
 45  0.0000E+00  6.5656E-03  4.8066E-02  0.0000E+00  2.0762E-02  0.0000E+00  0.0000E+00  0.0000E+00  0.0000E+00
 46  0.0000E+00  2.4958E-02  0.0000E+00  0.0000E+00  4.6462E-02  0.0000E+00  0.0000E+00  0.0000E+00  0.0000E+00
 47  0.0000E+00  6.4340E-02  0.0000E+00  0.0000E+00  0.0000E+00  0.0000E+00  3.3798E-01  0.0000E+00  0.0000E+00
 48  0.0000E+00  2.4846E-01  9.8454E-01  0.0000E+00  2.9756E-01  6.3270E-01  0.0000E+00  0.0000E+00  9.1142E-01
 49  1.2376E-03  3.7388E+00  3.2299E+00  1.4198E+00  1.0425E+00  4.4544E+00  2.7289E+00  1.7434E+00  6.0305E+00
 50  2.0266E+01  2.3154E+01  2.0639E+01  3.3552E+01  2.2560E+01  3.1784E+01  3.3071E+01  3.2390E+01  1.7151E+01
 51  0.0000E+00  8.6294E-06  0.0000E+00  0.0000E+00  0.0000E+00  0.0000E+00  0.0000E+00  0.0000E+00  0.0000E+00
 52  0.0000E+00  3.3317E-06  0.0000E+00  0.0000E+00  0.0000E+00  0.0000E+00  0.0000E+00  0.0000E+00  0.0000E+00
 53  0.0000E+00  6.7925E-06  0.0000E+00  0.0000E+00  0.0000E+00  0.0000E+00  0.0000E+00  0.0000E+00  0.0000E+00
 54  0.0000E+00  7.2131E-06  0.0000E+00  0.0000E+00  0.0000E+00  0.0000E+00  0.0000E+00  0.0000E+00  0.0000E+00
 55  0.0000E+00  2.1128E-05  0.0000E+00  0.0000E+00  0.0000E+00  0.0000E+00  0.0000E+00  0.0000E+00  0.0000E+00
 56  0.0000E+00  1.1962E-04  0.0000E+00  0.0000E+00  0.0000E+00  0.0000E+00  0.0000E+00  0.0000E+00  0.0000E+00
 57  0.0000E+00  2.0861E-04  0.0000E+00  0.0000E+00  0.0000E+00  0.0000E+00  0.0000E+00  0.0000E+00  0.0000E+00
 58  0.0000E+00  3.2732E-04  0.0000E+00  0.0000E+00  0.0000E+00  0.0000E+00  0.0000E+00  0.0000E+00  0.0000E+00
 59  0.0000E+00  5.9383E-03  5.4614E-03  0.0000E+00  5.7188E-03  2.4626E-02  0.0000E+00  0.0000E+00  0.0000E+00
 60  0.0000E+00  3.8243E-03  0.0000E+00  0.0000E+00  2.7821E-04  0.0000E+00  1.4508E-02  0.0000E+00  0.0000E+00
 61  0.0000E+00  2.9948E-02  5.6338E-02  1.3340E-01  0.0000E+00  2.1811E-03  0.0000E+00  3.4113E-03  0.0000E+00
 62  0.0000E+00  4.8789E-02  1.1680E-01  8.4071E-02  1.3299E-01  7.5013E-02  1.3315E-01  1.3462E-02  0.0000E+00
 63  0.0000E+00  7.2818E-01  1.3154E+00  1.0424E+00  2.7104E+00  1.4182E+00  6.0499E-01  5.4580E-01  1.7974E+00
 64  0.0000E+00  7.1060E+00  1.3801E+01  8.4569E+00  4.2708E+00  6.2824E+00  1.0873E+01  7.5924E+00  5.6761E+00
 65  7.9642E+01  2.5059E+01  2.4365E+01  2.4151E+01  2.9450E+01  3.0258E+01  2.6921E+01  3.2850E+01  2.5483E+01
 66  2.0700E-02  3.1011E+01  3.3424E+01  2.2438E+01  2.9377E+01  2.4312E+01  2.1463E+01  2.1407E+01  3.8156E+01

# AV, chi2 & Mass for <> & i_chain = 1 ...  7 solutions
AV      -0.6000     -0.4336     -0.4524     -0.4444     -0.4467     -0.4443     -0.4533     -0.4975     -0.4316
chi2 1.9910E+00  2.0182E+00  2.0100E+00  2.0112E+00  2.0119E+00  2.0076E+00  2.0106E+00  2.0032E+00  2.0186E+00
Mass 6.8938E-13  7.1817E-13  6.7302E-13  6.9282E-13  6.9865E-13  7.1328E-13  6.9056E-13  6.9623E-13  7.1461E-13
   1.92                                  [v0_min (km/s) before EX0s...]
 272.20                                  [vd_min (km/s) before EX0s...]


## Synthetic spectrum (Best Model) ##l_obs f_obs f_syn wei
 3478    [Nl_obs]
 3741.00    2.16384   0.33598    0.000
 3742.00    1.88624   0.33330    0.000
 3743.00    1.77144   0.32518    0.000
 3744.00    1.98619   0.31417    0.000
 3745.00    2.20815   0.30115   -1.000
 3746.00    2.16103   0.29096   -1.000
 3747.00    1.80863   0.28879   -1.000
 3748.00    1.33737   0.29242   -1.000
 3749.00    1.03884   0.30176   -1.000
 3750.00    0.98110   0.32089   -1.000
 3751.00    0.98993   0.34669   -1.000
 3752.00    0.89645   0.37017   -1.000
 3753.00    0.64077   0.38845   -1.000
 3754.00    0.34338   0.40352   29.122
 3755.00    0.23128   0.41314   -1.000
 3756.00    0.40497   0.41338   24.693
 3757.00    0.78608   0.40533   -1.000
 3758.00    1.14438   0.39529   -1.000
 3759.00    1.25178   0.38710   -1.000
 3760.00    1.19881   0.38044   -1.000
 3761.00    1.26191   0.37605   -1.000
 3762.00    1.47944   0.37405   -1.000
 3763.00    1.65286   0.37337   -1.000
 3764.00    1.53507   0.37754   -1.000
 3765.00    1.02244   0.38796   -1.000
 3766.00    0.42246   0.39770   23.671
 3767.00    0.20115   0.40801   -1.000
 3768.00    0.46773   0.42641   21.380
 3769.00    1.02987   0.44823   -1.000
 3770.00    1.63326   0.46509   -1.000
 3771.00    2.03172   0.48068   -1.000
 3772.00    2.03959   0.49817   -1.000
 3773.00    1.64296   0.51216   -1.000
 3774.00    1.13327   0.51993   -1.000
 3775.00    0.88038   0.52625   -1.000
 3776.00    1.00182   0.53410   -1.000
 3777.00    1.35285   0.54038   -1.000
 3778.00    1.58902   0.54361   -1.000
 3779.00    1.44802   0.54767   -1.000
 3780.00    1.05824   0.55218   -1.000
 3781.00    0.71811   0.55123   13.925
 3782.00    0.60458   0.54374   16.540
 3783.00    0.71355   0.53339   14.014
 3784.00    0.84920   0.52013   -1.000
 3785.00    0.84121   0.49995   -1.000
 3786.00    0.74549   0.47515   -1.000
 3787.00    0.68638   0.45399   -1.000
 3788.00    0.70035   0.43612   -1.000
 3789.00    0.80943   0.41812   -1.000
 3790.00    1.07351   0.40352   -1.000
 3791.00    1.38659   0.39502   -1.000
 3792.00    1.36748   0.38810   -1.000
 3793.00    0.85928   0.38015   -1.000
 3794.00    0.25335   0.37310   -1.000
 3795.00   -0.04210   0.36865   -2.000
 3796.00    0.01118   0.36801   -1.000
 3797.00    0.20918   0.36945   -1.000
 3798.00    0.26521   0.37258   37.706
 3799.00    0.16656   0.38129   -1.000
 3800.00    0.29666   0.39574   33.709
 3801.00    0.81595   0.41074   -1.000
 3802.00    1.37579   0.42399   -1.000
 3803.00    1.65246   0.43683   -1.000
 3804.00    1.62844   0.44797   -1.000
 3805.00    1.41677   0.45500   -1.000
 3806.00    1.14587   0.45724   -1.000
 3807.00    0.89414   0.45671   -1.000
 3808.00    0.67694   0.45536   -1.000
 3809.00    0.52828   0.45088   18.929
 3810.00    0.51277   0.44244   19.502
 3811.00    0.61059   0.43142   16.378
 3812.00    0.70916   0.41689   -1.000
 3813.00    0.77488   0.39920   -1.000
 3814.00    0.88129   0.38147   -1.000
 3815.00    1.04481   0.36305   -1.000
 3816.00    1.18949   0.34421   -1.000
 3817.00    1.25241   0.32916   -1.000
 3818.00    1.20887   0.31726   -1.000
 3819.00    1.02599   0.30475   -1.000
 3820.00    0.68290   0.29286   -1.000
 3821.00    0.28063   0.28460   35.634
 3822.00    0.01181   0.27865   -1.000
 3823.00   -0.02812   0.27192   -2.000
 3824.00    0.12070   0.26472   -1.000
 3825.00    0.33658   0.25976   29.711
 3826.00    0.49639   0.25709   -1.000
 3827.00    0.63437   0.25494   -1.000
 3828.00    0.86790   0.25309   -1.000
 3829.00    1.12446   0.25259   -1.000
 3830.00    1.19062   0.25326   -1.000
 3831.00    0.97419   0.25365   -1.000
 3832.00    0.56189   0.25351   -1.000
 3833.00    0.20401   0.25390   49.018
 3834.00    0.13963   0.25473   -1.000
 3835.00    0.26807   0.25689   37.304
 3836.00    0.30781   0.26020   32.487
 3837.00    0.21181   0.26321   47.212
 3838.00    0.13017   0.26836   -1.000
 3839.00    0.20347   0.27726   49.148
 3840.00    0.46710   0.28752   -1.000
 3841.00    0.76365   0.29947   -1.000
 3842.00    0.88966   0.31451   -1.000
 3843.00    0.84058   0.32917   -1.000
 3844.00    0.77166   0.34167   -1.000
 3845.00    0.87821   0.35195   -1.000
 3846.00    1.25442   0.35840   -1.000
 3847.00    1.73507   0.36240    0.000
 3848.00    2.04026   0.36464    0.000
 3849.00    1.99240   0.36249    0.000
 3850.00    1.58797   0.35809    0.000
 3851.00    1.03987   0.35550    0.000
 3852.00    0.62760   0.35138    0.000
 3853.00    0.51526   0.34354    0.000
 3854.00    0.66871   0.33621    0.000
 3855.00    0.81418   0.32967    0.000
 3856.00    0.73012   0.32151    0.000
 3857.00    0.51950   0.31513    0.000
 3858.00    0.36034   0.31249    0.000
 3859.00    0.25940   0.31184    0.000
 3860.00    0.17039   0.31413    0.000
 3861.00    0.11218   0.32049    0.000
 3862.00    0.12099   0.32908    0.000
 3863.00    0.20481   0.33692    0.000
 3864.00    0.36124   0.34256    0.000
 3865.00    0.58630   0.34605    0.000
 3866.00    0.81726   0.34742    0.000
 3867.00    0.91169   0.34633    0.000
 3868.00    0.80178   0.34328    0.000
 3869.00    0.58329   0.34037    0.000
 3870.00    0.38933   0.33876    0.000
 3871.00    0.29803   0.33879    0.000
 3872.00    0.29577   0.34067    0.000
 3873.00    0.28774   0.34433    0.000
 3874.00    0.26859   0.34877    0.000
 3875.00    0.37505   0.35224    0.000
 3876.00    0.64227   0.35457    0.000
 3877.00    0.91105   0.35507    0.000
 3878.00    1.03367   0.35258    0.000
 3879.00    0.98601   0.35135    0.000
 3880.00    0.88637   0.35333    0.000
 3881.00    0.92863   0.35342   -1.000
 3882.00    1.06710   0.35215   -1.000
 3883.00    0.99798   0.35666   -1.000
 3884.00    0.65340   0.36496   -1.000
 3885.00    0.29512   0.36950   33.885
 3886.00    0.07363   0.37548   -1.000
 3887.00   -0.07259   0.38999   -2.000
 3888.00   -0.14556   0.40653   -2.000
 3889.00   -0.04688   0.42208   -2.000
 3890.00    0.21793   0.44130   -1.000
 3891.00    0.52359   0.46137   19.099
 3892.00    0.79967   0.47691   -1.000
 3893.00    1.05033   0.48913   -1.000
 3894.00    1.24402   0.49856   -1.000
 3895.00    1.32897   0.50168   -1.000
 3896.00    1.36686   0.50201   -1.000
 3897.00    1.47997   0.50362   -1.000
 3898.00    1.61985   0.50171   -1.000
 3899.00    1.62362   0.49631   -1.000
 3900.00    1.49716   0.49431   -1.000
 3901.00    1.38788   0.49551   -1.000
 3902.00    1.36107   0.49276   -1.000
 3903.00    1.36970   0.49088   -1.000
 3904.00    1.30639   0.49695   -1.000
 3905.00    1.08396   0.50326   -1.000
 3906.00    0.76916   0.50949   -1.000
 3907.00    0.51967   0.52288   19.243
 3908.00    0.41418   0.53918   24.144
 3909.00    0.42953   0.55310   23.281
 3910.00    0.46284   0.56566   21.606
 3911.00    0.42600   0.57729   23.474
 3912.00    0.38960   0.58477   -1.000
 3913.00    0.48522   0.58500   20.609
 3914.00    0.71841   0.58050   13.920
 3915.00    1.00461   0.57256   -1.000
 3916.00    1.26616   0.55762   -1.000
 3917.00    1.46014   0.53907   -1.000
 3918.00    1.59304   0.52085   -1.000
 3919.00    1.66089   0.50032   -1.000
 3920.00    1.57753   0.47908   -1.000
 3921.00    1.29356   0.46107   -1.000
 3922.00    0.94046   0.44446   -1.000
 3923.00    0.67883   0.42717   -1.000
 3924.00    0.51380   0.41076   19.463
 3925.00    0.39744   0.39289   25.161
 3926.00    0.35372   0.37196   28.271
 3927.00    0.40070   0.34976   24.956
 3928.00    0.47029   0.32606   21.264
 3929.00    0.52691   0.30252   -1.000
 3930.00    0.66711   0.28153   -1.000
 3931.00    0.91886   0.26390   -1.000
 3932.00    1.08370   0.25168   -1.000
 3933.00    1.00366   0.24655   -1.000
 3934.00    0.77501   0.24778   -1.000
 3935.00    0.56077   0.25522   -1.000
 3936.00    0.43355   0.26935   -1.000
 3937.00    0.40995   0.28741   -1.000
 3938.00    0.48308   0.30764   -1.000
 3939.00    0.61354   0.33020   -1.000
 3940.00    0.73037   0.35200   -1.000
 3941.00    0.78733   0.37194   -1.000
 3942.00    0.79216   0.39342   -1.000
 3943.00    0.75703   0.41449   -1.000
 3944.00    0.67684   0.43314   -1.000
 3945.00    0.58759   0.45471   -1.000
 3946.00    0.57916   0.47875   17.266
 3947.00    0.67761   0.49995   -1.000
 3948.00    0.80022   0.51946   -1.000
 3949.00    0.85747   0.53855   -1.000
 3950.00    0.81337   0.55578   -1.000
 3951.00    0.71340   0.56928   14.017
 3952.00    0.66461   0.57574   15.047
 3953.00    0.69514   0.57838   14.386
 3954.00    0.72662   0.58008   13.762
 3955.00    0.72278   0.57393   13.835
 3956.00    0.72432   0.55988   13.806
 3957.00    0.73606   0.54353   13.586
 3958.00    0.70655   0.52228   14.153
 3959.00    0.61997   0.49540   16.130
 3960.00    0.51073   0.46505    0.000
 3961.00    0.39559   0.43124    0.000
 3962.00    0.27905   0.39753    0.000
 3963.00    0.24529   0.36604    0.000
 3964.00    0.41122   0.33578    0.000
 3965.00    0.70110   0.30924    0.000
 3966.00    0.88516   0.28891    0.000
 3967.00    0.87877   0.27544    0.000
 3968.00    0.76461   0.26975    0.000
 3969.00    0.62195   0.27248    0.000
 3970.00    0.48659   0.28417    0.000
 3971.00    0.36942   0.30483    0.000
 3972.00    0.27810   0.33296    0.000
 3973.00    0.25391   0.36637    0.000
 3974.00    0.34355   0.40436    0.000
 3975.00    0.52072   0.44523    0.000
 3976.00    0.69956   0.48521    0.000
 3977.00    0.79850   0.52354    0.000
 3978.00    0.77794   0.55933    0.000
 3979.00    0.68418   0.59052    0.000
 3980.00    0.61207   0.61737    0.000
 3981.00    0.62306   0.63947   16.050
 3982.00    0.73353   0.65787   13.633
 3983.00    0.91987   0.67337   -1.000
 3984.00    1.10567   0.68665   -1.000
 3985.00    1.14754   0.70046   -1.000
 3986.00    0.97229   0.71139   -1.000
 3987.00    0.76991   0.72049   12.988
 3988.00    0.77809   0.73248   12.852
 3989.00    0.95209   0.74038   10.503
 3990.00    1.10443   0.74456   -1.000
 3991.00    1.14737   0.75075   -1.000
 3992.00    1.09741   0.75471   -1.000
 3993.00    1.03654   0.75635   -1.000
 3994.00    1.03171   0.75785   -1.000
 3995.00    1.05283   0.75985   -1.000
 3996.00    1.04685   0.76451   -1.000
 3997.00    1.02640   0.76907   -1.000
 3998.00    1.04811   0.77315   -1.000
 3999.00    1.17249   0.78149   -1.000
 4000.00    1.37336   0.78927   -1.000
 4001.00    1.47584   0.79050   -1.000
 4002.00    1.36759   0.79085   -1.000
 4003.00    1.17237   0.79256   -1.000
 4004.00    1.04066   0.78966   -1.000
 4005.00    0.97380   0.78412   10.269
 4006.00    0.95160   0.78466   10.509
 4007.00    1.02875   0.78976   -1.000
 4008.00    1.20454   0.79472   -1.000
 4009.00    1.34084   0.80346   -1.000
 4010.00    1.31944   0.81610   -1.000
 4011.00    1.15459   0.82746   -1.000
 4012.00    0.97013   0.83873   10.308
 4013.00    0.94788   0.84975   10.550
 4014.00    1.13056   0.85642   -1.000
 4015.00    1.33648   0.86311   -1.000
 4016.00    1.37746   0.87005   -1.000
 4017.00    1.19629   0.87071   -1.000
 4018.00    0.89456   0.87114   11.179
 4019.00    0.70122   0.87470   14.261
 4020.00    0.75405   0.87333   13.262
 4021.00    1.00000   0.86923   10.000
 4022.00    1.26667   0.86900   -1.000
 4023.00    1.35916   0.86743   -1.000
 4024.00    1.31879   0.86077   -1.000
 4025.00    1.42181   0.85544   -1.000
 4026.00    1.68752   0.84902   -1.000
 4027.00    1.79296   0.83455   -1.000
 4028.00    1.57121   0.81930   -1.000
 4029.00    1.16980   0.80398   -1.000
 4030.00    0.87772   0.78253   11.393
 4031.00    0.94855   0.76583   10.542
 4032.00    1.24005   0.75831   -1.000
 4033.00    1.30243   0.75380   -1.000
 4034.00    1.06037   0.75807   -1.000
 4035.00    0.84946   0.77192   11.772
 4036.00    0.83947   0.78837   11.912
 4037.00    0.94451   0.80469   10.588
 4038.00    1.08578   0.81720    9.210
 4039.00    1.23805   0.82364   -1.000
 4040.00    1.34466   0.82140   -1.000
 4041.00    1.32628   0.80983   -1.000
 4042.00    1.16082   0.79405   -1.000
 4043.00    0.88916   0.77615   11.247
 4044.00    0.58011   0.75908   17.238
 4045.00    0.31502   0.74719   -1.000
 4046.00    0.17216   0.74319   -1.000
 4047.00    0.19194   0.75013   -1.000
 4048.00    0.31573   0.76222   -1.000
 4049.00    0.44295   0.77539   -1.000
 4050.00    0.56191   0.79292   -1.000
 4051.00    0.68975   0.80627   14.498
 4052.00    0.72370   0.81046   13.818
 4053.00    0.57332   0.81268   -1.000
 4054.00    0.41994   0.80849   -1.000
 4055.00    0.50987   0.79714   -1.000
 4056.00    0.76456   0.78791   13.079
 4057.00    0.95307   0.77625   10.492
 4058.00    1.03843   0.76191   -1.000
 4059.00    1.09223   0.75193   -1.000
 4060.00    1.10431   0.74103   -1.000
 4061.00    1.02754   0.73017   -1.000
 4062.00    0.87208   0.72463   11.467
 4063.00    0.70188   0.71886   14.247
 4064.00    0.61139   0.71616   16.356
 4065.00    0.67189   0.72211   14.883
 4066.00    0.87309   0.72855   11.454
 4067.00    1.13446   0.73420   -1.000
 4068.00    1.33258   0.74321   -1.000
 4069.00    1.38881   0.75223   -1.000
 4070.00    1.34826   0.75762   -1.000
 4071.00    1.28203   0.75781   -1.000
 4072.00    1.18876   0.75853   -1.000
 4073.00    1.03754   0.76139   -1.000
 4074.00    0.81998   0.75964   12.195
 4075.00    0.59185   0.75980   16.896
 4076.00    0.48800   0.76604   -1.000
 4077.00    0.57495   0.77298   17.393
 4078.00    0.74731   0.78446   13.381
 4079.00    0.86575   0.79955   11.551
 4080.00    0.87071   0.81508   11.485
 4081.00    0.79926   0.83439   12.512
 4082.00    0.77285   0.85228   12.939
 4083.00    0.86666   0.86719   11.539
 4084.00    1.03185   0.88423    9.691
 4085.00    1.16183   0.89907   -1.000
 4086.00    1.15817   0.90978   -1.000
 4087.00    1.05228   0.92102    9.503
 4088.00    1.02557   0.93014    9.751
 4089.00    1.13064   0.93179    8.845
 4090.00    1.18972   0.93018    8.405
 4091.00    1.08384   0.92601    9.226
 4092.00    0.88127   0.91196    0.000
 4093.00    0.70435   0.89471    0.000
 4094.00    0.64719   0.87825    0.000
 4095.00    0.71866   0.85447    0.000
 4096.00    0.84129   0.83170    0.000
 4097.00    0.95330   0.81397    0.000
 4098.00    1.04096   0.79386    0.000
 4099.00    1.08877   0.77964    0.000
 4100.00    1.06854   0.77312    0.000
 4101.00    0.97678   0.76743    0.000
 4102.00    0.84576   0.76981    0.000
 4103.00    0.73075   0.77951    0.000
 4104.00    0.69322   0.78758    0.000
 4105.00    0.76296   0.79907    0.000
 4106.00    0.93122   0.81350    0.000
 4107.00    1.16949   0.82264    0.000
 4108.00    1.42603   0.82997    0.000
 4109.00    1.60007   0.83712    0.000
 4110.00    1.58140   0.84147    0.000
 4111.00    1.37440   0.84486    0.000
 4112.00    1.09043   0.84738    0.000
 4113.00    0.84126   0.85057   11.887
 4114.00    0.71719   0.85409   13.943
 4115.00    0.80009   0.85376   12.499
 4116.00    1.08618   0.85331    9.207
 4117.00    1.31758   0.85420   -1.000
 4118.00    1.17475   0.85051   -1.000
 4119.00    0.74455   0.84627   13.431
 4120.00    0.38605   0.84561   -1.000
 4121.00    0.27735   0.84352   -1.000
 4122.00    0.37780   0.84098   -1.000
 4123.00    0.53236   0.83981   -1.000
 4124.00    0.59931   0.83805   16.686
 4125.00    0.62880   0.83436   15.903
 4126.00    0.76652   0.82728   13.046
 4127.00    1.04857   0.81920    9.537
 4128.00    1.39982   0.80934   -1.000
 4129.00    1.68745   0.79685   -1.000
 4130.00    1.80906   0.78738   -1.000
 4131.00    1.80243   0.77920   -1.000
 4132.00    1.78618   0.77360   -1.000
 4133.00    1.85436   0.77556   -1.000
 4134.00    2.00305   0.77840   -1.000
 4135.00    2.06857   0.78433   -1.000
 4136.00    1.91295   0.79406   -1.000
 4137.00    1.63868   0.79761   -1.000
 4138.00    1.41352   0.79971   -1.000
 4139.00    1.25575   0.79932   -1.000
 4140.00    1.12490   0.78950   -1.000
 4141.00    1.03611   0.77959    9.651
 4142.00    1.01378   0.77046   -1.000
 4143.00    1.03721   0.75738   -1.000
 4144.00    1.06256   0.74933   -1.000
 4145.00    1.05155   0.74775   -1.000
 4146.00    1.00731   0.74510   -1.000
 4147.00    0.99125   0.74500   -1.000
 4148.00    1.01810   0.74905   -1.000
 4149.00    0.98870   0.75031   -1.000
 4150.00    0.85337   0.75014   11.718
 4151.00    0.72295   0.75107   13.832
 4152.00    0.72625   0.75158   13.769
 4153.00    0.90072   0.75261   11.102
 4154.00    1.19257   0.75500   -1.000
 4155.00    1.46948   0.76111   -1.000
 4156.00    1.57535   0.77049   -1.000
 4157.00    1.38574   0.78040   -1.000
 4158.00    0.92806   0.79256   10.775
 4159.00    0.42362   0.80706   -1.000
 4160.00    0.12023   0.81905   -1.000
 4161.00    0.16936   0.82649   -1.000
 4162.00    0.49383   0.83367   -1.000
 4163.00    0.79544   0.83737   12.572
 4164.00    0.91794   0.83268   10.894
 4165.00    0.96596   0.82778   10.352
 4166.00    1.01160   0.82223    9.885
 4167.00    0.98977   0.81047   10.103
 4168.00    0.85477   0.79976   11.699
 4169.00    0.64298   0.78943   15.553
 4170.00    0.43642   0.77695   -1.000
 4171.00    0.32704   0.76684   -1.000
 4172.00    0.34444   0.75663   -1.000
 4173.00    0.45217   0.74834   -1.000
 4174.00    0.63123   0.74392   15.842
 4175.00    0.87947   0.74005   11.371
 4176.00    1.11042   0.74058   -1.000
 4177.00    1.17908   0.74412   -1.000
 4178.00    1.06538   0.74736   -1.000
 4179.00    0.88634   0.75433   11.282
 4180.00    0.75901   0.76225   13.175
 4181.00    0.75559   0.76778   13.235
 4182.00    0.89609   0.77582   11.160
 4183.00    1.14002   0.78328   -1.000
 4184.00    1.37119   0.78604   -1.000
 4185.00    1.44564   0.79134   -1.000
 4186.00    1.31363   0.79681   -1.000
 4187.00    1.02922   0.79727   -1.000
 4188.00    0.70332   0.79925   14.218
 4189.00    0.45789   0.80313   -1.000
 4190.00    0.35389   0.80424   -1.000
 4191.00    0.38567   0.80237   -1.000
 4192.00    0.50239   0.79949   -1.000
 4193.00    0.65143   0.79524   15.351
 4194.00    0.84684   0.78662   11.809
 4195.00    1.10356   0.77452   -1.000
 4196.00    1.30630   0.76323   -1.000
 4197.00    1.30527   0.75452   -1.000
 4198.00    1.10830   0.74502   -1.000
 4199.00    0.86125   0.73932   11.611
 4200.00    0.76210   0.74344   13.122
 4201.00    0.93537   0.74885   -1.000
 4202.00    1.27805   0.75728   -1.000
 4203.00    1.57337   0.77484   -1.000
 4204.00    1.67737   0.79139   -1.000
 4205.00    1.57892   0.80739   -1.000
 4206.00    1.43241   0.82532   -1.000
 4207.00    1.40126   0.83755   -1.000
 4208.00    1.47240   0.84747   -1.000
 4209.00    1.53960   0.85441   -1.000
 4210.00    1.52446   0.85458   -1.000
 4211.00    1.40860   0.85515   -1.000
 4212.00    1.24972   0.85400   -1.000
 4213.00    1.13643   0.85110   -1.000
 4214.00    1.13529   0.85402   -1.000
 4215.00    1.22752   0.85677   -1.000
 4216.00    1.27023   0.85976   -1.000
 4217.00    1.14548   0.86788   -1.000
 4218.00    0.88972   0.87169   11.239
 4219.00    0.64355   0.86788   15.539
 4220.00    0.58090   0.85976   -1.000
 4221.00    0.74286   0.84381   13.462
 4222.00    0.94649   0.81900   10.565
 4223.00    1.04529   0.78971    9.567
 4224.00    1.09662   0.76112   -1.000
 4225.00    1.15843   0.73906   -1.000
 4226.00    1.16631   0.72304   -1.000
 4227.00    1.09777   0.71598   -1.000
 4228.00    1.05179   0.72548   -1.000
 4229.00    1.05324   0.74082   -1.000
 4230.00    0.97223   0.75641   -1.000
 4231.00    0.76064   0.78057   13.147
 4232.00    0.55589   0.80105   -1.000
 4233.00    0.49746   0.81199   -1.000
 4234.00    0.62384   0.82686   16.030
 4235.00    0.87021   0.83897   11.491
 4236.00    1.09668   0.84401   -1.000
 4237.00    1.21094   0.85518   -1.000
 4238.00    1.22034   0.87019   -1.000
 4239.00    1.20233   0.88221   -1.000
 4240.00    1.25983   0.89689   -1.000
 4241.00    1.40089   0.91548   -1.000
 4242.00    1.52389   0.92867   -1.000
 4243.00    1.55004   0.93566   -1.000
 4244.00    1.47055   0.94072   -1.000
 4245.00    1.32418   0.93811   -1.000
 4246.00    1.16909   0.92745    8.554
 4247.00    1.02072   0.91143    9.797
 4248.00    0.87188   0.89279   11.469
 4249.00    0.81920   0.87583   12.207
 4250.00    1.00749   0.85680    9.926
 4251.00    1.35207   0.84069   -1.000
 4252.00    1.58265   0.83356   -1.000
 4253.00    1.59326   0.82862   -1.000
 4254.00    1.47188   0.82576   -1.000
 4255.00    1.31681   0.82735   -1.000
 4256.00    1.18341   0.83281   -1.000
 4257.00    1.07763   0.84023    9.280
 4258.00    0.97425   0.84653   10.264
 4259.00    0.86148   0.85691   11.608
 4260.00    0.75932   0.87034   13.170
 4261.00    0.73420   0.88204   13.620
 4262.00    0.85270   0.89726   11.727
 4263.00    1.08520   0.91210    9.215
 4264.00    1.32914   0.91829   -1.000
 4265.00    1.49067   0.91919   -1.000
 4266.00    1.51482   0.91453   -1.000
 4267.00    1.41043   0.89837   -1.000
 4268.00    1.24320   0.87373   -1.000
 4269.00    1.11346   0.84808    8.981
 4270.00    1.09276   0.82360   -1.000
 4271.00    1.13577   0.79822   -1.000
 4272.00    1.15663   0.78141   -1.000
 4273.00    1.15673   0.78032   -1.000
 4274.00    1.16841   0.78283   -1.000
 4275.00    1.15664   0.79286   -1.000
 4276.00    1.07836   0.81445   -1.000
 4277.00    0.97149   0.83303   10.293
 4278.00    0.88872   0.85232   11.252
 4279.00    0.80928   0.87003   12.357
 4280.00    0.71266   0.87740   14.032
 4281.00    0.66601   0.88408   15.015
 4282.00    0.72454   0.88484   13.802
 4283.00    0.82160   0.87756   12.171
 4284.00    0.84738   0.87158   11.801
 4285.00    0.74596   0.86026   13.406
 4286.00    0.57987   0.84503   -1.000
 4287.00    0.55918   0.83430   -1.000
 4288.00    0.80990   0.82343   12.347
 4289.00    1.18787   0.81137   -1.000
 4290.00    1.48078   0.80464   -2.000
 4291.00    1.58710   0.79913   -2.000
 4292.00    1.48775   0.79493   -2.000
 4293.00    1.21331   0.79267   -2.000
 4294.00    0.84574   0.78315   -2.000
 4295.00    0.51044   0.77306   -2.000
 4296.00    0.30243   0.76105   -2.000
 4297.00    0.23363   0.74089   -2.000
 4298.00    0.22619   0.72248   -2.000
 4299.00    0.14143   0.70116   -2.000
 4300.00   -0.03151   0.67840   -2.000
 4301.00   -0.10106   0.66380   -2.000
 4302.00    0.08796   0.64772   -2.000
 4303.00    0.51280   0.63321   -2.000
 4304.00    0.97736   0.62676   -2.000
 4305.00    1.18114   0.62033   -2.000
 4306.00    1.02720   0.61914   -1.000
 4307.00    0.72596   0.62605   13.775
 4308.00    0.54010   0.63756   18.515
 4309.00    0.63113   0.65958   15.845
 4310.00    0.94502   0.69247   -1.000
 4311.00    1.23955   0.73196   -1.000
 4312.00    1.39799   0.77882   -1.000
 4313.00    1.49416   0.83311   -1.000
 4314.00    1.52938   0.88537   -1.000
 4315.00    1.39186   0.93283   -1.000
 4316.00    1.09119   0.97832    9.164
 4317.00    0.79381   1.01021   12.597
 4318.00    0.64277   1.02555   -1.000
 4319.00    0.67803   1.03184   -1.000
 4320.00    0.79171   1.02375   12.631
 4321.00    0.80762   1.00408   12.382
 4322.00    0.75376   0.98324   13.267
 4323.00    0.83305   0.95948   12.004
 4324.00    1.11150   0.94100    8.997
 4325.00    1.46662   0.93285   -1.000
 4326.00    1.69225   0.93284   -1.000
 4327.00    1.62238   0.94646   -1.000
 4328.00    1.35462   0.96925   -1.000
 4329.00    1.14398   0.99437    8.741
 4330.00    1.03720   1.01902    0.000
 4331.00    0.92099   1.04047    0.000
 4332.00    0.80991   1.05682    0.000
 4333.00    0.79993   1.06318    0.000
 4334.00    0.84896   1.05788    0.000
 4335.00    0.84324   1.04683    0.000
 4336.00    0.80514   1.03083    0.000
 4337.00    0.82784   1.00649    0.000
 4338.00    0.89087   0.98523    0.000
 4339.00    0.92198   0.97282    0.000
 4340.00    0.95258   0.96208    0.000
 4341.00    1.05618   0.95982    0.000
 4342.00    1.21282   0.97101    0.000
 4343.00    1.34673   0.98383    0.000
 4344.00    1.41444   0.99733    0.000
 4345.00    1.42047   1.01677    0.000
 4346.00    1.41746   1.03235    0.000
 4347.00    1.44418   1.04014    0.000
 4348.00    1.45042   1.04459    0.000
 4349.00    1.37794   1.04599    0.000
 4350.00    1.26694   1.04328    0.000
 4351.00    1.19861   1.03519    8.343
 4352.00    1.21377   1.02815    8.239
 4353.00    1.30650   1.02865   -1.000
 4354.00    1.42999   1.03177   -1.000
 4355.00    1.53373   1.03506   -1.000
 4356.00    1.59774   1.04384   -1.000
 4357.00    1.60000   1.05787   -1.000
 4358.00    1.49271   1.07120   -1.000
 4359.00    1.30516   1.08313    7.662
 4360.00    1.21407   1.09653    8.237
 4361.00    1.31831   1.11095    7.585
 4362.00    1.46926   1.12181   -1.000
 4363.00    1.49281   1.12655   -1.000
 4364.00    1.37381   1.12942    7.279
 4365.00    1.22792   1.12986    8.144
 4366.00    1.23898   1.12389    8.071
 4367.00    1.43395   1.11221    6.974
 4368.00    1.57472   1.09870   -1.000
 4369.00    1.48252   1.08581   -1.000
 4370.00    1.23487   1.06982    8.098
 4371.00    1.01450   1.05297    9.857
 4372.00    0.98519   1.03915   10.150
 4373.00    1.16540   1.02599    8.581
 4374.00    1.39664   1.01365   -1.000
 4375.00    1.55904   1.00164   -1.000
 4376.00    1.66050   0.99049   -1.000
 4377.00    1.67701   0.97982   -1.000
 4378.00    1.51095   0.96516   -1.000
 4379.00    1.19501   0.94570    8.368
 4380.00    0.93731   0.92269   10.669
 4381.00    0.87471   0.90060   11.432
 4382.00    0.98152   0.88007   10.188
 4383.00    1.16675   0.86027   -1.000
 4384.00    1.33272   0.84814   -1.000
 4385.00    1.43270   0.84735   -1.000
 4386.00    1.47682   0.85552   -1.000
 4387.00    1.47107   0.86741   -1.000
 4388.00    1.40615   0.88382   -1.000
 4389.00    1.29864   0.90541   -1.000
 4390.00    1.19658   0.92673    8.357
 4391.00    1.14922   0.94825    8.702
 4392.00    1.18834   0.96921    8.415
 4393.00    1.30342   0.98848   -1.000
 4394.00    1.44134   1.00622   -1.000
 4395.00    1.52805   1.01792   -1.000
 4396.00    1.49994   1.02720   -1.000
 4397.00    1.36783   1.03379    7.311
 4398.00    1.20795   1.03145    8.278
 4399.00    1.09707   1.02430    9.115
 4400.00    1.08423   1.01055    9.223
 4401.00    1.16584   0.99225    8.578
 4402.00    1.29898   0.97830    7.698
 4403.00    1.44270   0.96325   -1.000
 4404.00    1.56256   0.94674   -1.000
 4405.00    1.62181   0.93958   -1.000
 4406.00    1.60317   0.94383   -1.000
 4407.00    1.55189   0.95346   -1.000
 4408.00    1.52265   0.96594   -1.000
 4409.00    1.47346   0.98371   -1.000
 4410.00    1.34043   1.00510   -1.000
 4411.00    1.19276   1.02326    8.384
 4412.00    1.16153   1.03684    8.609
 4413.00    1.28455   1.04980    7.785
 4414.00    1.49378   1.05730   -1.000
 4415.00    1.64155   1.06056   -1.000
 4416.00    1.63012   1.06819   -1.000
 4417.00    1.57524   1.07402   -1.000
 4418.00    1.61613   1.07821   -1.000
 4419.00    1.65018   1.08356   -1.000
 4420.00    1.54277   1.08636   -1.000
 4421.00    1.41460   1.08865    7.069
 4422.00    1.43662   1.08704   -1.000
 4423.00    1.55920   1.08494   -1.000
 4424.00    1.61572   1.08567   -1.000
 4425.00    1.47856   1.08273   -1.000
 4426.00    1.16287   1.07972    8.599
 4427.00    0.89293   1.07613   11.199
 4428.00    0.85087   1.07351   11.753
 4429.00    0.94624   1.07257   10.568
 4430.00    1.01461   1.06534    9.856
 4431.00    1.01365   1.06126    9.865
 4432.00    0.97996   1.06138   10.204
 4433.00    0.97206   1.05897   10.287
 4434.00    1.01748   1.05957    9.828
 4435.00    1.07970   1.06138    9.262
 4436.00    1.10774   1.06712    9.027
 4437.00    1.07825   1.07767    9.274
 4438.00    1.01252   1.08578    9.876
 4439.00    0.97706   1.09456   10.235
 4440.00    1.01685   1.10355    9.834
 4441.00    1.11719   1.11040    8.951
 4442.00    1.24700   1.11773    8.019
 4443.00    1.38088   1.12606    7.242
 4444.00    1.46031   1.13446   -1.000
 4445.00    1.39370   1.14394    7.175
 4446.00    1.18650   1.15186    8.428
 4447.00    0.98143   1.15310   10.189
 4448.00    0.89248   1.15415   11.205
 4449.00    0.93135   1.15187   10.737
 4450.00    1.08089   1.13942    9.252
 4451.00    1.31588   1.12534    7.599
 4452.00    1.52659   1.10737   -1.000
 4453.00    1.54301   1.08520   -1.000
 4454.00    1.38368   1.06311    7.227
 4455.00    1.27805   1.04013    7.824
 4456.00    1.33250   1.02223   -1.000
 4457.00    1.45383   1.00978   -1.000
 4458.00    1.57554   1.00034   -1.000
 4459.00    1.70311   0.99568   -1.000
 4460.00    1.76706   0.99863   -1.000
 4461.00    1.63137   1.00515    0.000
 4462.00    1.29144   1.01384    0.000
 4463.00    0.90988   1.03008    0.000
 4464.00    0.71774   1.04607    0.000
 4465.00    0.88840   1.06061    0.000
 4466.00    1.27823   1.07655    0.000
 4467.00    1.53316   1.09183    0.000
 4468.00    1.57081   1.10921    0.000
 4469.00    1.56349   1.12458    0.000
 4470.00    1.56263   1.13977    0.000
 4471.00    1.48552   1.15718    0.000
 4472.00    1.31439   1.17313    0.000
 4473.00    1.11852   1.18893    0.000
 4474.00    0.99278   1.20169    0.000
 4475.00    0.99944   1.20907    0.000
 4476.00    1.08107   1.21424    0.000
 4477.00    1.12914   1.21650    0.000
 4478.00    1.14972   1.21558    0.000
 4479.00    1.21400   1.21118    0.000
 4480.00    1.31100   1.20499    0.000
 4481.00    1.39393   1.20155    0.000
 4482.00    1.50167   1.19968   -1.000
 4483.00    1.67013   1.20071   -1.000
 4484.00    1.76477   1.20254   -1.000
 4485.00    1.62700   1.20254   -1.000
 4486.00    1.32915   1.20286    7.524
 4487.00    1.06232   1.20097    9.413
 4488.00    0.92335   1.19603   10.830
 4489.00    0.92315   1.18866   10.832
 4490.00    1.03742   1.18056    9.639
 4491.00    1.20096   1.17405    8.327
 4492.00    1.30014   1.16940    7.691
 4493.00    1.28721   1.16637    7.769
 4494.00    1.30068   1.16395    7.688
 4495.00    1.47212   1.16766   -1.000
 4496.00    1.71079   1.17635   -1.000
 4497.00    1.86890   1.18909   -1.000
 4498.00    1.93098   1.20646   -1.000
 4499.00    1.93835   1.22403   -1.000
 4500.00    1.89992   1.24444   -1.000
 4501.00    1.82126   1.26289   -1.000
 4502.00    1.73504   1.28050   -1.000
 4503.00    1.66375   1.30023    6.011
 4504.00    1.59046   1.31387    6.287
 4505.00    1.50450   1.32317    6.647
 4506.00    1.43708   1.32816    6.959
 4507.00    1.43207   1.32800    6.983
 4508.00    1.51445   1.32673    6.603
 4509.00    1.63842   1.32115    6.103
 4510.00    1.67278   1.31292    5.978
 4511.00    1.54686   1.30425    6.465
 4512.00    1.33426   1.29262    7.495
 4513.00    1.14531   1.28229    8.731
 4514.00    1.05379   1.27398    9.490
 4515.00    1.09204   1.26691    9.157
 4516.00    1.25253   1.26414    7.984
 4517.00    1.50264   1.25914    6.655
 4518.00    1.78817   1.25320   -1.000
 4519.00    2.00900   1.25020   -1.000
 4520.00    2.03549   1.24301   -1.000
 4521.00    1.84937   1.23416   -1.000
 4522.00    1.57695   1.21902    6.341
 4523.00    1.31986   1.19743    7.577
 4524.00    1.09465   1.17804    9.135
 4525.00    0.91941   1.15536   10.877
 4526.00    0.84021   1.13162   11.902
 4527.00    0.88062   1.11192   11.356
 4528.00    1.01594   1.09394    9.843
 4529.00    1.15800   1.08343    8.636
 4530.00    1.18813   1.07895    8.417
 4531.00    1.08842   1.07784    9.188
 4532.00    0.96166   1.08664   10.399
 4533.00    0.93798   1.09686   10.661
 4534.00    1.09820   1.10935    9.106
 4535.00    1.34275   1.12422    7.447
 4536.00    1.45223   1.13921   -1.000
 4537.00    1.37750   1.15969    7.260
 4538.00    1.24422   1.17461    8.037
 4539.00    1.13058   1.18410    8.845
 4540.00    1.03439   1.19153    9.667
 4541.00    0.94988   1.19604   10.528
 4542.00    0.89078   1.20138   11.226
 4543.00    0.89513   1.20377   11.172
 4544.00    0.99720   1.20008   10.028
 4545.00    1.16422   1.19564    8.589
 4546.00    1.31829   1.19351    7.586
 4547.00    1.41262   1.19085    7.079
 4548.00    1.43932   1.18947    6.948
 4549.00    1.41222   1.18571    7.081
 4550.00    1.36642   1.18378    0.000
 4551.00    1.36311   1.18819    0.000
 4552.00    1.46532   1.19197    0.000
 4553.00    1.69342   1.19824    0.000
 4554.00    1.99498   1.20669    0.000
 4555.00    2.21378   1.21601    0.000
 4556.00    2.19901   1.22969    0.000
 4557.00    1.97462   1.24366    0.000
 4558.00    1.67099   1.25386    0.000
 4559.00    1.39061   1.26262    0.000
 4560.00    1.20613   1.26737    0.000
 4561.00    1.17960   1.27034    0.000
 4562.00    1.29381   1.27447    0.000
 4563.00    1.37755   1.27311    0.000
 4564.00    1.31744   1.27062    0.000
 4565.00    1.29804   1.26962    0.000
 4566.00    1.49948   1.26845    0.000
 4567.00    1.75074   1.27233    0.000
 4568.00    1.80788   1.27575    0.000
 4569.00    1.67445   1.27608    0.000
 4570.00    1.46735   1.27846    0.000
 4571.00    1.25469   1.27795    0.000
 4572.00    1.08480   1.27797    0.000
 4573.00    1.02088   1.28013    0.000
 4574.00    1.08452   1.27558    0.000
 4575.00    1.21217   1.26834    0.000
 4576.00    1.33413   1.26051    0.000
 4577.00    1.43701   1.25181    0.000
 4578.00    1.51503   1.24400    0.000
 4579.00    1.53386   1.23361    0.000
 4580.00    1.46997   1.22316    0.000
 4581.00    1.34150   1.21614    0.000
 4582.00    1.20921   1.21455    0.000
 4583.00    1.16070   1.21510    0.000
 4584.00    1.21336   1.21630    0.000
 4585.00    1.27337   1.21979    0.000
 4586.00    1.26616   1.22318    0.000
 4587.00    1.20924   1.22928    0.000
 4588.00    1.16483   1.23486    0.000
 4589.00    1.19888   1.23676    0.000
 4590.00    1.32012   1.23545    0.000
 4591.00    1.46225   1.23104    0.000
 4592.00    1.55382   1.22558    0.000
 4593.00    1.55549   1.22025    0.000
 4594.00    1.46496   1.21504    0.000
 4595.00    1.32081   1.20753    0.000
 4596.00    1.20955   1.20256    0.000
 4597.00    1.23069   1.20053    0.000
 4598.00    1.34713   1.19922    0.000
 4599.00    1.38729   1.20270    0.000
 4600.00    1.28727   1.20399    0.000
 4601.00    1.13914   1.20841    0.000
 4602.00    1.02335   1.21796    0.000
 4603.00    0.95389   1.22717    0.000
 4604.00    0.90590   1.24048    0.000
 4605.00    0.85076   1.25219    0.000
 4606.00    0.83152   1.26507    0.000
 4607.00    0.93557   1.28097    0.000
 4608.00    1.14704   1.29498    0.000
 4609.00    1.35927   1.30829    0.000
 4610.00    1.53045   1.31838    0.000
 4611.00    1.67861   1.32423    0.000
 4612.00    1.75682   1.33097    0.000
 4613.00    1.70074   1.33532    0.000
 4614.00    1.61754   1.33768    0.000
 4615.00    1.68985   1.34173    0.000
 4616.00    1.85963   1.34272    0.000
 4617.00    1.92763   1.34429    0.000
 4618.00    1.91317   1.34613    0.000
 4619.00    1.96459   1.34531    0.000
 4620.00    2.03074   1.34583    0.000
 4621.00    1.96203   1.34638    0.000
 4622.00    1.81767   1.34448    0.000
 4623.00    1.76120   1.34301    0.000
 4624.00    1.77979   1.34039    0.000
 4625.00    1.74958   1.33688    0.000
 4626.00    1.62527   1.33475    0.000
 4627.00    1.44798   1.33138    0.000
 4628.00    1.30536   1.32682    0.000
 4629.00    1.26899   1.32129    0.000
 4630.00    1.31569   1.31441    0.000
 4631.00    1.37153   1.30862    0.000
 4632.00    1.38812   1.29973    0.000
 4633.00    1.35759   1.28776    0.000
 4634.00    1.31614   1.27648    0.000
 4635.00    1.30591   1.26381    0.000
 4636.00    1.32955   1.25324    0.000
 4637.00    1.36349   1.24165    0.000
 4638.00    1.38027   1.22879    0.000
 4639.00    1.36533   1.21875    0.000
 4640.00    1.33083   1.20788    0.000
 4641.00    1.29940   1.19916    0.000
 4642.00    1.28494   1.19138    0.000
 4643.00    1.27762   1.18238    0.000
 4644.00    1.23802   1.17515    0.000
 4645.00    1.16140   1.16976    0.000
 4646.00    1.12453   1.16542    0.000
 4647.00    1.19159   1.16497    0.000
 4648.00    1.33442   1.16871    0.000
 4649.00    1.45254   1.17416    0.000
 4650.00    1.41380   1.18322    0.000
 4651.00    1.20656   1.19343    0.000
 4652.00    1.01740   1.20453    0.000
 4653.00    0.99922   1.21833    0.000
 4654.00    1.12192   1.22932    0.000
 4655.00    1.27972   1.24025    0.000
 4656.00    1.37668   1.24998    0.000
 4657.00    1.38019   1.25738    0.000
 4658.00    1.33861   1.26390    0.000
 4659.00    1.30695   1.26580    0.000
 4660.00    1.30314   1.26319    0.000
 4661.00    1.30906   1.25403    0.000
 4662.00    1.28038   1.23987    0.000
 4663.00    1.18697   1.22373    0.000
 4664.00    1.03788   1.20763    0.000
 4665.00    0.90097   1.19266    0.000
 4666.00    0.87961   1.17808    0.000
 4667.00    0.97572   1.16606    0.000
 4668.00    1.07499   1.16071    0.000
 4669.00    1.13810   1.16309    0.000
 4670.00    1.23715   1.16957    0.000
 4671.00    1.38424   1.17937    0.000
 4672.00    1.49727   1.18852    0.000
 4673.00    1.52438   1.19699    0.000
 4674.00    1.47951   1.20554    0.000
 4675.00    1.40309   1.21138    0.000
 4676.00    1.33493   1.21675    0.000
 4677.00    1.27534   1.21796    0.000
 4678.00    1.19770   1.21656    0.000
 4679.00    1.12141   1.21466    0.000
 4680.00    1.09490   1.21209    0.000
 4681.00    1.08878   1.21103    0.000
 4682.00    1.02449   1.20992    0.000
 4683.00    0.92607   1.21071    0.000
 4684.00    0.90144   1.21199    0.000
 4685.00    0.99746   1.21264    0.000
 4686.00    1.17283   1.21401    0.000
 4687.00    1.32220   1.21478    0.000
 4688.00    1.34588   1.21562    0.000
 4689.00    1.28217   1.21742    0.000
 4690.00    1.24355   1.21880    0.000
 4691.00    1.23375   1.21918    0.000
 4692.00    1.19218   1.21961    0.000
 4693.00    1.14722   1.21899    0.000
 4694.00    1.17910   1.21750    0.000
 4695.00    1.30186   1.21592    0.000
 4696.00    1.45234   1.21169    0.000
 4697.00    1.51215   1.20576    0.000
 4698.00    1.40734   1.19703    0.000
 4699.00    1.25010   1.18898    0.000
 4700.00    1.20908   1.18317    0.000
 4701.00    1.29038   1.17686    0.000
 4702.00    1.38806   1.17162    0.000
 4703.00    1.40203   1.16750    0.000
 4704.00    1.29491   1.16703    0.000
 4705.00    1.13881   1.16861    0.000
 4706.00    1.03376   1.17162    0.000
 4707.00    1.00336   1.17436    0.000
 4708.00    1.02232   1.17912    0.000
 4709.00    1.06294   1.18511    0.000
 4710.00    1.10109   1.19234    0.000
 4711.00    1.11878   1.20349    0.000
 4712.00    1.12490   1.21334    0.000
 4713.00    1.16819   1.22433    0.000
 4714.00    1.25743   1.23605    0.000
 4715.00    1.29927   1.24875    0.000
 4716.00    1.24496   1.26500    0.000
 4717.00    1.20814   1.27919    0.000
 4718.00    1.29197   1.29169    0.000
 4719.00    1.44666   1.30308    0.000
 4720.00    1.57030   1.31022    0.000
 4721.00    1.60030   1.31389    0.000
 4722.00    1.53523   1.31165    0.000
 4723.00    1.43833   1.30557    0.000
 4724.00    1.38106   1.29728    0.000
 4725.00    1.39900   1.28546    0.000
 4726.00    1.46751   1.27151    0.000
 4727.00    1.50400   1.25547    0.000
 4728.00    1.47273   1.24124    0.000
 4729.00    1.43055   1.23061    0.000
 4730.00    1.41329   1.22442    0.000
 4731.00    1.38512   1.22173    0.000
 4732.00    1.33239   1.22267    0.000
 4733.00    1.30448   1.22752    0.000
 4734.00    1.35108   1.23309    0.000
 4735.00    1.48426   1.24205    0.000
 4736.00    1.65839   1.25016    0.000
 4737.00    1.77634   1.25808    0.000
 4738.00    1.75756   1.26887    0.000
 4739.00    1.57968   1.27781    0.000
 4740.00    1.32041   1.28493    0.000
 4741.00    1.13575   1.29175    0.000
 4742.00    1.10981   1.29842    0.000
 4743.00    1.21248   1.30524    0.000
 4744.00    1.36631   1.31072    0.000
 4745.00    1.48796   1.31413    0.000
 4746.00    1.53872   1.31818    0.000
 4747.00    1.53163   1.31979    0.000
 4748.00    1.49692   1.31919    0.000
 4749.00    1.46342   1.31712    0.000
 4750.00    1.43868   1.31338    0.000
 4751.00    1.41110   1.30863    0.000
 4752.00    1.37305   1.30128    0.000
 4753.00    1.32667   1.29495    0.000
 4754.00    1.28099   1.28740    0.000
 4755.00    1.24625   1.28076    0.000
 4756.00    1.22249   1.27400    0.000
 4757.00    1.20271   1.26698    0.000
 4758.00    1.18684   1.26039    0.000
 4759.00    1.18501   1.25250    0.000
 4760.00    1.21676   1.24547    0.000
 4761.00    1.29223   1.23678    7.739
 4762.00    1.37616   1.22832    7.267
 4763.00    1.42031   1.22220    7.041
 4764.00    1.43740   1.21741    6.957
 4765.00    1.46893   1.21509    6.808
 4766.00    1.50317   1.21507    6.653
 4767.00    1.51102   1.22016    6.618
 4768.00    1.52831   1.22811    6.543
 4769.00    1.60035   1.23831   -1.000
 4770.00    1.67612   1.25102   -1.000
 4771.00    1.67397   1.26200   -1.000
 4772.00    1.60194   1.27378    6.242
 4773.00    1.52384   1.28515    6.562
 4774.00    1.48549   1.29591    6.732
 4775.00    1.48478   1.30448    6.735
 4776.00    1.45055   1.30797    6.894
 4777.00    1.31074   1.31064    7.629
 4778.00    1.07888   1.30970    9.269
 4779.00    0.84685   1.30506   -1.000
 4780.00    0.75530   1.29952   -1.000
 4781.00    0.87457   1.29185   -1.000
 4782.00    1.09174   1.28355    9.160
 4783.00    1.26153   1.27430    7.927
 4784.00    1.36609   1.26733    7.320
 4785.00    1.44258   1.26394    6.932
 4786.00    1.49832   1.26040    6.674
 4787.00    1.51509   1.26121    6.600
 4788.00    1.46640   1.26610    6.819
 4789.00    1.37735   1.27185    7.260
 4790.00    1.35844   1.28042    7.361
 4791.00    1.46737   1.29051    6.815
 4792.00    1.61265   1.30103    6.201
 4793.00    1.68754   1.31096    5.926
 4794.00    1.67061   1.31975    5.986
 4795.00    1.58200   1.32691    6.321
 4796.00    1.44924   1.33006    6.900
 4797.00    1.31977   1.33125    7.577
 4798.00    1.26169   1.33011    7.926
 4799.00    1.30853   1.32799    7.642
 4800.00    1.42758   1.32500    7.005
 4801.00    1.54084   1.32254    6.490
 4802.00    1.55467   1.32043    6.432
 4803.00    1.44594   1.31665    6.916
 4804.00    1.29289   1.31306    7.735
 4805.00    1.18872   1.30807    8.412
 4806.00    1.18714   1.30537    8.424
 4807.00    1.26444   1.30283    7.909
 4808.00    1.32518   1.30156    7.546
 4809.00    1.30510   1.30290    7.662
 4810.00    1.21040   1.30586    8.262
 4811.00    1.08097   1.30963    9.251
 4812.00    0.96722   1.31486   10.339
 4813.00    0.90529   1.32083   -1.000
 4814.00    0.90682   1.32752   -1.000
 4815.00    0.95854   1.33377   10.433
 4816.00    1.02838   1.33867    9.724
 4817.00    1.08649   1.34296    9.204
 4818.00    1.11794   1.34435    8.945
 4819.00    1.13856   1.34417    8.783
 4820.00    1.18548   1.34142    8.435
 4821.00    1.27307   1.33590    7.855
 4822.00    1.38732   1.33012    7.208
 4823.00    1.50899   1.32174    6.627
 4824.00    1.61600   1.31458    6.188
 4825.00    1.67189   1.30888    5.981
 4826.00    1.63722   1.30402    6.108
 4827.00    1.50580   1.29963    6.641
 4828.00    1.32119   1.29557    7.569
 4829.00    1.19100   1.29242    8.396
 4830.00    1.21538   1.29103    8.228
 4831.00    1.32782   1.28962    7.531
 4832.00    1.36650   1.28778    7.318
 4833.00    1.29255   1.28799    7.737
 4834.00    1.19046   1.28806    8.400
 4835.00    1.17555   1.28781    8.507
 4836.00    1.30534   1.28599    7.661
 4837.00    1.46013   1.28485    6.849
 4838.00    1.47479   1.28336    6.781
 4839.00    1.39321   1.28068    7.178
 4840.00    1.35382   1.27916    7.387
 4841.00    1.34175   1.27842    7.453
 4842.00    1.28308   1.27874    7.794
 4843.00    1.23977   1.27879    8.066
 4844.00    1.30330   1.27966    7.673
 4845.00    1.40984   1.28188    7.093
 4846.00    1.44707   1.28221    6.911
 4847.00    1.42637   1.28145    7.011
 4848.00    1.42980   1.27779    0.000
 4849.00    1.51366   1.27288    0.000
 4850.00    1.67299   1.26769    0.000
 4851.00    1.81980   1.25880    0.000
 4852.00    1.85808   1.24750    0.000
 4853.00    1.76993   1.23379    0.000
 4854.00    1.62258   1.21731    0.000
 4855.00    1.55332   1.19870    0.000
 4856.00    1.63345   1.18135    0.000
 4857.00    1.75249   1.16550    0.000
 4858.00    1.77552   1.15014    0.000
 4859.00    1.69088   1.13617    0.000
 4860.00    1.54814   1.12532    0.000
 4861.00    1.39211   1.11743    0.000
 4862.00    1.25202   1.11544    0.000
 4863.00    1.13988   1.11878    0.000
 4864.00    1.07509   1.12230    0.000
 4865.00    1.09587   1.12861    0.000
 4866.00    1.20270   1.13515    0.000
 4867.00    1.32789   1.14137    0.000
 4868.00    1.40897   1.14565    0.000
 4869.00    1.43547   1.15071    0.000
 4870.00    1.42049   1.15523    0.000
 4871.00    1.38091   1.15798    0.000
 4872.00    1.33904   1.16397    0.000
 4873.00    1.31729   1.17306    0.000
 4874.00    1.30048   1.18288    0.000
 4875.00    1.23480   1.19310    8.099
 4876.00    1.12968   1.20419    8.852
 4877.00    1.08162   1.21508    9.245
 4878.00    1.12681   1.22237    8.875
 4879.00    1.19071   1.22905    8.398
 4880.00    1.19492   1.23219    8.369
 4881.00    1.11451   1.22986    8.973
 4882.00    1.00259   1.22547    9.974
 4883.00    0.96791   1.21962   10.332
 4884.00    1.04833   1.21122    9.539
 4885.00    1.18132   1.20253    8.465
 4886.00    1.28759   1.19537    7.766
 4887.00    1.31673   1.19172    7.595
 4888.00    1.28928   1.19189    7.756
 4889.00    1.27966   1.19571    7.815
 4890.00    1.31374   1.20471    7.612
 4891.00    1.35297   1.21574    7.391
 4892.00    1.35247   1.23383    7.394
 4893.00    1.28877   1.25436    7.759
 4894.00    1.18391   1.27473    8.447
 4895.00    1.09756   1.29431    9.111
 4896.00    1.08731   1.30989    9.197
 4897.00    1.17861   1.32190    8.485
 4898.00    1.31994   1.33004    7.576
 4899.00    1.41782   1.33420    7.053
 4900.00    1.44547   1.33429    6.918
 4901.00    1.43534   1.33323    6.967
 4902.00    1.40415   1.33008    7.122
 4903.00    1.35463   1.32467    7.382
 4904.00    1.31438   1.31947    7.608
 4905.00    1.32107   1.31460    7.570
 4906.00    1.37756   1.30978    7.259
 4907.00    1.45485   1.30369    6.874
 4908.00    1.51463   1.29719    6.602
 4909.00    1.52546   1.29048    6.555
 4910.00    1.48248   1.28325    6.745
 4911.00    1.40028   1.27657    7.141
 4912.00    1.29595   1.26954    7.716
 4913.00    1.19107   1.26148    8.396
 4914.00    1.11781   1.25165    8.946
 4915.00    1.10101   1.24090    9.083
 4916.00    1.13213   1.22817    8.833
 4917.00    1.18412   1.21465    8.445
 4918.00    1.23665   1.20115    8.086
 4919.00    1.27863   1.19027    7.821
 4920.00    1.30700   1.18431    7.651
 4921.00    1.32137   1.18437    7.568
 4922.00    1.31859   1.19171    7.584
 4923.00    1.29968   1.20296    7.694
 4924.00    1.27772   1.21759    7.826
 4925.00    1.26983   1.23456    7.875
 4926.00    1.28682   1.25346    7.771
 4927.00    1.32058   1.27121    7.572
 4928.00    1.33543   1.28558    7.488
 4929.00    1.29552   1.29728    7.719
 4930.00    1.19372   1.30302    8.377
 4931.00    1.07519   1.30414    9.301
 4932.00    1.04376   1.30137    9.581
 4933.00    1.15464   1.29375    8.661
 4934.00    1.33715   1.28512    7.479
 4935.00    1.48628   1.27831    6.728
 4936.00    1.54029   1.27163    6.492
 4937.00    1.49697   1.26699    6.680
 4938.00    1.41484   1.26517    7.068
 4939.00    1.36531   1.26809    7.324
 4940.00    1.39555   1.27597    0.000
 4941.00    1.50176   1.28793    0.000
 4942.00    1.62049   1.30063    0.000
 4943.00    1.67344   1.31465    0.000
 4944.00    1.60750   1.32861    0.000
 4945.00    1.46327   1.34031    0.000
 4946.00    1.37855   1.34934    0.000
 4947.00    1.40736   1.35673    0.000
 4948.00    1.45845   1.35979    0.000
 4949.00    1.47094   1.35954    0.000
 4950.00    1.47955   1.35500    0.000
 4951.00    1.50108   1.34718    0.000
 4952.00    1.50114   1.33567    0.000
 4953.00    1.48665   1.32118    0.000
 4954.00    1.51971   1.30671    0.000
 4955.00    1.60745   1.29148    0.000
 4956.00    1.68406   1.27869    0.000
 4957.00    1.71723   1.26597    0.000
 4958.00    1.73095   1.25821    0.000
 4959.00    1.73754   1.25666    0.000
 4960.00    1.71973   1.25640    0.000
 4961.00    1.65528   1.25811    0.000
 4962.00    1.53531   1.25932    0.000
 4963.00    1.39271   1.26184    0.000
 4964.00    1.29701   1.26347    0.000
 4965.00    1.31314   1.26421    0.000
 4966.00    1.46700   1.26509    0.000
 4967.00    1.68880   1.26748    0.000
 4968.00    1.84982   1.27007    0.000
 4969.00    1.89499   1.27381    0.000
 4970.00    1.84836   1.27741    0.000
 4971.00    1.74237   1.28047    0.000
 4972.00    1.60934   1.28326    0.000
 4973.00    1.50128   1.28264    0.000
 4974.00    1.46485   1.27987    0.000
 4975.00    1.48036   1.27343    0.000
 4976.00    1.47995   1.26313    0.000
 4977.00    1.41045   1.25076    0.000
 4978.00    1.26306   1.23507    0.000
 4979.00    1.10184   1.21951    0.000
 4980.00    1.01116   1.20464    0.000
 4981.00    0.99693   1.19179    0.000
 4982.00    1.02048   1.18101    0.000
 4983.00    1.08081   1.17487    0.000
 4984.00    1.18495   1.17407    0.000
 4985.00    1.28392   1.17715    0.000
 4986.00    1.31810   1.18373    0.000
 4987.00    1.29567   1.19313    0.000
 4988.00    1.27322   1.20311    0.000
 4989.00    1.31112   1.21229    0.000
 4990.00    1.42415   1.22096    0.000
 4991.00    1.53274   1.22670    0.000
 4992.00    1.55638   1.23172    0.000
 4993.00    1.52848   1.23389    0.000
 4994.00    1.53706   1.23232    0.000
 4995.00    1.64004   1.22947    0.000
 4996.00    1.83027   1.22341    0.000
 4997.00    2.01568   1.21464    0.000
 4998.00    2.10233   1.20473    0.000
 4999.00    2.07727   1.19244    0.000
 5000.00    1.98532   1.18002    0.000
 5001.00    1.89407   1.16817    0.000
 5002.00    1.83955   1.15723    0.000
 5003.00    1.78772   1.14767    0.000
 5004.00    1.69620   1.13988    0.000
 5005.00    1.56604   1.13303    0.000
 5006.00    1.42309   1.12777    0.000
 5007.00    1.29878   1.12438    0.000
 5008.00    1.21859   1.12262    0.000
 5009.00    1.19024   1.12038    0.000
 5010.00    1.17471   1.11721    0.000
 5011.00    1.08551   1.11439    0.000
 5012.00    0.91043   1.10989    0.000
 5013.00    0.76620   1.10679    0.000
 5014.00    0.74746   1.10406    0.000
 5015.00    0.84491   1.10354    0.000
 5016.00    1.01977   1.10502    0.000
 5017.00    1.24273   1.10747    0.000
 5018.00    1.45799   1.11115    0.000
 5019.00    1.57999   1.11695    0.000
 5020.00    1.57701   1.12346    0.000
 5021.00    1.49905   1.13100    0.000
 5022.00    1.40810   1.13869    0.000
 5023.00    1.34499   1.14747    0.000
 5024.00    1.33401   1.15778    0.000
 5025.00    1.37990   1.16707    0.000
 5026.00    1.44663   1.17763    0.000
 5027.00    1.47376   1.18661    0.000
 5028.00    1.47068   1.19542    0.000
 5029.00    1.51006   1.20431    6.622
 5030.00    1.57351   1.21025    6.355
 5031.00    1.55431   1.21404    6.434
 5032.00    1.45578   1.21436    6.869
 5033.00    1.39342   1.21155    7.177
 5034.00    1.38729   1.20470    7.208
 5035.00    1.34694   1.19487    7.424
 5036.00    1.22716   1.18246    8.149
 5037.00    1.06505   1.17176    9.389
 5038.00    0.94789   1.16186   10.550
 5039.00    0.95992   1.15377   10.418
 5040.00    1.07304   1.14988    9.319
 5041.00    1.17661   1.14873    8.499
 5042.00    1.21919   1.15358    8.202
 5043.00    1.21816   1.16181    8.209
 5044.00    1.20001   1.17102    8.333
 5045.00    1.18002   1.18102    8.474
 5046.00    1.15058   1.18985    8.691
 5047.00    1.10665   1.19714    9.036
 5048.00    1.09941   1.20212    9.096
 5049.00    1.19302   1.20669    8.382
 5050.00    1.36450   1.21134    7.329
 5051.00    1.52465   1.21707    6.559
 5052.00    1.59063   1.22329   -1.000
 5053.00    1.52893   1.23165    6.541
 5054.00    1.40166   1.24056    7.134
 5055.00    1.31062   1.25023    7.630
 5056.00    1.29824   1.25880    7.703
 5057.00    1.34567   1.26612    7.431
 5058.00    1.39493   1.27143    7.169
 5059.00    1.39304   1.27391    7.179
 5060.00    1.34640   1.27300    7.427
 5061.00    1.29700   1.26979    7.710
 5062.00    1.28084   1.26307    7.807
 5063.00    1.31159   1.25454    7.624
 5064.00    1.36839   1.24386    7.308
 5065.00    1.41522   1.23280    7.066
 5066.00    1.42550   1.22391    7.015
 5067.00    1.39063   1.21547    7.191
 5068.00    1.32539   1.20837    7.545
 5069.00    1.25581   1.20277    7.963
 5070.00    1.20572   1.19866    8.294
 5071.00    1.19163   1.19478    8.392
 5072.00    1.21889   1.18996    8.204
 5073.00    1.28068   1.18552    7.808
 5074.00    1.35877   1.18051    7.360
 5075.00    1.43693   1.17381    6.959
 5076.00    1.51090   1.16682    6.619
 5077.00    1.57680   1.15942    6.342
 5078.00    1.62197   1.15312   -1.000
 5079.00    1.62909   1.14618   -1.000
 5080.00    1.58170   1.14245   -1.000
 5081.00    1.47780   1.14201   -1.000
 5082.00    1.33927   1.14494    7.467
 5083.00    1.21046   1.15062    8.261
 5084.00    1.14995   1.15887    8.696
 5085.00    1.18756   1.16976    8.421
 5086.00    1.30161   1.18100    7.683
 5087.00    1.44042   1.19284    6.942
 5088.00    1.54124   1.20332    6.488
 5089.00    1.56096   1.21291    6.406
 5090.00    1.49359   1.21974    6.695
 5091.00    1.37585   1.22404    7.268
 5092.00    1.27466   1.22542    7.845
 5093.00    1.21778   1.22420    8.212
 5094.00    1.17627   1.22000    8.501
 5095.00    1.13439   1.21355    8.815
 5096.00    1.11340   1.20592    8.982
 5097.00    1.13675   1.19759    8.797
 5098.00    1.21058   1.18986    8.260
 5099.00    1.30857   1.18234    7.642
 5100.00    1.37959   1.17746    7.249
 5101.00    1.39590   1.17351    7.164
 5102.00    1.37060   1.17073    7.296
 5103.00    1.35447   1.16800    7.383
 5104.00    1.40568   1.16599    7.114
 5105.00    1.50091   1.16440    6.663
 5106.00    1.55134   1.16375    6.446
 5107.00    1.53504   1.16389    6.514
 5108.00    1.50011   1.16524    6.666
 5109.00    1.45909   1.16911    6.854
 5110.00    1.39222   1.17358    7.183
 5111.00    1.33482   1.18074    7.492
 5112.00    1.34832   1.18879    7.417
 5113.00    1.39353   1.19678    7.176
 5114.00    1.36822   1.20445    7.309
 5115.00    1.26555   1.21044    7.902
 5116.00    1.15976   1.21361    8.622
 5117.00    1.09429   1.21424    9.138
 5118.00    1.06403   1.21105    9.398
 5119.00    1.03179   1.20431    9.692
 5120.00    0.95706   1.19475   10.449
 5121.00    0.84309   1.18260   -1.000
 5122.00    0.73211   1.17021   -1.000
 5123.00    0.67950   1.15722   -1.000
 5124.00    0.73093   1.14609   -1.000
 5125.00    0.89196   1.13755   11.211
 5126.00    1.12186   1.13201    8.914
 5127.00    1.33448   1.12940    7.494
 5128.00    1.45659   1.12972   -1.000
 5129.00    1.51007   1.13254   -1.000
 5130.00    1.55605   1.13688   -1.000
 5131.00    1.60205   1.14275   -1.000
 5132.00    1.62006   1.14796   -1.000
 5133.00    1.58835   1.15263   -1.000
 5134.00    1.51400   1.15531    6.605
 5135.00    1.44936   1.15682    6.900
 5136.00    1.43116   1.15601    6.987
 5137.00    1.41422   1.15269    7.071
 5138.00    1.35086   1.14908    7.403
 5139.00    1.27871   1.14322    7.820
 5140.00    1.24612   1.13856    8.025
 5141.00    1.23215   1.13366    8.116
 5142.00    1.20395   1.12840    8.306
 5143.00    1.17602   1.12390    8.503
 5144.00    1.17685   1.12090    8.497
 5145.00    1.21331   1.11792    8.242
 5146.00    1.26532   1.11598    7.903
 5147.00    1.28911   1.11518    7.757
 5148.00    1.26381   1.11518    7.913
 5149.00    1.22203   1.11741    8.183
 5150.00    1.19841   1.12013    8.344
 5151.00    1.19243   1.12473    8.386
 5152.00    1.19225   1.13011    8.388
 5153.00    1.19352   1.13696    8.379
 5154.00    1.20045   1.14372    8.330
 5155.00    1.22396   1.15059    8.170
 5156.00    1.27013   1.15559    7.873
 5157.00    1.33316   1.15786    7.501
 5158.00    1.39658   1.15603    7.160
 5159.00    1.43553   1.14870    6.966
 5160.00    1.42361   1.13591    7.024
 5161.00    1.34144   1.11746    7.455
 5162.00    1.20023   1.09306    8.332
 5163.00    1.04623   1.06480    9.558
 5164.00    0.92427   1.03403   10.819
 5165.00    0.85863   1.00173   11.646
 5166.00    0.84880   0.97130   11.781
 5167.00    0.87283   0.94340   11.457
 5168.00    0.90834   0.92199   11.009
 5169.00    0.94189   0.90696   10.617
 5170.00    0.96911   0.89973   10.319
 5171.00    0.99282   0.89821   10.072
 5172.00    1.01593   0.90225    9.843
 5173.00    1.03678   0.91156    9.645
 5174.00    1.04296   0.92501    9.588
 5175.00    1.02195   0.94003    9.785
 5176.00    1.00113   0.95380    9.989
 5177.00    1.03397   0.96533    9.671
 5178.00    1.11953   0.97372    8.932
 5179.00    1.20281   0.97861    8.314
 5180.00    1.24630   0.98113    8.024
 5181.00    1.24484   0.98220    8.033
 5182.00    1.20845   0.98329    8.275
 5183.00    1.15850   0.98586    8.632
 5184.00    1.12993   0.99147    8.850
 5185.00    1.14922   1.00188    8.702
 5186.00    1.18358   1.01456    8.449
 5187.00    1.16640   1.02958    8.573
 5188.00    1.07872   1.04447    9.270
 5189.00    0.95951   1.05901   10.422
 5190.00    0.88687   1.07287    0.000
 5191.00    0.92425   1.08422    0.000
 5192.00    1.02806   1.09417    0.000
 5193.00    1.09783   1.10335    0.000
 5194.00    1.09818   1.11199    0.000
 5195.00    1.05591   1.11924    0.000
 5196.00    1.01539   1.12573    0.000
 5197.00    1.01563   1.13073    0.000
 5198.00    1.06635   1.13307    0.000
 5199.00    1.15040   1.13314    0.000
 5200.00    1.23412   1.12945    0.000
 5201.00    1.28823   1.12301    0.000
 5202.00    1.31427   1.11332    0.000
 5203.00    1.33042   1.10272    0.000
 5204.00    1.34873   1.09101    0.000
 5205.00    1.38094   1.08096    0.000
 5206.00    1.44694   1.07338    0.000
 5207.00    1.53794   1.07071    0.000
 5208.00    1.57893   1.07153    0.000
 5209.00    1.50775   1.07786    0.000
 5210.00    1.36212   1.08835    0.000
 5211.00    1.22334   1.10172    8.174
 5212.00    1.14751   1.11783    8.715
 5213.00    1.15562   1.13350    8.653
 5214.00    1.23142   1.14919    8.121
 5215.00    1.33377   1.16208    7.498
 5216.00    1.41150   1.17311    7.085
 5217.00    1.43266   1.18105    6.980
 5218.00    1.40750   1.18589    7.105
 5219.00    1.37693   1.18761    7.263
 5220.00    1.39553   1.18538    7.166
 5221.00    1.48125   1.18081    6.751
 5222.00    1.58436   1.17344    6.312
 5223.00    1.63448   1.16517   -1.000
 5224.00    1.58082   1.15664   -1.000
 5225.00    1.42613   1.14947    7.012
 5226.00    1.24084   1.14480    8.059
 5227.00    1.11765   1.14314    8.947
 5228.00    1.13109   1.14604    8.841
 5229.00    1.27412   1.15223    7.849
 5230.00    1.44206   1.16113    6.935
 5231.00    1.54787   1.17239    6.461
 5232.00    1.58081   1.18474    6.326
 5233.00    1.57054   1.19735    6.367
 5234.00    1.55681   1.21115    6.423
 5235.00    1.54178   1.22394    6.486
 5236.00    1.48404   1.23678    6.738
 5237.00    1.37465   1.24800    7.275
 5238.00    1.25927   1.25723    7.941
 5239.00    1.18094   1.26421    8.468
 5240.00    1.15488   1.26816    8.659
 5241.00    1.17031   1.26967    8.545
 5242.00    1.19826   1.26795    8.345
 5243.00    1.21570   1.26369    8.226
 5244.00    1.21416   1.25726    8.236
 5245.00    1.19705   1.24916    8.354
 5246.00    1.17275   1.23994    8.527
 5247.00    1.13644   1.23036    8.799
 5248.00    1.07748   1.22226    9.281
 5249.00    1.01976   1.21576    9.806
 5250.00    1.01402   1.21129    9.862
 5251.00    1.07999   1.20927    9.259
 5252.00    1.19954   1.20966    8.337
 5253.00    1.34458   1.21103    7.437
 5254.00    1.48467   1.21350    6.736
 5255.00    1.58671   1.21434    6.302
 5256.00    1.62287   1.21417    6.162
 5257.00    1.58925   1.21064    6.292
 5258.00    1.50368   1.20305    6.650
 5259.00    1.39105   1.19125    7.189
 5260.00    1.27742   1.17426    7.828
 5261.00    1.18451   1.15410    8.442
 5262.00    1.12551   1.13066    8.885
 5263.00    1.09919   1.10717    9.098
 5264.00    1.09384   1.08408    9.142
 5265.00    1.09678   1.06462    9.118
 5266.00    1.10088   1.04887    9.084
 5267.00    1.11179   1.03976    8.995
 5268.00    1.13558   1.03642    8.806
 5269.00    1.15757   1.03902    8.639
 5270.00    1.15566   1.04792    8.653
 5271.00    1.12564   1.06241    8.884
 5272.00    1.08219   1.08131    9.241
 5273.00    1.05352   1.10277    9.492
 5274.00    1.05905   1.12573    9.442
 5275.00    1.08271   1.14800    9.236
 5276.00    1.10247   1.16908    9.071
 5277.00    1.13058   1.18886    8.845
 5278.00    1.19589   1.20562    8.362
 5279.00    1.31504   1.22070    7.604
 5280.00    1.46672   1.23296    6.818
 5281.00    1.57324   1.24423    6.356
 5282.00    1.57545   1.25446    6.347
 5283.00    1.50797   1.26492    6.631
 5284.00    1.43900   1.27528    6.949
 5285.00    1.40318   1.28635    7.127
 5286.00    1.39894   1.29683    7.148
 5287.00    1.39553   1.30627    7.166
 5288.00    1.37130   1.31349    7.292
 5289.00    1.34184   1.31786    7.452
 5290.00    1.31946   1.31893    7.579
 5291.00    1.28414   1.31648    7.787
 5292.00    1.23205   1.31062    8.117
 5293.00    1.20430   1.30206    8.304
 5294.00    1.20946   1.29159    8.268
 5295.00    1.18423   1.28101    8.444
 5296.00    1.11933   1.27088    8.934
 5297.00    1.11987   1.26332    8.930
 5298.00    1.22811   1.25864    8.143
 5299.00    1.33464   1.25862    7.493
 5300.00    1.34266   1.26263    7.448
 5301.00    1.26206   1.27044    7.924
 5302.00    1.16242   1.28153    8.603
 5303.00    1.12783   1.29435    8.867
 5304.00    1.17508   1.30853    8.510
 5305.00    1.23605   1.32224    8.090
 5306.00    1.27921   1.33508    7.817
 5307.00    1.34653   1.34544    7.426
 5308.00    1.44181   1.35375    6.936
 5309.00    1.49789   1.35915    6.676
 5310.00    1.46550   1.36211    6.824
 5311.00    1.35229   1.36229    7.395
 5312.00    1.21830   1.36026    8.208
 5313.00    1.14890   1.35577    8.704
 5314.00    1.16418   1.34979    8.590
 5315.00    1.21025   1.34185    8.263
 5316.00    1.25078   1.33275    7.995
 5317.00    1.28634   1.32184    7.774
 5318.00    1.30673   1.30995    7.653
 5319.00    1.28683   1.29617    7.771
 5320.00    1.22470   1.28140    8.165
 5321.00    1.14773   1.26535    8.713
 5322.00    1.09454   1.24848    9.136
 5323.00    1.09355   1.23198    9.145
 5324.00    1.12154   1.21568    8.916
 5325.00    1.12617   1.20235    8.880
 5326.00    1.11107   1.19119    9.000
 5327.00    1.12545   1.18476    8.885
 5328.00    1.18623   1.18195    8.430
 5329.00    1.27375   1.18459    7.851
 5330.00    1.36551   1.19117    7.323
 5331.00    1.43859   1.20151    6.951
 5332.00    1.45880   1.21424    6.855
 5333.00    1.40565   1.22691    7.114
 5334.00    1.32373   1.23947    7.554
 5335.00    1.28620   1.24960    7.775
 5336.00    1.30951   1.25803    7.636
 5337.00    1.36457   1.26327    7.328
 5338.00    1.42489   1.26652    7.018
 5339.00    1.47928   1.26741    6.760
 5340.00    1.53779   1.26741    6.503
 5341.00    1.61343   1.26678    6.198
 5342.00    1.69338   1.26679   -1.000
 5343.00    1.74619   1.26737   -1.000
 5344.00    1.74013   1.26957   -1.000
 5345.00    1.66951   1.27290    5.990
 5346.00    1.58379   1.27770    6.314
 5347.00    1.53826   1.28443    6.501
 5348.00    1.52897   1.29261    6.540
 5349.00    1.52494   1.30269    6.558
 5350.00    1.51656   1.31410    6.594
 5351.00    1.51924   1.32646    6.582
 5352.00    1.56729   1.33925    6.380
 5353.00    1.66886   1.35175    5.992
 5354.00    1.76477   1.36276    5.666
 5355.00    1.79356   1.37202    5.576
 5356.00    1.75746   1.37809    5.690
 5357.00    1.69280   1.38156    5.907
 5358.00    1.63415   1.38088    6.119
 5359.00    1.59327   1.37714    6.276
 5360.00    1.54682   1.36976    6.465
 5361.00    1.46881   1.35963    6.808
 5362.00    1.35778   1.34719    7.365
 5363.00    1.23193   1.33303    8.117
 5364.00    1.12213   1.31837    8.912
 5365.00    1.06101   1.30347    9.425
 5366.00    1.07379   1.29004    9.313
 5367.00    1.16875   1.27800    8.556
 5368.00    1.32939   1.26888    7.522
 5369.00    1.50352   1.26304    6.651
 5370.00    1.61028   1.26038    6.210
 5371.00    1.62159   1.26200    6.167
 5372.00    1.59581   1.26615    6.266
 5373.00    1.58565   1.27420    6.307
 5374.00    1.58843   1.28326    6.296
 5375.00    1.56982   1.29430    6.370
 5376.00    1.48969   1.30411    6.713
 5377.00    1.36006   1.31330    7.353
 5378.00    1.25896   1.32042   -2.000
 5379.00    1.26126   1.32553   -2.000
 5380.00    1.39485   1.32845   -2.000
 5381.00    1.59797   1.32916   -2.000
 5382.00    1.73516   1.32775   -2.000
 5383.00    1.73596   1.32444   -2.000
 5384.00    1.63067   1.31953   -2.000
 5385.00    1.46487   1.31327   -2.000
 5386.00    1.27057   1.30548   -2.000
 5387.00    1.08483   1.29703   -2.000
 5388.00    0.94767   1.28706   -2.000
 5389.00    0.87127   1.27690   -2.000
 5390.00    0.83967   1.26592   -2.000
 5391.00    0.84096   1.25546   -2.000
 5392.00    0.87502   1.24498   -2.000
 5393.00    0.94491   1.23570   10.583
 5394.00    1.04337   1.22728    9.584
 5395.00    1.12440   1.22002    8.894
 5396.00    1.12797   1.21409    8.866
 5397.00    1.06251   1.20873    9.412
 5398.00    0.99859   1.20462   10.014
 5399.00    1.00038   1.20017    9.996
 5400.00    1.09325   1.19668    9.147
 5401.00    1.23202   1.19291    8.117
 5402.00    1.33650   1.18919    7.482
 5403.00    1.38156   1.18569    7.238
 5404.00    1.39657   1.18312    7.160
 5405.00    1.42390   1.18212    7.023
 5406.00    1.47864   1.18269    6.763
 5407.00    1.49308   1.18638    6.698
 5408.00    1.38347   1.19248    7.228
 5409.00    1.18312   1.20214    8.452
 5410.00    1.00817   1.21356    9.919
 5411.00    0.95911   1.22711   10.426
 5412.00    1.06622   1.24105    9.379
 5413.00    1.23586   1.25582    8.092
 5414.00    1.33511   1.26951    7.490
 5415.00    1.32571   1.28186    7.543
 5416.00    1.25066   1.29181    7.996
 5417.00    1.18545   1.29966    8.436
 5418.00    1.18313   1.30483    8.452
 5419.00    1.21578   1.30793    8.225
 5420.00    1.22481   1.30828    8.165
 5421.00    1.19057   1.30711    8.399
 5422.00    1.12998   1.30377    8.850
 5423.00    1.08234   1.29960    9.239
 5424.00    1.08332   1.29390    9.231
 5425.00    1.13921   1.28768    8.778
 5426.00    1.23221   1.28019    8.116
 5427.00    1.33027   1.27299    7.517
 5428.00    1.40452   1.26547    7.120
 5429.00    1.44515   1.25886    6.920
 5430.00    1.46317   1.25299    6.834
 5431.00    1.48684   1.24903    6.726
 5432.00    1.52759   1.24726    6.546
 5433.00    1.55580   1.24861    6.428
 5434.00    1.53482   1.25251    6.515
 5435.00    1.45034   1.25876    6.895
 5436.00    1.31791   1.26738    7.588
 5437.00    1.18389   1.27650    8.447
 5438.00    1.10406   1.28653    9.057
 5439.00    1.12351   1.29471    8.901
 5440.00    1.24316   1.30192    8.044
 5441.00    1.40645   1.30556    7.110
 5442.00    1.54710   1.30722    6.464
 5443.00    1.62239   1.30509    6.164
 5444.00    1.62996   1.30158    6.135
 5445.00    1.60928   1.29539    6.214
 5446.00    1.60131   1.28934    6.245
 5447.00    1.62284   1.28197    6.162
 5448.00    1.64999   1.27609    6.061
 5449.00    1.62419   1.26982    6.157
 5450.00    1.51710   1.26564    6.592
 5451.00    1.35516   1.26140    7.379
 5452.00    1.18925   1.25890    8.409
 5453.00    1.07426   1.25661    9.309
 5454.00    1.04480   1.25540    9.571
 5455.00    1.10436   1.25474    9.055
 5456.00    1.22366   1.25474    8.172
 5457.00    1.35262   1.25549    7.393
 5458.00    1.46364   1.25650    6.832
 5459.00    1.55623   1.25808    6.426
 5460.00    1.61855   1.25959    6.178
 5461.00    1.62716   1.26129    6.146
 5462.00    1.58867   1.26269    6.295
 5463.00    1.53653   1.26359    6.508
 5464.00    1.48158   1.26417    6.750
 5465.00    1.41321   1.26376    7.076
 5466.00    1.34429   1.26302    7.439
 5467.00    1.30751   1.26078    7.648
 5468.00    1.31234   1.25813    7.620
 5469.00    1.33888   1.25376    7.469
 5470.00    1.35224   1.24903    7.395
 5471.00    1.31554   1.24273    7.601
 5472.00    1.21097   1.23682    8.258
 5473.00    1.05063   1.22995    9.518
 5474.00    0.88831   1.22456   -1.000
 5475.00    0.79272   1.21911   -1.000
 5476.00    0.78926   1.21616   -1.000
 5477.00    0.85975   1.21374   -1.000
 5478.00    0.96536   1.21434   10.359
 5479.00    1.06524   1.21556    9.388
 5480.00    1.14146   1.21949    8.761
 5481.00    1.19695   1.22369    8.355
 5482.00    1.24389   1.22962    8.039
 5483.00    1.28864   1.23530    7.760
 5484.00    1.31284   1.24154    7.617
 5485.00    1.30153   1.24720    7.683
 5486.00    1.28581   1.25239    7.777
 5487.00    1.29572   1.25699    7.718
 5488.00    1.29080   1.26058    7.747
 5489.00    1.23130   1.26380   -2.000
 5490.00    1.17764   1.26595   -2.000
 5491.00    1.21444   1.26792   -2.000
 5492.00    1.34180   1.26899   -2.000
 5493.00    1.47057   1.26986   -2.000
 5494.00    1.44930   1.27000   -2.000
 5495.00    1.27723   1.26982   -2.000
 5496.00    1.28682   1.26900   -2.000
 5497.00    1.63813   1.26774   -2.000
 5498.00    1.85787   1.26579   -2.000
 5499.00    1.61649   1.26347   -2.000
 5500.00    1.41569   1.26042   -2.000
 5501.00    1.62428   1.25729   -2.000
 5502.00    1.67351   1.25344   -2.000
 5503.00    1.14104   1.24995   -2.000
 5504.00    0.60711   1.24586   -2.000
 5505.00    0.64622   1.24256   -2.000
 5506.00    1.04530   1.23882   -2.000
 5507.00    1.38907   1.23619   -2.000
 5508.00    1.52825   1.23336   -2.000
 5509.00    1.49227   1.23195   -2.000
 5510.00    1.39155   1.23077   -2.000
 5511.00    1.32071   1.23131   -2.000
 5512.00    1.30336   1.23260    7.672
 5513.00    1.32791   1.23571    7.531
 5514.00    1.37142   1.23989    7.292
 5515.00    1.39606   1.24548    7.163
 5516.00    1.35779   1.25185    7.365
 5517.00    1.26712   1.25857    7.892
 5518.00    1.19838   1.26519    8.345
 5519.00    1.16793   1.27089    8.562
 5520.00    1.10312   1.27548    9.065
 5521.00    0.99526   1.27829   10.048
 5522.00    0.94221   1.27954   -1.000
 5523.00    1.00322   1.27894    9.968
 5524.00    1.14487   1.27718    8.735
 5525.00    1.29856   1.27431    7.701
 5526.00    1.39830   1.27132    7.152
 5527.00    1.42654   1.26813    7.010
 5528.00    1.41663   1.26589    7.059
 5529.00    1.39593   1.26406    7.164
 5530.00    1.36952   1.26382    7.302
 5531.00    1.33908   1.26404    7.468
 5532.00    1.31207   1.26587    7.622
 5533.00    1.30817   1.26792    7.644
 5534.00    1.34911   1.27121    7.412
 5535.00    1.42248   1.27448    7.030
 5536.00    1.48097   1.27846    6.752
 5537.00    1.47173   1.28232    6.795
 5538.00    1.36647   1.28645    7.318
 5539.00    1.21523   1.29046    8.229
 5540.00    1.12031   1.29441    8.926
 5541.00    1.13652   1.29826    8.799
 5542.00    1.23951   1.30197    8.068
 5543.00    1.31553   1.30547    7.601
 5544.00    1.24653   1.30895    8.022
 5545.00    1.09419   1.31201    9.139
 5546.00    1.02052   1.31502    9.799
 5547.00    1.04578   1.31731    9.562
 5548.00    1.08265   1.31938    9.237
 5549.00    1.09899   1.32039    9.099
 5550.00    1.11805   1.32089    8.944
 5551.00    1.16109   1.32022    8.613
 5552.00    1.23799   1.31889    8.078
 5553.00    1.34895   1.31649    7.413
 5554.00    1.47539   1.31341    6.778
 5555.00    1.56657   1.30972    6.383
 5556.00    1.56660   1.30542    6.383
 5557.00    1.45845   1.30087    6.857
 5558.00    1.27488   1.29589    7.844
 5559.00    1.10058   1.29084    9.086
 5560.00    1.01575   1.28566    9.845
 5561.00    1.02348   1.28051    9.771
 5562.00    1.07851   1.27548    9.272
 5563.00    1.13603   1.27073    8.803
 5564.00    1.17032   1.26642    8.545
 5565.00    1.18853   1.26270    8.414
 5566.00    1.21631   1.25971    8.222
 5567.00    1.27803   1.25767    7.825
 5568.00    1.36884   1.25641    7.305
 5569.00    1.43420   1.25623    6.973
 5570.00    1.43429   1.25691    6.972
 5571.00    1.40325   1.25834    7.126
 5572.00    1.39774   1.26050    7.154
 5573.00    1.44230   1.26291    6.933
 5574.00    1.50537   1.26546    6.643
 5575.00    1.49402   1.26750    6.693
 5576.00    1.35004   1.26915    7.407
 5577.00    1.12078   1.26931    8.922
 5578.00    0.90051   1.26844   -1.000
 5579.00    0.77558   1.26553   -1.000
 5580.00    0.78070   1.26106   -1.000
 5581.00    0.87647   1.25458   -1.000
 5582.00    0.99479   1.24677   10.052
 5583.00    1.07529   1.23754    9.300
 5584.00    1.09475   1.22793    9.134
 5585.00    1.08071   1.21822    9.253
 5586.00    1.08925   1.20951    9.181
 5587.00    1.17853   1.20221    8.485
 5588.00    1.33975   1.19682    7.464
 5589.00    1.48266   1.19378    6.745
 5590.00    1.55452   1.19262    6.433
 5591.00    1.58646   1.19378   -1.000
 5592.00    1.61275   1.19617   -1.000
 5593.00    1.63497   1.20001   -1.000
 5594.00    1.64557   1.20430    6.077
 5595.00    1.64083   1.20880    6.094
 5596.00    1.62645   1.21295    6.148
 5597.00    1.61404   1.21705    6.196
 5598.00    1.59907   1.22135    6.254
 5599.00    1.56261   1.22545    6.400
 5600.00    1.51074   1.23059    6.619
 5601.00    1.47555   1.23603    6.777
 5602.00    1.46693   1.24307    6.817
 5603.00    1.46839   1.25050    6.810
 5604.00    1.47922   1.25869    6.760
 5605.00    1.51105   1.26672    6.618
 5606.00    1.53511   1.27402    6.514
 5607.00    1.49779   1.28024    6.676
 5608.00    1.41083   1.28425    7.088
 5609.00    1.34177   1.28640    7.453
 5610.00    1.31856   1.28569    7.584
 5611.00    1.31846   1.28300    7.585
 5612.00    1.30752   1.27777    7.648
 5613.00    1.26363   1.27121    7.914
 5614.00    1.20466   1.26368    8.301
 5615.00    1.16926   1.25674    8.552
 5616.00    1.16080   1.24958    8.615
 5617.00    1.16002   1.24386    8.621
 5618.00    1.17647   1.23872    8.500
 5619.00    1.22844   1.23566    8.140
 5620.00    1.28466   1.23327    7.784
 5621.00    1.29575   1.23277    7.718
 5622.00    1.27117   1.23264    7.867
 5623.00    1.25950   1.23427    7.940
 5624.00    1.28975   1.23655    7.753
 5625.00    1.35312   1.24016    7.390
 5626.00    1.39322   1.24390    7.178
 5627.00    1.36434   1.24856    7.330
 5628.00    1.31705   1.25280    7.593
 5629.00    1.32826   1.25705    7.529
 5630.00    1.38668   1.26018    7.211
 5631.00    1.43169   1.26263    6.985
 5632.00    1.42752   1.26349    7.005
 5633.00    1.37427   1.26339    7.277
 5634.00    1.30764   1.26191    7.647
 5635.00    1.26858   1.25969    7.883
 5636.00    1.26785   1.25685    7.887
 5637.00    1.28956   1.25399    7.755
 5638.00    1.30252   1.25123    7.677
 5639.00    1.29462   1.24899    7.724
 5640.00    1.30216   1.24739    7.680
 5641.00    1.35248   1.24695    7.394
 5642.00    1.40998   1.24696    7.092
 5643.00    1.42620   1.24833    7.012
 5644.00    1.39008   1.24968    7.194
 5645.00    1.32233   1.25207    7.562
 5646.00    1.26234   1.25389    7.922
 5647.00    1.22847   1.25608    8.140
 5648.00    1.19394   1.25717    8.376
 5649.00    1.14675   1.25814    8.720
 5650.00    1.12807   1.25757    8.865
 5651.00    1.16538   1.25648    8.581
 5652.00    1.22880   1.25361    8.138
 5653.00    1.27568   1.25029    7.839
 5654.00    1.28388   1.24575    7.789
 5655.00    1.25810   1.24129    7.949
 5656.00    1.22708   1.23605    8.149
 5657.00    1.21091   1.23194    8.258
 5658.00    1.20420   1.22838    8.304
 5659.00    1.19290   1.22628    8.383
 5660.00    1.16737   1.22543    8.566
 5661.00    1.13810   1.22618    8.787
 5662.00    1.13476   1.22851    8.812
 5663.00    1.16332   1.23198    8.596
 5664.00    1.19352   1.23690    8.379
 5665.00    1.20016   1.24211    8.332
 5666.00    1.18021   1.24841    8.473
 5667.00    1.14193   1.25462    8.757
 5668.00    1.10158   1.26146    9.078
 5669.00    1.09031   1.26794    9.172
 5670.00    1.14080   1.27462    8.766
 5671.00    1.22816   1.28065    8.142
 5672.00    1.27697   1.28622    7.831
 5673.00    1.26418   1.29070    7.910
 5674.00    1.23447   1.29422    8.101
 5675.00    1.22757   1.29638    8.146
 5676.00    1.24742   1.29710    8.017
 5677.00    1.24650   1.29654    8.022
 5678.00    1.16005   1.29451    8.620
 5679.00    1.01550   1.29162    9.847
 5680.00    0.91684   1.28763   -1.000
 5681.00    0.91472   1.28357   -1.000
 5682.00    0.98441   1.27940   10.158
 5683.00    1.06360   1.27571    9.402
 5684.00    1.08658   1.27291    9.203
 5685.00    1.04007   1.27073    9.615
 5686.00    0.95948   1.27012   10.422
 5687.00    0.88967   1.26999   -1.000
 5688.00    0.87124   1.27168   -1.000
 5689.00    0.93064   1.27324   10.745
 5690.00    1.07236   1.27591    9.325
 5691.00    1.26817   1.27772    7.885
 5692.00    1.46229   1.27936    6.839
 5693.00    1.58600   1.27977    6.305
 5694.00    1.59132   1.27890    6.284
 5695.00    1.50247   1.27679    6.656
 5696.00    1.38580   1.27283    7.216
 5697.00    1.28700   1.26794    7.770
 5698.00    1.22922   1.26158    8.135
 5699.00    1.22584   1.25443    8.158
 5700.00    1.27517   1.24690    7.842
 5701.00    1.35075   1.23893    7.403
 5702.00    1.41408   1.23147    7.072
 5703.00    1.43436   1.22402    6.972
 5704.00    1.40304   1.21771    7.127
 5705.00    1.34634   1.21179    7.428
 5706.00    1.29200   1.20778    7.740
 5707.00    1.22942   1.20468    8.134
 5708.00    1.12807   1.20443    8.865
 5709.00    0.96637   1.20562   10.348
 5710.00    0.76802   1.20958   -1.000
 5711.00    0.62917   1.21571   -1.000
 5712.00    0.63614   1.22376   -1.000
 5713.00    0.78375   1.23361   -1.000
 5714.00    1.00457   1.24466    9.955
 5715.00    1.20932   1.25623    8.269
 5716.00    1.34009   1.26794    7.462
 5717.00    1.40875   1.27928    7.098
 5718.00    1.45045   1.28970    6.894
 5719.00    1.48283   1.29894    6.744
 5720.00    1.51052   1.30679    6.620
 5721.00    1.53131   1.31287    6.530
 5722.00    1.53991   1.31743    6.494
 5723.00    1.53116   1.32024    6.531
 5724.00    1.50558   1.32174    6.642
 5725.00    1.47027   1.32178    6.801
 5726.00    1.42062   1.32135    7.039
 5727.00    1.33477   1.32013    7.492
 5728.00    1.21174   1.31899    8.253
 5729.00    1.09005   1.31770    9.174
 5730.00    1.02080   1.31670    9.796
 5731.00    1.04446   1.31597    9.574
 5732.00    1.15425   1.31563    8.664
 5733.00    1.29228   1.31584    7.738
 5734.00    1.42538   1.31616    7.016
 5735.00    1.56882   1.31651    6.374
 5736.00    1.71806   1.31696    5.821
 5737.00    1.82813   1.31719   -1.000
 5738.00    1.86635   1.31747   -1.000
 5739.00    1.83355   1.31741   -1.000
 5740.00    1.75319   1.31725    0.000
 5741.00    1.65902   1.31668    0.000
 5742.00    1.56840   1.31594    0.000
 5743.00    1.47991   1.31491    0.000
 5744.00    1.40148   1.31346    0.000
 5745.00    1.35563   1.31192    0.000
 5746.00    1.36195   1.30946    0.000
 5747.00    1.42148   1.30728    0.000
 5748.00    1.48885   1.30433    0.000
 5749.00    1.49320   1.30194    0.000
 5750.00    1.42349   1.29924    0.000
 5751.00    1.32866   1.29682    0.000
 5752.00    1.24835   1.29445    0.000
 5753.00    1.20381   1.29252    0.000
 5754.00    1.22507   1.29149    0.000
 5755.00    1.33302   1.29054    0.000
 5756.00    1.48020   1.29090    0.000
 5757.00    1.56920   1.29050    0.000
 5758.00    1.52753   1.29144    0.000
 5759.00    1.34246   1.29160    0.000
 5760.00    1.09424   1.29330    0.000
 5761.00    0.90292   1.29447    0.000
 5762.00    0.81081   1.29749    0.000
 5763.00    0.79781   1.30006    0.000
 5764.00    0.85480   1.30400    0.000
 5765.00    0.98684   1.30740    0.000
 5766.00    1.19323   1.31085    0.000
 5767.00    1.45189   1.31363    0.000
 5768.00    1.70119   1.31561    0.000
 5769.00    1.86667   1.31676    0.000
 5770.00    1.90758   1.31626    0.000
 5771.00    1.83234   1.31500    0.000
 5772.00    1.70809   1.31178    0.000
 5773.00    1.61784   1.30760    0.000
 5774.00    1.59926   1.30197    0.000
 5775.00    1.62987   1.29496    0.000
 5776.00    1.62389   1.28731    0.000
 5777.00    1.50968   1.27828    0.000
 5778.00    1.31991   1.26933    0.000
 5779.00    1.14564   1.25943    0.000
 5780.00    1.06748   1.25100    0.000
 5781.00    1.09963   1.24258    0.000
 5782.00    1.14789   1.23697    0.000
 5783.00    1.12229   1.23244    0.000
 5784.00    1.04827   1.23108    0.000
 5785.00    1.00186   1.23119    0.000
 5786.00    1.03522   1.23430    0.000
 5787.00    1.14157   1.23917    0.000
 5788.00    1.23943   1.24579    0.000
 5789.00    1.25777   1.25301    0.000
 5790.00    1.20465   1.26150    0.000
 5791.00    1.13637   1.26957    0.000
 5792.00    1.12070   1.27833    0.000
 5793.00    1.17074   1.28644    0.000
 5794.00    1.21228   1.29404    0.000
 5795.00    1.18459   1.30079    0.000
 5796.00    1.10535   1.30671    0.000
 5797.00    1.02473   1.31175    0.000
 5798.00    0.98767   1.31607    0.000
 5799.00    1.00397   1.31976    0.000
 5800.00    1.04027   1.32284    0.000
 5801.00    1.07331   1.32461    0.000
 5802.00    1.11336   1.32575   -2.000
 5803.00    1.16271   1.32603   -2.000
 5804.00    1.19415   1.32576   -2.000
 5805.00    1.15940   1.32522   -2.000
 5806.00    1.01610   1.32457   -2.000
 5807.00    0.82836   1.32396   -2.000
 5808.00    0.76366   1.32317   -2.000
 5809.00    0.87387   1.32277   -2.000
 5810.00    1.03808   1.32219   -2.000
 5811.00    1.13511   1.32226   -2.000
 5812.00    1.12393   1.32213   -2.000
 5813.00    1.06384   1.32259   -2.000
 5814.00    1.07647   1.32326   -2.000
 5815.00    1.18788   1.32438   -2.000
 5816.00    1.31263   1.32621   -2.000
 5817.00    1.39757   1.32831   -2.000
 5818.00    1.45248   1.33138   -2.000
 5819.00    1.48682   1.33410   -2.000
 5820.00    1.50023   1.33712   -2.000
 5821.00    1.51597   1.33982   -2.000
 5822.00    1.56637   1.34230    0.000
 5823.00    1.62573   1.34459    0.000
 5824.00    1.62705   1.34620    0.000
 5825.00    1.55409   1.34780    0.000
 5826.00    1.44867   1.34837    0.000
 5827.00    1.36649   1.34894    0.000
 5828.00    1.34807   1.34860    0.000
 5829.00    1.37956   1.34826    0.000
 5830.00    1.41586   1.34731    0.000
 5831.00    1.44854   1.34627    0.000
 5832.00    1.48795   1.34492    0.000
 5833.00    1.49872   1.34377    0.000
 5834.00    1.43032   1.34260    0.000
 5835.00    1.29844   1.34166    0.000
 5836.00    1.16892   1.34103    0.000
 5837.00    1.09992   1.34065    0.000
 5838.00    1.10666   1.34013    0.000
 5839.00    1.12355   1.33970    0.000
 5840.00    1.06701   1.33916    0.000
 5841.00    0.94149   1.33817    0.000
 5842.00    0.81402   1.33627    0.000
 5843.00    0.75102   1.33374    0.000
 5844.00    0.79633   1.32997    0.000
 5845.00    0.95222   1.32552    0.000
 5846.00    1.15967   1.31988    0.000
 5847.00    1.28423   1.31381    0.000
 5848.00    1.22602   1.30689    0.000
 5849.00    1.04999   1.29989    0.000
 5850.00    0.90355   1.29241    0.000
 5851.00    0.89974   1.28491    0.000
 5852.00    1.06079   1.27768    0.000
 5853.00    1.28166   1.27083    0.000
 5854.00    1.44894   1.26502    0.000
 5855.00    1.55852   1.26016    0.000
 5856.00    1.64787   1.25623    0.000
 5857.00    1.72189   1.25364    0.000
 5858.00    1.76620   1.25204    0.000
 5859.00    1.76723   1.25283    0.000
 5860.00    1.73370   1.25382    0.000
 5861.00    1.70718   1.25662    0.000
 5862.00    1.71041   1.25927    0.000
 5863.00    1.71313   1.26306    0.000
 5864.00    1.69010   1.26688    0.000
 5865.00    1.66048   1.27107    0.000
 5866.00    1.64580   1.27497    0.000
 5867.00    1.64132   1.27848    0.000
 5868.00    1.63479   1.28214    0.000
 5869.00    1.61919   1.28475    0.000
 5870.00    1.58805   1.28686    0.000
 5871.00    1.53438   1.28746    0.000
 5872.00    1.46373   1.28735    0.000
 5873.00    1.40022   1.28579    0.000
 5874.00    1.37783   1.28312    0.000
 5875.00    1.42497   1.27923    0.000
 5876.00    1.51289   1.27345    0.000
 5877.00    1.55063   1.26633    0.000
 5878.00    1.48412   1.25714    0.000
 5879.00    1.33684   1.24651    0.000
 5880.00    1.17415   1.23347    0.000
 5881.00    1.07329   1.21862    0.000
 5882.00    1.07136   1.20157    0.000
 5883.00    1.14756   1.18236    0.000
 5884.00    1.24033   1.16082    0.000
 5885.00    1.27716   1.13809    0.000
 5886.00    1.25448   1.11414    0.000
 5887.00    1.23289   1.09004    0.000
 5888.00    1.22092   1.06635    0.000
 5889.00    1.16448   1.04525    0.000
 5890.00    1.04409   1.02749    0.000
 5891.00    0.89532   1.01574    0.000
 5892.00    0.77198   1.00939    0.000
 5893.00    0.72356   1.00717    0.000
 5894.00    0.76571   1.01021    0.000
 5895.00    0.87238   1.01811    0.000
 5896.00    0.97884   1.03024    0.000
 5897.00    1.01239   1.04786    0.000
 5898.00    0.96376   1.06863    0.000
 5899.00    0.88685   1.09040    0.000
 5900.00    0.85458   1.11288    0.000
 5901.00    0.92200   1.13515   10.846
 5902.00    1.07117   1.15615    9.336
 5903.00    1.22787   1.17517    8.144
 5904.00    1.32064   1.19219    7.572
 5905.00    1.31343   1.20653    7.614
 5906.00    1.24172   1.21839    8.053
 5907.00    1.17582   1.22795    8.505
 5908.00    1.14384   1.23517    8.743
 5909.00    1.13805   1.24042    8.787
 5910.00    1.14938   1.24377    8.700
 5911.00    1.16520   1.24611    8.582
 5912.00    1.15782   1.24709    8.637
 5913.00    1.10669   1.24781    9.036
 5914.00    1.03260   1.24755    9.684
 5915.00    0.97463   1.24820   10.260
 5916.00    0.95116   1.24869   10.513
 5917.00    0.96352   1.24985   10.379
 5918.00    1.00713   1.25134    9.929
 5919.00    1.06339   1.25282    9.404
 5920.00    1.09092   1.25465    9.167
 5921.00    1.06498   1.25627    9.390
 5922.00    1.02009   1.25789    9.803
 5923.00    0.99638   1.25910   10.036
 5924.00    0.98031   1.26061   10.201
 5925.00    0.95642   1.26115   10.456
 5926.00    0.96174   1.26182   10.398
 5927.00    1.03435   1.26184    9.668
 5928.00    1.16032   1.26147    8.618
 5929.00    1.29107   1.26136    7.745
 5930.00    1.36861   1.26086    7.307
 5931.00    1.37007   1.26108    7.299
 5932.00    1.33806   1.26125    7.474
 5933.00    1.32712   1.26132    7.535
 5934.00    1.35906   1.26155    7.358
 5935.00    1.42598   1.26172    7.013
 5936.00    1.49820   1.26276    6.675
 5937.00    1.54715   1.26358    6.464
 5938.00    1.56112   1.26435    6.406
 5939.00    1.54291   1.26498    6.481
 5940.00    1.50558   1.26554    6.642
 5941.00    1.46041   1.26552    6.847
 5942.00    1.41121   1.26575    7.086
 5943.00    1.36479   1.26591    7.327
 5944.00    1.33548   1.26578    7.488
 5945.00    1.33466   1.26539    7.493
 5946.00    1.36040   1.26452    7.351
 5947.00    1.37508   1.26328    7.272
 5948.00    1.31489   1.26177    7.605
 5949.00    1.18870   1.26022    8.413
 5950.00    1.09496   1.25906    9.133
 5951.00    1.08221   1.25816    9.240
 5952.00    1.10560   1.25732    9.045
 5953.00    1.11747   1.25672    8.949
 5954.00    1.10509   1.25712    9.049
 5955.00    1.08002   1.25831    9.259
 5956.00    1.06497   1.25960    9.390
 5957.00    1.06369   1.26166    9.401
 5958.00    1.05748   1.26442    9.456
 5959.00    1.03257   1.26781    9.685
 5960.00    0.99567   1.27147   10.043
 5961.00    0.99153   1.27522   10.085
 5962.00    1.08078   1.27874    9.253
 5963.00    1.25766   1.28220    7.951
 5964.00    1.45008   1.28495    6.896
 5965.00    1.59301   1.28795    6.277
 5966.00    1.65815   1.28950    6.031
 5967.00    1.67274   1.29175    5.978
 5968.00    1.69284   1.29259    5.907
 5969.00    1.72542   1.29312    5.796
 5970.00    1.73249   1.29249    5.772
 5971.00    1.68762   1.29136    5.925
 5972.00    1.58949   1.28925    6.291
 5973.00    1.46015   1.28645    6.849
 5974.00    1.33079   1.28307    7.514
 5975.00    1.21393   1.27912    8.238
 5976.00    1.11424   1.27505    8.975
 5977.00    1.05941   1.27099    9.439
 5978.00    1.07579   1.26756    9.296
 5979.00    1.13498   1.26422    8.811
 5980.00    1.18116   1.26162    8.466
 5981.00    1.19367   1.25932    8.378
 5982.00    1.18502   1.25728    8.439
 5983.00    1.17948   1.25607    8.478
 5984.00    1.19366   1.25532    8.378
 5985.00    1.21408   1.25575    8.237
 5986.00    1.21642   1.25732    8.221
 5987.00    1.19742   1.25891    8.351
 5988.00    1.17580   1.26097    8.505
 5989.00    1.18569   1.26305    8.434
 5990.00    1.25263   1.26512    7.983
 5991.00    1.36526   1.26684    7.325
 5992.00    1.48732   1.26789    6.724
 5993.00    1.57631   1.26912    6.344
 5994.00    1.59210   1.26930    6.281
 5995.00    1.50678   1.26883    6.637
 5996.00    1.33607   1.26744    7.485
 5997.00    1.16470   1.26568    8.586
 5998.00    1.07661   1.26349    9.288
 5999.00    1.08578   1.26138    9.210
 6000.00    1.15145   1.25900    8.685
 6001.00    1.20395   1.25636    8.306
 6002.00    1.20428   1.25374    8.304
 6003.00    1.18716   1.25072    8.423
 6004.00    1.20389   1.24856    8.306
 6005.00    1.27301   1.24645    7.855
 6006.00    1.37960   1.24395    7.248
 6007.00    1.48055   1.24214    6.754
 6008.00    1.52877   1.24029    6.541
 6009.00    1.49414   1.23918    6.693
 6010.00    1.38911   1.23889    7.199
 6011.00    1.27440   1.23785    7.847
 6012.00    1.18982   1.23704    8.405
 6013.00    1.11972   1.23587    8.931
 6014.00    1.05205   1.23536    9.505
 6015.00    1.00848   1.23537    9.916
 6016.00    1.00919   1.23520    9.909
 6017.00    1.05220   1.23545    9.504
 6018.00    1.11351   1.23626    8.981
 6019.00    1.15597   1.23797    8.651
 6020.00    1.16818   1.23941    8.560
 6021.00    1.17357   1.24279    8.521
 6022.00    1.18443   1.24597    8.443
 6023.00    1.18611   1.25074    8.431
 6024.00    1.16230   1.25523    8.604
 6025.00    1.10837   1.26071    9.022
 6026.00    1.03812   1.26665    9.633
 6027.00    0.97968   1.27195   10.207
 6028.00    0.95089   1.27791   -1.000
 6029.00    0.95610   1.28323   -1.000
 6030.00    1.00788   1.28846    9.922
 6031.00    1.11924   1.29266    8.935
 6032.00    1.25380   1.29687    7.976
 6033.00    1.33196   1.30038    7.508
 6034.00    1.30069   1.30329    7.688
 6035.00    1.16135   1.30561    8.611
 6036.00    0.98303   1.30752   -1.000
 6037.00    0.86763   1.30923   -1.000
 6038.00    0.84772   1.31035   -1.000
 6039.00    0.88476   1.31172   -1.000
 6040.00    0.93616   1.31248   -1.000
 6041.00    0.97378   1.31386   -1.000
 6042.00    0.98552   1.31479   10.147
 6043.00    0.98001   1.31598   -1.000
 6044.00    0.99545   1.31720   10.046
 6045.00    1.07620   1.31769    9.292
 6046.00    1.22062   1.31820    8.193
 6047.00    1.38205   1.31786    7.236
 6048.00    1.49390   1.31751    6.694
 6049.00    1.50704   1.31604    6.636
 6050.00    1.44673   1.31463    6.912
 6051.00    1.37846   1.31254    7.254
 6052.00    1.33114   1.30973    7.512
 6053.00    1.29919   1.30693    7.697
 6054.00    1.26858   1.30337    7.883
 6055.00    1.23536   1.30073    8.095
 6056.00    1.22561   1.29738    8.159
 6057.00    1.26558   1.29503    7.902
 6058.00    1.33621   1.29284    7.484
 6059.00    1.39494   1.29122    7.169
 6060.00    1.41406   1.29027    7.072
 6061.00    1.39050   1.28932    7.192
 6062.00    1.35030   1.28960    7.406
 6063.00    1.32925   1.28965    7.523
 6064.00    1.34854   1.29139    7.415
 6065.00    1.40352   1.29323    7.125
 6066.00    1.45701   1.29619    6.863
 6067.00    1.46916   1.30032    6.807
 6068.00    1.42870   1.30380    6.999
 6069.00    1.34210   1.30722    7.451
 6070.00    1.22126   1.30966    8.188
 6071.00    1.09596   1.31156    9.124
 6072.00    1.02186   1.31238    9.786
 6073.00    1.03889   1.31225    9.626
 6074.00    1.13646   1.31062    8.799
 6075.00    1.27446   1.30816    7.846
 6076.00    1.40544   1.30439    7.115
 6077.00    1.49461   1.30005    6.691
 6078.00    1.53294   1.29518    6.523
 6079.00    1.52765   1.28975    6.546
 6080.00    1.49419   1.28519    6.693
 6081.00    1.45285   1.28039    6.883
 6082.00    1.42453   1.27596    7.020
 6083.00    1.41735   1.27234    7.055
 6084.00    1.42017   1.26991    7.041
 6085.00    1.41513   1.26734    7.066
 6086.00    1.38742   1.26562    7.208
 6087.00    1.33573   1.26451    7.487
 6088.00    1.27538   1.26385    7.841
 6089.00    1.22507   1.26356    8.163
 6090.00    1.19761   1.26302    8.350
 6091.00    1.19043   1.26300    8.400
 6092.00    1.18695   1.26328    8.425
 6093.00    1.18374   1.26365    8.448
 6094.00    1.19690   1.26353    8.355
 6095.00    1.23478   1.26410    8.099
 6096.00    1.28743   1.26343    7.767
 6097.00    1.33391   1.26263    7.497
 6098.00    1.35127   1.26157    7.400
 6099.00    1.33551   1.26067    7.488
 6100.00    1.29961   1.25956    7.695
 6101.00    1.23804   1.25820    8.077
 6102.00    1.13098   1.25720    8.842
 6103.00    1.00004   1.25613   10.000
 6104.00    0.90388   1.25847   -1.000
 6105.00    0.86582   1.26037   -1.000
 6106.00    0.86077   1.26258   -1.000
 6107.00    0.84615   1.26495   -1.000
 6108.00    0.79376   1.26731   -1.000
 6109.00    0.74807   1.27015   -1.000
 6110.00    0.79773   1.27256   -1.000
 6111.00    0.96246   1.27362   -1.000
 6112.00    1.18377   1.27425    8.448
 6113.00    1.37510   1.27458    7.272
 6114.00    1.46235   1.27395    6.838
 6115.00    1.44435   1.27200    6.924
 6116.00    1.37945   1.26892    7.249
 6117.00    1.32791   1.26515    7.531
 6118.00    1.32847   1.26168    7.527
 6119.00    1.37824   1.25782    7.256
 6120.00    1.44728   1.25332    6.910
 6121.00    1.51324   1.25030    6.608
 6122.00    1.56578   1.24735    6.387
 6123.00    1.60224   1.24597    6.241
 6124.00    1.61883   1.24622    6.177
 6125.00    1.59822   1.24534    6.257
 6126.00    1.52666   1.24463    6.550
 6127.00    1.42218   1.24396    7.031
 6128.00    1.31422   1.24302    7.609
 6129.00    1.20942   1.24200    8.268
 6130.00    1.11553   1.24081    8.964
 6131.00    1.07749   1.23909    9.281
 6132.00    1.13339   1.23643    8.823
 6133.00    1.25438   1.23361    7.972
 6134.00    1.37812   1.23063    7.256
 6135.00    1.45865   1.22702    6.856
 6136.00    1.47527   1.22483    6.778
 6137.00    1.43508   1.22306    6.968
 6138.00    1.36059   1.22438    7.350
 6139.00    1.27569   1.22771    7.839
 6140.00    1.20282   1.23112    8.314
 6141.00    1.16070   1.23454    8.616
 6142.00    1.15731   1.23791    8.641
 6143.00    1.18517   1.24270    8.438
 6144.00    1.23819   1.24708    8.076
 6145.00    1.32274   1.25025    7.560
 6146.00    1.41981   1.25227    7.043
 6147.00    1.46282   1.25363    6.836
 6148.00    1.42007   1.25358    7.042
 6149.00    1.34998   1.25227    7.407
 6150.00    1.32084   1.24896    7.571
 6151.00    1.34940   1.24510    7.411
 6152.00    1.40564   1.23954    7.114
 6153.00    1.42878   1.23326    6.999
 6154.00    1.39398   1.22525    7.174
 6155.00    1.34213   1.21604    7.451
 6156.00    1.30041   1.20725    7.690
 6157.00    1.24221   1.19727    8.050
 6158.00    1.14269   1.18745    8.751
 6159.00    1.01357   1.17724    9.866
 6160.00    0.91063   1.16766   10.981
 6161.00    0.91982   1.15809   10.872
 6162.00    1.07469   1.15063    9.305
 6163.00    1.32080   1.14622    7.571
 6164.00    1.54734   1.14354   -1.000
 6165.00    1.62796   1.14335   -1.000
 6166.00    1.52554   1.14382    6.555
 6167.00    1.31873   1.14583    7.583
 6168.00    1.11847   1.14922    8.941
 6169.00    1.01828   1.15276    9.820
 6170.00    1.04365   1.15758    9.582
 6171.00    1.14562   1.16416    8.729
 6172.00    1.24749   1.17197    8.016
 6173.00    1.27773   1.17857    7.826
 6174.00    1.21995   1.18506    8.197
 6175.00    1.11603   1.19120    8.960
 6176.00    1.02279   1.19653    9.777
 6177.00    0.98081   1.20109   10.196
 6178.00    0.96749   1.20478   10.336
 6179.00    0.92275   1.20800   10.837
 6180.00    0.85689   1.20968   -1.000
 6181.00    0.84040   1.21070   -1.000
 6182.00    0.89920   1.21005   -1.000
 6183.00    1.00319   1.20812    9.968
 6184.00    1.10790   1.20564    9.026
 6185.00    1.17409   1.20255    8.517
 6186.00    1.18741   1.19856    8.422
 6187.00    1.15810   1.19450    8.635
 6188.00    1.11002   1.19147    9.009
 6189.00    1.07154   1.18822    9.332
 6190.00    1.06204   1.18607    9.416
 6191.00    1.08328   1.18409    9.231
 6192.00    1.10942   1.18351    9.014
 6193.00    1.11086   1.18598    9.002
 6194.00    1.09856   1.18819    9.103
 6195.00    1.10676   1.19096    9.035
 6196.00    1.15115   1.19393    8.687
 6197.00    1.22170   1.19746    8.185
 6198.00    1.28384   1.20084    7.789
 6199.00    1.30312   1.20343    7.674
 6200.00    1.28020   1.20621    7.811
 6201.00    1.24153   1.20910    8.055
 6202.00    1.21822   1.21214    8.209
 6203.00    1.22340   1.21363    8.174
 6204.00    1.22920   1.21351    8.135
 6205.00    1.20205   1.21226    8.319
 6206.00    1.14579   1.21019    8.728
 6207.00    1.06127   1.20693    9.423
 6208.00    0.90066   1.20263   -2.000
 6209.00    0.64327   1.19752   -2.000
 6210.00    0.37561   1.19142   -2.000
 6211.00    0.21922   1.18440   -2.000
 6212.00    0.24506   1.17746   -2.000
 6213.00    0.42582   1.17002   -2.000
 6214.00    0.61335   1.16297   -2.000
 6215.00    0.67882   1.15714   -2.000
 6216.00    0.63311   1.15254   -2.000
 6217.00    0.56397   1.14890   -2.000
 6218.00    0.56690   1.14654   -2.000
 6219.00    0.68215   1.14399   -1.000
 6220.00    0.85829   1.14226   11.651
 6221.00    1.02669   1.14143    9.740
 6222.00    1.15718   1.14093    8.642
 6223.00    1.24316   1.14139    8.044
 6224.00    1.28803   1.14083    7.764
 6225.00    1.29949   1.14126    7.695
 6226.00    1.28769   1.14144    7.766
 6227.00    1.27307   1.14133    7.855
 6228.00    1.28405   1.14095    7.788
 6229.00    1.31676   1.14026    7.594
 6230.00    1.32212   1.13965    7.564
 6231.00    1.26316   1.13860    7.917
 6232.00    1.14586   1.14027    8.727
 6233.00    1.01349   1.14073    9.867
 6234.00    0.92838   1.14155   10.771
 6235.00    0.90512   1.14244   11.048
 6236.00    0.89503   1.14185   11.173
 6237.00    0.85909   1.14111   -1.000
 6238.00    0.79703   1.13928   -1.000
 6239.00    0.72862   1.13850   -1.000
 6240.00    0.68099   1.13643   -1.000
 6241.00    0.67298   1.13530   -1.000
 6242.00    0.70801   1.13463   -1.000
 6243.00    0.77131   1.13177   -1.000
 6244.00    0.83799   1.13038   11.933
 6245.00    0.90278   1.12924   11.077
 6246.00    0.98070   1.12772   10.197
 6247.00    1.07641   1.12652    9.290
 6248.00    1.17810   1.12556    8.488
 6249.00    1.26964   1.12378    7.876
 6250.00    1.33583   1.12082    7.486
 6251.00    1.36617   1.11887    7.320
 6252.00    1.35939   1.11537    7.356
 6253.00    1.33229   1.11334    7.506
 6254.00    1.31290   1.11197    7.617
 6255.00    1.31820   1.11138    7.586
 6256.00    1.34450   1.11107    7.438
 6257.00    1.35959   1.11123    7.355
 6258.00    1.32615   1.11350    7.541
 6259.00    1.25476   1.11588    7.970
 6260.00    1.18915   1.12166    8.409
 6261.00    1.15266   1.12670    8.676
 6262.00    1.14403   1.13259    8.741
 6263.00    1.15139   1.13901    8.685
 6264.00    1.16207   1.14470    8.605
 6265.00    1.17478   1.14967    8.512
 6266.00    1.18875   1.15453    8.412
 6267.00    1.18338   1.16032    8.450
 6268.00    1.14357   1.16452    8.745
 6269.00    1.10192   1.16802    9.075
 6270.00    1.08552   1.17114    9.212
 6271.00    1.03255   1.17360    9.685
 6272.00    0.87608   1.17548   -1.000
 6273.00    0.67260   1.17722   -1.000
 6274.00    0.53644   1.17842   -1.000
 6275.00    0.53085   1.17950   -1.000
 6276.00    0.65802   1.18053   -1.000
 6277.00    0.86646   1.18157   -1.000
 6278.00    1.08033   1.18231    9.256
 6279.00    1.23366   1.18356    8.106
 6280.00    1.29244   1.18459    0.000
 6281.00    1.27245   1.18575    0.000
 6282.00    1.21880   1.18821    0.000
 6283.00    1.18055   1.18991    0.000
 6284.00    1.18417   1.19236    0.000
 6285.00    1.21347   1.19380    0.000
 6286.00    1.24031   1.19509    0.000
 6287.00    1.25399   1.19647    0.000
 6288.00    1.25836   1.19659    0.000
 6289.00    1.26527   1.19659    0.000
 6290.00    1.27542   1.19516    0.000
 6291.00    1.26832   1.19300    0.000
 6292.00    1.24022   1.19063    0.000
 6293.00    1.22707   1.18744    0.000
 6294.00    1.26011   1.18447    0.000
 6295.00    1.33403   1.18149    0.000
 6296.00    1.41239   1.17784    0.000
 6297.00    1.44114   1.17477    0.000
 6298.00    1.40118   1.17264    0.000
 6299.00    1.33263   1.17157    0.000
 6300.00    1.28542   1.17128    0.000
 6301.00    1.28580   1.17084    0.000
 6302.00    1.31834   1.17124    0.000
 6303.00    1.32833   1.17255    0.000
 6304.00    1.27989   1.17422    0.000
 6305.00    1.18447   1.17607    0.000
 6306.00    1.09128   1.17714    0.000
 6307.00    1.06913   1.17922    0.000
 6308.00    1.15037   1.17964    0.000
 6309.00    1.30880   1.17922    0.000
 6310.00    1.47573   1.17840    0.000
 6311.00    1.56506   1.17646    0.000
 6312.00    1.54101   1.17488    0.000
 6313.00    1.43692   1.17302    0.000
 6314.00    1.32404   1.17164    0.000
 6315.00    1.27917   1.16939    0.000
 6316.00    1.31737   1.16805    0.000
 6317.00    1.38723   1.16849    0.000
 6318.00    1.43156   1.16761    0.000
 6319.00    1.41472   1.16915    0.000
 6320.00    1.34172   1.17222    0.000
 6321.00    1.25284   1.17525    7.982
 6322.00    1.19243   1.17881    8.386
 6323.00    1.19114   1.18185    8.395
 6324.00    1.24412   1.18682    8.038
 6325.00    1.31657   1.18979    7.595
 6326.00    1.37205   1.19302    7.288
 6327.00    1.38563   1.19579    7.217
 6328.00    1.35684   1.19672    7.370
 6329.00    1.30770   1.19830    7.647
 6330.00    1.27095   1.19754    7.868
 6331.00    1.27493   1.19732    7.844
 6332.00    1.31857   1.19640    7.584
 6333.00    1.37401   1.19475    7.278
 6334.00    1.40258   1.19306    7.130
 6335.00    1.37314   1.18954    7.283
 6336.00    1.28915   1.18739    7.757
 6337.00    1.18669   1.18569    8.427
 6338.00    1.12165   1.18536    8.915
 6339.00    1.13836   1.18496    8.785
 6340.00    1.22467   1.18482    8.165
 6341.00    1.32775   1.18581    7.532
 6342.00    1.38973   1.18541    7.196
 6343.00    1.37626   1.18602    7.266
 6344.00    1.30756   1.18659    7.648
 6345.00    1.23681   1.18846    8.085
 6346.00    1.21387   1.19015    8.238
 6347.00    1.25341   1.19046    7.978
 6348.00    1.30499   1.19080    7.663
 6349.00    1.30618   1.18999    7.656
 6350.00    1.24783   1.18841    8.014
 6351.00    1.15999   1.18559    8.621
 6352.00    1.08659   1.18242    9.203
 6353.00    1.06025   1.17857    9.432
 6354.00    1.08015   1.17349    9.258
 6355.00    1.12417   1.16767    8.895
 6356.00    1.16486   1.16296    8.585
 6357.00    1.19013   1.15839    8.402
 6358.00    1.21741   1.15359    8.214
 6359.00    1.26260   1.14987    7.920
 6360.00    1.31394   1.14779    7.611
 6361.00    1.34620   1.14737    7.428
 6362.00    1.33570   1.14738    7.487
 6363.00    1.27525   1.15013    7.842
 6364.00    1.18197   1.15447    8.460
 6365.00    1.07810   1.15970    9.276
 6366.00    0.97852   1.16604   10.220
 6367.00    0.90405   1.17275   11.061
 6368.00    0.88553   1.18047   -1.000
 6369.00    0.93050   1.18721   10.747
 6370.00    1.00795   1.19374    9.921
 6371.00    1.08363   1.19991    9.228
 6372.00    1.13928   1.20544    8.777
 6373.00    1.15989   1.21050    8.622
 6374.00    1.13244   1.21358    8.830
 6375.00    1.07847   1.21634    9.272
 6376.00    1.05838   1.21814    9.448
 6377.00    1.11045   1.21901    9.005
 6378.00    1.22525   1.21919    8.162
 6379.00    1.36834   1.21894    7.308
 6380.00    1.49569   1.21943    6.686
 6381.00    1.57112   1.21870    6.365
 6382.00    1.57640   1.21833    6.344
 6383.00    1.52129   1.21814    6.573
 6384.00    1.44009   1.21701    6.944
 6385.00    1.36474   1.21581    7.327
 6386.00    1.31148   1.21399    7.625
 6387.00    1.27136   1.21315    7.866
 6388.00    1.22572   1.21186    8.158
 6389.00    1.20531   1.21041    8.297
 6390.00    1.27222   1.20924    7.860
 6391.00    1.40598   1.20669    7.112
 6392.00    1.50634   1.20431    6.639
 6393.00    1.50410   1.20048    6.649
 6394.00    1.39714   1.19934    7.157
 6395.00    1.25589   1.19980    7.962
 6396.00    1.18094   1.19963    8.468
 6397.00    1.19609   1.19982    8.361
 6398.00    1.25480   1.19904    7.969
 6399.00    1.32072   1.19883    7.572
 6400.00    1.37343   1.19713    7.281
 6401.00    1.37771   1.19825    7.258
 6402.00    1.30490   1.20203    7.663
 6403.00    1.18983   1.20341    8.405
 6404.00    1.10333   1.20392    9.063
 6405.00    1.07581   1.20376    9.295
 6406.00    1.09616   1.20347    9.123
 6407.00    1.13791   1.20275    8.788
 6408.00    1.17280   1.20209    8.527
 6409.00    1.18536   1.20370    8.436
 6410.00    1.17310   1.20409    8.524
 6411.00    1.14245   1.20243    8.753
 6412.00    1.10440   1.20136    9.055
 6413.00    1.06879   1.20077    9.356
 6414.00    1.04362   1.20036    9.582
 6415.00    1.03495   1.20007    9.662
 6416.00    1.04239   1.20153    9.593
 6417.00    1.05391   1.20227    9.488
 6418.00    1.05862   1.20200    9.446
 6419.00    1.06323   1.20235    9.405
 6420.00    1.08652   1.20317    9.204
 6421.00    1.14866   1.20466    8.706
 6422.00    1.24752   1.20627    8.016
 6423.00    1.33708   1.20870    7.479
 6424.00    1.36593   1.20934    7.321
 6425.00    1.32039   1.20993    7.574
 6426.00    1.22994   1.21091    8.130
 6427.00    1.16242   1.21195    8.603
 6428.00    1.16479   1.21279    8.585
 6429.00    1.21386   1.21273    8.238
 6430.00    1.26417   1.21275    7.910
 6431.00    1.29249   1.21113    7.737
 6432.00    1.29184   1.21113    7.741
 6433.00    1.26407   1.21250    7.911
 6434.00    1.22355   1.21370    8.173
 6435.00    1.19679   1.21481    8.356
 6436.00    1.19573   1.21508    8.363
 6437.00    1.20191   1.21589    8.320
 6438.00    1.19149   1.21628    8.393
 6439.00    1.15473   1.21711    8.660
 6440.00    1.10740   1.21968    9.030
 6441.00    1.09145   1.22160    9.162
 6442.00    1.13983   1.22105    8.773
 6443.00    1.25010   1.21950    7.999
 6444.00    1.35659   1.21869    7.371
 6445.00    1.34339   1.21757    7.444
 6446.00    1.18940   1.21651    8.408
 6447.00    1.01284   1.21501    9.873
 6448.00    0.91220   1.21238   -1.000
 6449.00    0.89692   1.20870   -1.000
 6450.00    0.94106   1.20532   10.626
 6451.00    1.01257   1.20588    9.876
 6452.00    1.08468   1.20683    9.219
 6453.00    1.13999   1.20764    8.772
 6454.00    1.16762   1.20848    8.564
 6455.00    1.16203   1.20735    8.606
 6456.00    1.12275   1.20742    8.907
 6457.00    1.05657   1.20954    9.465
 6458.00    0.98517   1.21267   10.150
 6459.00    0.94317   1.21540   10.603
 6460.00    0.96299   1.21658   10.384
 6461.00    1.05869   1.21752    9.446
 6462.00    1.19383   1.21675    8.376
 6463.00    1.29783   1.21658    7.705
 6464.00    1.34129   1.21879    7.456
 6465.00    1.34064   1.22054    7.459
 6466.00    1.30933   1.22209    7.637
 6467.00    1.24819   1.22247    8.012
 6468.00    1.15672   1.22274    8.645
 6469.00    1.04539   1.22242    9.566
 6470.00    0.95664   1.22277   10.453
 6471.00    0.94176   1.22327   10.618
 6472.00    0.99909   1.22332   10.009
 6473.00    1.08279   1.22390    9.235
 6474.00    1.15117   1.22262    8.687
 6475.00    1.17997   1.22051    8.475
 6476.00    1.16727   1.21838    8.567
 6477.00    1.12943   1.21742    8.854
 6478.00    1.09128   1.21560    9.164
 6479.00    1.07603   1.21307    9.293
 6480.00    1.09127   1.21074    9.164
 6481.00    1.13488   1.20726    8.812
 6482.00    1.20812   1.20306    8.277
 6483.00    1.30520   1.19878    7.662
 6484.00    1.39479   1.19562    7.170
 6485.00    1.43280   1.19128    6.979
 6486.00    1.38612   1.18575    7.214
 6487.00    1.25311   1.17837    7.980
 6488.00    1.08460   1.17091    9.220
 6489.00    0.95465   1.16338   10.475
 6490.00    0.91852   1.15504   10.887
 6491.00    0.99103   1.14809   10.090
 6492.00    1.12988   1.14023    8.850
 6493.00    1.27068   1.13369    7.870
 6494.00    1.36895   1.12662    7.305
 6495.00    1.40913   1.12175    7.097
 6496.00    1.40702   1.12110    7.107
 6497.00    1.38589   1.12106    7.216
 6498.00    1.35342   1.12435    7.389
 6499.00    1.31208   1.12781    7.621
 6500.00    1.27016   1.13327    7.873
 6501.00    1.23636   1.14075    8.088
 6502.00    1.21438   1.14790    8.235
 6503.00    1.20488   1.15700    8.300
 6504.00    1.20816   1.16532    8.277
 6505.00    1.22957   1.17309    8.133
 6506.00    1.28007   1.18059    7.812
 6507.00    1.34941   1.18636    7.411
 6508.00    1.39446   1.19139    7.171
 6509.00    1.39464   1.19512    7.170
 6510.00    1.38305   1.19840    7.230
 6511.00    1.39642   1.20105    7.161
 6512.00    1.43888   1.20199    6.950
 6513.00    1.46800   1.20316    6.812
 6514.00    1.40589   1.20367    7.113
 6515.00    1.24286   1.20368    8.046
 6516.00    1.07486   1.20358    9.304
 6517.00    0.98819   1.20377   10.120
 6518.00    1.00179   1.20435    9.982
 6519.00    1.09588   1.20406    9.125
 6520.00    1.22999   1.20506    8.130
 6521.00    1.35443   1.20589    7.383
 6522.00    1.42275   1.20662    7.029
 6523.00    1.42235   1.20744    7.031
 6524.00    1.38097   1.20803    7.241
 6525.00    1.33758   1.20910    7.476
 6526.00    1.32471   1.20922    7.549
 6527.00    1.34901   1.20926    7.413
 6528.00    1.38701   1.21023    0.000
 6529.00    1.39695   1.21133    0.000
 6530.00    1.33878   1.21184    0.000
 6531.00    1.22440   1.21214    0.000
 6532.00    1.11298   1.21196    0.000
 6533.00    1.04400   1.21241    0.000
 6534.00    1.02405   1.21292    0.000
 6535.00    1.05281   1.21378    0.000
 6536.00    1.12539   1.21411    0.000
 6537.00    1.21698   1.21299    0.000
 6538.00    1.29371   1.21188    0.000
 6539.00    1.35118   1.21017    0.000
 6540.00    1.40806   1.20897    0.000
 6541.00    1.46647   1.20627    0.000
 6542.00    1.51564   1.20310    0.000
 6543.00    1.56235   1.19955    0.000
 6544.00    1.62024   1.19508    0.000
 6545.00    1.67288   1.19105    0.000
 6546.00    1.68363   1.18536    0.000
 6547.00    1.63155   1.18044    0.000
 6548.00    1.52524   1.17570    0.000
 6549.00    1.41315   1.16995    0.000
 6550.00    1.35426   1.16392    0.000
 6551.00    1.36532   1.15647    0.000
 6552.00    1.45675   1.14981    0.000
 6553.00    1.70496   1.14314    0.000
 6554.00    2.21681   1.13524    0.000
 6555.00    3.05174   1.12610    0.000
 6556.00    4.13071   1.11616    0.000
 6557.00    5.13154   1.10859    0.000
 6558.00    5.67109   1.10101    0.000
 6559.00    5.57458   1.09482    0.000
 6560.00    4.89233   1.08959    0.000
 6561.00    3.86557   1.08424    0.000
 6562.00    2.80869   1.07923    0.000
 6563.00    1.96842   1.07470    0.000
 6564.00    1.45824   1.07837    0.000
 6565.00    1.21217   1.08396    0.000
 6566.00    1.09425   1.08787    0.000
 6567.00    1.02046   1.09243    0.000
 6568.00    0.96125   1.09631    0.000
 6569.00    0.92913   1.10299    0.000
 6570.00    0.94764   1.11031    0.000
 6571.00    1.02318   1.11866    0.000
 6572.00    1.14472   1.12637    0.000
 6573.00    1.28929   1.13152    0.000
 6574.00    1.45407   1.13647    0.000
 6575.00    1.67728   1.14117    0.000
 6576.00    1.99063   1.14735    0.000
 6577.00    2.37784   1.15332    0.000
 6578.00    2.75563   1.15764    0.000
 6579.00    2.97622   1.16106    0.000
 6580.00    2.93082   1.16371    0.000
 6581.00    2.62075   1.16588    0.000
 6582.00    2.14888   1.16881    0.000
 6583.00    1.69145   1.17174    0.000
 6584.00    1.37381   1.17312    0.000
 6585.00    1.20387   1.17321    0.000
 6586.00    1.12713   1.17176    0.000
 6587.00    1.07151   1.17085    0.000
 6588.00    1.00544   1.17067    0.000
 6589.00    0.95611   1.16948    0.000
 6590.00    0.94655   1.16836    0.000
 6591.00    0.96778   1.16625    0.000
 6592.00    1.00167   1.16347    0.000
 6593.00    1.03565   1.16109    0.000
 6594.00    1.07565   1.16028    0.000
 6595.00    1.14363   1.16176    0.000
 6596.00    1.24484   1.16211    0.000
 6597.00    1.35679   1.16146    0.000
 6598.00    1.44133   1.16114    0.000
 6599.00    1.46143   1.16142    0.000
 6600.00    1.42256   1.16350    0.000
 6601.00    1.36992   1.16493    0.000
 6602.00    1.32839   1.16522    0.000
 6603.00    1.29357   1.16564    0.000
 6604.00    1.26994   1.16543    0.000
 6605.00    1.27110   1.16586    0.000
 6606.00    1.28349   1.16669    0.000
 6607.00    1.27948   1.16725    0.000
 6608.00    1.28326   1.16808    0.000
 6609.00    1.35242   1.16808    7.394
 6610.00    1.48209   1.16965    6.747
 6611.00    1.60497   1.17244    6.231
 6612.00    1.65481   1.17426   -1.000
 6613.00    1.59722   1.17582    6.261
 6614.00    1.46097   1.17686    6.845
 6615.00    1.31303   1.17936    7.616
 6616.00    1.19041   1.18156    8.400
 6617.00    1.09618   1.18196    9.123
 6618.00    1.02265   1.18185    9.779
 6619.00    0.96727   1.18150   10.338
 6620.00    0.95210   1.18085   10.503
 6621.00    1.00072   1.17977    9.993
 6622.00    1.09212   1.17771    9.156
 6623.00    1.18333   1.17483    8.451
 6624.00    1.26044   1.17177    7.934
 6625.00    1.32642   1.16804    7.539
 6626.00    1.36908   1.16572    7.304
 6627.00    1.36984   1.16300    7.300
 6628.00    1.32435   1.15946    7.551
 6629.00    1.25170   1.15664    7.989
 6630.00    1.20056   1.15391    8.329
 6631.00    1.20974   1.15236    8.266
 6632.00    1.25875   1.15085    7.944
 6633.00    1.30770   1.14901    7.647
 6634.00    1.35175   1.14801    7.398
 6635.00    1.39373   1.14797    7.175
 6636.00    1.40790   1.14847    7.103
 6637.00    1.37166   1.14904    7.290
 6638.00    1.30089   1.14899    7.687
 6639.00    1.21549   1.14910    8.227
 6640.00    1.10493   1.14982    9.050
 6641.00    0.97383   1.15124   10.269
 6642.00    0.88302   1.15257   11.325
 6643.00    0.89394   1.15223   11.186
 6644.00    1.01454   1.15234    9.857
 6645.00    1.19259   1.15341    8.385
 6646.00    1.32417   1.15432    7.552
 6647.00    1.34313   1.15457    7.445
 6648.00    1.28319   1.15416    7.793
 6649.00    1.21020   1.15433    8.263
 6650.00    1.16901   1.15459    8.554
 6651.00    1.19011   1.15408    8.403
 6652.00    1.29191   1.15305    7.740
 6653.00    1.44902   1.15220    6.901
 6654.00    1.58276   1.15111    6.318
 6655.00    1.63279   1.14980    6.124
 6656.00    1.59826   1.14769    6.257
 6657.00    1.51345   1.14540    6.607
 6658.00    1.42461   1.14344    7.019
 6659.00    1.35050   1.14131    7.405
 6660.00    1.27091   1.13955    7.868
 6661.00    1.17600   1.13736    8.503
 6662.00    1.08631   1.13578    9.205
 6663.00    1.02377   1.13409    9.768
 6664.00    0.99799   1.13321   10.020
 6665.00    1.01028   1.13387    9.898
 6666.00    1.05606   1.13366    9.469
 6667.00    1.12702   1.13384    8.873
 6668.00    1.21202   1.13410    8.251
 6669.00    1.29720   1.13496    7.709
 6670.00    1.36736   1.13664    7.313
 6671.00    1.41063   1.13690    7.089
 6672.00    1.42096   1.13692    7.038
 6673.00    1.40037   1.13647    7.141
 6674.00    1.35675   1.13673    7.371
 6675.00    1.29460   1.13749    7.724
 6676.00    1.21667   1.13691    8.219
 6677.00    1.13776   1.13601    8.789
 6678.00    1.08424   1.13426    9.223
 6679.00    1.08074   1.13487    9.253
 6680.00    1.13288   1.13661    8.827
 6681.00    1.19415   1.13661    8.374
 6682.00    1.19385   1.13692    8.376
 6683.00    1.12664   1.13682    8.876
 6684.00    1.04819   1.13813    9.540
 6685.00    1.01221   1.13987    9.879
 6686.00    1.04443   1.14024    9.575
 6687.00    1.12085   1.14085    8.922
 6688.00    1.18660   1.14067    8.427
 6689.00    1.20372   1.14069    8.308
 6690.00    1.16568   1.14068    8.579
 6691.00    1.10457   1.13941    9.053
 6692.00    1.07280   1.13859    9.321
 6693.00    1.10697   1.13731    9.034
 6694.00    1.20459   1.13616    8.302
 6695.00    1.29860   1.13529    7.701
 6696.00    1.31037   1.13313    0.000
 6697.00    1.23886   1.13194    0.000
 6698.00    1.13895   1.13097    0.000
 6699.00    1.06714   1.13007    0.000
 6700.00    1.05591   1.12988    0.000
 6701.00    1.09082   1.12888    0.000
 6702.00    1.13320   1.12802    0.000
 6703.00    1.15471   1.12694    0.000
 6704.00    1.14856   1.12576    0.000
 6705.00    1.13725   1.12478    0.000
 6706.00    1.16450   1.12376    0.000
 6707.00    1.28164   1.12232    0.000
 6708.00    1.51000   1.11986    0.000
 6709.00    1.80411   1.11776    0.000
 6710.00    2.08686   1.11487    0.000
 6711.00    2.28988   1.11245    0.000
 6712.00    2.35581   1.11062    0.000
 6713.00    2.24239   1.10779    0.000
 6714.00    1.97652   1.10653    0.000
 6715.00    1.69040   1.10454    0.000
 6716.00    1.50122   1.10302    0.000
 6717.00    1.41347   1.10266    0.000
 6718.00    1.38837   1.10234    0.000
 6719.00    1.40395   1.10451    0.000
 6720.00    1.44076   1.10572    0.000
 6721.00    1.47130   1.10650    0.000
 6722.00    1.48462   1.10821    0.000
 6723.00    1.50112   1.11031    0.000
 6724.00    1.55088   1.11387    0.000
 6725.00    1.65225   1.11601    0.000
 6726.00    1.77408   1.11709    0.000
 6727.00    1.82852   1.11874    0.000
 6728.00    1.76346   1.12019    0.000
 6729.00    1.60937   1.12191    0.000
 6730.00    1.43118   1.12263    0.000
 6731.00    1.29683   1.12270    0.000
 6732.00    1.26169   1.12248    0.000
 6733.00    1.34932   1.12142    0.000
 6734.00    1.49702   1.12085    0.000
 6735.00    1.56797   1.11992    0.000
 6736.00    1.52143   1.11910    0.000
 6737.00    1.45498   1.11734    0.000
 6738.00    1.45219   1.11450    0.000
 6739.00    1.51731   1.11298    0.000
 6740.00    1.58485   1.11160    0.000
 6741.00    1.56169   1.11059    0.000
 6742.00    1.46019   1.10890    0.000
 6743.00    1.39748   1.10615    0.000
 6744.00    1.41867   1.10552    0.000
 6745.00    1.46430   1.10494    0.000
 6746.00    1.47156   1.10451    0.000
 6747.00    1.41302   1.10448    0.000
 6748.00    1.30755   1.10332    0.000
 6749.00    1.20525   1.10467    0.000
 6750.00    1.13613   1.10556    0.000
 6751.00    1.10218   1.10686    0.000
 6752.00    1.09686   1.10927    0.000
 6753.00    1.11320   1.11007    8.983
 6754.00    1.15003   1.11311    8.695
 6755.00    1.20054   1.11537    8.330
 6756.00    1.22331   1.11753    8.175
 6757.00    1.17452   1.12026    8.514
 6758.00    1.09204   1.12166    9.157
 6759.00    1.06294   1.12381    9.408
 6760.00    1.11770   1.12507    8.947
 6761.00    1.22345   1.12552    8.174
 6762.00    1.31557   1.12562    7.601
 6763.00    1.33793   1.12570    7.474
 6764.00    1.30289   1.12607    7.675
 6765.00    1.27936   1.12571    7.816
 6766.00    1.35112   1.12463    7.401
 6767.00    1.56927   1.12350    6.372
 6768.00    1.88849   1.12356   -1.000
 6769.00    2.18112   1.12455   -1.000
 6770.00    2.28049   1.12489   -1.000
 6771.00    2.09395   1.12461   -1.000
 6772.00    1.74618   1.12461   -1.000
 6773.00    1.46035   1.12571    6.848
 6774.00    1.36996   1.12727    7.300
 6775.00    1.46614   1.12787    6.821
 6776.00    1.57557   1.12763    6.347
 6777.00    1.53298   1.12698    6.523
 6778.00    1.37699   1.12646    7.262
 6779.00    1.22102   1.12590    8.190
 6780.00    1.08991   1.12468    9.175
 6781.00    0.96924   1.12301   10.317
 6782.00    0.87316   1.12087   11.453
 6783.00    0.83006   1.11880   -1.000
 6784.00    0.86075   1.11680   11.618
 6785.00    0.96401   1.11528   10.373
 6786.00    1.10655   1.11420    9.037
 6787.00    1.23670   1.11322    8.086
 6788.00    1.30294   1.11252    7.675
 6789.00    1.30486   1.11155    7.664
 6790.00    1.32059   1.11149    7.572
 6791.00    1.40406   1.11195    7.122
 6792.00    1.51345   1.11275    6.607
 6793.00    1.57782   1.11328    6.338
 6794.00    1.55201   1.11317    6.443
 6795.00    1.43816   1.11420    6.953
 6796.00    1.29026   1.11501    7.750
 6797.00    1.16522   1.11614    8.582
 6798.00    1.09054   1.11698    9.170
 6799.00    1.06094   1.11674    9.426
 6800.00    1.04578   1.11792    9.562
 6801.00    1.03557   1.11854    9.657
 6802.00    1.05518   1.11896    9.477
 6803.00    1.09712   1.11967    9.115
 6804.00    1.10432   1.11903    9.055
 6805.00    1.05930   1.11927    9.440
 6806.00    1.00905   1.11980    9.910
 6807.00    0.97481   1.11957   10.258
 6808.00    0.93072   1.11991   10.744
 6809.00    0.89420   1.11950   11.183
 6810.00    0.93887   1.11878   10.651
 6811.00    1.08756   1.11972    9.195
 6812.00    1.27961   1.12025    7.815
 6813.00    1.41681   1.12073    7.058
 6814.00    1.41176   1.12105    7.083
 6815.00    1.28924   1.12038    7.757
 6816.00    1.17605   1.12187    8.503
 6817.00    1.15054   1.12374    8.692
 6818.00    1.20355   1.12449    8.309
 6819.00    1.27869   1.12500    7.820
 6820.00    1.31183   1.12493    7.623
 6821.00    1.30416   1.12620    7.668
 6822.00    1.31589   1.12795    7.599
 6823.00    1.39066   1.12815    7.191
 6824.00    1.53477   1.12809    6.516
 6825.00    1.71946   1.12815   -1.000
 6826.00    1.88403   1.12843   -1.000
 6827.00    1.94241   1.12864   -1.000
 6828.00    1.82865   1.12751   -1.000
 6829.00    1.59104   1.12652    6.285
 6830.00    1.34852   1.12612    7.416
 6831.00    1.15695   1.12522    8.643
 6832.00    1.01460   1.12348    9.856
 6833.00    0.92923   1.12119   10.762
 6834.00    0.91678   1.11915   10.908
 6835.00    0.97344   1.11784   10.273
 6836.00    1.07094   1.11589    9.338
 6837.00    1.15919   1.11310    8.627
 6838.00    1.20071   1.11121    8.328
 6839.00    1.22251   1.10946    8.180
 6840.00    1.26397   1.10845    7.912
 6841.00    1.28795   1.10723    7.764
 6842.00    1.23583   1.10584    8.092
 6843.00    1.12427   1.10615    8.895
 6844.00    1.02833   1.10630    9.725
 6845.00    1.03573   1.10645    9.655
 6846.00    1.17418   1.10656    8.517
 6847.00    1.33527   1.10652    7.489
 6848.00    1.38541   1.10735    7.218
 6849.00    1.30561   1.10761    7.659
 6850.00    1.15097   1.10651    8.688
 6851.00    0.98678   1.10565   10.134
 6852.00    0.87438   1.10490   11.437
 6853.00    0.85958   1.10403   11.634
 6854.00    0.93223   1.10321   10.727
 6855.00    0.99787   1.10057   10.021
 6856.00    0.98722   1.09853   10.129
 6857.00    0.94975   1.09771   10.529
 6858.00    0.94903   1.09664   10.537
 6859.00    0.97153   1.09662   10.293
 6860.00    0.99274   1.09518   10.073
 6861.00    1.02968   1.09357    9.712
 6862.00    1.07726   1.09337    9.283
 6863.00    1.06995   1.09326    9.346
 6864.00    0.98548   1.09453   10.147
 6865.00    0.90640   1.09493   11.033
 6866.00    0.90579   1.09393   11.040
 6867.00    0.97475   1.09361   10.259
 6868.00    1.07967   1.09380    9.262
 6869.00    1.19918   1.09544    8.339
 6870.00    1.30694   1.09686    7.651
 6871.00    1.36804   1.09638    7.310
 6872.00    1.38347   1.09613    7.228
 6873.00    1.40164   1.09687    7.134
 6874.00    1.44509   1.09867    6.920
 6875.00    1.48200   1.10049    6.748
 6876.00    1.48173   1.10064    6.749
 6877.00    1.44194   1.10095    6.935
 6878.00    1.38040   1.10250    7.244
 6879.00    1.32056   1.10449    7.573
 6880.00    1.24950   1.10654    8.003
 6881.00    1.12805   1.10733    8.865
 6882.00    1.00399   1.10833    9.960
 6883.00    1.00706   1.11077    9.930
 6884.00    1.15471   1.11320    8.660
 6885.00    1.32064   1.11575    7.572
 6886.00    1.39414   1.11742    7.173
 6887.00    1.34371   1.11897    7.442
 6888.00    1.22813   1.12176    8.142
 6889.00    1.15725   1.12424    8.641
 6890.00    1.16308   1.12617    8.598
 6891.00    1.18944   1.12768    8.407
 6892.00    1.18330   1.12902    8.451
 6893.00    1.12433   1.13079    8.894
 6894.00    1.02828   1.13228    9.725
 6895.00    0.93971   1.13274   10.642
 6896.00    0.91113   1.13323   10.975
 6897.00    0.97579   1.13464   10.248
 6898.00    1.09796   1.13546    9.108
 6899.00    1.19933   1.13600    8.338
 6900.00    1.24477   1.13605    8.034
 6901.00    1.24322   1.13607    8.044
 6902.00    1.20715   1.13784    8.284
 6903.00    1.15076   1.13812    8.690
 6904.00    1.10350   1.13769    9.062
 6905.00    1.09230   1.13782    9.155
 6906.00    1.10488   1.13743    9.051
 6907.00    1.11107   1.13805    9.000
 6908.00    1.11141   1.13749    8.998
 6909.00    1.12206   1.13577    8.912
 6910.00    1.13684   1.13546    8.796
 6911.00    1.14288   1.13483    8.750
 6912.00    1.15344   1.13357    8.670
 6913.00    1.19384   1.13275    8.376
 6914.00    1.27315   1.13077    7.855
 6915.00    1.37413   1.13005    7.277
 6916.00    1.44774   1.13001    6.907
 6917.00    1.45424   1.12837    6.876
 6918.00    1.41391   1.12792    7.073
 6919.00    1.37031   1.12651    7.298
 6920.00    1.33917   1.12551    7.467
 6921.00    1.31617   1.12572    7.598
 6922.00    1.29289   1.12474    7.735
 6923.00    1.26301   1.12427    7.918
 6924.00    1.22625   1.12317    8.155
 6925.00    1.17819   1.12242    8.488
 6926.00    1.10322   1.12263    9.064
 6927.00    1.00903   1.12250    9.910
 6928.00    0.95181   1.12209   10.506
 6929.00    0.96051   1.12173   10.411
 6930.00    0.97725   1.12241   10.233
 6931.00    0.94183   1.12306   10.618
 6932.00    0.86333   1.12346   -1.000
 6933.00    0.79490   1.12332   -1.000
 6934.00    0.80191   1.12364   -1.000
 6935.00    0.90159   1.12498   11.092
 6936.00    1.02984   1.12561    9.710
 6937.00    1.11134   1.12563    8.998
 6938.00    1.11178   1.12510    8.995
 6939.00    1.04920   1.12506    9.531
 6940.00    0.99071   1.12513   10.094
 6941.00    0.99732   1.12494   10.027
 6942.00    1.08683   1.12472    9.201
 6943.00    1.21606   1.12354    8.223
 6944.00    1.29132   1.12304    7.744
 6945.00    1.27288   1.12241    7.856
 6946.00    1.21460   1.12165    8.233
 6947.00    1.17939   1.12201    8.479
 6948.00    1.19215   1.12154    8.388
 6949.00    1.22715   1.12136    8.149
 6950.00    1.22130   1.12173    8.188
 6951.00    1.15286   1.12196    8.674
 6952.00    1.06122   1.12319    9.423
 6953.00    0.98356   1.12427   10.167
 6954.00    0.93548   1.12525   10.690
 6955.00    0.94047   1.12669   10.633
 6956.00    1.02655   1.12840    9.741
 6957.00    1.17223   1.13037    8.531
 6958.00    1.30728   1.13226    7.649
 6959.00    1.38217   1.13431    7.235
 6960.00    1.38862   1.13585    7.201
 6961.00    1.34663   1.13703    7.426
 6962.00    1.28653   1.13892    7.773
 6963.00    1.21065   1.14052    8.260
 6964.00    1.10680   1.14166    9.035
 6965.00    1.01577   1.14186    9.845
 6966.00    1.01072   1.14061    9.894
 6967.00    1.09526   1.14075    9.130
 6968.00    1.20290   1.14100    8.313
 6969.00    1.26346   1.13930    7.915
 6970.00    1.24192   1.13726    8.052
 6971.00    1.18545   1.13422    8.436
 6972.00    1.18392   1.13240    8.447
 6973.00    1.26338   1.13071    7.915
 6974.00    1.38420   1.12725    7.224
 6975.00    1.48575   1.12543    6.731
 6976.00    1.51787   1.12377    6.588
 6977.00    1.48090   1.12278    6.753
 6978.00    1.40956   1.12210    7.094
 6979.00    1.33100   1.12074    7.513
 6980.00    1.27229   1.12227    7.860
 6981.00    1.28321   1.12415    7.793
 6982.00    1.39317   1.12577    7.178
 6983.00    1.54103   1.12813    6.489
 6984.00    1.62414   1.12933    6.157
 6985.00    1.58696   1.13196    6.301
 6986.00    1.43578   1.13504    6.965
 6987.00    1.23827   1.13707    8.076
 6988.00    1.07489   1.13943    9.303
 6989.00    0.97725   1.13980   10.233
 6990.00    0.94451   1.14011   10.588
 6991.00    0.97130   1.14168   10.295
 6992.00    1.02826   1.14211    9.725
 6993.00    1.04172   1.14240    9.599
 6994.00    0.96653   1.14073   10.346
 6995.00    0.85954   1.13857   -1.000
 6996.00    0.80063   1.13860   -1.000
 6997.00    0.80714   1.13798   -1.000
 6998.00    0.85524   1.13687   -1.000
 6999.00    0.91098   1.13440   10.977
 7000.00    0.95738   1.13162   10.445
 7001.00    1.01235   1.13116   -2.000
 7002.00    1.09184   1.13063   -2.000
 7003.00    1.17799   1.12944   -2.000
 7004.00    1.22374   1.12789   -2.000
 7005.00    1.16919   1.12624   -2.000
 7006.00    1.02238   1.12535   -2.000
 7007.00    0.90174   1.12484   -2.000
 7008.00    0.91049   1.12443   -2.000
 7009.00    1.04946   1.12406   -2.000
 7010.00    1.24010   1.12315   -2.000
 7011.00    1.36267   1.12115   -2.000
 7012.00    1.37546   1.12036   -2.000
 7013.00    1.36306   1.12130   -2.000
 7014.00    1.39236   1.12141   -2.000
 7015.00    1.43865   1.12060   -2.000
 7016.00    1.45146   1.11911   -2.000
 7017.00    1.39925   1.11891   -2.000
 7018.00    1.30164   1.12072   -2.000
 7019.00    1.22689   1.12112   -2.000
 7020.00    1.20706   1.12107   -2.000
 7021.00    1.21331   1.12214   -2.000
 7022.00    1.22853   1.12309   -2.000
 7023.00    1.26472   1.12436   -2.000
 7024.00    1.29654   1.12510   -2.000
 7025.00    1.26026   1.12613   -2.000
 7026.00    1.15898   1.12875   -2.000
 7027.00    1.07329   1.13026   -2.000
 7028.00    1.04697   1.13110   -2.000
 7029.00    1.05960   1.13272   -2.000
 7030.00    1.08090   1.13442   -2.000
 7031.00    1.08876   1.13728   -2.000
 7032.00    1.06385   1.13941   -2.000
 7033.00    1.00167   1.13980   -2.000
 7034.00    0.95220   1.14193   -2.000
 7035.00    0.99024   1.14477   -2.000
 7036.00    1.10088   1.14803   -2.000
 7037.00    1.19425   1.15090   -2.000
 7038.00    1.23068   1.15156   -2.000
 7039.00    1.23076   1.15358   -2.000
 7040.00    1.21563   1.15675   -2.000
 7041.00    1.19375   1.15957   -2.000
 7042.00    1.16654   1.16137   -2.000
 7043.00    1.13911   1.16190   -2.000
 7044.00    1.13947   1.16222   -2.000
 7045.00    1.19395   1.16143   -2.000
 7046.00    1.27016   1.16085   -2.000
 7047.00    1.29340   1.15868   -2.000
 7048.00    1.20228   1.15496   -2.000
 7049.00    0.99628   1.15125   -2.000
 7050.00    0.79647   1.14548   -2.000
 7051.00    0.74885   1.14043   -2.000
 7052.00    0.84723   1.13444   -2.000
 7053.00    0.98539   1.12668   -2.000
 7054.00    1.08762   1.12021   -2.000
 7055.00    1.13165   1.11272   -2.000
 7056.00    1.14895   1.10653   -2.000
 7057.00    1.17765   1.10129   -2.000
 7058.00    1.19946   1.09460   -2.000
 7059.00    1.18011   1.08947   -2.000
 7060.00    1.13138   1.08462   -2.000
 7061.00    1.08073   1.08070   -2.000
 7062.00    1.02624   1.07854   -2.000
 7063.00    0.96688   1.07518   -2.000
 7064.00    0.93933   1.07339   -2.000
 7065.00    0.96557   1.07342   -2.000
 7066.00    0.99785   1.07289   -2.000
 7067.00    0.99579   1.07294   -2.000
 7068.00    1.00353   1.07300   -2.000
 7069.00    1.06933   1.07376   -2.000
 7070.00    1.16565   1.07646   -2.000
 7071.00    1.23531   1.07831   -2.000
 7072.00    1.24253   1.07903   -2.000
 7073.00    1.19680   1.08055   -2.000
 7074.00    1.16268   1.08139   -2.000
 7075.00    1.20151   1.08204   -2.000
 7076.00    1.32093   1.08250   -2.000
 7077.00    1.45353   1.08103   -2.000
 7078.00    1.46663   1.07987   -2.000
 7079.00    1.32866   1.07710   -2.000
 7080.00    1.19385   1.07305   -2.000
 7081.00    1.17569   1.07066   -2.000
 7082.00    1.21493   1.06595   -2.000
 7083.00    1.22715   1.06045   -2.000
 7084.00    1.19408   1.05518   -2.000
 7085.00    1.12592   1.04859   -2.000
 7086.00    1.03809   1.04513   -2.000
 7087.00    0.95963   1.04089   -2.000
 7088.00    0.92988   1.03485   -2.000
 7089.00    0.95545   1.03181   -2.000
 7090.00    0.99723   1.02797   -2.000
 7091.00    1.01593   1.02566   -2.000
 7092.00    0.99860   1.02499   -2.000
 7093.00    0.97469   1.02221   -2.000
 7094.00    1.00576   1.02246   -2.000
 7095.00    1.11503   1.02282   -2.000
 7096.00    1.26491   1.02252   -2.000
 7097.00    1.38960   1.02380   -2.000
 7098.00    1.42513   1.02360   -2.000
 7099.00    1.36735   1.02511   -2.000
 7100.00    1.27177   1.02709   -2.000
 7101.00    1.17799   1.02724   -2.000
 7102.00    1.10128   1.02765   -2.000
 7103.00    1.09157   1.02772   -2.000
 7104.00    1.20798   1.02881   -2.000
 7105.00    1.38472   1.03000   -2.000
 7106.00    1.46026   1.02936   -2.000
 7107.00    1.37672   1.02863   -2.000
 7108.00    1.20439   1.02891   -2.000
 7109.00    1.05006   1.02962   -2.000
 7110.00    0.99047   1.02935   -2.000
 7111.00    0.97547   1.02865   -2.000
 7112.00    0.89834   1.02815   -2.000
 7113.00    0.81227   1.02860   -2.000
 7114.00    0.85875   1.02874   -2.000
 7115.00    1.00168   1.02767   -2.000
 7116.00    1.08463   1.02755   -2.000
 7117.00    1.06997   1.02638   -2.000
 7118.00    1.02361   1.02536   -2.000
 7119.00    0.98814   1.02482   -2.000
 7120.00    0.97090   1.02260   -2.000
 7121.00    0.96816   1.02126   -2.000
 7122.00    0.96427   1.01865   -2.000
 7123.00    0.92427   1.01636   -2.000
 7124.00    0.83007   1.01585   -2.000
 7125.00    0.73718   1.01271   -2.000
 7126.00    0.72263   1.00988   -2.000
 7127.00    0.79489   1.00845   -2.000
 7128.00    0.91689   1.00733   -2.000
 7129.00    1.05683   1.00744   -2.000
 7130.00    1.18518   1.00579   -2.000
 7131.00    1.26197   1.00418   -2.000
 7132.00    1.24848   1.00586   -2.000
 7133.00    1.12598   1.00704   -2.000
 7134.00    0.92611   1.00746   -2.000
 7135.00    0.75489   1.00822   -2.000
 7136.00    0.67720   1.00922   -2.000
 7137.00    0.60060   1.01152   -2.000
 7138.00    0.43812   1.01307   -2.000
 7139.00    0.27744   1.01287   -2.000
 7140.00    0.25005   1.01339   -2.000
 7141.00    0.38816   1.01572   -2.000
 7142.00    0.62934   1.01650   -2.000
 7143.00    0.84459   1.01571   -2.000
 7144.00    0.94512   1.01644   -2.000
 7145.00    0.96282   1.01694   -2.000
 7146.00    0.96354   1.01792   -2.000
 7147.00    0.97454   1.01860   -2.000
 7148.00    1.01008   1.01762   -2.000
 7149.00    1.09036   1.01956   -2.000
 7150.00    1.20825   1.02111   -2.000
 7151.00    1.31109   1.02087   -2.000
 7152.00    1.34502   1.02284   -2.000
 7153.00    1.28522   1.02415   -2.000
 7154.00    1.13236   1.02557   -2.000
 7155.00    0.91635   1.02628   -2.000
 7156.00    0.73792   1.02561   -2.000
 7157.00    0.75221   1.02801   -2.000
 7158.00    0.94471   1.02921   -2.000
 7159.00    1.07179   1.02836   -2.000
 7160.00    1.00454   1.02831   -2.000
 7161.00    0.86762   1.02836   -2.000
 7162.00    0.82275   1.02989   -2.000
 7163.00    0.94848   1.03070   -2.000
 7164.00    1.20074   1.02974   -2.000
 7165.00    1.42709   1.02995   -2.000
 7166.00    1.49540   1.03153   -2.000
 7167.00    1.35822   1.03326   -2.000
 7168.00    1.08152   1.03419   -2.000
 7169.00    0.81735   1.03485   -2.000
 7170.00    0.66252   1.03609   -2.000
 7171.00    0.61884   1.03699   -2.000
 7172.00    0.64493   1.03795   -2.000
 7173.00    0.68178   1.03848   -2.000
 7174.00    0.67296   1.03836   -2.000
 7175.00    0.59129   1.03871   -2.000
 7176.00    0.49688   1.03723   -2.000
 7177.00    0.49024   1.03593   -2.000
 7178.00    0.53131   1.03675   -2.000
 7179.00    0.50783   1.03503   -2.000
 7180.00    0.55533   1.03268   -2.000
 7181.00    0.91757   1.03089   -2.000
 7182.00    1.38450   1.02861   -2.000
 7183.00    1.48993   1.02884   -2.000
 7184.00    1.31032   1.02706   -2.000
 7185.00    1.28443   1.02433   -2.000
 7186.00    1.39406   1.02458   -2.000
 7187.00    1.30553   1.02297   -2.000
 7188.00    1.04475   1.02139   -2.000
 7189.00    0.89965   1.02089   -2.000
 7190.00    0.95013   1.02031   -2.000
 7191.00    1.08727   1.02192   -2.000
 7192.00    1.22171   1.02187   -2.000
 7193.00    1.32718   1.02090   -2.000
 7194.00    1.44314   1.02165   -2.000
 7195.00    1.58815   1.02295   -2.000
 7196.00    1.62931   1.02416   -2.000
 7197.00    1.45054   1.02395   -2.000
 7198.00    1.22442   1.02473   -2.000
 7199.00    1.15051   1.02607   -2.000
 7200.00    1.04666   1.02671   -2.000
 7201.00    0.70690   1.02711   -2.000
 7202.00    0.42874   1.02607   -2.000
 7203.00    0.58179   1.02716   -2.000
 7204.00    1.00127   1.02849   -2.000
 7205.00    1.32044   1.02825   -2.000
 7206.00    1.44378   1.02914   -2.000
 7207.00    1.43807   1.02818   -2.000
 7208.00    1.35271   1.02865   -2.000
 7209.00    1.22896   1.03081   -2.000
 7210.00    1.12658   1.03111   -2.000
 7211.00    1.09588   1.03325   -2.000
 7212.00    1.15050   1.03508   -2.000
 7213.00    1.29875   1.03606   -2.000
 7214.00    1.56493   1.03855   -2.000
 7215.00    1.89404   1.03993   -2.000
 7216.00    2.09044   1.04155   -2.000
 7217.00    2.01612   1.04493   -2.000
 7218.00    1.74332   1.04740   -2.000
