###################################################################
## OUTPUT of StarlightChains_v04.for    [Cid@UFSC - 01/Apr/2007] ##
###################################################################

## Some input info
2003lq.txt                               [arq_obs]
Base.CB07.vall.4m                        [arq_base]
Masks.EmLines.NEW.gm                     [arq_masks]
StCv04.C11.config                        [arq_config]
   66                                    [N_base]
    0                                    [N_YAV_components = # of components with extra extinction!]
    0                                    [i_FitPowerLaw (1/0 = Yes/No)]
-9.99                                    [alpha_PowerLaw]
CCM                                      [red_law_option]
 1.458241                                [q_norm = A(l_norm)/A(V)]

## (Re)Sampling Parameters
 3741.00                                 [l_ini (A)]
 7218.00                                 [l_fin (A)]
    1.00                                 [dl    (A)]     (OBS: dl_cushion =    50.00 A)

## Normalization info
 4020.00                                 [l_norm (A) - for base]
 4010.00                                 [llow_norm (A) - window for f_obs]
 4060.00                                 [lupp_norm (A) - window for f_obs]
3.904536E-17                             [fobs_norm (in input units)]

## S/N
 3691.00                                 [llow_SN (A) - window for S/N]
 7268.00                                 [lupp_SN (A) - window for S/N]
   7.419                                 [S/N in S/N window]
   7.484                                 [S/N in norm. window]
  10.000                                 [S/N_err in S/N window]
  10.088                                 [S/N_err in norm. window]
  1.0000                                 [fscale_chi2]

## etc...
    -2007284                             [idum_orig]
  2376                                   [NOl_eff]
  2373                                   [Nl_eff]
     3    NSIGMA                         [Ntot_cliped & clip_method]
   924840                                [Nglobal_steps]
   7                                     [N_chains]
  15                                     [NEX0s_base = N_base in EX0s-fits]
 0   0   1       90   2.0   1.425E+01    [Clip-Bug, RC-Crash & Burn-In warning-flags, n_censored_weights, wei_nsig_threshold & wei_limit]
    13     12.379     11.881      0.497  [idt_all, wdt_TotTime, wdt_UsrTime & wdt_SysTime (sec)]

## Synthesis Results - Best model ##

 3.96784E-01                             [chi2/Nl_eff]
     5.07284                             [adev (%)]

   110.82921                             [sum-of-x (%)]
 5.41839E-17                             [Flux_tot (units of input spectrum!)]
 3.94957E-13                             [Mini_tot (???)]
 2.25772E-13                             [Mcor_tot (???)]

-116.59                                  [v0_min  (km/s)]
 189.80                                  [vd_min  (km/s)]
 0.1674                                  [AV_min  (mag)]
 0.0000                                  [YAV_min (mag)]

# j     x_j(%)      Mini_j(%)     Mcor_j(%)     age_j(yr)     Z_j      (L/M)_j    YAV?  Mstars   component_j        a/Fe...       SSP_chi2r SSP_adev(%)   SSP_AV   SSP_x(%)
  1      0.0000     0.0000E+00    0.0000E+00    1.000000E+06  0.00400  1.094E-02    0   1.0000   age020_m42            0.0000     1.1207E+00     7.8988   3.0894    89.2280
  2      0.0000     0.0000E+00    0.0000E+00    3.160000E+06  0.00400  4.007E-02    0   0.9999   age045_m42            0.0000     7.6578E-01     6.6937   2.3200    97.2902
  3      0.0000     0.0000E+00    0.0000E+00    5.010000E+06  0.00400  2.539E-02    0   0.9488   age055_m42            0.0000     9.0514E-01     7.1842   2.6584    94.0746
  4      0.0000     0.0000E+00    0.0000E+00    6.610000E+06  0.00400  2.620E-02    0   0.9220   age061_m42            0.0000     7.7292E-01     6.6975   2.2423    97.6193
  5      0.0000     0.0000E+00    0.0000E+00    1.000000E+07  0.00400  1.322E-02    0   0.8862   age070_m42            0.0000     9.6575E-01     7.5696   1.9668    98.9903
  6      0.0000     0.0000E+00    0.0000E+00    1.445000E+07  0.00400  7.883E-03    0   0.8571   age078_m42            0.0000     1.0308E+00     7.8103   2.3053    96.0123
  7      0.0000     0.0000E+00    0.0000E+00    2.512000E+07  0.00400  5.251E-03    0   0.8174   age090_m42            0.0000     9.8711E-01     7.7074   1.8353    99.5564
  8      0.0000     0.0000E+00    0.0000E+00    4.000000E+07  0.00400  3.649E-03    0   0.7851   age104_m42            0.0000     8.9769E-01     7.3614   1.5987   100.8760
  9     14.0895     5.6296E-01    7.5132E-01    5.500000E+07  0.00400  3.098E-03    0   0.7629   age110_m42            0.0000     7.9238E-01     6.8237   1.7421   101.5297
 10      0.0000     0.0000E+00    0.0000E+00    1.015200E+08  0.00400  2.228E-03    0   0.7207   age116_m42            0.0000     7.4624E-01     6.5420   1.7548   102.1922
 11      0.0000     0.0000E+00    0.0000E+00    2.861200E+08  0.00400  1.093E-03    0   0.6648   age125_m42            0.0000     7.9178E-01     6.8314   1.1715   105.7446
 12      0.0000     0.0000E+00    0.0000E+00    5.088000E+08  0.00400  6.597E-04    0   0.6365   age130_m42            0.0000     6.9128E-01     6.3237   1.1501   107.4475
 13      5.9791     3.4715E+00    3.5211E+00    1.434000E+09  0.00400  2.132E-04    0   0.5798   age139_m42            0.0000     4.7589E-01     5.5322   0.1657   110.5039
 14     26.1619     5.4935E+01    5.1674E+01    4.250000E+09  0.00400  5.895E-05    0   0.5377   age158_m42            0.0000     4.2849E-01     5.2620  -0.2636   106.0046
 15      0.0000     0.0000E+00    0.0000E+00    7.500000E+09  0.00400  3.510E-05    0   0.5212   age171_m42            0.0000     4.8030E-01     5.4607  -0.4535   105.4974
 16      0.0000     0.0000E+00    0.0000E+00    1.300000E+10  0.00400  2.005E-05    0   0.5034   age193_m42            0.0000     5.5742E-01     5.7427  -0.6195   105.0557
 17      0.0000     0.0000E+00    0.0000E+00    1.800000E+10  0.00400  1.525E-05    0   0.4967   age213_m42            0.0000     5.5270E-01     5.7211  -0.6405   104.4783
 18      0.0000     0.0000E+00    0.0000E+00    1.000000E+06  0.00800  1.238E-02    0   1.0000   age020_m52            0.0000     1.1208E+00     7.8946   3.0853    89.4148
 19      0.0000     0.0000E+00    0.0000E+00    3.160000E+06  0.00800  3.074E-02    0   0.9966   age045_m52            0.0000     1.0733E+00     7.7451   3.0060    90.3453
 20      0.0000     0.0000E+00    0.0000E+00    5.010000E+06  0.00800  2.668E-02    0   0.9443   age055_m52            0.0000     9.4825E-01     7.3511   2.7466    92.9792
 21      0.0000     0.0000E+00    0.0000E+00    6.610000E+06  0.00800  2.136E-02    0   0.9177   age061_m52            0.0000     8.7135E-01     7.2246   1.4694   100.1387
 22      0.0000     0.0000E+00    0.0000E+00    1.000000E+07  0.00800  1.215E-02    0   0.8827   age070_m52            0.0000     1.0928E+00     8.1246   2.1537    98.2867
 23      0.0000     0.0000E+00    0.0000E+00    1.445000E+07  0.00800  8.717E-03    0   0.8552   age078_m52            0.0000     9.9839E-01     7.6812   2.2669    97.5119
 24      0.0000     0.0000E+00    0.0000E+00    2.512000E+07  0.00800  5.592E-03    0   0.8162   age090_m52            0.0000     9.8598E-01     7.7129   1.8965   100.8336
 25      0.0000     0.0000E+00    0.0000E+00    4.000000E+07  0.00800  3.896E-03    0   0.7841   age104_m52            0.0000     8.8821E-01     7.3022   1.7974   102.2263
 26      0.0000     0.0000E+00    0.0000E+00    1.015200E+08  0.00800  2.148E-03    0   0.7226   age116_m52            0.0000     7.4768E-01     6.6447   1.7238   102.8422
 27      0.0000     0.0000E+00    0.0000E+00    2.861200E+08  0.00800  9.925E-04    0   0.6683   age125_m52            0.0000     6.8245E-01     6.2802   1.2127   108.5288
 28      0.0000     0.0000E+00    0.0000E+00    9.047900E+08  0.00800  3.141E-04    0   0.6138   age135_m52            0.0000     4.9347E-01     5.5360   0.3867   114.8368
 29      0.0000     0.0000E+00    0.0000E+00    1.434000E+09  0.00800  1.719E-04    0   0.5853   age139_m52            0.0000     4.5848E-01     5.4873  -0.1792   111.8606
 30      0.0000     0.0000E+00    0.0000E+00    2.500000E+09  0.00800  7.872E-05    0   0.5600   age150_m52            0.0000     4.6608E-01     5.4715  -0.4467   109.1484
 31      0.0000     0.0000E+00    0.0000E+00    4.250000E+09  0.00800  4.336E-05    0   0.5426   age158_m52            0.0000     4.9778E-01     5.5636  -0.4593   108.0005
 32      0.0000     0.0000E+00    0.0000E+00    6.250000E+09  0.00800  3.159E-05    0   0.5319   age166_m52            0.0000     5.9172E-01     5.9096  -0.6687   108.5167
 33      0.0000     0.0000E+00    0.0000E+00    1.300000E+10  0.00800  1.361E-05    0   0.5073   age193_m52            0.0000     8.7255E-01     6.8005  -1.0000   102.7009
 34      0.0000     0.0000E+00    0.0000E+00    1.800000E+10  0.00800  9.886E-06    0   0.4990   age213_m52            0.0000     1.2243E+00     7.8735  -1.0000    98.1763
 35      0.0000     0.0000E+00    0.0000E+00    1.000000E+06  0.02000  1.544E-02    0   1.0000   age020_m62            0.0000     1.1308E+00     7.9268   3.0824    89.5801
 36      0.0000     0.0000E+00    0.0000E+00    3.160000E+06  0.02000  3.762E-02    0   0.9858   age045_m62            0.0000     1.1080E+00     7.8722   3.0203    90.4305
 37      0.0000     0.0000E+00    0.0000E+00    5.010000E+06  0.02000  3.296E-02    0   0.9342   age055_m62            0.0000     8.2663E-01     6.8567   2.6091    95.6985
 38      0.0000     0.0000E+00    0.0000E+00    8.710000E+06  0.02000  1.154E-02    0   0.8861   age067_m62            0.0000     1.9882E+00    11.6252   1.6283    99.0098
 39      0.0000     0.0000E+00    0.0000E+00    1.445000E+07  0.02000  7.663E-03    0   0.8472   age078_m62            0.0000     1.2743E+00     8.9948   1.8011   100.2108
 40      0.0000     0.0000E+00    0.0000E+00    2.512000E+07  0.02000  4.532E-03    0   0.8099   age090_m62            0.0000     1.3201E+00     9.1669   1.7909    99.9824
 41      0.0000     0.0000E+00    0.0000E+00    5.500000E+07  0.02000  2.733E-03    0   0.7595   age110_m62            0.0000     9.0815E-01     7.3544   1.7850   101.2772
 42      0.0000     0.0000E+00    0.0000E+00    1.609000E+08  0.02000  1.369E-03    0   0.6985   age120_m62            0.0000     7.6506E-01     6.5553   1.5950   105.6858
 43      0.0000     0.0000E+00    0.0000E+00    2.861200E+08  0.02000  9.013E-04    0   0.6714   age125_m62            0.0000     7.2365E-01     6.3480   1.3237   109.9144
 44     13.5595     3.3382E+00    3.7660E+00    5.088000E+08  0.02000  5.028E-04    0   0.6449   age130_m62            0.0000     5.8759E-01     5.8772   0.9226   114.3972
 45      0.0000     0.0000E+00    0.0000E+00    9.047900E+08  0.02000  2.428E-04    0   0.6179   age135_m62            0.0000     4.3960E-01     5.2905   0.3355   113.9811
 46      0.0000     0.0000E+00    0.0000E+00    1.434000E+09  0.02000  1.263E-04    0   0.5908   age139_m62            0.0000     4.5500E-01     5.3954  -0.1015   112.0575
 47      0.0000     0.0000E+00    0.0000E+00    2.500000E+09  0.02000  5.985E-05    0   0.5673   age150_m62            0.0000     5.5564E-01     5.7776  -0.4676   110.7671
 48      0.0000     0.0000E+00    0.0000E+00    4.250000E+09  0.02000  3.271E-05    0   0.5468   age158_m62            0.0000     7.4529E-01     6.5021  -0.7797   110.4209
 49      0.0000     0.0000E+00    0.0000E+00    1.000000E+10  0.02000  1.360E-05    0   0.5167   age181_m62            0.0000     1.1766E+00     7.7273  -1.0000   105.1455
 50      0.0000     0.0000E+00    0.0000E+00    1.800000E+10  0.02000  7.124E-06    0   0.5013   age213_m62            0.0000     1.8811E+00     9.5721  -1.0000    96.2140
 51      0.0000     0.0000E+00    0.0000E+00    1.000000E+06  0.05000  2.592E-02    0   0.9998   age020_m72            0.0000     1.1744E+00     8.0707   3.0788    89.3978
 52      0.0000     0.0000E+00    0.0000E+00    3.160000E+06  0.05000  4.845E-02    0   0.9577   age045_m72            0.0000     9.7706E-01     7.4242   2.8900    92.2297
 53      0.0000     0.0000E+00    0.0000E+00    5.010000E+06  0.05000  3.072E-02    0   0.9147   age055_m72            0.0000     1.2307E+00     8.5932   2.3985    96.1780
 54      0.0000     0.0000E+00    0.0000E+00    6.610000E+06  0.05000  1.455E-02    0   0.8877   age061_m72            0.0000     2.8436E+00    14.2242   1.6749    99.3055
 55      0.0000     0.0000E+00    0.0000E+00    1.000000E+07  0.05000  9.074E-03    0   0.8524   age070_m72            0.0000     1.4000E+00     9.1008   2.5794    95.9439
 56      0.0000     0.0000E+00    0.0000E+00    2.512000E+07  0.05000  4.250E-03    0   0.7902   age090_m72            0.0000     1.1799E+00     8.3994   2.2601    98.6051
 57      0.0000     0.0000E+00    0.0000E+00    4.000000E+07  0.05000  3.087E-03    0   0.7618   age104_m72            0.0000     1.1813E+00     8.4403   2.0235   100.5933
 58      0.0000     0.0000E+00    0.0000E+00    1.015200E+08  0.05000  1.700E-03    0   0.7096   age116_m72            0.0000     8.5243E-01     6.9694   1.7426   104.8416
 59      0.0069     1.1595E-03    1.3454E-03    2.861200E+08  0.05000  7.384E-04    0   0.6633   age125_m72            0.0000     6.6124E-01     6.1063   1.1794   112.2128
 60      0.0000     0.0000E+00    0.0000E+00    5.088000E+08  0.05000  3.819E-04    0   0.6372   age130_m72            0.0000     4.8156E-01     5.3974   0.6750   115.0128
 61     51.0324     3.7691E+01    4.0286E+01    9.047900E+08  0.05000  1.676E-04    0   0.6110   age135_m72            0.0000     4.9847E-01     5.5460  -0.0176   113.2264
 62      0.0000     0.0000E+00    0.0000E+00    1.434000E+09  0.05000  8.837E-05    0   0.5874   age139_m72            0.0000     6.0362E-01     5.9491  -0.4738   112.7101
 63      0.0000     0.0000E+00    0.0000E+00    2.500000E+09  0.05000  4.233E-05    0   0.5598   age150_m72            0.0000     8.2172E-01     6.7645  -0.7852   111.6876
 64      0.0000     0.0000E+00    0.0000E+00    6.250000E+09  0.05000  1.435E-05    0   0.5249   age166_m72            0.0000     1.3923E+00     8.3788  -1.0000   100.9592
 65      0.0000     0.0000E+00    0.0000E+00    1.300000E+10  0.05000  6.513E-06    0   0.5036   age193_m72            0.0000     2.5705E+00    11.2873  -1.0000    91.0615
 66      0.0000     0.0000E+00    0.0000E+00    1.800000E+10  0.05000  4.527E-06    0   0.4945   age213_m72            0.0000     3.4586E+00    13.0980  -1.0000    84.8584


## Synthesis Results - Average & Chains ##

# j      x_j: min, <> & last-chain-values for 1 ...  7 chains
  1      0.0000      0.1468      0.0000      0.0000      0.0000      0.0000      0.0000      0.0000      0.0810
  2      0.0000      0.3596      0.7485      0.0000      0.0000      2.0378      0.0000      1.0914      0.0000
  3      0.0000      0.2542      0.0000      0.0000      0.0000      0.0000      0.0000      0.5828      1.6011
  4      0.0000      0.1276      0.0000      0.0000      0.0000      0.0000      0.0000      0.0000      0.0000
  5      0.0000      0.3789      0.0000      0.6333      0.0000      0.1018      0.0000      1.3913      0.0000
  6      0.0000      0.2548      0.0000      0.0000      0.0000      0.8928      0.0000      0.0000      0.0000
  7      0.0000      0.8416      0.0000      2.7214      3.1083      0.0000      2.4616      0.8389      0.3267
  8      0.0000      0.5609      2.0330      0.0000      0.0000      0.0000      0.0000      1.1968      0.1787
  9     14.0895      0.6898      3.7184      3.2374      0.0000      0.0000      0.3002      0.0000      2.2265
 10      0.0000      0.3788      1.9042      0.1312      0.0000      0.0000      0.0000      0.0000      0.0000
 11      0.0000      0.4905      0.0000      0.0000      0.0000      0.1275      0.1668      0.0000      0.0000
 12      0.0000      0.7968      1.4702      0.0000      0.1443      2.5701      3.9779      0.0000      0.2031
 13      5.9791     18.2537     16.5202     16.1786     20.0159     14.8339     20.4743     26.2980     17.0645
 14     26.1619      8.2726      8.7942      8.0457     12.8144      8.8657      8.1837      6.0861     12.4522
 15      0.0000      0.9137      4.8565      1.1551      0.0000      0.0000      0.4981      2.0245      0.0000
 16      0.0000      0.1426      0.0000      0.0000      0.4136      0.0000      1.1823      0.0000      0.0000
 17      0.0000      0.2867      0.0000      0.1194      0.0000      0.0411      0.0000      0.0000      1.3480
 18      0.0000      0.0951      0.3230      0.0000      0.8488      0.0000      0.0000      0.0000      0.0000
 19      0.0000      0.1134      0.0000      0.0000      0.0000      0.0000      0.4761      0.0000      0.0000
 20      0.0000      0.2703      0.4706      0.0000      0.0000      0.0000      0.0000      0.6701      1.9184
 21      0.0000      0.5569      0.0000      0.0000      0.0000      2.0689      0.0000      3.3471      0.7467
 22      0.0000      0.3881      0.4938      0.0000      2.0102      0.0000      0.0000      0.0000      0.0000
 23      0.0000      0.1902      0.0336      0.9569      0.0000      0.0000      1.5399      0.3149      0.0000
 24      0.0000      0.2324      0.0000      0.0000      0.0000      1.4186      0.0000      0.0000      1.3322
 25      0.0000      0.2752      0.0000      0.0000      0.5929      0.0000      1.4244      0.0000      0.0000
 26      0.0000      0.9844      3.6011      2.2246      0.0000      0.0000      3.4209      0.0000      0.0000
 27      0.0000      0.5949      0.0000      0.0000      0.0000      0.7950      0.3325      0.0000      0.0000
 28      0.0000      1.6377      0.0000      0.0000      0.0000      0.0000      0.0000      1.0903      0.0000
 29      0.0000      0.5793      0.0000      0.0000      0.0000      0.0000      0.0000      0.0000      0.0000
 30      0.0000      0.8626      0.0000      0.0000      0.0000      0.1621      0.0000      0.0000      0.0000
 31      0.0000      0.7887      0.0000      0.4274      0.0000      0.0000      0.0000      0.0000      0.0000
 32      0.0000      0.4492      2.3406      0.0000      0.0000      0.0000      0.0000      0.0000      0.0000
 33      0.0000      0.1085      0.0000      0.0000      0.0000      0.0000      0.0000      0.0000      0.0000
 34      0.0000      0.0799      0.0000      0.0000      0.0000      0.0000      0.0000      0.0000      1.0604
 35      0.0000      0.1360      1.0990      0.0000      0.0000      0.0000      0.0000      0.0000      0.0000
 36      0.0000      0.1919      0.0000      0.0000      0.0000      0.0000      0.0000      0.0000      0.0000
 37      0.0000      0.2816      0.0000      0.0000      0.0000      0.0000      0.0000      0.0000      1.0558
 38      0.0000      0.1830      0.0000      1.6773      0.0000      0.0000      0.0000      0.0000      0.1147
 39      0.0000      0.1701      0.0000      0.0000      0.0000      1.8112      0.0000      0.0000      0.1248
 40      0.0000      0.3407      0.0000      0.0000      0.3573      0.0000      0.0000      0.0000      0.0000
 41      0.0000      0.5217      0.0000      0.0000      0.0000      1.1143      0.9558      0.0000      0.0000
 42      0.0000      0.2567      0.0000      0.0000      0.0000      0.0000      0.0000      0.3580      0.0000
 43      0.0000      1.2678      0.0000      0.0000      0.1401      1.8755      0.0000      2.0774      0.0000
 44     13.5595      2.3998      4.9333      2.5134      6.3389      2.4547      1.2667      2.0180     10.8073
 45      0.0000      4.0730      0.0000      2.6594      0.0000      4.1557      0.0000      2.9033      0.0000
 46      0.0000      2.7175      0.0000      1.8454      1.8254      1.2854      0.0000      4.4578      0.0000
 47      0.0000      0.7539      0.2975      0.0690      0.0000      0.0000      0.0000      0.0000      0.0000
 48      0.0000      0.2204      0.0000      0.0000      1.0533      0.0000      0.0000      0.0000      0.7642
 49      0.0000      0.0905      0.0000      0.0000      0.0000      0.0000      0.0000      0.0000      0.0000
 50      0.0000      0.0592      0.0000      0.0000      0.0000      0.0000      0.0000      0.0000      0.0000
 51      0.0000      0.3799      0.0000      0.0000      0.0000      0.0000      0.0000      0.0000      0.0000
 52      0.0000      0.3096      0.0000      0.3613      2.6131      2.4639      0.0073      0.0000      0.0000
 53      0.0000      0.1481      0.0000      0.0000      0.0000      0.0000      0.7829      0.1186      0.9129
 54      0.0000      0.2393      0.0000      0.0000      0.0000      0.0000      0.0000      0.0000      0.0000
 55      0.0000      0.1272      0.0000      0.0000      0.0000      0.0000      0.0000      0.0000      0.0000
 56      0.0000      0.3335      0.0000      0.0000      0.0000      0.0000      0.0000      0.0000      0.0000
 57      0.0000      0.1876      0.0000      0.0000      0.0000      0.0000      0.0000      0.6025      0.0000
 58      0.0000      0.3566      0.0000      0.0000      2.7050      0.0000      0.2481      0.0000      0.0000
 59      0.0069      0.4584      0.0000      0.0000      0.0000      0.0000      0.0000      0.0000      2.0191
 60      0.0000      3.8247      1.8370      8.7257      3.0601      4.8207      3.5141      1.9689      2.2207
 61     51.0324     48.6150     55.2220     58.0524     52.9644     55.5903     60.4471     50.5504     52.8139
 62      0.0000      0.5455      0.0000      0.0000      0.0000      0.0000      0.0000      0.3144      0.0000
 63      0.0000      0.5100      0.0000      0.0000      0.0000      1.9262      0.0000      1.2059      0.0000
 64      0.0000      0.0669      0.6504      0.0000      0.0000      0.0000      0.0000      0.0000      0.0000
 65      0.0000      0.0267      0.0000      0.0000      0.0000      0.0000      0.0000      0.0000      0.0000
 66      0.0000      0.0156      0.0000      0.0000      0.0000      0.0000      0.0000      0.0000      0.0000

# j      m_j: min, <> & last-chain-values for 1 ...  7 chains
  1  0.0000E+00  3.0650E-03  0.0000E+00  0.0000E+00  0.0000E+00  0.0000E+00  0.0000E+00  0.0000E+00  1.5325E-03
  2  0.0000E+00  2.0492E-03  3.9015E-03  0.0000E+00  0.0000E+00  1.3204E-02  0.0000E+00  6.8381E-03  0.0000E+00
  3  0.0000E+00  2.1691E-03  0.0000E+00  0.0000E+00  0.0000E+00  0.0000E+00  0.0000E+00  5.4682E-03  1.2377E-02
  4  0.0000E+00  1.0254E-03  0.0000E+00  0.0000E+00  0.0000E+00  0.0000E+00  0.0000E+00  0.0000E+00  0.0000E+00
  5  0.0000E+00  5.8005E-03  0.0000E+00  1.0842E-02  0.0000E+00  1.7727E-03  0.0000E+00  2.3417E-02  0.0000E+00
  6  0.0000E+00  6.3262E-03  0.0000E+00  0.0000E+00  0.0000E+00  2.5207E-02  0.0000E+00  0.0000E+00  0.0000E+00
  7  0.0000E+00  2.9918E-02  0.0000E+00  1.0820E-01  1.1618E-01  0.0000E+00  9.5351E-02  3.2787E-02  1.0521E-02
  8  0.0000E+00  2.7560E-02  9.1364E-02  0.0000E+00  0.0000E+00  0.0000E+00  0.0000E+00  6.4655E-02  7.9535E-03
  9  7.5132E-01  3.8791E-02  1.9126E-01  2.0362E-01  0.0000E+00  0.0000E+00  1.8393E-02  0.0000E+00  1.1343E-01
 10  0.0000E+00  2.7983E-02  1.2866E-01  1.0838E-02  0.0000E+00  0.0000E+00  0.0000E+00  0.0000E+00  0.0000E+00
 11  0.0000E+00  6.8139E-02  0.0000E+00  0.0000E+00  0.0000E+00  2.0144E-02  2.5241E-02  0.0000E+00  0.0000E+00
 12  0.0000E+00  1.7558E-01  2.9629E-01  0.0000E+00  3.3428E-02  6.4390E-01  9.5502E-01  0.0000E+00  4.0548E-02
 13  3.5211E+00  1.1337E+01  9.3841E+00  1.1237E+01  1.3070E+01  1.0475E+01  1.3855E+01  1.7957E+01  9.6005E+00
 14  5.1674E+01  1.7232E+01  1.6755E+01  1.8744E+01  2.8065E+01  2.0998E+01  1.8574E+01  1.3939E+01  2.3497E+01
 15  0.0000E+00  3.0985E+00  1.5063E+01  4.3808E+00  0.0000E+00  0.0000E+00  1.8406E+00  7.5481E+00  0.0000E+00
 16  0.0000E+00  8.1792E-01  0.0000E+00  0.0000E+00  2.4937E+00  0.0000E+00  7.3862E+00  0.0000E+00  0.0000E+00
 17  0.0000E+00  2.1323E+00  0.0000E+00  9.9320E-01  0.0000E+00  3.4749E-01  0.0000E+00  0.0000E+00  9.0829E+00
 18  0.0000E+00  1.7551E-03  5.4488E-03  0.0000E+00  1.6462E-02  0.0000E+00  0.0000E+00  0.0000E+00  0.0000E+00
 19  0.0000E+00  8.3998E-04  0.0000E+00  0.0000E+00  0.0000E+00  0.0000E+00  3.8408E-03  0.0000E+00  0.0000E+00
 20  0.0000E+00  2.1849E-03  3.4793E-03  0.0000E+00  0.0000E+00  0.0000E+00  0.0000E+00  5.9553E-03  1.4046E-02
 21  0.0000E+00  5.4638E-03  0.0000E+00  0.0000E+00  0.0000E+00  2.3081E-02  0.0000E+00  3.6107E-02  6.6367E-03
 22  0.0000E+00  6.4390E-03  7.4927E-03  0.0000E+00  3.5066E-02  0.0000E+00  0.0000E+00  0.0000E+00  0.0000E+00
 23  0.0000E+00  4.2621E-03  6.8891E-04  2.3978E-02  0.0000E+00  0.0000E+00  3.7592E-02  7.7570E-03  0.0000E+00
 24  0.0000E+00  7.7459E-03  0.0000E+00  0.0000E+00  0.0000E+00  5.3766E-02  0.0000E+00  0.0000E+00  4.0226E-02
 25  0.0000E+00  1.2648E-02  0.0000E+00  0.0000E+00  2.8649E-02  0.0000E+00  7.1332E-02  0.0000E+00  0.0000E+00
 26  0.0000E+00  7.5629E-02  2.5304E-01  1.9114E-01  0.0000E+00  0.0000E+00  2.8636E-01  0.0000E+00  0.0000E+00
 27  0.0000E+00  9.1483E-02  0.0000E+00  0.0000E+00  0.0000E+00  1.3900E-01  5.5705E-02  0.0000E+00  0.0000E+00
 28  0.0000E+00  7.3088E-01  0.0000E+00  0.0000E+00  0.0000E+00  0.0000E+00  0.0000E+00  5.3497E-01  0.0000E+00
 29  0.0000E+00  4.5049E-01  0.0000E+00  0.0000E+00  0.0000E+00  0.0000E+00  0.0000E+00  0.0000E+00  0.0000E+00
 30  0.0000E+00  1.4015E+00  0.0000E+00  0.0000E+00  0.0000E+00  2.9934E-01  0.0000E+00  0.0000E+00  0.0000E+00
 31  0.0000E+00  2.2541E+00  0.0000E+00  1.3659E+00  0.0000E+00  0.0000E+00  0.0000E+00  0.0000E+00  0.0000E+00
 32  0.0000E+00  1.7273E+00  8.2318E+00  0.0000E+00  0.0000E+00  0.0000E+00  0.0000E+00  0.0000E+00  0.0000E+00
 33  0.0000E+00  9.2397E-01  0.0000E+00  0.0000E+00  0.0000E+00  0.0000E+00  0.0000E+00  0.0000E+00  0.0000E+00
 34  0.0000E+00  9.2156E-01  0.0000E+00  0.0000E+00  0.0000E+00  0.0000E+00  0.0000E+00  0.0000E+00  1.1072E+01
 35  0.0000E+00  2.0123E-03  1.4867E-02  0.0000E+00  0.0000E+00  0.0000E+00  0.0000E+00  0.0000E+00  0.0000E+00
 36  0.0000E+00  1.1482E-03  0.0000E+00  0.0000E+00  0.0000E+00  0.0000E+00  0.0000E+00  0.0000E+00  0.0000E+00
 37  0.0000E+00  1.8226E-03  0.0000E+00  0.0000E+00  0.0000E+00  0.0000E+00  0.0000E+00  0.0000E+00  6.1909E-03
 38  0.0000E+00  3.2084E-03  0.0000E+00  3.2895E-02  0.0000E+00  0.0000E+00  0.0000E+00  0.0000E+00  1.8220E-03
 39  0.0000E+00  4.2951E-03  0.0000E+00  0.0000E+00  0.0000E+00  5.1995E-02  0.0000E+00  0.0000E+00  2.8542E-03
 40  0.0000E+00  1.3904E-02  0.0000E+00  0.0000E+00  1.5332E-02  0.0000E+00  0.0000E+00  0.0000E+00  0.0000E+00
 41  0.0000E+00  3.3111E-02  0.0000E+00  0.0000E+00  0.0000E+00  8.0406E-02  6.6091E-02  0.0000E+00  0.0000E+00
 42  0.0000E+00  2.9908E-02  0.0000E+00  0.0000E+00  0.0000E+00  0.0000E+00  0.0000E+00  4.5858E-02  0.0000E+00
 43  0.0000E+00  2.1567E-01  0.0000E+00  0.0000E+00  2.5055E-02  3.6278E-01  0.0000E+00  3.8855E-01  0.0000E+00
 44  3.7660E+00  7.0294E-01  1.3217E+00  8.2335E-01  1.9522E+00  8.1754E-01  4.0428E-01  6.4990E-01  2.8676E+00
 45  0.0000E+00  2.3672E+00  0.0000E+00  1.7286E+00  0.0000E+00  2.7462E+00  0.0000E+00  1.8551E+00  0.0000E+00
 46  0.0000E+00  2.9030E+00  0.0000E+00  2.2048E+00  2.0503E+00  1.5613E+00  0.0000E+00  5.2358E+00  0.0000E+00
 47  0.0000E+00  1.6319E+00  5.8898E-01  1.6695E-01  0.0000E+00  0.0000E+00  0.0000E+00  0.0000E+00  0.0000E+00
 48  0.0000E+00  8.4157E-01  0.0000E+00  0.0000E+00  4.2276E+00  0.0000E+00  0.0000E+00  0.0000E+00  2.6429E+00
 49  0.0000E+00  7.8551E-01  0.0000E+00  0.0000E+00  0.0000E+00  0.0000E+00  0.0000E+00  0.0000E+00  0.0000E+00
 50  0.0000E+00  9.5191E-01  0.0000E+00  0.0000E+00  0.0000E+00  0.0000E+00  0.0000E+00  0.0000E+00  0.0000E+00
 51  0.0000E+00  3.3468E-03  0.0000E+00  0.0000E+00  0.0000E+00  0.0000E+00  0.0000E+00  0.0000E+00  0.0000E+00
 52  0.0000E+00  1.3977E-03  0.0000E+00  1.8238E-03  1.2402E-02  1.2647E-02  3.6120E-05  0.0000E+00  0.0000E+00
 53  0.0000E+00  1.0068E-03  0.0000E+00  0.0000E+00  0.0000E+00  0.0000E+00  5.8003E-03  8.8703E-04  5.6233E-03
 54  0.0000E+00  3.3343E-03  0.0000E+00  0.0000E+00  0.0000E+00  0.0000E+00  0.0000E+00  0.0000E+00  0.0000E+00
 55  0.0000E+00  2.7283E-03  0.0000E+00  0.0000E+00  0.0000E+00  0.0000E+00  0.0000E+00  0.0000E+00  0.0000E+00
 56  0.0000E+00  1.4159E-02  0.0000E+00  0.0000E+00  0.0000E+00  0.0000E+00  0.0000E+00  0.0000E+00  0.0000E+00
 57  0.0000E+00  1.0574E-02  0.0000E+00  0.0000E+00  0.0000E+00  0.0000E+00  0.0000E+00  3.7330E-02  0.0000E+00
 58  0.0000E+00  3.3991E-02  0.0000E+00  0.0000E+00  2.7111E-01  0.0000E+00  2.5767E-02  0.0000E+00  0.0000E+00
 59  1.3454E-03  9.4034E-02  0.0000E+00  0.0000E+00  0.0000E+00  0.0000E+00  0.0000E+00  0.0000E+00  3.7523E-01
 60  0.0000E+00  1.4574E+00  6.4020E-01  3.7185E+00  1.2260E+00  2.0886E+00  1.4590E+00  8.2485E-01  7.6651E-01
 61  4.0286E+01  4.0475E+01  4.2050E+01  5.4053E+01  4.6362E+01  5.2624E+01  5.4834E+01  4.6271E+01  3.9831E+01
 62  0.0000E+00  8.2816E-01  0.0000E+00  0.0000E+00  0.0000E+00  0.0000E+00  0.0000E+00  5.2464E-01  0.0000E+00
 63  0.0000E+00  1.5404E+00  0.0000E+00  0.0000E+00  0.0000E+00  6.6146E+00  0.0000E+00  4.0042E+00  0.0000E+00
 64  0.0000E+00  5.5858E-01  4.9690E+00  0.0000E+00  0.0000E+00  0.0000E+00  0.0000E+00  0.0000E+00  0.0000E+00
 65  0.0000E+00  4.7215E-01  0.0000E+00  0.0000E+00  0.0000E+00  0.0000E+00  0.0000E+00  0.0000E+00  0.0000E+00
 66  0.0000E+00  3.8999E-01  0.0000E+00  0.0000E+00  0.0000E+00  0.0000E+00  0.0000E+00  0.0000E+00  0.0000E+00

# AV, chi2 & Mass for <> & i_chain = 1 ...  7 solutions
AV       0.1674      0.1716      0.1466      0.1822      0.1850      0.2116      0.1761      0.1554      0.1773
chi2 3.9678E-01  4.0243E-01  4.0063E-01  4.0105E-01  4.0033E-01  4.0084E-01  4.0080E-01  4.0079E-01  4.0001E-01
Mass 2.2577E-13  2.1529E-13  2.2760E-13  1.9526E-13  2.0848E-13  1.9980E-13  1.9879E-13  1.9160E-13  2.3947E-13
-116.59                                  [v0_min (km/s) before EX0s...]
 189.80                                  [vd_min (km/s) before EX0s...]


## Synthetic spectrum (Best Model) ##l_obs f_obs f_syn wei
 3478    [Nl_obs]
 3741.00    0.76585   0.62085    0.000
 3742.00    0.71662   0.60295    0.000
 3743.00    0.63660   0.57628    0.000
 3744.00    0.55170   0.54453    0.000
 3745.00    0.48934   0.51207   14.254
 3746.00    0.44866   0.48438   14.254
 3747.00    0.42207   0.46773   14.254
 3748.00    0.43148   0.46743   14.254
 3749.00    0.49599   0.48553   14.254
 3750.00    0.58559   0.51919   14.254
 3751.00    0.65771   0.56120   14.254
 3752.00    0.70531   0.60215   14.178
 3753.00    0.73639   0.63363   13.580
 3754.00    0.74788   0.65104   13.371
 3755.00    0.73817   0.65489   13.547
 3756.00    0.71980   0.65010   13.893
 3757.00    0.70260   0.64335   14.233
 3758.00    0.68033   0.63981   14.254
 3759.00    0.64612   0.64114   14.254
 3760.00    0.60412   0.64545   14.254
 3761.00    0.56115   0.64894   14.254
 3762.00    0.52177   0.64781   14.254
 3763.00    0.49731   0.63971   14.254
 3764.00    0.50538   0.62444   14.254
 3765.00    0.53511   0.60397   14.254
 3766.00    0.54023   0.58211   14.254
 3767.00    0.50091   0.56370   14.254
 3768.00    0.44513   0.55342   14.254
 3769.00    0.40336   0.55442   14.254
 3770.00    0.38995   0.56718   14.254
 3771.00    0.41340   0.58952   14.254
 3772.00    0.47702   0.61784   14.254
 3773.00    0.56587   0.64883   14.254
 3774.00    0.65132   0.68049   14.254
 3775.00    0.71991   0.71193   13.891
 3776.00    0.77568   0.74237   12.892
 3777.00    0.81999   0.77051   12.195
 3778.00    0.85073   0.79454   11.755
 3779.00    0.87498   0.81261   11.429
 3780.00    0.90237   0.82321   11.082
 3781.00    0.92316   0.82533   10.832
 3782.00    0.91875   0.81854   10.884
 3783.00    0.89284   0.80342   11.200
 3784.00    0.86315   0.78204   11.585
 3785.00    0.83489   0.75780   11.978
 3786.00    0.80447   0.73439   12.431
 3787.00    0.77353   0.71408   12.928
 3788.00    0.74518   0.69674   13.420
 3789.00    0.71536   0.67995   13.979
 3790.00    0.67857   0.66041   14.254
 3791.00    0.63670   0.63562   14.254
 3792.00    0.59541   0.60531   14.254
 3793.00    0.55851   0.57199   14.254
 3794.00    0.52858   0.54058   14.254
 3795.00    0.50795   0.51743   14.254
 3796.00    0.49396   0.50857   14.254
 3797.00    0.47624   0.51769   14.254
 3798.00    0.45434   0.54448   14.254
 3799.00    0.45035   0.58430   14.254
 3800.00    0.48437   0.62977   14.254
 3801.00    0.55522   0.67319   14.254
 3802.00    0.64523   0.70922   14.254
 3803.00    0.72705   0.73619   13.754
 3804.00    0.77943   0.75594   12.830
 3805.00    0.79627   0.77205   12.558
 3806.00    0.78151   0.78725   12.796
 3807.00    0.74630   0.80154   13.399
 3808.00    0.71063   0.81215   14.072
 3809.00    0.69938   0.81555   14.254
 3810.00    0.72142   0.81009   13.862
 3811.00    0.76367   0.79759   13.095
 3812.00    0.80623   0.78266   12.403
 3813.00    0.83054   0.77017   12.040
 3814.00    0.82527   0.76270   12.117
 3815.00    0.78932   0.75955   12.669
 3816.00    0.73413   0.75788   13.621
 3817.00    0.67904   0.75497   14.254
 3818.00    0.63607   0.74970   14.254
 3819.00    0.60725   0.74222   14.254
 3820.00    0.58923   0.73266   14.254
 3821.00    0.57547   0.72044   14.254
 3822.00    0.55844   0.70498   14.254
 3823.00    0.53522   0.68670   14.254
 3824.00    0.51729   0.66713   14.254
 3825.00    0.52151   0.64771   14.254
 3826.00    0.54998   0.62853   14.254
 3827.00    0.59193   0.60811   14.254
 3828.00    0.63329   0.58435   14.254
 3829.00    0.66043   0.55610   14.254
 3830.00    0.66342   0.52449   14.254
 3831.00    0.64045   0.49313   14.254
 3832.00    0.60258   0.46707   14.254
 3833.00    0.56638   0.45098   14.254
 3834.00    0.54414   0.44761   14.254
 3835.00    0.54184   0.45730   14.254
 3836.00    0.55822   0.47850   14.254
 3837.00    0.58705   0.50885   14.254
 3838.00    0.61974   0.54580   14.254
 3839.00    0.64807   0.58673   14.254
 3840.00    0.66654   0.62869   14.254
 3841.00    0.67279   0.66861   14.254
 3842.00    0.66893   0.70386   14.254
 3843.00    0.66992   0.73298   14.254
 3844.00    0.70396   0.75576   14.205
 3845.00    0.77747   0.77297   12.862
 3846.00    0.85970   0.78588   11.632
 3847.00    0.92388   0.79605    0.000
 3848.00    0.96692   0.80495    0.000
 3849.00    0.98642   0.81338    0.000
 3850.00    0.97218   0.82103    0.000
 3851.00    0.92444   0.82658    0.000
 3852.00    0.85959   0.82862    0.000
 3853.00    0.79843   0.82665    0.000
 3854.00    0.75722   0.82154    0.000
 3855.00    0.73440   0.81531    0.000
 3856.00    0.71484   0.81059    0.000
 3857.00    0.69875   0.80989    0.000
 3858.00    0.70181   0.81478    0.000
 3859.00    0.72753   0.82503    0.000
 3860.00    0.76477   0.83846    0.000
 3861.00    0.80300   0.85179    0.000
 3862.00    0.83549   0.86219    0.000
 3863.00    0.85701   0.86837    0.000
 3864.00    0.86567   0.87053    0.000
 3865.00    0.86779   0.86931    0.000
 3866.00    0.87280   0.86483    0.000
 3867.00    0.88180   0.85673    0.000
 3868.00    0.88842   0.84503    0.000
 3869.00    0.88419   0.83116    0.000
 3870.00    0.86296   0.81789    0.000
 3871.00    0.82593   0.80785    0.000
 3872.00    0.77785   0.80175    0.000
 3873.00    0.72116   0.79777    0.000
 3874.00    0.66067   0.79285    0.000
 3875.00    0.60946   0.78482    0.000
 3876.00    0.57922   0.77360    0.000
 3877.00    0.56957   0.76055    0.000
 3878.00    0.57547   0.74668    0.000
 3879.00    0.59501   0.73146    0.000
 3880.00    0.62349   0.71303    0.000
 3881.00    0.64883   0.68939   14.254
 3882.00    0.66196   0.65968   14.254
 3883.00    0.66451   0.62501   14.254
 3884.00    0.66136   0.58881   14.254
 3885.00    0.65506   0.55650   14.254
 3886.00    0.64750   0.53416   14.254
 3887.00    0.64122   0.52658   14.254
 3888.00    0.63938   0.53540   14.254
 3889.00    0.64517   0.55834   14.254
 3890.00    0.65875   0.59017   14.254
 3891.00    0.67725   0.62475   14.254
 3892.00    0.70145   0.65732   14.254
 3893.00    0.73567   0.68551   13.593
 3894.00    0.77451   0.70911   12.911
 3895.00    0.80307   0.72902   12.452
 3896.00    0.81857   0.74642   12.216
 3897.00    0.83150   0.76226   12.027
 3898.00    0.84299   0.77693   11.863
 3899.00    0.84396   0.79006   11.849
 3900.00    0.83529   0.80079   11.972
 3901.00    0.82936   0.80855   12.057
 3902.00    0.83795   0.81410   11.934
 3903.00    0.86579   0.81974   11.550
 3904.00    0.90403   0.82841   11.062
 3905.00    0.93645   0.84202   10.679
 3906.00    0.95583   0.86026   10.462
 3907.00    0.96477   0.88041   10.365
 3908.00    0.97004   0.89861   10.309
 3909.00    0.97120   0.91146   10.297
 3910.00    0.94497   0.91727   10.582
 3911.00    0.87492   0.91637   11.430
 3912.00    0.79825   0.91043   12.527
 3913.00    0.76485   0.90149   13.074
 3914.00    0.77328   0.89124   12.932
 3915.00    0.79610   0.88070   12.561
 3916.00    0.82139   0.87058   12.174
 3917.00    0.84688   0.86156   11.808
 3918.00    0.86815   0.85428   11.519
 3919.00    0.88049   0.84892   11.357
 3920.00    0.88218   0.84461   11.336
 3921.00    0.87506   0.83925   11.428
 3922.00    0.86404   0.82986   11.574
 3923.00    0.84961   0.81352   11.770
 3924.00    0.82342   0.78824   12.144
 3925.00    0.77985   0.75344   12.823
 3926.00    0.72365   0.70991   13.819
 3927.00    0.66284   0.65961   14.254
 3928.00    0.60336   0.60569   14.254
 3929.00    0.54790   0.55284   14.254
 3930.00    0.49763   0.50724   14.254
 3931.00    0.46399   0.47583   14.254
 3932.00    0.46825   0.46443   14.254
 3933.00    0.51090   0.47562   14.254
 3934.00    0.56583   0.50754   14.254
 3935.00    0.61723   0.55422   14.254
 3936.00    0.66877   0.60755   14.254
 3937.00    0.71863   0.65953   13.915
 3938.00    0.75576   0.70442   13.232
 3939.00    0.77983   0.73958   12.823
 3940.00    0.80194   0.76548   12.470
 3941.00    0.82649   0.78474   12.099
 3942.00    0.84820   0.80042   11.790
 3943.00    0.85936   0.81459   11.637
 3944.00    0.85699   0.82768   11.669
 3945.00    0.85413   0.83900   11.708
 3946.00    0.86859   0.84783   11.513
 3947.00    0.89339   0.85419   11.193
 3948.00    0.90661   0.85871   11.030
 3949.00    0.90215   0.86205   11.085
 3950.00    0.88768   0.86430   11.265
 3951.00    0.87052   0.86486   11.487
 3952.00    0.85401   0.86282   11.709
 3953.00    0.83595   0.85743   11.962
 3954.00    0.81426   0.84844   12.281
 3955.00    0.79456   0.83585   12.586
 3956.00    0.78257   0.81933   12.778
 3957.00    0.77360   0.79782   12.927
 3958.00    0.75780   0.76987   13.196
 3959.00    0.72774   0.73459   13.741
 3960.00    0.68213   0.69215    0.000
 3961.00    0.62808   0.64356    0.000
 3962.00    0.57376   0.59016    0.000
 3963.00    0.52217   0.53376    0.000
 3964.00    0.47671   0.47739    0.000
 3965.00    0.44532   0.42601    0.000
 3966.00    0.43361   0.38612    0.000
 3967.00    0.43998   0.36399    0.000
 3968.00    0.45774   0.36355    0.000
 3969.00    0.47800   0.38496    0.000
 3970.00    0.49653   0.42467    0.000
 3971.00    0.51594   0.47685    0.000
 3972.00    0.53612   0.53523    0.000
 3973.00    0.55067   0.59460    0.000
 3974.00    0.55521   0.65134    0.000
 3975.00    0.55249   0.70320    0.000
 3976.00    0.55632   0.74870    0.000
 3977.00    0.58658   0.78682    0.000
 3978.00    0.64478   0.81711    0.000
 3979.00    0.71224   0.84012    0.000
 3980.00    0.77562   0.85758    0.000
 3981.00    0.83154   0.87192   12.026
 3982.00    0.87350   0.88534   11.448
 3983.00    0.89285   0.89904   11.200
 3984.00    0.89234   0.91310   11.207
 3985.00    0.88377   0.92693   11.315
 3986.00    0.87340   0.93994   11.450
 3987.00    0.86347   0.95188   11.581
 3988.00    0.86331   0.96267   11.583
 3989.00    0.88472   0.97207   11.303
 3990.00    0.92844   0.97927   10.771
 3991.00    0.98320   0.98318   10.171
 3992.00    1.02958   0.98314    9.713
 3993.00    1.05150   0.97986    9.510
 3994.00    1.05249   0.97562    9.501
 3995.00    1.04608   0.97357    9.560
 3996.00    1.03898   0.97612    9.625
 3997.00    1.03483   0.98352    9.663
 3998.00    1.04122   0.99354    9.604
 3999.00    1.05942   1.00240    9.439
 4000.00    1.07354   1.00666    9.315
 4001.00    1.06953   1.00497    9.350
 4002.00    1.05441   0.99886    9.484
 4003.00    1.04197   0.99203    9.597
 4004.00    1.03788   0.98862    9.635
 4005.00    1.04098   0.99117    9.606
 4006.00    1.04569   0.99952    9.563
 4007.00    1.04502   1.01128    9.569
 4008.00    1.03353   1.02337    9.676
 4009.00    1.01348   1.03359    9.867
 4010.00    0.99617   1.04122   10.038
 4011.00    0.98623   1.04677   10.140
 4012.00    0.97574   1.05119   10.249
 4013.00    0.96427   1.05528   10.370
 4014.00    0.96505   1.05949   10.362
 4015.00    0.98134   1.06381   10.190
 4016.00    1.00000   1.06783   10.000
 4017.00    1.01399   1.07064    9.862
 4018.00    1.02833   1.07119    9.725
 4019.00    1.04478   1.06885    9.571
 4020.00    1.05849   1.06408    9.447
 4021.00    1.06759   1.05852    9.367
 4022.00    1.07386   1.05419    9.312
 4023.00    1.07421   1.05219    9.309
 4024.00    1.06153   1.05165    9.420
 4025.00    1.03415   1.04987    9.670
 4026.00    0.99704   1.04378   10.030
 4027.00    0.95824   1.03188   10.436
 4028.00    0.92565   1.01569   10.803
 4029.00    0.90236   0.99941   11.082
 4030.00    0.88938   0.98827   11.244
 4031.00    0.89299   0.98633   11.198
 4032.00    0.92101   0.99493   10.858
 4033.00    0.97374   1.01232   10.270
 4034.00    1.04213   1.03436    9.596
 4035.00    1.10806   1.05597    9.025
 4036.00    1.15459   1.07262    8.661
 4037.00    1.17983   1.08145    8.476
 4038.00    1.18720   1.08159    8.423
 4039.00    1.17139   1.07373    8.537
 4040.00    1.12927   1.05958    8.855
 4041.00    1.07333   1.04181    9.317
 4042.00    1.01933   1.02412    9.810
 4043.00    0.97285   1.01095   10.279
 4044.00    0.93958   1.00600   10.643
 4045.00    0.93413   1.01047   10.705
 4046.00    0.96244   1.02212   10.390
 4047.00    1.00845   1.03618    9.916
 4048.00    1.05089   1.04750    9.516
 4049.00    1.07645   1.05268    9.290
 4050.00    1.07713   1.05104    9.284
 4051.00    1.04896   1.04423    9.533
 4052.00    0.99825   1.03518   10.018
 4053.00    0.94343   1.02683   10.600
 4054.00    0.90363   1.02125   11.066
 4055.00    0.89112   1.01911   11.222
 4056.00    0.90629   1.01961   11.034
 4057.00    0.93770   1.02065   10.664
 4058.00    0.97225   1.01976   10.285
 4059.00    1.00002   1.01526   10.000
 4060.00    1.01507   1.00752    9.852
 4061.00    1.01646   0.99895    9.838
 4062.00    1.01116   0.99287    9.890
 4063.00    1.01158   0.99170    9.885
 4064.00    1.02527   0.99564    9.754
 4065.00    1.05230   1.00275    9.503
 4066.00    1.08754   1.00999    9.195
 4067.00    1.12232   1.01469    8.910
 4068.00    1.14687   1.01549    8.719
 4069.00    1.15464   1.01242    8.661
 4070.00    1.15000   1.00629    8.696
 4071.00    1.14254   0.99772    8.752
 4072.00    1.13262   0.98690    8.829
 4073.00    1.11567   0.97443    8.963
 4074.00    1.09491   0.96228    9.133
 4075.00    1.07695   0.95377    9.285
 4076.00    1.06135   0.95213    9.422
 4077.00    1.04596   0.95838    9.561
 4078.00    1.03639   0.97039    9.649
 4079.00    1.03776   0.98376    9.636
 4080.00    1.04281   0.99428    9.589
 4081.00    1.04168   1.00001    9.600
 4082.00    1.03436   1.00191    9.668
 4083.00    1.02494   1.00268    9.757
 4084.00    1.01436   1.00471    9.858
 4085.00    1.00398   1.00855    9.960
 4086.00    0.99875   1.01275   10.013
 4087.00    0.99960   1.01478   10.004
 4088.00    0.99862   1.01232   10.014
 4089.00    0.99362   1.00411   10.064
 4090.00    0.99596   0.98986   10.041
 4091.00    1.00521   0.96979    9.948
 4092.00    0.99654   0.94416    0.000
 4093.00    0.95422   0.91322    0.000
 4094.00    0.88941   0.87734    0.000
 4095.00    0.82031   0.83734    0.000
 4096.00    0.76023   0.79489    0.000
 4097.00    0.71555   0.75300    0.000
 4098.00    0.68578   0.71630    0.000
 4099.00    0.66663   0.69043    0.000
 4100.00    0.65316   0.68031    0.000
 4101.00    0.64678   0.68810    0.000
 4102.00    0.65493   0.71186    0.000
 4103.00    0.68051   0.74615    0.000
 4104.00    0.71949   0.78398    0.000
 4105.00    0.76557   0.81945    0.000
 4106.00    0.81259   0.84938    0.000
 4107.00    0.85702   0.87365    0.000
 4108.00    0.89762   0.89416    0.000
 4109.00    0.93275   0.91330    0.000
 4110.00    0.96069   0.93259    0.000
 4111.00    0.98164   0.95199    0.000
 4112.00    0.99806   0.97002    0.000
 4113.00    1.01406   0.98455    9.861
 4114.00    1.03316   0.99389    9.679
 4115.00    1.05434   0.99762    9.485
 4116.00    1.07345   0.99690    9.316
 4117.00    1.08665   0.99403    9.203
 4118.00    1.09101   0.99149    9.166
 4119.00    1.08460   0.99102    9.220
 4120.00    1.06926   0.99312    9.352
 4121.00    1.05364   0.99702    9.491
 4122.00    1.04731   1.00111    9.548
 4123.00    1.05345   1.00360    9.493
 4124.00    1.07038   1.00313    9.342
 4125.00    1.09390   0.99930    9.142
 4126.00    1.11612   0.99276    8.960
 4127.00    1.12519   0.98489    8.887
 4128.00    1.11478   0.97748    8.970
 4129.00    1.09122   0.97249    9.164
 4130.00    1.06427   0.97179    9.396
 4131.00    1.04029   0.97678    9.613
 4132.00    1.02749   0.98781    9.732
 4133.00    1.03716   1.00378    9.642
 4134.00    1.06662   1.02214    9.375
 4135.00    1.09279   1.03945    9.151
 4136.00    1.09711   1.05215    9.115
 4137.00    1.07851   1.05744    9.272
 4138.00    1.04681   1.05413    9.553
 4139.00    1.01670   1.04334    9.836
 4140.00    0.99800   1.02862   10.020
 4141.00    0.99325   1.01481   10.068
 4142.00    1.00547   1.00622    9.946
 4143.00    1.03865   1.00472    9.628
 4144.00    1.08840   1.00915    9.188
 4145.00    1.14044   1.01631    8.769
 4146.00    1.17714   1.02276    8.495
 4147.00    1.18372   1.02632    8.448
 4148.00    1.15923   1.02646    8.626
 4149.00    1.11580   1.02380    8.962
 4150.00    1.06857   1.01946    9.358
 4151.00    1.02978   1.01464    9.711
 4152.00    1.00171   1.01066    9.983
 4153.00    0.98016   1.00888   10.202
 4154.00    0.96489   1.01035   10.364
 4155.00    0.95933   1.01541   10.424
 4156.00    0.96611   1.02346   10.351
 4157.00    0.98413   1.03320   10.161
 4158.00    1.00547   1.04312    9.946
 4159.00    1.02070   1.05199    9.797
 4160.00    1.02736   1.05900    9.734
 4161.00    1.02863   1.06369    9.722
 4162.00    1.02975   1.06585    9.711
 4163.00    1.03393   1.06544    9.672
 4164.00    1.03838   1.06250    9.630
 4165.00    1.03755   1.05696    9.638
 4166.00    1.02727   1.04843    9.734
 4167.00    1.00705   1.03646    9.930
 4168.00    0.98183   1.02106   10.185
 4169.00    0.96186   1.00347   10.397
 4170.00    0.96035   0.98619   10.413
 4171.00    0.97720   0.97219   10.233
 4172.00    0.99022   0.96367   10.099
 4173.00    0.98339   0.96114   10.169
 4174.00    0.96459   0.96364   10.367
 4175.00    0.94746   0.96957   10.554
 4176.00    0.93936   0.97737   10.646
 4177.00    0.94224   0.98596   10.613
 4178.00    0.95427   0.99452   10.479
 4179.00    0.97328   1.00238   10.275
 4180.00    0.99786   1.00905   10.021
 4181.00    1.02487   1.01420    9.757
 4182.00    1.04915   1.01769    9.532
 4183.00    1.06718   1.01973    9.371
 4184.00    1.07853   1.02099    9.272
 4185.00    1.08563   1.02261    9.211
 4186.00    1.09260   1.02574    9.153
 4187.00    1.10198   1.03110    9.075
 4188.00    1.11416   1.03847    8.975
 4189.00    1.12872   1.04647    8.860
 4190.00    1.14405   1.05285    8.741
 4191.00    1.15538   1.05514    8.655
 4192.00    1.15726   1.05170    8.641
 4193.00    1.15038   1.04236    8.693
 4194.00    1.14045   1.02871    8.768
 4195.00    1.13250   1.01351    8.830
 4196.00    1.12854   0.99984    8.861
 4197.00    1.12566   0.98989    8.884
 4198.00    1.12101   0.98464    8.920
 4199.00    1.12016   0.98401    8.927
 4200.00    1.13014   0.98741    8.848
 4201.00    1.14741   0.99411    8.715
 4202.00    1.16420   1.00345    8.590
 4203.00    1.17918   1.01462    8.480
 4204.00    1.19224   1.02658    8.388
 4205.00    1.19706   1.03817    8.354
 4206.00    1.18714   1.04830    8.424
 4207.00    1.16305   1.05618    8.598
 4208.00    1.13066   1.06128    8.844
 4209.00    1.09799   1.06324    9.108
 4210.00    1.07011   1.06202    9.345
 4211.00    1.04556   1.05814    9.564
 4212.00    1.02251   1.05312    9.780
 4213.00    1.00342   1.04935    9.966
 4214.00    0.99178   1.04904   10.083
 4215.00    0.98949   1.05295   10.106
 4216.00    0.99662   1.05971   10.034
 4217.00    1.01139   1.06602    9.887
 4218.00    1.03052   1.06771    9.704
 4219.00    1.04938   1.06121    9.529
 4220.00    1.06168   1.04507    9.419
 4221.00    1.06066   1.02084    9.428
 4222.00    1.04514   0.99295    9.568
 4223.00    1.02179   0.96789    9.787
 4224.00    1.00240   0.95224    9.976
 4225.00    0.99966   0.95008   10.003
 4226.00    1.01611   0.96123    9.841
 4227.00    1.04231   0.98122    9.594
 4228.00    1.06429   1.00312    9.396
 4229.00    1.07071   1.02048    9.340
 4230.00    1.06543   1.02979    9.386
 4231.00    1.06414   1.03121    9.397
 4232.00    1.07563   1.02754    9.297
 4233.00    1.09311   1.02253    9.148
 4234.00    1.08699   1.01938    9.200
 4235.00    1.03079   1.01985    9.701
 4236.00    0.95707   1.02438   10.449
 4237.00    0.92855   1.03250   10.769
 4238.00    0.96206   1.04309   10.394
 4239.00    1.03022   1.05438    9.707
 4240.00    1.09011   1.06422    9.173
 4241.00    1.10881   1.07056    9.019
 4242.00    1.09308   1.07191    9.148
 4243.00    1.06809   1.06770    9.362
 4244.00    1.04301   1.05876    9.588
 4245.00    1.01618   1.04724    9.841
 4246.00    0.98736   1.03583   10.128
 4247.00    0.95980   1.02678   -2.000
 4248.00    0.94026   1.02144   -2.000
 4249.00    0.93269   1.02020   -2.000
 4250.00    0.93276   1.02255   -2.000
 4251.00    0.93677   1.02725   -2.000
 4252.00    0.94941   1.03274   -2.000
 4253.00    0.97950   1.03745   -2.000
 4254.00    1.03421   1.03997   -2.000
 4255.00    1.10635   1.03969   -2.000
 4256.00    1.16910   1.03735   -2.000
 4257.00    1.20067   1.03496   -2.000
 4258.00    1.19957   1.03531   -2.000
 4259.00    1.17825   1.04071   -2.000
 4260.00    1.15583   1.05161   -2.000
 4261.00    1.14292   1.06596   -2.000
 4262.00    1.13649   1.07995   -2.000
 4263.00    1.13227   1.08933    8.832
 4264.00    1.12923   1.09060    8.856
 4265.00    1.12280   1.08211    8.906
 4266.00    1.10517   1.06482    9.048
 4267.00    1.07722   1.04181    9.283
 4268.00    1.04928   1.01716    9.530
 4269.00    1.02834   0.99548    9.724
 4270.00    1.01578   0.98103    9.845
 4271.00    1.01340   0.97637    9.868
 4272.00    1.02397   0.98169    9.766
 4273.00    1.04750   0.99498    9.546
 4274.00    1.07956   1.01248    9.263
 4275.00    1.10980   1.03000    9.011
 4276.00    1.12667   1.04385    8.876
 4277.00    1.12784   1.05195    8.867
 4278.00    1.11822   1.05418    8.943
 4279.00    1.10189   1.05168    9.075
 4280.00    1.08207   1.04613    9.242
 4281.00    1.06373   1.03891    9.401
 4282.00    1.05208   1.03030    9.505
 4283.00    1.04957   1.01971    9.528
 4284.00    1.05289   1.00673    9.498
 4285.00    1.05033   0.99226    9.521
 4286.00    1.03233   0.97845    9.687
 4287.00    1.00438   0.96788    9.956
 4288.00    0.97752   0.96249   10.230
 4289.00    0.95630   0.96282   10.457
 4290.00    0.94070   0.96739   10.630
 4291.00    0.92936   0.97296   10.760
 4292.00    0.92088   0.97568   10.859
 4293.00    0.91456   0.97235   10.934
 4294.00    0.90892   0.96152   11.002
 4295.00    0.90089   0.94412   11.100
 4296.00    0.88960   0.92272   11.241
 4297.00    0.87875   0.90084   11.380
 4298.00    0.87363   0.88226   11.446
 4299.00    0.87815   0.86965   11.388
 4300.00    0.88944   0.86364   11.243
 4301.00    0.89677   0.86296   11.151
 4302.00    0.89165   0.86509   11.215
 4303.00    0.87264   0.86769   11.460
 4304.00    0.84185   0.86989   11.879
 4305.00    0.80394   0.87240   12.439
 4306.00    0.76885   0.87673   13.006
 4307.00    0.75026   0.88427   13.329
 4308.00    0.75534   0.89558   13.239
 4309.00    0.78114   0.91058   12.802
 4310.00    0.81606   0.92912   12.254
 4311.00    0.84553   0.95089   11.827
 4312.00    0.86676   0.97512   11.537
 4313.00    0.88774   1.00044   11.265
 4314.00    0.91232   1.02473   10.961
 4315.00    0.93955   1.04505   10.643
 4316.00    0.97188   1.05853   10.289
 4317.00    1.01169   1.06327    9.884
 4318.00    1.04995   1.05825    9.524
 4319.00    1.07354   1.04386    9.315
 4320.00    1.08352   1.02237    9.229
 4321.00    1.08620   0.99813    9.206
 4322.00    1.07231   0.97647    9.326
 4323.00    1.03227   0.96170    9.687
 4324.00    0.98404   0.95591   10.162
 4325.00    0.95413   0.95866   10.481
 4326.00    0.94558   0.96741   10.576
 4327.00    0.94872   0.97826   10.540
 4328.00    0.95954   0.98705   10.422
 4329.00    0.97246   0.99073   10.283
 4330.00    0.97132   0.98739    0.000
 4331.00    0.94632   0.97521    0.000
 4332.00    0.91060   0.95260    0.000
 4333.00    0.88221   0.91936    0.000
 4334.00    0.86710   0.87683    0.000
 4335.00    0.86636   0.82862    0.000
 4336.00    0.88260   0.78156    0.000
 4337.00    0.91353   0.74380    0.000
 4338.00    0.94788   0.72147    0.000
 4339.00    0.97186   0.71786    0.000
 4340.00    0.97485   0.73308    0.000
 4341.00    0.95629   0.76337    0.000
 4342.00    0.92818   0.80276    0.000
 4343.00    0.90759   0.84520    0.000
 4344.00    0.90992   0.88522    0.000
 4345.00    0.93706   0.91792    0.000
 4346.00    0.97509   0.94019    0.000
 4347.00    1.00782   0.95246    0.000
 4348.00    1.02442   0.95797    0.000
 4349.00    1.02493   0.96069    0.000
 4350.00    1.01896   0.96452    0.000
 4351.00    1.01446   0.97273    9.858
 4352.00    1.01404   0.98598    9.862
 4353.00    1.01609   1.00236    9.842
 4354.00    1.01708   1.01926    9.832
 4355.00    1.01681   1.03515    9.835
 4356.00    1.01697   1.04949    9.833
 4357.00    1.01434   1.06248    9.859
 4358.00    1.00545   1.07487    9.946
 4359.00    1.00006   1.08738    9.999
 4360.00    1.01086   1.09959    9.893
 4361.00    1.02849   1.10963    9.723
 4362.00    1.03247   1.11525    9.685
 4363.00    1.01860   1.11541    9.817
 4364.00    0.99598   1.11067   10.040
 4365.00    0.97441   1.10254   10.263
 4366.00    0.96255   1.09307   10.389
 4367.00    0.96771   1.08403   10.334
 4368.00    0.99078   1.07576   10.093
 4369.00    1.02041   1.06753    9.800
 4370.00    1.04171   1.05928    9.600
 4371.00    1.04710   1.05256    9.550
 4372.00    1.03788   1.04938    9.635
 4373.00    1.02395   1.05079    9.766
 4374.00    1.01714   1.05622    9.831
 4375.00    1.02449   1.06358    9.761
 4376.00    1.04409   1.06947    9.578
 4377.00    1.06343   1.06945    9.403
 4378.00    1.07051   1.05979    9.341
 4379.00    1.06186   1.04047    9.417
 4380.00    1.04026   1.01606    9.613
 4381.00    1.01228   0.99315    9.879
 4382.00    0.98535   0.97712   10.149
 4383.00    0.96538   0.97089   10.359
 4384.00    0.95357   0.97469   10.487
 4385.00    0.94636   0.98609   10.567
 4386.00    0.94338   1.00133   10.600
 4387.00    0.94879   1.01710   10.540
 4388.00    0.96012   1.03089   10.415
 4389.00    0.96760   1.04096   10.335
 4390.00    0.96994   1.04714   10.310
 4391.00    0.97621   1.05131   10.244
 4392.00    0.99078   1.05552   10.093
 4393.00    1.01165   1.06008    9.885
 4394.00    1.04168   1.06387    9.600
 4395.00    1.08584   1.06568    9.209
 4396.00    1.13404   1.06532    8.818
 4397.00    1.16535   1.06365    8.581
 4398.00    1.17008   1.06100    8.546
 4399.00    1.15204   1.05660    8.680
 4400.00    1.12110   1.05064    8.920
 4401.00    1.08802   1.04513    9.191
 4402.00    1.05801   1.04148    9.452
 4403.00    1.03248   1.03975    9.685
 4404.00    1.01436   1.04057    9.858
 4405.00    1.00574   1.04531    9.943
 4406.00    1.00282   1.05414    9.972
 4407.00    0.99938   1.06547   10.006
 4408.00    0.99292   1.07692   10.071
 4409.00    0.98438   1.08523   10.159
 4410.00    0.97660   1.08747   10.240
 4411.00    0.97261   1.08348   10.282
 4412.00    0.97378   1.07587   10.269
 4413.00    0.97907   1.06809   10.214
 4414.00    0.98488   1.06364   10.154
 4415.00    0.98940   1.06483   10.107
 4416.00    0.99581   1.07091   10.042
 4417.00    1.00326   1.07917    9.967
 4418.00    1.00094   1.08705    9.991
 4419.00    0.98265   1.09329   10.177
 4420.00    0.95720   1.09740   10.447
 4421.00    0.94069   1.09917   10.631
 4422.00    0.94842   1.09917   10.544
 4423.00    0.98085   1.09853   10.195
 4424.00    1.01955   1.09801    9.808
 4425.00    1.05053   1.09717    9.519
 4426.00    1.07441   1.09527    9.307
 4427.00    1.09156   1.09267    9.161
 4428.00    1.09699   1.08949    9.116
 4429.00    1.09165   1.08492    9.160
 4430.00    1.08423   1.07908    9.223
 4431.00    1.07869   1.07389    9.271
 4432.00    1.07229   1.07222    9.326
 4433.00    1.06665   1.07575    9.375
 4434.00    1.06817   1.08376    9.362
 4435.00    1.07712   1.09371    9.284
 4436.00    1.08654   1.10203    9.204
 4437.00    1.08892   1.10529    9.183
 4438.00    1.07875   1.10231    9.270
 4439.00    1.05371   1.09488    9.490
 4440.00    1.01758   1.08722    9.827
 4441.00    0.98556   1.08332   10.146
 4442.00    0.97655   1.08445   10.240
 4443.00    0.99553   1.08992   10.045
 4444.00    1.03473   1.09851    9.664
 4445.00    1.08217   1.10739    9.241
 4446.00    1.12443   1.11338    8.893
 4447.00    1.14860   1.11541    8.706
 4448.00    1.14672   1.11331    8.721
 4449.00    1.12146   1.10643    8.917
 4450.00    1.08306   1.09472    9.233
 4451.00    1.04388   1.08012    9.580
 4452.00    1.01450   1.06584    9.857
 4453.00    1.00005   1.05365    9.999
 4454.00    1.00195   1.04384    9.981
 4455.00    1.01986   1.03687    9.805
 4456.00    1.04881   1.03305    9.535
 4457.00    1.07702   1.03169    9.285
 4458.00    1.09289   1.03299    9.150
 4459.00    1.09129   1.03779    9.163
 4460.00    1.07494   1.04482    9.303
 4461.00    1.05395   1.05230    0.000
 4462.00    1.03796   1.05922    0.000
 4463.00    1.03073   1.06447    0.000
 4464.00    1.03023   1.06718    0.000
 4465.00    1.03028   1.06790    0.000
 4466.00    1.02819   1.06892    0.000
 4467.00    1.02795   1.07248    0.000
 4468.00    1.03477   1.08002    0.000
 4469.00    1.05179   1.09199    0.000
 4470.00    1.07808   1.10719    0.000
 4471.00    1.10862   1.12307    0.000
 4472.00    1.13774   1.13743    0.000
 4473.00    1.16056   1.14859    0.000
 4474.00    1.17299   1.15424    0.000
 4475.00    1.17196   1.15232    0.000
 4476.00    1.15611   1.14283    0.000
 4477.00    1.12664   1.12859    0.000
 4478.00    1.08908   1.11461    0.000
 4479.00    1.05305   1.10573    0.000
 4480.00    1.03052   1.10386    0.000
 4481.00    1.03071   1.10837    0.000
 4482.00    1.05011   1.11683    9.523
 4483.00    1.07525   1.12540    9.300
 4484.00    1.09302   1.13031    9.149
 4485.00    1.09757   1.13009    9.111
 4486.00    1.09774   1.12612    9.110
 4487.00    1.10258   1.12093    9.070
 4488.00    1.09703   1.11646    9.116
 4489.00    1.07234   1.11317    9.325
 4490.00    1.07249   1.11080    9.324
 4491.00    1.13455   1.10986    8.814
 4492.00    1.20669   1.11113    8.287
 4493.00    1.22183   1.11486    8.184
 4494.00    1.19312   1.12104    8.381
 4495.00    1.16244   1.12881    8.603
 4496.00    1.13648   1.13683    8.799
 4497.00    1.11510   1.14453    8.968
 4498.00    1.12152   1.15330    8.917
 4499.00    1.17096   1.16442    8.540
 4500.00    1.24346   1.17672    8.042
 4501.00    1.30133   1.18813    7.684
 4502.00    1.30864   1.19720    7.642
 4503.00    1.26006   1.20292    7.936
 4504.00    1.19281   1.20525    8.384
 4505.00    1.13911   1.20521    8.779
 4506.00    1.09900   1.20398    9.099
 4507.00    1.05991   1.20157    9.435
 4508.00    1.01275   1.19745    9.874
 4509.00    0.97165   1.19162   10.292
 4510.00    0.97141   1.18433   10.294
 4511.00    1.01345   1.17611    9.867
 4512.00    1.05588   1.16812    9.471
 4513.00    1.07285   1.16104    9.321
 4514.00    1.07196   1.15504    9.329
 4515.00    1.06787   1.15070    9.364
 4516.00    1.07144   1.14818    9.333
 4517.00    1.08714   1.14649    9.198
 4518.00    1.11128   1.14362    8.999
 4519.00    1.12957   1.13838    8.853
 4520.00    1.12463   1.13106    8.892
 4521.00    1.09661   1.12162    9.119
 4522.00    1.06120   1.10983    9.423
 4523.00    1.03279   1.09650    9.682
 4524.00    1.01765   1.08284    9.827
 4525.00    1.00877   1.07049    9.913
 4526.00    0.99520   1.06114   10.048
 4527.00    0.98100   1.05570   10.194
 4528.00    0.98443   1.05390   10.158
 4529.00    1.02902   1.05425    9.718
 4530.00    1.11385   1.05572    8.978
 4531.00    1.17596   1.05945    8.504
 4532.00    1.16048   1.06751    8.617
 4533.00    1.11564   1.08052    8.963
 4534.00    1.11307   1.09636    8.984
 4535.00    1.14112   1.11164    8.763
 4536.00    1.15141   1.12396    8.685
 4537.00    1.12282   1.13255    8.906
 4538.00    1.06605   1.13784    9.380
 4539.00    1.01835   1.14036    9.820
 4540.00    1.01217   1.13960    9.880
 4541.00    1.04877   1.13569    9.535
 4542.00    1.10438   1.13023    9.055
 4543.00    1.14080   1.12436    8.766
 4544.00    1.13443   1.11748    8.815
 4545.00    1.09478   1.10881    9.134
 4546.00    1.05280   1.09979    9.499
 4547.00    1.04484   1.09297    9.571
 4548.00    1.06871   1.08876    9.357
 4549.00    1.07548   1.08579    9.298
 4550.00    1.05323   1.08370    0.000
 4551.00    1.05104   1.08329    0.000
 4552.00    1.09080   1.08616    0.000
 4553.00    1.13742   1.09355    0.000
 4554.00    1.14737   1.10464    0.000
 4555.00    1.09978   1.11716    0.000
 4556.00    1.03148   1.12932    0.000
 4557.00    1.01756   1.14000    0.000
 4558.00    1.06928   1.14758    0.000
 4559.00    1.13102   1.15042    0.000
 4560.00    1.16963   1.14855    0.000
 4561.00    1.18836   1.14451    0.000
 4562.00    1.19269   1.14161    0.000
 4563.00    1.18298   1.14185    0.000
 4564.00    1.15951   1.14506    0.000
 4565.00    1.12860   1.14949    0.000
 4566.00    1.11192   1.15333    0.000
 4567.00    1.12992   1.15501    0.000
 4568.00    1.16828   1.15450    0.000
 4569.00    1.19483   1.15417    0.000
 4570.00    1.19807   1.15524    0.000
 4571.00    1.18645   1.15624    0.000
 4572.00    1.17648   1.15620    0.000
 4573.00    1.17710   1.15526    0.000
 4574.00    1.17281   1.15277    0.000
 4575.00    1.14839   1.14740    0.000
 4576.00    1.11933   1.13874    0.000
 4577.00    1.10260   1.12811    0.000
 4578.00    1.08360   1.11747    0.000
 4579.00    1.04741   1.10834    0.000
 4580.00    1.00988   1.10180    0.000
 4581.00    0.98869   1.09910    0.000
 4582.00    0.97788   1.10059    0.000
 4583.00    0.96914   1.10540    0.000
 4584.00    0.96818   1.11244    0.000
 4585.00    0.97721   1.12003    0.000
 4586.00    0.98467   1.12629    0.000
 4587.00    0.98617   1.12988    0.000
 4588.00    0.99488   1.13054    0.000
 4589.00    1.02095   1.12927    0.000
 4590.00    1.05987   1.12762    0.000
 4591.00    1.09625   1.12630    0.000
 4592.00    1.11211   1.12552    0.000
 4593.00    1.11335   1.12578    0.000
 4594.00    1.12856   1.12714    0.000
 4595.00    1.15449   1.12902    0.000
 4596.00    1.15027   1.13053    0.000
 4597.00    1.10064   1.13104    0.000
 4598.00    1.03079   1.13146    0.000
 4599.00    0.97601   1.13279    0.000
 4600.00    0.96346   1.13504    0.000
 4601.00    0.99080   1.13833    0.000
 4602.00    1.02909   1.14300    0.000
 4603.00    1.04766   1.14962    0.000
 4604.00    1.03207   1.15822    0.000
 4605.00    1.00903   1.16780    0.000
 4606.00    1.02591   1.17638    0.000
 4607.00    1.09540   1.18209    0.000
 4608.00    1.19019   1.18460    0.000
 4609.00    1.25698   1.18460    0.000
 4610.00    1.25245   1.18281    0.000
 4611.00    1.19715   1.18023    0.000
 4612.00    1.14418   1.17712    0.000
 4613.00    1.11769   1.17353    0.000
 4614.00    1.11302   1.17060    0.000
 4615.00    1.11144   1.16844    0.000
 4616.00    1.10268   1.16708    0.000
 4617.00    1.10748   1.16795    0.000
 4618.00    1.14467   1.17110    0.000
 4619.00    1.19389   1.17471    0.000
 4620.00    1.22219   1.17790    0.000
 4621.00    1.21519   1.18007    0.000
 4622.00    1.18430   1.18043    0.000
 4623.00    1.16612   1.17948    0.000
 4624.00    1.18268   1.17771    0.000
 4625.00    1.21379   1.17450    0.000
 4626.00    1.22976   1.17045    0.000
 4627.00    1.21738   1.16779    0.000
 4628.00    1.18285   1.16673    0.000
 4629.00    1.14766   1.16487    0.000
 4630.00    1.11888   1.16130    0.000
 4631.00    1.07992   1.15720    0.000
 4632.00    1.03284   1.15340    0.000
 4633.00    1.01109   1.14990    0.000
 4634.00    1.03305   1.14652    0.000
 4635.00    1.08465   1.14382    0.000
 4636.00    1.14049   1.14258    0.000
 4637.00    1.17757   1.14297    0.000
 4638.00    1.19036   1.14464    0.000
 4639.00    1.19059   1.14578    0.000
 4640.00    1.18757   1.14450    0.000
 4641.00    1.18328   1.14057    0.000
 4642.00    1.17758   1.13417    0.000
 4643.00    1.16840   1.12596    0.000
 4644.00    1.14776   1.11857    0.000
 4645.00    1.10865   1.11447    0.000
 4646.00    1.06314   1.11451    0.000
 4647.00    1.03429   1.11806    0.000
 4648.00    1.02958   1.12335    0.000
 4649.00    1.03928   1.12898    0.000
 4650.00    1.04526   1.13383    0.000
 4651.00    1.03301   1.13645    0.000
 4652.00    1.00896   1.13761    0.000
 4653.00    0.99344   1.13936    0.000
 4654.00    1.00480   1.14326    0.000
 4655.00    1.04919   1.15018    0.000
 4656.00    1.11089   1.15826    0.000
 4657.00    1.16512   1.16419    0.000
 4658.00    1.19599   1.16576    0.000
 4659.00    1.19936   1.16217    0.000
 4660.00    1.18275   1.15373    0.000
 4661.00    1.15549   1.14172    0.000
 4662.00    1.12001   1.12676    0.000
 4663.00    1.08336   1.10914    0.000
 4664.00    1.06615   1.09212    0.000
 4665.00    1.08307   1.08100    0.000
 4666.00    1.12738   1.07802    0.000
 4667.00    1.17958   1.08207    0.000
 4668.00    1.21687   1.09134    0.000
 4669.00    1.22758   1.10311    0.000
 4670.00    1.21728   1.11527    0.000
 4671.00    1.19044   1.12703    0.000
 4672.00    1.14447   1.13732    0.000
 4673.00    1.09741   1.14475    0.000
 4674.00    1.08977   1.14785    0.000
 4675.00    1.12366   1.14641    0.000
 4676.00    1.15016   1.14249    0.000
 4677.00    1.14013   1.13833    0.000
 4678.00    1.10670   1.13503    0.000
 4679.00    1.07294   1.13358    0.000
 4680.00    1.05510   1.13466    0.000
 4681.00    1.05057   1.13741    0.000
 4682.00    1.04422   1.14063    0.000
 4683.00    1.03888   1.14371    0.000
 4684.00    1.05123   1.14590    0.000
 4685.00    1.07573   1.14704    0.000
 4686.00    1.08919   1.14745    0.000
 4687.00    1.08541   1.14705    0.000
 4688.00    1.07841   1.14625    0.000
 4689.00    1.08986   1.14644    0.000
 4690.00    1.13494   1.14787    0.000
 4691.00    1.20141   1.14971    0.000
 4692.00    1.26031   1.15125    0.000
 4693.00    1.29187   1.15133    0.000
 4694.00    1.28934   1.14834    0.000
 4695.00    1.25746   1.14192    0.000
 4696.00    1.20811   1.13395    0.000
 4697.00    1.15449   1.12620    0.000
 4698.00    1.11037   1.11861    0.000
 4699.00    1.08877   1.11091    0.000
 4700.00    1.08557   1.10439    0.000
 4701.00    1.06547   1.10115    0.000
 4702.00    1.01344   1.10091    0.000
 4703.00    0.98050   1.10127    0.000
 4704.00    1.00075   1.10099    0.000
 4705.00    1.02235   1.10099    0.000
 4706.00    1.00683   1.10273    0.000
 4707.00    1.00375   1.10700    0.000
 4708.00    1.05525   1.11310    0.000
 4709.00    1.12906   1.11903    0.000
 4710.00    1.17688   1.12384    0.000
 4711.00    1.17689   1.12816    0.000
 4712.00    1.13467   1.13374    0.000
 4713.00    1.07937   1.14154    0.000
 4714.00    1.04731   1.15019    0.000
 4715.00    1.06732   1.15825    0.000
 4716.00    1.13427   1.16583    0.000
 4717.00    1.20695   1.17285    0.000
 4718.00    1.25270   1.17828    0.000
 4719.00    1.26524   1.18114    0.000
 4720.00    1.25697   1.18156    0.000
 4721.00    1.24638   1.18005    0.000
 4722.00    1.22771   1.17608    0.000
 4723.00    1.17710   1.16851    0.000
 4724.00    1.10281   1.15726    0.000
 4725.00    1.04399   1.14469    0.000
 4726.00    1.02403   1.13390    0.000
 4727.00    1.04127   1.12580    0.000
 4728.00    1.07917   1.12043    0.000
 4729.00    1.11578   1.11863    0.000
 4730.00    1.13874   1.12041    0.000
 4731.00    1.14751   1.12459    0.000
 4732.00    1.15066   1.12970    0.000
 4733.00    1.15606   1.13386    0.000
 4734.00    1.15517   1.13747    0.000
 4735.00    1.13567   1.14231    0.000
 4736.00    1.10502   1.14736    0.000
 4737.00    1.08175   1.15093    0.000
 4738.00    1.07734   1.15373    0.000
 4739.00    1.08931   1.15699    0.000
 4740.00    1.09794   1.16092    0.000
 4741.00    1.09614   1.16457    0.000
 4742.00    1.11914   1.16718    0.000
 4743.00    1.18539   1.16956    0.000
 4744.00    1.23988   1.17192    0.000
 4745.00    1.23167   1.17321    0.000
 4746.00    1.18521   1.17320    0.000
 4747.00    1.14523   1.17209    0.000
 4748.00    1.12682   1.16945    0.000
 4749.00    1.12594   1.16504    0.000
 4750.00    1.13158   1.15943    0.000
 4751.00    1.13552   1.15361    0.000
 4752.00    1.13715   1.14861    0.000
 4753.00    1.13630   1.14475    0.000
 4754.00    1.12990   1.14202    0.000
 4755.00    1.11914   1.14024    0.000
 4756.00    1.11169   1.13866    0.000
 4757.00    1.11301   1.13591    0.000
 4758.00    1.12193   1.13046    0.000
 4759.00    1.13043   1.12219    0.000
 4760.00    1.12613   1.11330    0.000
 4761.00    1.10187   1.10591    9.076
 4762.00    1.06134   1.10083    9.422
 4763.00    1.02524   1.09880    9.754
 4764.00    1.02191   1.10071    9.786
 4765.00    1.05317   1.10645    9.495
 4766.00    1.09399   1.11490    9.141
 4767.00    1.12188   1.12393    8.914
 4768.00    1.12658   1.13158    8.876
 4769.00    1.11252   1.13809    8.989
 4770.00    1.09595   1.14490    9.124
 4771.00    1.09708   1.15203    9.115
 4772.00    1.12739   1.15797    8.870
 4773.00    1.16929   1.16186    8.552
 4774.00    1.19340   1.16435    8.379
 4775.00    1.19592   1.16555    8.362
 4776.00    1.18816   1.16454    8.416
 4777.00    1.16962   1.16141    8.550
 4778.00    1.13862   1.15717    8.783
 4779.00    1.11259   1.15209    8.988
 4780.00    1.10922   1.14616    9.015
 4781.00    1.11986   1.14053    8.930
 4782.00    1.12919   1.13597    8.856
 4783.00    1.14036   1.13181    8.769
 4784.00    1.15767   1.12870    8.638
 4785.00    1.16731   1.12787    8.567
 4786.00    1.15663   1.12909    8.646
 4787.00    1.13284   1.13259    8.827
 4788.00    1.11113   1.13849    9.000
 4789.00    1.10229   1.14591    9.072
 4790.00    1.10571   1.15444    9.044
 4791.00    1.10742   1.16294    9.030
 4792.00    1.09889   1.16931    9.100
 4793.00    1.08752   1.17240    9.195
 4794.00    1.08099   1.17215    9.251
 4795.00    1.07844   1.16909    9.273
 4796.00    1.07809   1.16459    9.276
 4797.00    1.08156   1.16035    9.246
 4798.00    1.09315   1.15758    9.148
 4799.00    1.11681   1.15621    8.954
 4800.00    1.14536   1.15501    8.731
 4801.00    1.16050   1.15270    8.617
 4802.00    1.15120   1.14944    8.687
 4803.00    1.12120   1.14665    8.919
 4804.00    1.08821   1.14471    9.189
 4805.00    1.07530   1.14315    9.300
 4806.00    1.08600   1.14245    9.208
 4807.00    1.10483   1.14322    9.051
 4808.00    1.12131   1.14533    8.918
 4809.00    1.13531   1.14857    8.808
 4810.00    1.15237   1.15262    8.678
 4811.00    1.17382   1.15742    8.519
 4812.00    1.17836   1.16272    8.486
 4813.00    1.13888   1.16782    8.781
 4814.00    1.06418   1.17203    9.397
 4815.00    0.99319   1.17452   10.069
 4816.00    0.96822   1.17476   10.328
 4817.00    1.00820   1.17250    9.919
 4818.00    1.07595   1.16760    9.294
 4819.00    1.11595   1.16013    8.961
 4820.00    1.11587   1.15040    8.962
 4821.00    1.09136   1.14088    9.163
 4822.00    1.05476   1.13514    9.481
 4823.00    1.01569   1.13313    9.846
 4824.00    0.98643   1.13234   10.138
 4825.00    0.98020   1.13150   10.202
 4826.00    1.00714   1.13097    9.929
 4827.00    1.05818   1.13141    9.450
 4828.00    1.09444   1.13172    9.137
 4829.00    1.08780   1.13065    9.193
 4830.00    1.05338   1.12932    9.493
 4831.00    1.02365   1.12884    9.769
 4832.00    1.02447   1.12840    9.761
 4833.00    1.06211   1.12698    9.415
 4834.00    1.11776   1.12470    8.947
 4835.00    1.16319   1.12165    8.597
 4836.00    1.17392   1.11746    8.518
 4837.00    1.14510   1.11266    8.733
 4838.00    1.09795   1.10873    9.108
 4839.00    1.06815   1.10594    9.362
 4840.00    1.09165   1.10315    9.160
 4841.00    1.17008   1.10033    8.546
 4842.00    1.26358   1.09839    7.914
 4843.00    1.32410   1.09642    7.552
 4844.00    1.31651   1.09235    7.596
 4845.00    1.24313   1.08548    8.044
 4846.00    1.13925   1.07725    8.778
 4847.00    1.03183   1.06920    9.692
 4848.00    0.93344   1.06007    0.000
 4849.00    0.86357   1.04792    0.000
 4850.00    0.84185   1.03250    0.000
 4851.00    0.85566   1.01332    0.000
 4852.00    0.87295   0.98945    0.000
 4853.00    0.88959   0.96202    0.000
 4854.00    0.92518   0.93343    0.000
 4855.00    0.99178   0.90414    0.000
 4856.00    1.08878   0.87344    0.000
 4857.00    1.20576   0.84292    0.000
 4858.00    1.32465   0.81765    0.000
 4859.00    1.42273   0.80467    0.000
 4860.00    1.47685   0.80712    0.000
 4861.00    1.46923   0.82135    0.000
 4862.00    1.39354   0.84269    0.000
 4863.00    1.26197   0.86878    0.000
 4864.00    1.10890   0.89696    0.000
 4865.00    0.99069   0.92365    0.000
 4866.00    0.94248   0.94561    0.000
 4867.00    0.93658   0.96104    0.000
 4868.00    0.93256   0.97047    0.000
 4869.00    0.92724   0.97744    0.000
 4870.00    0.93103   0.98625    0.000
 4871.00    0.94405   0.99768    0.000
 4872.00    0.96150   1.00994    0.000
 4873.00    0.97923   1.02231    0.000
 4874.00    0.99418   1.03533    0.000
 4875.00    1.00434   1.04878    9.957
 4876.00    1.00894   1.06134    9.911
 4877.00    1.00987   1.07109    9.902
 4878.00    1.01933   1.07605    9.810
 4879.00    1.05720   1.07668    9.459
 4880.00    1.11671   1.07540    8.955
 4881.00    1.15831   1.07277    8.633
 4882.00    1.16038   1.06819    8.618
 4883.00    1.13589   1.06228    8.804
 4884.00    1.10418   1.05730    9.056
 4885.00    1.07936   1.05505    9.265
 4886.00    1.07160   1.05502    9.332
 4887.00    1.08447   1.05633    9.221
 4888.00    1.10480   1.05988    9.051
 4889.00    1.11004   1.06861    9.009
 4890.00    1.09822   1.08389    9.106
 4891.00    1.08524   1.10207    9.215
 4892.00    1.07543   1.11904    9.299
 4893.00    1.06338   1.13334    9.404
 4894.00    1.05593   1.14444    9.470
 4895.00    1.06663   1.15132    9.375
 4896.00    1.09385   1.15261    9.142
 4897.00    1.12422   1.14930    8.895
 4898.00    1.14736   1.14518    8.716
 4899.00    1.15843   1.14233    8.632
 4900.00    1.15748   1.13964    8.639
 4901.00    1.15045   1.13712    8.692
 4902.00    1.14991   1.13640    8.696
 4903.00    1.16384   1.13717    8.592
 4904.00    1.18129   1.13680    8.465
 4905.00    1.18456   1.13353    8.442
 4906.00    1.16662   1.12827    8.572
 4907.00    1.13471   1.12269    8.813
 4908.00    1.11018   1.11844    9.008
 4909.00    1.10657   1.11695    9.037
 4910.00    1.11079   1.11742    9.003
 4911.00    1.10636   1.11754    9.039
 4912.00    1.09393   1.11597    9.141
 4913.00    1.07947   1.11189    9.264
 4914.00    1.06380   1.10387    9.400
 4915.00    1.04446   1.09085    9.574
 4916.00    1.01852   1.07417    9.818
 4917.00    0.98897   1.05793   10.112
 4918.00    0.96691   1.04677   10.342
 4919.00    0.96144   1.04318   10.401
 4920.00    0.97340   1.04613   10.273
 4921.00    0.99439   1.05336   10.056
 4922.00    1.01048   1.06527    9.896
 4923.00    1.02023   1.08256    9.802
 4924.00    1.03677   1.10198    9.645
 4925.00    1.06273   1.11843    9.410
 4926.00    1.08571   1.13012    9.211
 4927.00    1.10035   1.13772    9.088
 4928.00    1.11240   1.14107    8.990
 4929.00    1.12464   1.13932    8.892
 4930.00    1.13373   1.13183    8.820
 4931.00    1.13512   1.12055    8.810
 4932.00    1.12725   1.11042    8.871
 4933.00    1.11802   1.10388    8.944
 4934.00    1.11994   1.09872    8.929
 4935.00    1.13482   1.09381    8.812
 4936.00    1.15406   1.09214    8.665
 4937.00    1.16717   1.09700    8.568
 4938.00    1.16783   1.10729    8.563
 4939.00    1.16141   1.11862    8.610
 4940.00    1.15954   1.12902    0.000
 4941.00    1.16836   1.13924    0.000
 4942.00    1.18426   1.14852    0.000
 4943.00    1.19103   1.15511    0.000
 4944.00    1.17156   1.15959    0.000
 4945.00    1.12430   1.16335    0.000
 4946.00    1.06422   1.16585    0.000
 4947.00    1.01988   1.16644    0.000
 4948.00    1.01388   1.16546    0.000
 4949.00    1.04263   1.16225    0.000
 4950.00    1.08449   1.15513    0.000
 4951.00    1.11226   1.14537    0.000
 4952.00    1.11450   1.13567    0.000
 4953.00    1.11037   1.12585    0.000
 4954.00    1.12169   1.11465    0.000
 4955.00    1.15051   1.10516    0.000
 4956.00    1.18628   1.10404    0.000
 4957.00    1.21393   1.11064    0.000
 4958.00    1.22552   1.11777    0.000
 4959.00    1.22515   1.12264    0.000
 4960.00    1.21569   1.12717    0.000
 4961.00    1.19363   1.13137    0.000
 4962.00    1.16380   1.13197    0.000
 4963.00    1.14209   1.12836    0.000
 4964.00    1.13221   1.12424    0.000
 4965.00    1.12081   1.12210    0.000
 4966.00    1.10333   1.12160    0.000
 4967.00    1.08924   1.12273    0.000
 4968.00    1.08111   1.12595    0.000
 4969.00    1.07182   1.13115    0.000
 4970.00    1.06183   1.13659    0.000
 4971.00    1.06063   1.14033    0.000
 4972.00    1.07336   1.14175    0.000
 4973.00    1.09793   1.14008    0.000
 4974.00    1.12815   1.13429    0.000
 4975.00    1.15816   1.12385    0.000
 4976.00    1.19005   1.10976    0.000
 4977.00    1.22322   1.09445    0.000
 4978.00    1.22926   1.07914    0.000
 4979.00    1.17902   1.06419    0.000
 4980.00    1.10225   1.05186    0.000
 4981.00    1.05608   1.04574    0.000
 4982.00    1.05305   1.04667    0.000
 4983.00    1.07364   1.05242    0.000
 4984.00    1.10428   1.06135    0.000
 4985.00    1.13698   1.07236    0.000
 4986.00    1.16085   1.08249    0.000
 4987.00    1.16480   1.08979    0.000
 4988.00    1.14311   1.09487    0.000
 4989.00    1.10529   1.09876    0.000
 4990.00    1.08329   1.10172    0.000
 4991.00    1.09825   1.10277    0.000
 4992.00    1.12969   1.10252    0.000
 4993.00    1.14800   1.10226    0.000
 4994.00    1.14531   1.10066    0.000
 4995.00    1.12693   1.09651    0.000
 4996.00    1.10187   1.09001    0.000
 4997.00    1.07882   1.08162    0.000
 4998.00    1.06416   1.07222    0.000
 4999.00    1.06495   1.06305    0.000
 5000.00    1.09018   1.05563    0.000
 5001.00    1.14609   1.05073    0.000
 5002.00    1.23184   1.04708    0.000
 5003.00    1.33154   1.04375    0.000
 5004.00    1.41372   1.04256    0.000
 5005.00    1.44795   1.04487    0.000
 5006.00    1.41676   1.04808    0.000
 5007.00    1.33099   1.04822    0.000
 5008.00    1.22713   1.04533    0.000
 5009.00    1.13375   1.04094    0.000
 5010.00    1.06157   1.03471    0.000
 5011.00    1.01393   1.02708    0.000
 5012.00    0.99066   1.02062    0.000
 5013.00    0.98835   1.01775    0.000
 5014.00    1.00158   1.01720    0.000
 5015.00    1.02600   1.01670    0.000
 5016.00    1.05878   1.01814    0.000
 5017.00    1.09752   1.02441    0.000
 5018.00    1.13819   1.03333    0.000
 5019.00    1.17133   1.04083    0.000
 5020.00    1.18612   1.04679    0.000
 5021.00    1.17970   1.05422    0.000
 5022.00    1.15985   1.06285    0.000
 5023.00    1.14558   1.06966    0.000
 5024.00    1.15236   1.07394    0.000
 5025.00    1.16994   1.07744    0.000
 5026.00    1.17527   1.08289    0.000
 5027.00    1.15556   1.08953    0.000
 5028.00    1.11373   1.09386    0.000
 5029.00    1.07059   1.09575    9.341
 5030.00    1.05392   1.09726    9.488
 5031.00    1.08416   1.09709    9.224
 5032.00    1.15479   1.09153    8.660
 5033.00    1.21845   1.08007    8.207
 5034.00    1.23153   1.06692    8.120
 5035.00    1.19400   1.05583    8.375
 5036.00    1.13077   1.04580    8.844
 5037.00    1.07176   1.03630    9.330
 5038.00    1.03753   1.03005    9.638
 5039.00    1.03073   1.03067    9.702
 5040.00    1.04382   1.03961    9.580
 5041.00    1.06515   1.05247    9.388
 5042.00    1.08266   1.06410    9.237
 5043.00    1.08777   1.07417    9.193
 5044.00    1.08478   1.08236    9.218
 5045.00    1.09053   1.08566    9.170
 5046.00    1.10968   1.08373    9.012
 5047.00    1.12805   1.08057    8.865
 5048.00    1.13507   1.07906    8.810
 5049.00    1.13127   1.07900    8.840
 5050.00    1.11890   1.08120    8.937
 5051.00    1.09960   1.08749    9.094
 5052.00    1.07949   1.09642    9.264
 5053.00    1.06731   1.10523    9.369
 5054.00    1.06368   1.11310    9.401
 5055.00    1.06389   1.12057    9.400
 5056.00    1.07394   1.12652    9.312
 5057.00    1.10390   1.12879    9.059
 5058.00    1.14135   1.12757    8.762
 5059.00    1.15910   1.12448    8.627
 5060.00    1.14592   1.11942    8.727
 5061.00    1.10967   1.11099    9.012
 5062.00    1.06928   1.09994    9.352
 5063.00    1.04548   1.09061    9.565
 5064.00    1.04719   1.08525    9.549
 5065.00    1.06765   1.08045    9.366
 5066.00    1.08322   1.07539    9.232
 5067.00    1.07292   1.07349    9.320
 5068.00    1.04507   1.07455    9.569
 5069.00    1.02379   1.07390    9.768
 5070.00    1.02662   1.07139    9.741
 5071.00    1.05695   1.07039    9.461
 5072.00    1.09946   1.06881    9.095
 5073.00    1.13110   1.06336    8.841
 5074.00    1.13376   1.05679    8.820
 5075.00    1.10521   1.05165    9.048
 5076.00    1.06620   1.04505    9.379
 5077.00    1.04489   1.03611    9.570
 5078.00    1.06088   1.03088    9.426
 5079.00    1.10639   1.03232    9.038
 5080.00    1.14015   1.03634    8.771
 5081.00    1.13657   1.04060    8.798
 5082.00    1.11366   1.04803    8.979
 5083.00    1.09790   1.05893    9.108
 5084.00    1.10115   1.06900    9.081
 5085.00    1.11724   1.07662    8.951
 5086.00    1.12617   1.08408    8.880
 5087.00    1.12016   1.09163    8.927
 5088.00    1.11117   1.09682    8.999
 5089.00    1.10809   1.09925    9.025
 5090.00    1.10841   1.10021    9.022
 5091.00    1.10574   1.09900    9.044
 5092.00    1.09465   1.09394    9.135
 5093.00    1.07626   1.08570    9.291
 5094.00    1.05853   1.07676    9.447
 5095.00    1.05101   1.06827    9.515
 5096.00    1.05867   1.06046    9.446
 5097.00    1.07004   1.05491    9.345
 5098.00    1.06566   1.05407    9.384
 5099.00    1.04624   1.05663    9.558
 5100.00    1.02898   1.05899    9.718
 5101.00    1.02389   1.05990    9.767
 5102.00    1.02967   1.06040    9.712
 5103.00    1.03656   1.06027    9.647
 5104.00    1.03605   1.05829    9.652
 5105.00    1.03614   1.05534    9.651
 5106.00    1.05196   1.05432    9.506
 5107.00    1.08651   1.05561    9.204
 5108.00    1.12924   1.05819    8.856
 5109.00    1.15943   1.06345    8.625
 5110.00    1.16119   1.07128    8.612
 5111.00    1.14117   1.07923    8.763
 5112.00    1.11663   1.08620    8.956
 5113.00    1.09887   1.09177    9.100
 5114.00    1.09104   1.09554    9.166
 5115.00    1.08855   1.09687    9.186
 5116.00    1.08786   1.09446    9.192
 5117.00    1.09331   1.08783    9.147
 5118.00    1.10485   1.07847    9.051
 5119.00    1.10951   1.06811    9.013
 5120.00    1.09984   1.05698    9.092
 5121.00    1.08571   1.04519    9.211
 5122.00    1.07560   1.03517    9.297
 5123.00    1.06574   1.02896    9.383
 5124.00    1.05522   1.02577    9.477
 5125.00    1.05324   1.02457    9.494
 5126.00    1.06565   1.02520    9.384
 5127.00    1.08825   1.02781    9.189
 5128.00    1.11178   1.03268    8.995
 5129.00    1.12635   1.03888    8.878
 5130.00    1.12899   1.04378    8.857
 5131.00    1.12470   1.04655    8.891
 5132.00    1.11785   1.04866    8.946
 5133.00    1.10991   1.05001    9.010
 5134.00    1.10364   1.04846    9.061
 5135.00    1.10236   1.04402    9.071
 5136.00    1.10298   1.03857    9.066
 5137.00    1.09950   1.03366    9.095
 5138.00    1.09804   1.03163    9.107
 5139.00    1.10871   1.03026    9.020
 5140.00    1.11518   1.02643    8.967
 5141.00    1.09041   1.02444    9.171
 5142.00    1.04753   1.02667    9.546
 5143.00    1.02233   1.02808    9.782
 5144.00    1.01618   1.02642    9.841
 5145.00    1.00720   1.02513    9.928
 5146.00    0.99077   1.02579   10.093
 5147.00    0.97541   1.02651   10.252
 5148.00    0.96451   1.02569   10.368
 5149.00    0.95884   1.02513   10.429
 5150.00    0.96408   1.02711   10.373
 5151.00    0.98560   1.03091   10.146
 5152.00    1.02044   1.03565    9.800
 5153.00    1.05969   1.04237    9.437
 5154.00    1.09278   1.05075    9.151
 5155.00    1.11175   1.05817    8.995
 5156.00    1.11510   1.06232    8.968
 5157.00    1.10641   1.06305    9.038
 5158.00    1.09214   1.06034    9.156
 5159.00    1.07715   1.05164    9.284
 5160.00    1.06134   1.03571    9.422
 5161.00    1.04264   1.01538    9.591
 5162.00    1.01969   0.99291    9.807
 5163.00    0.99290   0.96879   10.072
 5164.00    0.96447   0.94434   10.368
 5165.00    0.93518   0.92140   10.693
 5166.00    0.90320   0.90358   11.072
 5167.00    0.86927   0.89576   11.504
 5168.00    0.83962   0.89759   11.910
 5169.00    0.82638   0.90240   12.101
 5170.00    0.84386   0.90900   11.850
 5171.00    0.89246   0.92457   11.205
 5172.00    0.95511   0.94885   10.470
 5173.00    1.01187   0.97121    9.883
 5174.00    1.04778   0.98671    9.544
 5175.00    1.05851   0.99859    9.447
 5176.00    1.04969   1.00587    9.527
 5177.00    1.02807   1.00347    9.727
 5178.00    0.99900   0.99394   10.010
 5179.00    0.96712   0.98359   10.340
 5180.00    0.93671   0.97258   10.676
 5181.00    0.91201   0.96063   10.965
 5182.00    0.89872   0.95524   11.127
 5183.00    0.90700   0.96163   11.025
 5184.00    0.94256   0.97305   10.609
 5185.00    0.98811   0.98167   10.120
 5186.00    1.01661   0.98838    9.837
 5187.00    1.02174   0.99773    9.787
 5188.00    1.01343   1.00629    9.867
 5189.00    1.00137   1.00691    9.986
 5190.00    0.99234   1.00379    0.000
 5191.00    0.99016   1.00553    0.000
 5192.00    0.99533   1.01023    0.000
 5193.00    1.00479   1.01304    0.000
 5194.00    1.01637   1.01684    0.000
 5195.00    1.03366   1.02358    0.000
 5196.00    1.06031   1.03001    0.000
 5197.00    1.09351   1.03417    0.000
 5198.00    1.12504   1.03487    0.000
 5199.00    1.14354   1.03113    0.000
 5200.00    1.14019   1.02453    0.000
 5201.00    1.11348   1.01668    0.000
 5202.00    1.07001   1.00587    0.000
 5203.00    1.02381   0.99430    0.000
 5204.00    0.98937   0.98789    0.000
 5205.00    0.97558   0.98708    0.000
 5206.00    0.97809   0.98866    0.000
 5207.00    0.97926   0.99435    0.000
 5208.00    0.97254   1.00522    0.000
 5209.00    0.97104   1.01712    0.000
 5210.00    0.98074   1.02799    0.000
 5211.00    0.99170   1.03840   10.084
 5212.00    1.00008   1.04717    9.999
 5213.00    1.01488   1.05267    9.853
 5214.00    1.04319   1.05694    9.586
 5215.00    1.08289   1.06210    9.235
 5216.00    1.11861   1.06701    8.940
 5217.00    1.12876   1.06944    8.859
 5218.00    1.11151   1.06896    8.997
 5219.00    1.08499   1.06558    9.217
 5220.00    1.06360   1.05776    9.402
 5221.00    1.05155   1.04603    9.510
 5222.00    1.04460   1.03412    9.573
 5223.00    1.03348   1.02327    9.676
 5224.00    1.01039   1.01311    9.897
 5225.00    0.97611   1.00754   10.245
 5226.00    0.95051   1.00964   10.521
 5227.00    0.95609   1.01497   10.459
 5228.00    0.98480   1.02002   10.154
 5229.00    1.01013   1.02642    9.900
 5230.00    1.01749   1.03351    9.828
 5231.00    1.00858   1.03913    9.915
 5232.00    0.99959   1.04466   10.004
 5233.00    1.00679   1.05170    9.933
 5234.00    1.02834   1.05979    9.724
 5235.00    1.05395   1.06817    9.488
 5236.00    1.07878   1.07588    9.270
 5237.00    1.09865   1.08234    9.102
 5238.00    1.10430   1.08814    9.056
 5239.00    1.09399   1.09267    9.141
 5240.00    1.08397   1.09306    9.225
 5241.00    1.08641   1.09001    9.205
 5242.00    1.09144   1.08726    9.162
 5243.00    1.08382   1.08382    9.227
 5244.00    1.05784   1.07589    9.453
 5245.00    1.02182   1.06662    9.786
 5246.00    0.99704   1.06152   10.030
 5247.00    0.99590   1.05840   10.041
 5248.00    1.01120   1.05378    9.889
 5249.00    1.03457   1.05116    9.666
 5250.00    1.06499   1.05401    9.390
 5251.00    1.09662   1.05903    9.119
 5252.00    1.11592   1.06266    8.961
 5253.00    1.11762   1.06596    8.948
 5254.00    1.10976   1.07048    9.011
 5255.00    1.10386   1.07294    9.059
 5256.00    1.10857   1.06963    9.021
 5257.00    1.12236   1.06099    8.910
 5258.00    1.13453   1.04840    8.814
 5259.00    1.13687   1.03113    8.796
 5260.00    1.12744   1.01032    8.870
 5261.00    1.11010   0.99070    9.008
 5262.00    1.08922   0.97371    9.181
 5263.00    1.05721   0.95728    9.459
 5264.00    1.00458   0.94449    9.954
 5265.00    0.95027   0.94112   10.523
 5266.00    0.92802   0.94287   10.776
 5267.00    0.94405   0.94317   10.593
 5268.00    0.98148   0.94734   10.189
 5269.00    1.02550   0.96035    9.751
 5270.00    1.06778   0.97534    9.365
 5271.00    1.10536   0.98800    9.047
 5272.00    1.13558   1.00177    8.806
 5273.00    1.14941   1.01626    8.700
 5274.00    1.14189   1.02879    8.757
 5275.00    1.12642   1.04014    8.878
 5276.00    1.11826   1.04915    8.942
 5277.00    1.11345   1.05348    8.981
 5278.00    1.10320   1.05506    9.065
 5279.00    1.09198   1.05777    9.158
 5280.00    1.09376   1.06158    9.143
 5281.00    1.12417   1.06496    8.895
 5282.00    1.17830   1.06965    8.487
 5283.00    1.21697   1.07887    8.217
 5284.00    1.21029   1.09056    8.263
 5285.00    1.17023   1.10029    8.545
 5286.00    1.12823   1.10721    8.863
 5287.00    1.11379   1.11276    8.978
 5288.00    1.13191   1.11614    8.835
 5289.00    1.15578   1.11537    8.652
 5290.00    1.16429   1.10999    8.589
 5291.00    1.15972   1.10124    8.623
 5292.00    1.14561   1.09138    8.729
 5293.00    1.11751   1.08187    8.948
 5294.00    1.07618   1.07234    9.292
 5295.00    1.03259   1.06281    9.684
 5296.00    1.00204   1.05672    9.980
 5297.00    0.99755   1.05700   10.025
 5298.00    1.01566   1.06121    9.846
 5299.00    1.03790   1.06591    9.635
 5300.00    1.05302   1.07220    9.496
 5301.00    1.06123   1.08139    9.423
 5302.00    1.06453   1.09114    9.394
 5303.00    1.06454   1.09874    9.394
 5304.00    1.06445   1.10419    9.395
 5305.00    1.06870   1.10851    9.357
 5306.00    1.08076   1.11201    9.253
 5307.00    1.10050   1.11400    9.087
 5308.00    1.12005   1.11392    8.928
 5309.00    1.12809   1.11215    8.865
 5310.00    1.11957   1.10874    8.932
 5311.00    1.09787   1.10402    9.109
 5312.00    1.07502   1.09953    9.302
 5313.00    1.06511   1.09518    9.389
 5314.00    1.07444   1.08969    9.307
 5315.00    1.10202   1.08489    9.074
 5316.00    1.14234   1.08260    8.754
 5317.00    1.18405   1.07979    8.446
 5318.00    1.20876   1.07375    8.273
 5319.00    1.20047   1.06665    8.330
 5320.00    1.15680   1.05981    8.645
 5321.00    1.09713   1.04983    9.115
 5322.00    1.06501   1.03546    9.390
 5323.00    1.08492   1.02299    9.217
 5324.00    1.12797   1.01605   -2.000
 5325.00    1.15165   1.01032   -2.000
 5326.00    1.13631   1.00494   -2.000
 5327.00    1.10041   1.00728   -2.000
 5328.00    1.09983   1.01825   -2.000
 5329.00    1.16282   1.03006   -2.000
 5330.00    1.25617   1.03896   -2.000
 5331.00    1.33661   1.04796   -2.000
 5332.00    1.38148   1.05776   -2.000
 5333.00    1.38415   1.06394   -2.000
 5334.00    1.34949   1.06403   -2.000
 5335.00    1.28759   1.06164   -2.000
 5336.00    1.21178   1.06091   -2.000
 5337.00    1.14244   1.06005   -2.000
 5338.00    1.10213   1.05730   -2.000
 5339.00    1.09210   1.05619    9.157
 5340.00    1.09220   1.05873    9.156
 5341.00    1.09028   1.06191    9.172
 5342.00    1.08838   1.06381    9.188
 5343.00    1.09116   1.06510    9.165
 5344.00    1.10084   1.06718    9.084
 5345.00    1.11353   1.07085    8.980
 5346.00    1.12116   1.07456    8.919
 5347.00    1.11811   1.07766    8.944
 5348.00    1.10388   1.08326    9.059
 5349.00    1.08488   1.09246    9.218
 5350.00    1.07172   1.10149    9.331
 5351.00    1.07323   1.10885    9.318
 5352.00    1.09325   1.11673    9.147
 5353.00    1.12746   1.12445    8.869
 5354.00    1.16549   1.12896    8.580
 5355.00    1.19535   1.12977    8.366
 5356.00    1.20936   1.12813    8.269
 5357.00    1.21084   1.12429    8.259
 5358.00    1.20628   1.11783    8.290
 5359.00    1.19486   1.10883    8.369
 5360.00    1.17178   1.09854    8.534
 5361.00    1.13404   1.08865    8.818
 5362.00    1.08720   1.07907    9.198
 5363.00    1.04952   1.06937    9.528
 5364.00    1.03225   1.06037    9.688
 5365.00    1.02385   1.05252    9.767
 5366.00    1.01171   1.04665    9.884
 5367.00    0.99965   1.04366   10.004
 5368.00    0.99716   1.04303   10.029
 5369.00    1.00943   1.04519    9.907
 5370.00    1.02968   1.05205    9.712
 5371.00    1.03905   1.06216    9.624
 5372.00    1.03336   1.07191    9.677
 5373.00    1.03322   1.08076    9.678
 5374.00    1.05291   1.08834    9.497
 5375.00    1.08572   1.09321    9.210
 5376.00    1.11478   1.09542    8.970
 5377.00    1.12274   1.09541    8.907
 5378.00    1.10855   1.09333    9.021
 5379.00    1.08785   1.09134    9.192
 5380.00    1.06859   1.09045    9.358
 5381.00    1.04812   1.08924    9.541
 5382.00    1.03546   1.08828    9.658
 5383.00    1.04768   1.08825    9.545
 5384.00    1.07672   1.08712    9.287
 5385.00    1.09276   1.08423    9.151
 5386.00    1.08062   1.08067    9.254
 5387.00    1.04632   1.07564    9.557
 5388.00    1.00776   1.06892    9.923
 5389.00    0.98522   1.06245   10.150
 5390.00    0.98603   1.05607   10.142
 5391.00    1.00509   1.04857    9.949
 5392.00    1.03226   1.04228    9.687
 5393.00    1.05524   1.03925    9.477
 5394.00    1.06214   1.03626    9.415
 5395.00    1.04844   1.03237    9.538
 5396.00    1.02623   1.03176    9.744
 5397.00    1.01216   1.03329    9.880
 5398.00    1.00901   1.03138    9.911
 5399.00    1.01227   1.02693    9.879
 5400.00    1.02133   1.02364    9.791
 5401.00    1.03667   1.01980    9.646
 5402.00    1.05515   1.01421    9.477
 5403.00    1.07115   1.00936    9.336
 5404.00    1.07859   1.00723    9.271
 5405.00    1.07545   1.00845    9.298
 5406.00    1.06677   1.01264    9.374
 5407.00    1.05640   1.01818    9.466
 5408.00    1.04152   1.02480    9.601
 5409.00    1.02463   1.03389    9.760
 5410.00    1.01953   1.04417    9.808
 5411.00    1.02971   1.05296    9.712
 5412.00    1.03858   1.05975    9.629
 5413.00    1.03910   1.06596    9.624
 5414.00    1.04621   1.07158    9.558
 5415.00    1.06606   1.07486    9.380
 5416.00    1.08402   1.07576    9.225
 5417.00    1.08942   1.07565    9.179
 5418.00    1.08587   1.07430    9.209
 5419.00    1.08258   1.07176    9.237
 5420.00    1.08746   1.06982    9.196
 5421.00    1.09586   1.06797    9.125
 5422.00    1.09333   1.06497    9.146
 5423.00    1.07860   1.06171    9.271
 5424.00    1.06659   1.05887    9.376
 5425.00    1.07221   1.05609    9.326
 5426.00    1.10086   1.05212    9.084
 5427.00    1.13680   1.04604    8.797
 5428.00    1.15200   1.04103    8.681
 5429.00    1.13489   1.03946    8.811
 5430.00    1.09711   1.03840    9.115
 5431.00    1.07130   1.03751    9.334
 5432.00    1.08256   1.04063    9.237
 5433.00    1.09704   1.04806    9.115
 5434.00    1.07856   1.05674   -2.000
 5435.00    1.09859   1.06589   -2.000
 5436.00    1.20426   1.07533   -2.000
 5437.00    1.19695   1.08321   -2.000
 5438.00    0.91101   1.08813   -2.000
 5439.00    0.63704   1.08944   -2.000
 5440.00    0.83144   1.08691   -2.000
 5441.00    1.66115   1.08101   -2.000
 5442.00    2.86297   1.07397   -2.000
 5443.00    3.71026   1.06770   -2.000
 5444.00    3.73889   1.06198   -2.000
 5445.00    3.41738   1.05816   -2.000
 5446.00    3.31050   1.05800   -2.000
 5447.00    3.29341   1.05962   -2.000
 5448.00    3.01233   1.06045   -2.000
 5449.00    2.34035   1.06024   -2.000
 5450.00    1.48705   1.05945   -2.000
 5451.00    0.96601   1.05854   -2.000
 5452.00    0.98078   1.05746   -2.000
 5453.00    1.12444   1.05545   -2.000
 5454.00    1.08490   1.05465   -2.000
 5455.00    1.00486   1.05696   -2.000
 5456.00    1.03443   1.05961   -2.000
 5457.00    1.11393   1.06002    8.977
 5458.00    1.16277   1.06018    8.600
 5459.00    1.16867   1.06184    8.557
 5460.00    1.14861   1.06228    8.706
 5461.00    1.12461   1.06072    8.892
 5462.00    1.10423   1.06094    9.056
 5463.00    1.07944   1.06327    9.264
 5464.00    1.04872   1.06390    9.535
 5465.00    1.02052   1.06346    9.799
 5466.00    1.00006   1.06431    9.999
 5467.00    0.98653   1.06336   10.137
 5468.00    0.97763   1.05860   10.229
 5469.00    0.97145   1.05364   10.294
 5470.00    0.96761   1.04852   10.335
 5471.00    0.96704   1.04006   10.341
 5472.00    0.97073   1.03208   10.302
 5473.00    0.97871   1.02823   10.218
 5474.00    0.98887   1.02468   10.113
 5475.00    0.99863   1.02109   10.014
 5476.00    1.00835   1.02235    9.917
 5477.00    1.01949   1.02740    9.809
 5478.00    1.03081   1.03135    9.701
 5479.00    1.04119   1.03552    9.604
 5480.00    1.05426   1.04239    9.485
 5481.00    1.07325   1.04868    9.318
 5482.00    1.09396   1.05233    9.141
 5483.00    1.10948   1.05578    9.013
 5484.00    1.11654   1.05906    8.956
 5485.00    1.11514   1.06001    8.968
 5486.00    1.10731   1.06063    9.031
 5487.00    1.09715   1.06227    9.115
 5488.00    1.09002   1.06232    9.174
 5489.00    1.08507   1.06175    9.216
 5490.00    1.07139   1.06279    9.334
 5491.00    1.04760   1.06291    9.546
 5492.00    1.03309   1.06109    9.680
 5493.00    1.04096   1.06073    9.606
 5494.00    1.06225   1.06106    9.414
 5495.00    1.08705   1.05860    9.199
 5496.00    1.11496   1.05564    8.969
 5497.00    1.13721   1.05465    8.793
 5498.00    1.13305   1.05288    8.826
 5499.00    1.10110   1.04930    9.082
 5500.00    1.06769   1.04620    9.366
 5501.00    1.05445   1.04388    9.484
 5502.00    1.06292   1.04202    9.408
 5503.00    1.07307   1.04045    9.319
 5504.00    1.05495   1.03827    9.479
 5505.00    1.00943   1.03702    9.907
 5506.00    0.96798   1.03728   10.331
 5507.00    0.94635   1.03661   10.567
 5508.00    0.93821   1.03558   10.659
 5509.00    0.93889   1.03638   10.651
 5510.00    0.94783   1.03818   10.550
 5511.00    0.95749   1.04033   10.444
 5512.00    0.95820   1.04421   10.436
 5513.00    0.95523   1.04984   10.469
 5514.00    0.96421   1.05557   10.371
 5515.00    0.99420   1.06096   10.058
 5516.00    1.04238   1.06616    9.593
 5517.00    1.09163   1.07003    9.161
 5518.00    1.12361   1.07147    8.900
 5519.00    1.13957   1.07051    8.775
 5520.00    1.14636   1.06769    8.723
 5521.00    1.13237   1.06331    8.831
 5522.00    1.08701   1.05733    9.200
 5523.00    1.02923   1.05059    9.716
 5524.00    0.98898   1.04551   10.111
 5525.00    0.98108   1.04234   10.193
 5526.00    1.00350   1.03973    9.965
 5527.00    1.03987   1.03922    9.617
 5528.00    1.07200   1.04164    9.328
 5529.00    1.09149   1.04404    9.162
 5530.00    1.09840   1.04579    9.104
 5531.00    1.09827   1.04923    9.105
 5532.00    1.09495   1.05281    9.133
 5533.00    1.08642   1.05481    9.205
 5534.00    1.07403   1.05757    9.311
 5535.00    1.06697   1.06137    9.372
 5536.00    1.06917   1.06416    9.353
 5537.00    1.07294   1.06605    9.320
 5538.00    1.06988   1.06793    9.347
 5539.00    1.05774   1.06953    9.454
 5540.00    1.04262   1.07010    9.591
 5541.00    1.03731   1.06989    9.640
 5542.00    1.05006   1.07054    9.523
 5543.00    1.07920   1.07235    9.266
 5544.00    1.11265   1.07384    8.988
 5545.00    1.13270   1.07543    8.828
 5546.00    1.13318   1.07791    8.825
 5547.00    1.12171   1.07983    8.915
 5548.00    1.10714   1.08022    9.032
 5549.00    1.09662   1.07970    9.119
 5550.00    1.09889   1.07889    9.100
 5551.00    1.12002   1.07740    8.928
 5552.00    1.15030   1.07501    8.693
 5553.00    1.16881   1.07277    8.556
 5554.00    1.16121   1.07124    8.612
 5555.00    1.12812   1.06948    8.864
 5556.00    1.09263   1.06727    9.152
 5557.00    1.08193   1.06496    9.243
 5558.00    1.09217   1.06239    9.156
 5559.00    1.09897   1.05970    9.099
 5560.00    1.08570   1.05629    9.211
 5561.00    1.05103   1.05236    9.515
 5562.00    1.01210   1.04955    9.880
 5563.00    0.98755   1.04720   10.126
 5564.00    0.97548   1.04383   10.251
 5565.00    0.96689   1.04186   10.342
 5566.00    0.96419   1.04211   10.371
 5567.00    0.97127   1.04075   10.296
 5568.00    0.98170   1.03958   10.186
 5569.00    0.98886   1.04206   10.113
 5570.00    0.99626   1.04385   10.038
 5571.00    1.01307   1.04408    9.871
 5572.00    1.04803   1.04734    9.542
 5573.00    1.09885   1.05126    9.100
 5574.00    1.14685   1.05273    8.720
 5575.00    1.17536   1.05484    8.508
 5576.00    1.18220   1.05704    8.459
 5577.00    1.17534   1.05649    8.508
 5578.00    1.16717   1.05479    8.568
 5579.00    1.16102   1.05205    8.613
 5580.00    1.14706   1.04651    8.718
 5581.00    1.11910   1.03905    8.936
 5582.00    1.08300   1.03108    9.234
 5583.00    1.05442   1.02266    9.484
 5584.00    1.05136   1.01433    9.512
 5585.00    1.07029   1.00795    9.343
 5586.00    1.08614   1.00419    9.207
 5587.00    1.08712   1.00278    9.199
 5588.00    1.08183   1.00373    9.244
 5589.00    1.08041   1.00629    9.256
 5590.00    1.08660   1.01052    9.203
 5591.00    1.09359   1.01591    9.144
 5592.00    1.08907   1.01967    9.182
 5593.00    1.07079   1.02150    9.339
 5594.00    1.04627   1.02379    9.558
 5595.00    1.02251   1.02513    9.780
 5596.00    1.00460   1.02381    9.954
 5597.00    0.99789   1.02298   10.021
 5598.00    1.00603   1.02447    9.940
 5599.00    1.02672   1.02709    9.740
 5600.00    1.05423   1.03082    9.486
 5601.00    1.08460   1.03703    9.220
 5602.00    1.11356   1.04526    8.980
 5603.00    1.13249   1.05366    8.830
 5604.00    1.13540   1.06126    8.807
 5605.00    1.12838   1.06766    8.862
 5606.00    1.12287   1.07184    8.906
 5607.00    1.12559   1.07298    8.884
 5608.00    1.13393   1.07170    8.819
 5609.00    1.13382   1.06756    8.820
 5610.00    1.11665   1.06028    8.955
 5611.00    1.09389   1.05324    9.142
 5612.00    1.07684   1.04750    9.286
 5613.00    1.06006   1.04100    9.433
 5614.00    1.03977   1.03597    9.617
 5615.00    1.02725   1.03474    9.735
 5616.00    1.03142   1.03469    9.695
 5617.00    1.04717   1.03459    9.550
 5618.00    1.06379   1.03566    9.400
 5619.00    1.07182   1.03652    9.330
 5620.00    1.06828   1.03681    9.361
 5621.00    1.05844   1.03782    9.448
 5622.00    1.05018   1.03860    9.522
 5623.00    1.05043   1.03966    9.520
 5624.00    1.06295   1.04308    9.408
 5625.00    1.08708   1.04725    9.199
 5626.00    1.11703   1.05068    8.952
 5627.00    1.14402   1.05465    8.741
 5628.00    1.16512   1.05820    8.583
 5629.00    1.18347   1.05941    8.450
 5630.00    1.19865   1.05913    8.343
 5631.00    1.20525   1.05779    8.297
 5632.00    1.19840   1.05454    8.344
 5633.00    1.17714   1.05059    8.495
 5634.00    1.14892   1.04739    8.704
 5635.00    1.12563   1.04390    8.884
 5636.00    1.11209   1.04046    8.992
 5637.00    1.10617   1.03911    9.040
 5638.00    1.10506   1.03895    9.049
 5639.00    1.10456   1.03869    9.053
 5640.00    1.09581   1.03981    9.126
 5641.00    1.07256   1.04226    9.323
 5642.00    1.04398   1.04449    9.579
 5643.00    1.02571   1.04676    9.749
 5644.00    1.02332   1.04919    9.772
 5645.00    1.03220   1.05097    9.688
 5646.00    1.04153   1.05207    9.601
 5647.00    1.04660   1.05243    9.555
 5648.00    1.06119   1.05172    9.423
 5649.00    1.09541   1.04933    9.129
 5650.00    1.13184   1.04538    8.835
 5651.00    1.14942   1.04124    8.700
 5652.00    1.14802   1.03583    8.711
 5653.00    1.13480   1.02810    8.812
 5654.00    1.11121   1.02174    8.999
 5655.00    1.08081   1.01806    9.252
 5656.00    1.05493   1.01366    9.479
 5657.00    1.04155   1.01019    9.601
 5658.00    1.03832   1.01125    9.631
 5659.00    1.04213   1.01398    9.596
 5660.00    1.05456   1.01595    9.483
 5661.00    1.07622   1.01947    9.292
 5662.00    1.10335   1.02439    9.063
 5663.00    1.12857   1.02838    8.861
 5664.00    1.14409   1.03186    8.741
 5665.00    1.15402   1.03584    8.665
 5666.00    1.17273   1.03971    8.527
 5667.00    1.19490   1.04355    8.369
 5668.00    1.19395   1.04799    8.376
 5669.00    1.16207   1.05229    8.605
 5670.00    1.11895   1.05583    8.937
 5671.00    1.08974   1.05934    9.176
 5672.00    1.09041   1.06226    9.171
 5673.00    1.10803   1.06305    9.025
 5674.00    1.11119   1.06232    8.999
 5675.00    1.09205   1.06115    9.157
 5676.00    1.06771   1.05848    9.366
 5677.00    1.05608   1.05383    9.469
 5678.00    1.06773   1.04903    9.366
 5679.00    1.10130   1.04467    9.080
 5680.00    1.14373   1.03989    8.743
 5681.00    1.17322   1.03554    8.524
 5682.00    1.17354   1.03277    8.521
 5683.00    1.15634   1.03130    8.648
 5684.00    1.14503   1.03111    8.733
 5685.00    1.14479   1.03244    8.735
 5686.00    1.14587   1.03491    8.727
 5687.00    1.13505   1.03853    8.810
 5688.00    1.10515   1.04293    9.049
 5689.00    1.06409   1.04677    9.398
 5690.00    1.02671   1.04983    9.740
 5691.00    1.00414   1.05258    9.959
 5692.00    1.00054   1.05362    9.995
 5693.00    1.01155   1.05225    9.886
 5694.00    1.03024   1.05025    9.706
 5695.00    1.05249   1.04756    9.501
 5696.00    1.07602   1.04298    9.294
 5697.00    1.09876   1.03804    9.101
 5698.00    1.11547   1.03393    8.965
 5699.00    1.11745   1.02955    8.949
 5700.00    1.10658   1.02454    9.037
 5701.00    1.10027   1.01999    9.089
 5702.00    1.10601   1.01614    9.042
 5703.00    1.11128   1.01158    8.999
 5704.00    1.11042   1.00667    9.006
 5705.00    1.11362   1.00380    8.980
 5706.00    1.12093   1.00213    8.921
 5707.00    1.11720   1.00092    8.951
 5708.00    1.10281   1.00302    9.068
 5709.00    1.09760   1.00784    9.111
 5710.00    1.10661   1.01300    9.037
 5711.00    1.11379   1.02020    8.978
 5712.00    1.10537   1.02885    9.047
 5713.00    1.07897   1.03629    9.268
 5714.00    1.04616   1.04357    9.559
 5715.00    1.02504   1.05077    9.756
 5716.00    1.01924   1.05616    9.811
 5717.00    1.02012   1.06074    9.803
 5718.00    1.02577   1.06471    9.749
 5719.00    1.04121   1.06689    9.604
 5720.00    1.06868   1.06826    9.357
 5721.00    1.10351   1.06899    9.062
 5722.00    1.13088   1.06802    8.843
 5723.00    1.13791   1.06639    8.788
 5724.00    1.13447   1.06501    8.815
 5725.00    1.13907   1.06307    8.779
 5726.00    1.15189   1.06088    8.681
 5727.00    1.15924   1.05979    8.626
 5728.00    1.14631   1.05951    8.724
 5729.00    1.10801   1.05920    9.025
 5730.00    1.05946   1.05948    9.439
 5731.00    1.02577   1.06061    9.749
 5732.00    1.02801   1.06162    9.727
 5733.00    1.06983   1.06224    9.347
 5734.00    1.12770   1.06280    8.868
 5735.00    1.17245   1.06305    8.529
 5736.00    1.19003   1.06283    8.403
 5737.00    1.18448   1.06238    8.443
 5738.00    1.17565   1.06182    8.506
 5739.00    1.17489   1.06113    8.511
 5740.00    1.17083   1.06040    0.000
 5741.00    1.15418   1.05975    0.000
 5742.00    1.13283   1.05883    0.000
 5743.00    1.11892   1.05739    0.000
 5744.00    1.11998   1.05600   -2.000
 5745.00    1.13513   1.05428   -2.000
 5746.00    1.15617   1.05167   -2.000
 5747.00    1.18106   1.04915   -2.000
 5748.00    1.21642   1.04695   -2.000
 5749.00    1.26092   1.04450   -2.000
 5750.00    1.30132   1.04280   -2.000
 5751.00    1.32485   1.04221   -2.000
 5752.00    1.32481   1.04202   -2.000
 5753.00    1.30271   1.04266   -2.000
 5754.00    1.26907   1.04390   -2.000
 5755.00    1.24359   1.04464   -2.000
 5756.00    1.24422   1.04526   -2.000
 5757.00    1.25872   1.04563   -2.000
 5758.00    1.25406   1.04532   -2.000
 5759.00    1.21767   1.04560   -2.000
 5760.00    1.16246   1.04668   -2.000
 5761.00    1.11458   1.04787   -2.000
 5762.00    1.09645   1.05018   -2.000
 5763.00    1.10045   1.05335   -2.000
 5764.00    1.10362   1.05577    0.000
 5765.00    1.10195   1.05779    0.000
 5766.00    1.10448   1.05943    0.000
 5767.00    1.11464   1.05958    0.000
 5768.00    1.12855   1.05888    0.000
 5769.00    1.13740   1.05781    0.000
 5770.00    1.13485   1.05575    0.000
 5771.00    1.12534   1.05348    0.000
 5772.00    1.11614   1.05110    0.000
 5773.00    1.10745   1.04760    0.000
 5774.00    1.09795   1.04359    0.000
 5775.00    1.09092   1.03927    0.000
 5776.00    1.08794   1.03357    0.000
 5777.00    1.08358   1.02748    0.000
 5778.00    1.07390   1.02230    0.000
 5779.00    1.06331   1.01738    0.000
 5780.00    1.05957   1.01328    0.000
 5781.00    1.06817   1.01176    0.000
 5782.00    1.08263   1.01221    0.000
 5783.00    1.08208   1.01346    0.000
 5784.00    1.05493   1.01649    0.000
 5785.00    1.01157   1.02095    0.000
 5786.00    0.97443   1.02490    0.000
 5787.00    0.96760   1.02889    0.000
 5788.00    0.99500   1.03325    0.000
 5789.00    1.03628   1.03646    0.000
 5790.00    1.07411   1.03922    0.000
 5791.00    1.10352   1.04233    0.000
 5792.00    1.12099   1.04456    0.000
 5793.00    1.12355   1.04630    0.000
 5794.00    1.12033   1.04874    0.000
 5795.00    1.12934   1.05092    0.000
 5796.00    1.15549   1.05234    0.000
 5797.00    1.18721   1.05415    0.000
 5798.00    1.20647   1.05591    0.000
 5799.00    1.19902   1.05641    0.000
 5800.00    1.17140   1.05643    0.000
 5801.00    1.14366   1.05641    0.000
 5802.00    1.12418   1.05565    0.000
 5803.00    1.10892   1.05471    0.000
 5804.00    1.09126   1.05424    0.000
 5805.00    1.06951   1.05403    0.000
 5806.00    1.05585   1.05416    0.000
 5807.00    1.06474   1.05450    0.000
 5808.00    1.09255   1.05475    0.000
 5809.00    1.12296   1.05503    0.000
 5810.00    1.13989   1.05516    0.000
 5811.00    1.13569   1.05487    0.000
 5812.00    1.11863   1.05482    0.000
 5813.00    1.10360   1.05541    0.000
 5814.00    1.10011   1.05616    0.000
 5815.00    1.10881   1.05729    0.000
 5816.00    1.12045   1.05932    0.000
 5817.00    1.12659   1.06147    0.000
 5818.00    1.12910   1.06322    0.000
 5819.00    1.13435   1.06501    0.000
 5820.00    1.14677   1.06660    0.000
 5821.00    1.16263   1.06752    0.000
 5822.00    1.16810   1.06815    0.000
 5823.00    1.15575   1.06867    0.000
 5824.00    1.13420   1.06887    0.000
 5825.00    1.11696   1.06889    0.000
 5826.00    1.11392   1.06871    0.000
 5827.00    1.12447   1.06823    0.000
 5828.00    1.13635   1.06771    0.000
 5829.00    1.13739   1.06695    0.000
 5830.00    1.12262   1.06581    0.000
 5831.00    1.09898   1.06498    0.000
 5832.00    1.08288   1.06444    0.000
 5833.00    1.08343   1.06372    0.000
 5834.00    1.09815   1.06349    0.000
 5835.00    1.12134   1.06398    0.000
 5836.00    1.14633   1.06438    0.000
 5837.00    1.16294   1.06472    0.000
 5838.00    1.16097   1.06530    0.000
 5839.00    1.14197   1.06539    0.000
 5840.00    1.11955   1.06465    0.000
 5841.00    1.11150   1.06345    0.000
 5842.00    1.12998   1.06151    0.000
 5843.00    1.16491   1.05876    0.000
 5844.00    1.19173   1.05568    0.000
 5845.00    1.19444   1.05204    0.000
 5846.00    1.17152   1.04793    0.000
 5847.00    1.13731   1.04383    0.000
 5848.00    1.10844   1.03922    0.000
 5849.00    1.08261   1.03416    0.000
 5850.00    1.05168   1.02950    0.000
 5851.00    1.02451   1.02500    0.000
 5852.00    1.01392   1.02044    0.000
 5853.00    1.01611   1.01705    0.000
 5854.00    1.01933   1.01519    0.000
 5855.00    1.01727   1.01396    0.000
 5856.00    1.01270   1.01410    0.000
 5857.00    1.01841   1.01611    0.000
 5858.00    1.04248   1.01855    0.000
 5859.00    1.07548   1.02149    0.000
 5860.00    1.10192   1.02531    0.000
 5861.00    1.11149   1.02872    0.000
 5862.00    1.10317   1.03174    0.000
 5863.00    1.08630   1.03509    0.000
 5864.00    1.07009   1.03799    0.000
 5865.00    1.05729   1.04017    0.000
 5866.00    1.05069   1.04251    0.000
 5867.00    1.05509   1.04457    0.000
 5868.00    1.06520   1.04561    0.000
 5869.00    1.06469   1.04624    0.000
 5870.00    1.05453   1.04643    0.000
 5871.00    1.05866   1.04551    0.000
 5872.00    1.08668   1.04388    0.000
 5873.00    1.12262   1.04181    0.000
 5874.00    1.14740   1.03911    0.000
 5875.00    1.15140   1.03580    0.000
 5876.00    1.14501   1.03207    0.000
 5877.00    1.15101   1.02810    0.000
 5878.00    1.17006   1.02329    0.000
 5879.00    1.18061   1.01704    0.000
 5880.00    1.16996   1.00968    0.000
 5881.00    1.14041   1.00023    0.000
 5882.00    1.10180   0.98743    0.000
 5883.00    1.06627   0.97283    0.000
 5884.00    1.04094   0.95671    0.000
 5885.00    1.02627   0.93796    0.000
 5886.00    1.01619   0.92068    0.000
 5887.00    1.00128   0.90667    0.000
 5888.00    0.97447   0.89321    0.000
 5889.00    0.93591   0.88470    0.000
 5890.00    0.89853   0.88277    0.000
 5891.00    0.87812   0.88180    0.000
 5892.00    0.87801   0.88519    0.000
 5893.00    0.89304   0.89484    0.000
 5894.00    0.91776   0.90465    0.000
 5895.00    0.94596   0.91687    0.000
 5896.00    0.96948   0.93342    0.000
 5897.00    0.98540   0.94893    0.000
 5898.00    1.00234   0.96346    0.000
 5899.00    1.02570   0.97846    0.000
 5900.00    1.04481   0.99084    0.000
 5901.00    1.05027   1.00023    9.521
 5902.00    1.04859   1.00803    9.537
 5903.00    1.05141   1.01379    9.511
 5904.00    1.06543   1.01746    9.386
 5905.00    1.08686   1.01980    9.201
 5906.00    1.10078   1.02111    9.084
 5907.00    1.09871   1.02145    9.102
 5908.00    1.08660   1.02084    9.203
 5909.00    1.06734   1.01954    9.369
 5910.00    1.03464   1.01818    9.665
 5911.00    0.99245   1.01678   10.076
 5912.00    0.96018   1.01545   10.415
 5913.00    0.95112   1.01516   10.514
 5914.00    0.96334   1.01558   10.381
 5915.00    0.98342   1.01643   10.169
 5916.00    0.99382   1.01831   10.062
 5917.00    0.99248   1.02021   10.076
 5918.00    0.99307   1.02194   10.070
 5919.00    1.00322   1.02392    9.968
 5920.00    1.02044   1.02507    9.800
 5921.00    1.04117   1.02573    9.605
 5922.00    1.06298   1.02617    9.408
 5923.00    1.08337   1.02568    9.230
 5924.00    1.10004   1.02499    9.091
 5925.00    1.11211   1.02413    8.992
 5926.00    1.12004   1.02282    8.928
 5927.00    1.12477   1.02202    8.891
 5928.00    1.12695   1.02153    8.873
 5929.00    1.12589   1.02118    8.882
 5930.00    1.11992   1.02141    8.929
 5931.00    1.10760   1.02214    9.029
 5932.00    1.09109   1.02303    9.165
 5933.00    1.08017   1.02376    9.258
 5934.00    1.08281   1.02461    9.235
 5935.00    1.09246   1.02552    9.154
 5936.00    1.09652   1.02567    9.120
 5937.00    1.08869   1.02564    9.185
 5938.00    1.07129   1.02581    9.335
 5939.00    1.05529   1.02540    9.476
 5940.00    1.05052   1.02489    9.519
 5941.00    1.05610   1.02458    9.469
 5942.00    1.05982   1.02390    9.436
 5943.00    1.04180   1.02313    9.599
 5944.00    1.00215   1.02221    9.979
 5945.00    0.97606   1.02085   10.245
 5946.00    0.98785   1.01973   10.123
 5947.00    1.02212   1.01863    9.784
 5948.00    1.05302   1.01729    9.496
 5949.00    1.06495   1.01658    9.390
 5950.00    1.05802   1.01646    9.452
 5951.00    1.04743   1.01628    9.547
 5952.00    1.04814   1.01662    9.541
 5953.00    1.06557   1.01781    9.385
 5954.00    1.09018   1.01919    9.173
 5955.00    1.10095   1.02082    9.083
 5956.00    1.08812   1.02306    9.190
 5957.00    1.05993   1.02549    9.435
 5958.00    1.03251   1.02766    9.685
 5959.00    1.02201   1.02975    9.785
 5960.00    1.03220   1.03178    9.688
 5961.00    1.05358   1.03310    9.491
 5962.00    1.07292   1.03412    9.320
 5963.00    1.07821   1.03529    9.275
 5964.00    1.06410   1.03592    9.398
 5965.00    1.03631   1.03638    9.650
 5966.00    1.01762   1.03706    9.827
 5967.00    1.03082   1.03712    9.701
 5968.00    1.06173   1.03653    9.419
 5969.00    1.07599   1.03564    9.294
 5970.00    1.06443   1.03395    9.395
 5971.00    1.04110   1.03143    9.605
 5972.00    1.02518   1.02878    9.754
 5973.00    1.02939   1.02601    9.714
 5974.00    1.04803   1.02307    9.542
 5975.00    1.06857   1.02070    9.358
 5976.00    1.08902   1.01870    9.183
 5977.00    1.11033   1.01657    9.006
 5978.00    1.12519   1.01506    8.887
 5979.00    1.12836   1.01363    8.862
 5980.00    1.12808   1.01181    8.865
 5981.00    1.13291   1.01084    8.827
 5982.00    1.13869   1.01026    8.782
 5983.00    1.13926   1.00982    8.778
 5984.00    1.13628   1.01042    8.801
 5985.00    1.13427   1.01172    8.816
 5986.00    1.13582   1.01325    8.804
 5987.00    1.14012   1.01495    8.771
 5988.00    1.14315   1.01686    8.748
 5989.00    1.14449   1.01858    8.737
 5990.00    1.14964   1.01955    8.698
 5991.00    1.15758   1.02029    8.639
 5992.00    1.15635   1.02059    8.648
 5993.00    1.13706   1.01996    8.795
 5994.00    1.10214   1.01925    9.073
 5995.00    1.06840   1.01814    9.360
 5996.00    1.06088   1.01653    9.426
 5997.00    1.08318   1.01532    9.232
 5998.00    1.11254   1.01364    8.988
 5999.00    1.12674   1.01178    8.875
 6000.00    1.11520   1.01048    8.967
 6001.00    1.08108   1.00843    9.250
 6002.00    1.03934   1.00659    9.621
 6003.00    1.00893   1.00537    9.912
 6004.00    1.00542   1.00363    9.946
 6005.00    1.02830   1.00271    9.725
 6006.00    1.06316   1.00232    9.406
 6007.00    1.09496   1.00179    9.133
 6008.00    1.11265   1.00197    8.988
 6009.00    1.11207   1.00189    8.992
 6010.00    1.09458   1.00168    9.136
 6011.00    1.06351   1.00173    9.403
 6012.00    1.02702   1.00087    9.737
 6013.00    1.00321   0.99994    9.968
 6014.00    1.00695   0.99938    9.931
 6015.00    1.02953   0.99827    9.713
 6016.00    1.05112   0.99730    9.514
 6017.00    1.06197   0.99699    9.416
 6018.00    1.06201   0.99713    9.416
 6019.00    1.05672   0.99773    9.463
 6020.00    1.05304   0.99890    9.496
 6021.00    1.05517   1.00130    9.477
 6022.00    1.06178   1.00406    9.418
 6023.00    1.06483   1.00687    9.391
 6024.00    1.05966   1.01068    9.437
 6025.00    1.05311   1.01434    9.496
 6026.00    1.05436   1.01759    9.484
 6027.00    1.06645   1.02102    9.377
 6028.00    1.08252   1.02401    9.238
 6029.00    1.08680   1.02638    9.201
 6030.00    1.07587   1.02835    9.295
 6031.00    1.06709   1.02985    9.371
 6032.00    1.06673   1.03066    9.374
 6033.00    1.05726   1.03103    9.458
 6034.00    1.02977   1.03111    9.711
 6035.00    0.99747   1.03060   10.025
 6036.00    0.97765   1.03014   10.229
 6037.00    0.98060   1.02981   10.198
 6038.00    1.00111   1.02922    9.989
 6039.00    1.02140   1.02923    9.790
 6040.00    1.03452   1.02964    9.666
 6041.00    1.04819   1.02993    9.540
 6042.00    1.06851   1.03061    9.359
 6043.00    1.09342   1.03145    9.146
 6044.00    1.11061   1.03190    9.004
 6045.00    1.10463   1.03201    9.053
 6046.00    1.07646   1.03179    9.290
 6047.00    1.04269   1.03107    9.591
 6048.00    1.02078   1.02972    9.796
 6049.00    1.02215   1.02793    9.783
 6050.00    1.04577   1.02615    9.562
 6051.00    1.08103   1.02423    9.250
 6052.00    1.11583   1.02232    8.962
 6053.00    1.14016   1.02103    8.771
 6054.00    1.14926   1.02001    8.701
 6055.00    1.14225   1.01902    8.755
 6056.00    1.11946   1.01845    8.933
 6057.00    1.08520   1.01787    9.215
 6058.00    1.05165   1.01662    9.509
 6059.00    1.03111   1.01568    9.698
 6060.00    1.02604   1.01511    9.746
 6061.00    1.03213   1.01399    9.689
 6062.00    1.04340   1.01410    9.584
 6063.00    1.05551   1.01541    9.474
 6064.00    1.06830   1.01687    9.361
 6065.00    1.08291   1.01966    9.234
 6066.00    1.09871   1.02294    9.102
 6067.00    1.11048   1.02586    9.005
 6068.00    1.10814   1.02870    9.024
 6069.00    1.09072   1.03053    9.168
 6070.00    1.07368   1.03127    9.314
 6071.00    1.06868   1.03082    9.357
 6072.00    1.07194   1.02910    9.329
 6073.00    1.07598   1.02679    9.294
 6074.00    1.07657   1.02339    9.289
 6075.00    1.07054   1.01946    9.341
 6076.00    1.05546   1.01616    9.474
 6077.00    1.03434   1.01264    9.668
 6078.00    1.01599   1.00932    9.843
 6079.00    1.00730   1.00721    9.927
 6080.00    1.00845   1.00544    9.916
 6081.00    1.00798   1.00417    9.921
 6082.00    0.99009   1.00368   10.100
 6083.00    0.96401   1.00321   10.373
 6084.00    0.96030   1.00332   10.413
 6085.00    0.99006   1.00367   10.100
 6086.00    1.03872   1.00357    9.627
 6087.00    1.08377   1.00414    9.227
 6088.00    1.10588   1.00502    9.043
 6089.00    1.10294   1.00538    9.067
 6090.00    1.08715   1.00626    9.198
 6091.00    1.07134   1.00743    9.334
 6092.00    1.06288   1.00774    9.408
 6093.00    1.05844   1.00788    9.448
 6094.00    1.05142   1.00761    9.511
 6095.00    1.04625   1.00549    9.558
 6096.00    1.05002   1.00296    9.524
 6097.00    1.05642   1.00078    9.466
 6098.00    1.05453   0.99703    9.483
 6099.00    1.04420   0.99389    9.577
 6100.00    1.02879   0.99282    9.720
 6101.00    1.00425   0.99161    9.958
 6102.00    0.96906   0.99212   10.319
 6103.00    0.93620   0.99443   10.681
 6104.00    0.92423   0.99644   10.820
 6105.00    0.94576   0.99962   10.574
 6106.00    0.99572   1.00294   10.043
 6107.00    1.04523   1.00507    9.567
 6108.00    1.07172   1.00732    9.331
 6109.00    1.08130   1.00875    9.248
 6110.00    1.08547   1.00917    9.213
 6111.00    1.08388   1.00930    9.226
 6112.00    1.07337   1.00796    9.316
 6113.00    1.05501   1.00601    9.479
 6114.00    1.03598   1.00380    9.653
 6115.00    1.02842   0.99979    9.724
 6116.00    1.03884   0.99617    9.626
 6117.00    1.06361   0.99307    9.402
 6118.00    1.09456   0.98885    9.136
 6119.00    1.12160   0.98655    8.916
 6120.00    1.13169   0.98586    8.836
 6121.00    1.11305   0.98487    8.984
 6122.00    1.07236   0.98574    9.325
 6123.00    1.03352   0.98776    9.676
 6124.00    1.01113   0.98928    9.890
 6125.00    1.00360   0.99107    9.964
 6126.00    1.00063   0.99261    9.994
 6127.00    0.99062   0.99275   10.095
 6128.00    0.97341   0.99175   10.273
 6129.00    0.95771   0.98943   10.442
 6130.00    0.94630   0.98530   10.568
 6131.00    0.93702   0.98065   10.672
 6132.00    0.93290   0.97563   10.719
 6133.00    0.93914   0.97001   10.648
 6134.00    0.95316   0.96612   10.491
 6135.00    0.96776   0.96438   10.333
 6136.00    0.98019   0.96406   10.202
 6137.00    0.99057   0.96536   10.095
 6138.00    0.99717   0.96846   10.028
 6139.00    0.99834   0.97321   10.017
 6140.00    0.99623   0.97788   10.038
 6141.00    0.99641   0.98197   10.036
 6142.00    1.00624   0.98601    9.938
 6143.00    1.02858   0.98896    9.722
 6144.00    1.05543   0.99067    9.475
 6145.00    1.07438   0.99176   -2.000
 6146.00    1.07700   0.99218   -2.000
 6147.00    1.06973   0.99196   -2.000
 6148.00    1.07969   0.99143   -2.000
 6149.00    1.12374   0.99091   -2.000
 6150.00    1.18505   0.98947   -2.000
 6151.00    1.23503   0.98724   -2.000
 6152.00    1.25161   0.98498   -2.000
 6153.00    1.22199   0.98104   -2.000
 6154.00    1.14574   0.97548   -2.000
 6155.00    1.04650   0.96974   -2.000
 6156.00    0.97049   0.96302   -2.000
 6157.00    0.94133   0.95541   10.623
 6158.00    0.94280   0.94861   10.607
 6159.00    0.95515   0.94312   10.470
 6160.00    0.97066   0.93932   10.302
 6161.00    0.98189   0.93727   10.184
 6162.00    0.97982   0.93624   10.206
 6163.00    0.96745   0.93735   10.336
 6164.00    0.95870   0.93994   10.431
 6165.00    0.95651   0.94176   10.455
 6166.00    0.95116   0.94432   10.513
 6167.00    0.93866   0.94844   10.653
 6168.00    0.92412   0.95201   10.821
 6169.00    0.91451   0.95521   10.935
 6170.00    0.91483   0.95933   10.931
 6171.00    0.92390   0.96367   10.824
 6172.00    0.93573   0.96745   10.687
 6173.00    0.94485   0.97094   10.584
 6174.00    0.94977   0.97474   10.529
 6175.00    0.95696   0.97797   10.450
 6176.00    0.97403   0.98016   10.267
 6177.00    0.99682   0.98252   10.032
 6178.00    1.01566   0.98425    9.846
 6179.00    1.02871   0.98463    9.721
 6180.00    1.03672   0.98460    9.646
 6181.00    1.03314   0.98361    9.679
 6182.00    1.01518   0.98127    9.850
 6183.00    0.99839   0.97848   10.016
 6184.00    0.99853   0.97472   10.015
 6185.00    1.00970   0.97102    9.904
 6186.00    1.01685   0.96817    9.834
 6187.00    1.01143   0.96452    9.887
 6188.00    0.99318   0.96267   10.069
 6189.00    0.96994   0.96337   10.310
 6190.00    0.95420   0.96381   10.480
 6191.00    0.95885   0.96540   10.429
 6192.00    0.98665   0.96816   10.135
 6193.00    1.02413   0.97069    9.764
 6194.00    1.05360   0.97339    9.491
 6195.00    1.06255   0.97525    9.411
 6196.00    1.04963   0.97663    9.527
 6197.00    1.02623   0.97861    9.744
 6198.00    1.00688   0.98018    9.932
 6199.00    1.00211   0.98145    9.979
 6200.00    1.01005   0.98303    9.900
 6201.00    1.01683   0.98443    9.834
 6202.00    1.01512   0.98566    9.851
 6203.00    1.00950   0.98612    9.906
 6204.00    1.00443   0.98561    9.956
 6205.00    1.00042   0.98451    9.996
 6206.00    0.99771   0.98184   10.023
 6207.00    0.99655   0.97812   10.035
 6208.00    0.99404   0.97407   10.060
 6209.00    0.98559   0.96868   10.146
 6210.00    0.97180   0.96342   10.290
 6211.00    0.95770   0.95893   10.442
 6212.00    0.94605   0.95438   10.570
 6213.00    0.93689   0.95148   10.674
 6214.00    0.93039   0.94971   10.748
 6215.00    0.92665   0.94803   10.792
 6216.00    0.92400   0.94808   10.822
 6217.00    0.92058   0.94894   10.863
 6218.00    0.91744   0.95001   10.900
 6219.00    0.91670   0.95165   10.909
 6220.00    0.91763   0.95256   10.898
 6221.00    0.91723   0.95338   10.902
 6222.00    0.91223   0.95391   10.962
 6223.00    0.90199   0.95285   11.087
 6224.00    0.89168   0.95160   11.215
 6225.00    0.88717   0.94997   11.272
 6226.00    0.88883   0.94702   11.251
 6227.00    0.89301   0.94511   11.198
 6228.00    0.89482   0.94444   11.175
 6229.00    0.89330   0.94356   11.194
 6230.00    0.89479   0.94415   11.176
 6231.00    0.90186   0.94556   11.088
 6232.00    0.90511   0.94643   11.048
 6233.00    0.89614   0.94727   11.159
 6234.00    0.87694   0.94748   11.403
 6235.00    0.85283   0.94681   11.726
 6236.00    0.82791   0.94505   12.079
 6237.00    0.81056   0.94321   12.337
 6238.00    0.81425   0.94118   12.281
 6239.00    0.84236   0.93799   11.871
 6240.00    0.88218   0.93620   11.336
 6241.00    0.91721   0.93528   10.903
 6242.00    0.93533   0.93378   10.691
 6243.00    0.93558   0.93377   10.689
 6244.00    0.92814   0.93442   10.774
 6245.00    0.92251   0.93445   10.840
 6246.00    0.92223   0.93462   10.843
 6247.00    0.92383   0.93417   10.825
 6248.00    0.92063   0.93242   10.862
 6249.00    0.91553   0.93048   10.923
 6250.00    0.91889   0.92833   10.883
 6251.00    0.93114   0.92588   10.740
 6252.00    0.94288   0.92386   10.606
 6253.00    0.94794   0.92282   10.549
 6254.00    0.94499   0.92266   10.582
 6255.00    0.93334   0.92395   10.714
 6256.00    0.91364   0.92702   10.945
 6257.00    0.89123   0.93028   11.220
 6258.00    0.87707   0.93436   11.402
 6259.00    0.88746   0.93961   11.268
 6260.00    0.92927   0.94381   10.761
 6261.00    0.97727   0.94720   10.233
 6262.00    0.99746   0.95086   10.025
 6263.00    0.98581   0.95379   10.144
 6264.00    0.95894   0.95572   10.428
 6265.00    0.93397   0.95728   10.707
 6266.00    0.92135   0.95859   10.854
 6267.00    0.92015   0.95986   10.868
 6268.00    0.92697   0.96090   10.788
 6269.00    0.94493   0.96173   10.583
 6270.00    0.97322   0.96224   10.275
 6271.00    0.99775   0.96244   10.023
 6272.00    1.00527   0.96249    9.948
 6273.00    0.99616   0.96170   10.039
 6274.00    0.98183   0.96068   10.185
 6275.00    0.97943   0.95973   10.210
 6276.00    0.99354   0.95820   10.065
 6277.00    1.00714   0.95754    9.929
 6278.00    1.00490   0.95746    9.951
 6279.00    0.98716   0.95761   10.130
 6280.00    0.96453   0.95905    0.000
 6281.00    0.95130   0.96053    0.000
 6282.00    0.95087   0.96247    0.000
 6283.00    0.95255   0.96490    0.000
 6284.00    0.94940   0.96651    0.000
 6285.00    0.94375   0.96801    0.000
 6286.00    0.93592   0.96869    0.000
 6287.00    0.92231   0.96837    0.000
 6288.00    0.90538   0.96775    0.000
 6289.00    0.89348   0.96599    0.000
 6290.00    0.88891   0.96380    0.000
 6291.00    0.88831   0.96154    0.000
 6292.00    0.89522   0.95832    0.000
 6293.00    0.91783   0.95517    0.000
 6294.00    0.95402   0.95243    0.000
 6295.00    0.99276   0.94986    0.000
 6296.00    1.02621   0.94777    0.000
 6297.00    1.05139   0.94609    0.000
 6298.00    1.06751   0.94550    0.000
 6299.00    1.07430   0.94624    0.000
 6300.00    1.07015   0.94765    0.000
 6301.00    1.05327   0.94944    0.000
 6302.00    1.02421   0.95178    0.000
 6303.00    0.98672   0.95463    0.000
 6304.00    0.94829   0.95699    0.000
 6305.00    0.91890   0.95824    0.000
 6306.00    0.90850   0.95876    0.000
 6307.00    0.91761   0.95843    0.000
 6308.00    0.92777   0.95697    0.000
 6309.00    0.91845   0.95489    0.000
 6310.00    0.88660   0.95192    0.000
 6311.00    0.84721   0.94844    0.000
 6312.00    0.82905   0.94599    0.000
 6313.00    0.84777   0.94367    0.000
 6314.00    0.88591   0.94126    0.000
 6315.00    0.92080   0.94085    0.000
 6316.00    0.94618   0.94176    0.000
 6317.00    0.96011   0.94316    0.000
 6318.00    0.95687   0.94556    0.000
 6319.00    0.93687   0.94878    0.000
 6320.00    0.91111   0.95256    0.000
 6321.00    0.88950   0.95605   11.242
 6322.00    0.87531   0.95917   11.424
 6323.00    0.87192   0.96165   11.469
 6324.00    0.88374   0.96362   11.316
 6325.00    0.90393   0.96499   11.063
 6326.00    0.91430   0.96467   10.937
 6327.00    0.90776   0.96386   11.016
 6328.00    0.89422   0.96268   11.183
 6329.00    0.88812   0.96049   11.260
 6330.00    0.90030   0.95792   11.107
 6331.00    0.92803   0.95478   10.775
 6332.00    0.95630   0.95199   10.457
 6333.00    0.97114   0.95008   10.297
 6334.00    0.96585   0.94828   10.354
 6335.00    0.94638   0.94682   10.567
 6336.00    0.92603   0.94661   10.799
 6337.00    0.91009   0.94689   10.988
 6338.00    0.89639   0.94695   11.156
 6339.00    0.88374   0.94729   11.316
 6340.00    0.87461   0.94752   11.434
 6341.00    0.87648   0.94828   11.409
 6342.00    0.89721   0.94911   11.146
 6343.00    0.93709   0.94949   10.671
 6344.00    0.98610   0.95089   10.141
 6345.00    1.02281   0.95237    9.777
 6346.00    1.02852   0.95328    9.723
 6347.00    1.00589   0.95428    9.941
 6348.00    0.97082   0.95472   10.301
 6349.00    0.93900   0.95426   10.650
 6350.00    0.92016   0.95288   10.868
 6351.00    0.91384   0.95056   10.943
 6352.00    0.91456   0.94783   10.934
 6353.00    0.91771   0.94450   10.897
 6354.00    0.92300   0.94045   10.834
 6355.00    0.93549   0.93677   10.690
 6356.00    0.95276   0.93386   10.496
 6357.00    0.95797   0.93118   10.439
 6358.00    0.94556   0.92914   10.576
 6359.00    0.93534   0.92863   10.691
 6360.00    0.94237   0.92927   10.611
 6361.00    0.95911   0.93070   10.426
 6362.00    0.96871   0.93303   10.323
 6363.00    0.95696   0.93604   10.450
 6364.00    0.93046   0.93967   10.747
 6365.00    0.91759   0.94320   10.898
 6366.00    0.93109   0.94641   10.740
 6367.00    0.95653   0.94968   10.455
 6368.00    0.97774   0.95280   10.228
 6369.00    0.98791   0.95538   10.122
 6370.00    0.98973   0.95733   10.104
 6371.00    0.99126   0.95890   10.088
 6372.00    0.99298   0.96006   10.071
 6373.00    0.98806   0.96062   10.121
 6374.00    0.97554   0.96037   10.251
 6375.00    0.96182   0.95982   10.397
 6376.00    0.95389   0.95928   10.483
 6377.00    0.95648   0.95850   10.455
 6378.00    0.96990   0.95800   10.310
 6379.00    0.99008   0.95760   10.100
 6380.00    1.00988   0.95730    9.902
 6381.00    1.02298   0.95757    9.775
 6382.00    1.03033   0.95786    9.706
 6383.00    1.03610   0.95793    9.652
 6384.00    1.03874   0.95757    9.627
 6385.00    1.03339   0.95706    9.677
 6386.00    1.01782   0.95632    9.825
 6387.00    0.99520   0.95484   10.048
 6388.00    0.97580   0.95307   10.248
 6389.00    0.96634   0.95097   10.348
 6390.00    0.95769   0.94911   10.442
 6391.00    0.93889   0.94785   10.651
 6392.00    0.91366   0.94656   10.945
 6393.00    0.89343   0.94580   11.193
 6394.00    0.88822   0.94568   11.259
 6395.00    0.90157   0.94560   11.092
 6396.00    0.92746   0.94563   10.782
 6397.00    0.95554   0.94655   10.465
 6398.00    0.97628   0.94761   10.243
 6399.00    0.98495   0.94817   10.153
 6400.00    0.98359   0.94962   10.167
 6401.00    0.97644   0.95075   10.241
 6402.00    0.96636   0.95091   10.348
 6403.00    0.95220   0.95098   10.502
 6404.00    0.92964   0.95023   10.757
 6405.00    0.90283   0.94967   11.076
 6406.00    0.88685   0.94916   11.276
 6407.00    0.89038   0.94765   11.231
 6408.00    0.90831   0.94703   11.009
 6409.00    0.92589   0.94703   10.800
 6410.00    0.92675   0.94634   10.790
 6411.00    0.91502   0.94594   10.929
 6412.00    0.91375   0.94587   10.944
 6413.00    0.93212   0.94583   10.728
 6414.00    0.95911   0.94605   10.426
 6415.00    0.97834   0.94591   10.221
 6416.00    0.97663   0.94586   10.239
 6417.00    0.95379   0.94678   10.485
 6418.00    0.92156   0.94817   10.851
 6419.00    0.89460   0.94992   11.178
 6420.00    0.88718   0.95171   11.272
 6421.00    0.91068   0.95352   10.981
 6422.00    0.96538   0.95537   10.359
 6423.00    1.02664   0.95657    9.741
 6424.00    1.06062   0.95667    9.428
 6425.00    1.05548   0.95598    9.474
 6426.00    1.02075   0.95477    9.797
 6427.00    0.97737   0.95315   10.232
 6428.00    0.94672   0.95178   10.563
 6429.00    0.93749   0.95001   10.667
 6430.00    0.94602   0.94848   10.571
 6431.00    0.95965   0.94817   10.420
 6432.00    0.96666   0.94785   10.345
 6433.00    0.96648   0.94788   10.347
 6434.00    0.96347   0.94812   10.379
 6435.00    0.95956   0.94841   10.421
 6436.00    0.95517   0.94999   10.469
 6437.00    0.95072   0.95170   10.518
 6438.00    0.94727   0.95306   10.557
 6439.00    0.94649   0.95514   10.565
 6440.00    0.94747   0.95660   10.554
 6441.00    0.94560   0.95724   10.575
 6442.00    0.94119   0.95733   10.625
 6443.00    0.94288   0.95571   10.606
 6444.00    0.95400   0.95347   10.482
 6445.00    0.96699   0.95057   10.341
 6446.00    0.97813   0.94693   10.224
 6447.00    0.99188   0.94427   10.082
 6448.00    1.00377   0.94166    9.962
 6449.00    0.99854   0.93956   10.015
 6450.00    0.97685   0.93899   10.237
 6451.00    0.95888   0.93883   10.429
 6452.00    0.95422   0.93923   10.480
 6453.00    0.95434   0.93983   10.478
 6454.00    0.94682   0.94029   10.562
 6455.00    0.92436   0.94092   10.818
 6456.00    0.89563   0.94121   11.165
 6457.00    0.87987   0.94137   11.365
 6458.00    0.88348   0.94118   11.319
 6459.00    0.89755   0.94106   11.141
 6460.00    0.90796   0.94163   11.014
 6461.00    0.90505   0.94191   11.049
 6462.00    0.89815   0.94277   11.134
 6463.00    0.90504   0.94444   11.049
 6464.00    0.92559   0.94595   10.804
 6465.00    0.94654   0.94725   10.565
 6466.00    0.95882   0.94818   10.429
 6467.00    0.96043   0.94889   10.412
 6468.00    0.95588   0.94947   10.462
 6469.00    0.95171   0.94997   10.507
 6470.00    0.95061   0.94996   10.520
 6471.00    0.95293   0.94986   10.494
 6472.00    0.95928   0.94996   10.424
 6473.00    0.96485   0.94973   10.364
 6474.00    0.95435   0.94919   10.478
 6475.00    0.92184   0.94831   10.848
 6476.00    0.88873   0.94731   11.252
 6477.00    0.87608   0.94599   11.414
 6478.00    0.87954   0.94457   11.370
 6479.00    0.88586   0.94338   11.288
 6480.00    0.88871   0.94214   11.252
 6481.00    0.89076   0.94093   11.226
 6482.00    0.90237   0.93961   11.082
 6483.00    0.92751   0.93803   10.782
 6484.00    0.95648   0.93563   10.455
 6485.00    0.97871   0.93165   10.218
 6486.00    0.98957   0.92647   10.105
 6487.00    0.98426   0.91991   10.160
 6488.00    0.95695   0.91209   10.450
 6489.00    0.91385   0.90392   10.943
 6490.00    0.87477   0.89534   11.432
 6491.00    0.85327   0.88833   11.720
 6492.00    0.84907   0.88354   11.778
 6493.00    0.85283   0.88023   11.726
 6494.00    0.85234   0.88052   11.732
 6495.00    0.84618   0.88327   11.818
 6496.00    0.84400   0.88838   11.848
 6497.00    0.85259   0.89588   11.729
 6498.00    0.87174   0.90339   11.471
 6499.00    0.89499   0.91158   11.173
 6500.00    0.91397   0.91957   10.941
 6501.00    0.92798   0.92638   10.776
 6502.00    0.94222   0.93226   10.613
 6503.00    0.95842   0.93660   10.434
 6504.00    0.97405   0.93966   10.266
 6505.00    0.98486   0.94172   10.154
 6506.00    0.98584   0.94263   10.144
 6507.00    0.97218   0.94255   10.286
 6508.00    0.94295   0.94180   10.605
 6509.00    0.90630   0.94046   11.034
 6510.00    0.87439   0.93871   11.437
 6511.00    0.85498   0.93684   11.696
 6512.00    0.85115   0.93484   11.749
 6513.00    0.86230   0.93329   11.597
 6514.00    0.88393   0.93220   11.313
 6515.00    0.90750   0.93152   11.019
 6516.00    0.92350   0.93183   10.828
 6517.00    0.92516   0.93235   10.809
 6518.00    0.91268   0.93323   10.957
 6519.00    0.89599   0.93448   11.161
 6520.00    0.88566   0.93534   11.291
 6521.00    0.88547   0.93603   11.293
 6522.00    0.89476   0.93617   11.176
 6523.00    0.91079   0.93594   10.979
 6524.00    0.92937   0.93566   10.760
 6525.00    0.94543   0.93492   10.577
 6526.00    0.95437   0.93398   10.478
 6527.00    0.95326   0.93309   10.490
 6528.00    0.94311   0.93234    0.000
 6529.00    0.92936   0.93189    0.000
 6530.00    0.91879   0.93151    0.000
 6531.00    0.91663   0.93109    0.000
 6532.00    0.92128   0.93084    0.000
 6533.00    0.92566   0.93063    0.000
 6534.00    0.93125   0.93041    0.000
 6535.00    0.94822   0.92982    0.000
 6536.00    0.97716   0.92852    0.000
 6537.00    1.00631   0.92668    0.000
 6538.00    1.02349   0.92441    0.000
 6539.00    1.02390   0.92150    0.000
 6540.00    1.02053   0.91791    0.000
 6541.00    1.03784   0.91404    0.000
 6542.00    1.08907   0.90995    0.000
 6543.00    1.16972   0.90617    0.000
 6544.00    1.25645   0.90228    0.000
 6545.00    1.31688   0.89799    0.000
 6546.00    1.32943   0.89386    0.000
 6547.00    1.28803   0.88930    0.000
 6548.00    1.20323   0.88406    0.000
 6549.00    1.09850   0.87766    0.000
 6550.00    1.00352   0.86972    0.000
 6551.00    0.94146   0.86030    0.000
 6552.00    0.91350   0.84917    0.000
 6553.00    0.91619   0.83621    0.000
 6554.00    0.96685   0.82170    0.000
 6555.00    1.10674   0.80637    0.000
 6556.00    1.39618   0.79009    0.000
 6557.00    1.85750   0.77488    0.000
 6558.00    2.41875   0.76286    0.000
 6559.00    2.94349   0.75450    0.000
 6560.00    3.27255   0.75135    0.000
 6561.00    3.30001   0.75229    0.000
 6562.00    3.03144   0.75779    0.000
 6563.00    2.55627   0.76898    0.000
 6564.00    2.01424   0.78297    0.000
 6565.00    1.53338   0.79799    0.000
 6566.00    1.18768   0.81276    0.000
 6567.00    0.99207   0.82620    0.000
 6568.00    0.90880   0.83837    0.000
 6569.00    0.89074   0.84913    0.000
 6570.00    0.90489   0.85833    0.000
 6571.00    0.92880   0.86619    0.000
 6572.00    0.94823   0.87319    0.000
 6573.00    0.95676   0.87935    0.000
 6574.00    0.95856   0.88495    0.000
 6575.00    0.97924   0.89009    0.000
 6576.00    1.05948   0.89470    0.000
 6577.00    1.21857   0.89861    0.000
 6578.00    1.44175   0.90175    0.000
 6579.00    1.68269   0.90427    0.000
 6580.00    1.87446   0.90594    0.000
 6581.00    1.95708   0.90740    0.000
 6582.00    1.89822   0.90834    0.000
 6583.00    1.72329   0.90875    0.000
 6584.00    1.50137   0.90881    0.000
 6585.00    1.29629   0.90811    0.000
 6586.00    1.14681   0.90700    0.000
 6587.00    1.05076   0.90535    0.000
 6588.00    0.98168   0.90391    0.000
 6589.00    0.92435   0.90276    0.000
 6590.00    0.87801   0.90190    0.000
 6591.00    0.85035   0.90160    0.000
 6592.00    0.84773   0.90156    0.000
 6593.00    0.86299   0.90286    0.000
 6594.00    0.88235   0.90509    0.000
 6595.00    0.89688   0.90747    0.000
 6596.00    0.90439   0.90988    0.000
 6597.00    0.90923   0.91175    0.000
 6598.00    0.91461   0.91318    0.000
 6599.00    0.91547   0.91429    0.000
 6600.00    0.90732   0.91469    0.000
 6601.00    0.89486   0.91442    0.000
 6602.00    0.88601   0.91368    0.000
 6603.00    0.88579   0.91257    0.000
 6604.00    0.89319   0.91191    0.000
 6605.00    0.90041   0.91173    0.000
 6606.00    0.90200   0.91192    0.000
 6607.00    0.90046   0.91258    0.000
 6608.00    0.90138   0.91354    0.000
 6609.00    0.90975   0.91536   10.992
 6610.00    0.92786   0.91749   10.777
 6611.00    0.95353   0.91957   10.487
 6612.00    0.97676   0.92141   10.238
 6613.00    0.98234   0.92296   10.180
 6614.00    0.96823   0.92442   10.328
 6615.00    0.94911   0.92543   10.536
 6616.00    0.93776   0.92586   10.664
 6617.00    0.93740   0.92567   10.668
 6618.00    0.94245   0.92495   10.611
 6619.00    0.94325   0.92388   10.602
 6620.00    0.93963   0.92269   10.643
 6621.00    0.93995   0.92116   10.639
 6622.00    0.94623   0.91945   10.568
 6623.00    0.95295   0.91761   10.494
 6624.00    0.95531   0.91579   10.468
 6625.00    0.94966   0.91419   10.530
 6626.00    0.92976   0.91258   10.755
 6627.00    0.89254   0.91086   11.204
 6628.00    0.85114   0.90925   11.749
 6629.00    0.82482   0.90817   12.124
 6630.00    0.81611   0.90741   12.253
 6631.00    0.81598   0.90714   12.255
 6632.00    0.81937   0.90700   12.205
 6633.00    0.82868   0.90714   12.067
 6634.00    0.85422   0.90788   11.707
 6635.00    0.89868   0.90875   11.127
 6636.00    0.93838   0.90951   10.657
 6637.00    0.94793   0.90966   10.549
 6638.00    0.93128   0.90977   10.738
 6639.00    0.90771   0.90996   11.017
 6640.00    0.89247   0.91016   11.205
 6641.00    0.89088   0.91037   11.225
 6642.00    0.89576   0.91031   11.164
 6643.00    0.89995   0.91070   11.112
 6644.00    0.90629   0.91146   11.034
 6645.00    0.91860   0.91218   10.886
 6646.00    0.93415   0.91293   10.705
 6647.00    0.94541   0.91350   10.577
 6648.00    0.94337   0.91394   10.600
 6649.00    0.92911   0.91433   10.763
 6650.00    0.91734   0.91426   10.901
 6651.00    0.91588   0.91396   10.919
 6652.00    0.91659   0.91336   10.910
 6653.00    0.90914   0.91237   10.999
 6654.00    0.88926   0.91123   11.245
 6655.00    0.86271   0.90960   11.591
 6656.00    0.84359   0.90782   11.854
 6657.00    0.84109   0.90565   11.889
 6658.00    0.85493   0.90376   11.697
 6659.00    0.87903   0.90222   11.376
 6660.00    0.90439   0.90084   11.057
 6661.00    0.92395   0.90005   10.823
 6662.00    0.93425   0.89957   10.704
 6663.00    0.93568   0.90003   10.687
 6664.00    0.93167   0.90119   10.733
 6665.00    0.92669   0.90244   10.791
 6666.00    0.92400   0.90368   10.822
 6667.00    0.92225   0.90472   10.843
 6668.00    0.91858   0.90550   10.886
 6669.00    0.91669   0.90588   10.909
 6670.00    0.92463   0.90552   10.815
 6671.00    0.94747   0.90412   10.554
 6672.00    0.98217   0.90230   10.181
 6673.00    1.01194   0.90084    9.882
 6674.00    1.01727   0.89968    9.830
 6675.00    0.99370   0.89871   10.063
 6676.00    0.95319   0.89811   10.491
 6677.00    0.92093   0.89808   10.859
 6678.00    0.91439   0.89928   10.936
 6679.00    0.92034   0.90109   10.866
 6680.00    0.91579   0.90297   10.920
 6681.00    0.89347   0.90501   11.192
 6682.00    0.86128   0.90661   11.611
 6683.00    0.83745   0.90822   11.941
 6684.00    0.83453   0.90939   11.983
 6685.00    0.84693   0.91004   11.807
 6686.00    0.86241   0.91030   11.595
 6687.00    0.87253   0.91007   11.461
 6688.00    0.87682   0.90955   11.405
 6689.00    0.88320   0.90871   11.323
 6690.00    0.89548   0.90744   11.167
 6691.00    0.90700   0.90623   11.025
 6692.00    0.91078   0.90508   10.980
 6693.00    0.90545   0.90395   11.044
 6694.00    0.89417   0.90321   11.183
 6695.00    0.88154   0.90237   11.344
 6696.00    0.86267   0.90196    0.000
 6697.00    0.82539   0.90158    0.000
 6698.00    0.77886   0.90133    0.000
 6699.00    0.75615   0.90136    0.000
 6700.00    0.78060   0.90124    0.000
 6701.00    0.85150   0.90105    0.000
 6702.00    0.93981   0.90051    0.000
 6703.00    0.99962   0.90004    0.000
 6704.00    1.00448   0.89931    0.000
 6705.00    0.96060   0.89851    0.000
 6706.00    0.91148   0.89748    0.000
 6707.00    0.91499   0.89593    0.000
 6708.00    0.98858   0.89434    0.000
 6709.00    1.11132   0.89225    0.000
 6710.00    1.25595   0.89005    0.000
 6711.00    1.39671   0.88781    0.000
 6712.00    1.51099   0.88578    0.000
 6713.00    1.57762   0.88465    0.000
 6714.00    1.57426   0.88377    0.000
 6715.00    1.49030   0.88336    0.000
 6716.00    1.34612   0.88357    0.000
 6717.00    1.18158   0.88456    0.000
 6718.00    1.03583   0.88635    0.000
 6719.00    0.93273   0.88810    0.000
 6720.00    0.86854   0.88967    0.000
 6721.00    0.83450   0.89131    0.000
 6722.00    0.84177   0.89285    0.000
 6723.00    0.90360   0.89423    0.000
 6724.00    1.01546   0.89536    0.000
 6725.00    1.15696   0.89606    0.000
 6726.00    1.29634   0.89673    0.000
 6727.00    1.39950   0.89706    0.000
 6728.00    1.43897   0.89735    0.000
 6729.00    1.40825   0.89740    0.000
 6730.00    1.32860   0.89721    0.000
 6731.00    1.22858   0.89665    0.000
 6732.00    1.12949   0.89574    0.000
 6733.00    1.04017   0.89477    0.000
 6734.00    0.95806   0.89370    0.000
 6735.00    0.88724   0.89264    0.000
 6736.00    0.84440   0.89128    0.000
 6737.00    0.84214   0.88985    0.000
 6738.00    0.87745   0.88862    0.000
 6739.00    0.91831   0.88762    0.000
 6740.00    0.91699   0.88664    0.000
 6741.00    0.87761   0.88569    0.000
 6742.00    0.85433   0.88463    0.000
 6743.00    0.86263   0.88391    0.000
 6744.00    0.87109   0.88324    0.000
 6745.00    0.86633   0.88284    0.000
 6746.00    0.86147   0.88273    0.000
 6747.00    0.86545   0.88252    0.000
 6748.00    0.87667   0.88307    0.000
 6749.00    0.88796   0.88368    0.000
 6750.00    0.89060   0.88496    0.000
 6751.00    0.88002   0.88648    0.000
 6752.00    0.85899   0.88805    0.000
 6753.00    0.84084   0.89007   11.893
 6754.00    0.83779   0.89169   11.936
 6755.00    0.84143   0.89342   11.885
 6756.00    0.84052   0.89452   11.897
 6757.00    0.85170   0.89550   11.741
 6758.00    0.89158   0.89590   11.216
 6759.00    0.93445   0.89564   10.701
 6760.00    0.94498   0.89505   10.582
 6761.00    0.92444   0.89367   10.817
 6762.00    0.89565   0.89243   11.165
 6763.00    0.87926   0.89114   11.373
 6764.00    0.88328   0.88984   11.321
 6765.00    0.89691   0.88877   11.149
 6766.00    0.90694   0.88806   11.026
 6767.00    0.91240   0.88803   10.960
 6768.00    0.91822   0.88877   10.891
 6769.00    0.92843   0.88972   10.771
 6770.00    0.94033   0.89100   10.635
 6771.00    0.94303   0.89244   10.604
 6772.00    0.93276   0.89381   10.721
 6773.00    0.92044   0.89516   10.864
 6774.00    0.91579   0.89586   10.920
 6775.00    0.91892   0.89608   10.882
 6776.00    0.92710   0.89556   10.786
 6777.00    0.93854   0.89446   10.655
 6778.00    0.95236   0.89302   10.500
 6779.00    0.96670   0.89142   10.344
 6780.00    0.97186   0.88969   10.290
 6781.00    0.95361   0.88815   10.486
 6782.00    0.91627   0.88680   10.914
 6783.00    0.88346   0.88584   11.319
 6784.00    0.87141   0.88537   11.476
 6785.00    0.87920   0.88519   11.374
 6786.00    0.88797   0.88536   11.262
 6787.00    0.87277   0.88548   11.458
 6788.00    0.83360   0.88562   11.996
 6789.00    0.79387   0.88571   12.597
 6790.00    0.77615   0.88571   12.884
 6791.00    0.78999   0.88579   12.658
 6792.00    0.81974   0.88570   12.199
 6793.00    0.84018   0.88572   11.902
 6794.00    0.85063   0.88586   11.756
 6795.00    0.86607   0.88606   11.546
 6796.00    0.89035   0.88634   11.232
 6797.00    0.91672   0.88656   10.908
 6798.00    0.93611   0.88671   10.683
 6799.00    0.94102   0.88679   10.627
 6800.00    0.92917   0.88683   10.762
 6801.00    0.90597   0.88657   11.038
 6802.00    0.88644   0.88631   11.281
 6803.00    0.88854   0.88585   11.254
 6804.00    0.92462   0.88538   10.815
 6805.00    0.99212   0.88505   10.079
 6806.00    1.06640   0.88454    9.377
 6807.00    1.11352   0.88430    8.981
 6808.00    1.10465   0.88401    9.053
 6809.00    1.03530   0.88376    9.659
 6810.00    0.93714   0.88390   10.671
 6811.00    0.85563   0.88405   11.687
 6812.00    0.82778   0.88430   12.080
 6813.00    0.84884   0.88451   11.781
 6814.00    0.86356   0.88478   11.580
 6815.00    0.84043   0.88533   11.899
 6816.00    0.80587   0.88591   12.409
 6817.00    0.78712   0.88643   12.705
 6818.00    0.78457   0.88685   12.746
 6819.00    0.79182   0.88702   12.629
 6820.00    0.80502   0.88720   12.422
 6821.00    0.81897   0.88727   12.210
 6822.00    0.82715   0.88713   12.090
 6823.00    0.82861   0.88700   12.068
 6824.00    0.82711   0.88665   12.090
 6825.00    0.81916   0.88635   12.208
 6826.00    0.79717   0.88589   12.544
 6827.00    0.77063   0.88538   12.976
 6828.00    0.76208   0.88503   13.122
 6829.00    0.77849   0.88453   12.845
 6830.00    0.80827   0.88384   12.372
 6831.00    0.83386   0.88264   11.992
 6832.00    0.84201   0.88114   11.876
 6833.00    0.83868   0.87916   11.923
 6834.00    0.84023   0.87705   11.901
 6835.00    0.85038   0.87474   11.759
 6836.00    0.86152   0.87260   11.607
 6837.00    0.86524   0.87088   11.558
 6838.00    0.85664   0.86956   11.673
 6839.00    0.83813   0.86908   11.931
 6840.00    0.81744   0.86912   12.233
 6841.00    0.80387   0.86994   12.440
 6842.00    0.80475   0.87127   12.426
 6843.00    0.82177   0.87295   12.169
 6844.00    0.85252   0.87462   11.730
 6845.00    0.89217   0.87601   11.209
 6846.00    0.92797   0.87686   10.776
 6847.00    0.93594   0.87721   10.684
 6848.00    0.90740   0.87697   11.020
 6849.00    0.86967   0.87617   11.499
 6850.00    0.85017   0.87511   11.762
 6851.00    0.84707   0.87375   11.805
 6852.00    0.84411   0.87233   11.847
 6853.00    0.82600   0.87076   12.107
 6854.00    0.79583   0.86935   12.565
 6855.00    0.77994   0.86843   12.821
 6856.00    0.79027   0.86796   12.654
 6857.00    0.80722   0.86782   12.388
 6858.00    0.81151   0.86798   12.323
 6859.00    0.80128   0.86822   12.480
 6860.00    0.78830   0.86829   12.685
 6861.00    0.79065   0.86857   12.648
 6862.00    0.81127   0.86888   12.326
 6863.00    0.83524   0.86922   11.973
 6864.00    0.85436   0.86917   11.705
 6865.00    0.87274   0.86902   11.458
 6866.00    0.89208   0.86875   11.210
 6867.00    0.90683   0.86849   11.027
 6868.00    0.90556   0.86860   11.043
 6869.00    0.87954   0.86876   11.370
 6870.00    0.84371   0.86918   11.852
 6871.00    0.82616   0.86942   12.104
 6872.00    0.82858   0.86994   12.069
 6873.00    0.83128   0.87038   12.030
 6874.00    0.82625   0.87067   12.103
 6875.00    0.81823   0.87100   12.222
 6876.00    0.81217   0.87119   12.313
 6877.00    0.81010   0.87142   12.344
 6878.00    0.81047   0.87140   12.339
 6879.00    0.81141   0.87160   12.324
 6880.00    0.81592   0.87187   12.256
 6881.00    0.82873   0.87231   12.067
 6882.00    0.85055   0.87324   11.757
 6883.00    0.87656   0.87442   11.408
 6884.00    0.89601   0.87582   11.161
 6885.00    0.89793   0.87707   11.137
 6886.00    0.87847   0.87836   11.383
 6887.00    0.84746   0.87951   11.800
 6888.00    0.83190   0.88040   12.021
 6889.00    0.85076   0.88102   11.754
 6890.00    0.89245   0.88137   11.205
 6891.00    0.92896   0.88148   10.765
 6892.00    0.93239   0.88126   10.725
 6893.00    0.89930   0.88115   11.120
 6894.00    0.86242   0.88084   11.595
 6895.00    0.85019   0.88078   11.762
 6896.00    0.86118   0.88075   11.612
 6897.00    0.88076   0.88086   11.354
 6898.00    0.89330   0.88101   11.194
 6899.00    0.88826   0.88123   11.258
 6900.00    0.86420   0.88152   11.571
 6901.00    0.83373   0.88186   11.994
 6902.00    0.81895   0.88209   12.211
 6903.00    0.82188   0.88207   12.167
 6904.00    0.82132   0.88198   12.175
 6905.00    0.81076   0.88139   12.334
 6906.00    0.80493   0.88075   12.423
 6907.00    0.80987   0.87977   12.348
 6908.00    0.81648   0.87865   12.248
 6909.00    0.81436   0.87741   12.280
 6910.00    0.79948   0.87618   12.508
 6911.00    0.78229   0.87522   12.783
 6912.00    0.77995   0.87448   12.821
 6913.00    0.79201   0.87402   12.626
 6914.00    0.80643   0.87399   12.400
 6915.00    0.82609   0.87426   12.105
 6916.00    0.85480   0.87440   11.699
 6917.00    0.85953   0.87474   11.634
 6918.00    0.81639   0.87493   12.249
 6919.00    0.79996   0.87501   12.501
 6920.00    0.86128   0.87503   11.611
 6921.00    0.82242   0.87475   12.159
 6922.00    0.54422   0.87457   -1.000
 6923.00    0.33168   0.87408   -1.000
 6924.00    0.51221   0.87391   -1.000
 6925.00    0.84672   0.87369   11.810
 6926.00    0.96085   0.87386   10.407
 6927.00    0.91083   0.87414   10.979
 6928.00    0.89824   0.87428   11.133
 6929.00    0.91745   0.87463   10.900
 6930.00    0.89483   0.87472   11.175
 6931.00    0.84643   0.87509   11.814
 6932.00    0.81560   0.87521   12.261
 6933.00    0.81039   0.87555   12.340
 6934.00    0.82072   0.87579   12.184
 6935.00    0.83535   0.87571   11.971
 6936.00    0.84391   0.87554   11.850
 6937.00    0.83870   0.87488   11.923
 6938.00    0.82268   0.87447   12.155
 6939.00    0.81126   0.87371   12.326
 6940.00    0.81517   0.87307   12.267
 6941.00    0.83201   0.87233   12.019
 6942.00    0.85217   0.87156   11.735
 6943.00    0.86404   0.87096   11.574
 6944.00    0.86259   0.87037   11.593
 6945.00    0.85148   0.87035   11.744
 6946.00    0.83658   0.87036   11.953
 6947.00    0.82330   0.87054   12.146
 6948.00    0.81690   0.87078   12.241
 6949.00    0.82084   0.87106   12.183
 6950.00    0.83154   0.87129   12.026
 6951.00    0.83889   0.87174   11.921
 6952.00    0.83269   0.87233   12.009
 6953.00    0.80907   0.87308   12.360
 6954.00    0.78146   0.87386   12.797
 6955.00    0.77078   0.87477   12.974
 6956.00    0.77785   0.87563   12.856
 6957.00    0.78996   0.87634   12.659
 6958.00    0.80676   0.87695   12.395
 6959.00    0.83616   0.87749   11.959
 6960.00    0.87713   0.87803   11.401
 6961.00    0.91697   0.87837   10.905
 6962.00    0.93333   0.87858   10.714
 6963.00    0.91548   0.87853   10.923
 6964.00    0.89225   0.87837   11.208
 6965.00    0.89087   0.87792   11.225
 6966.00    0.88168   0.87718   11.342
 6967.00    0.83062   0.87605   12.039
 6968.00    0.76566   0.87435   13.061
 6969.00    0.72851   0.87228   13.727
 6970.00    0.71798   0.86953   13.928
 6971.00    0.71857   0.86680   13.917
 6972.00    0.73137   0.86430   13.673
 6973.00    0.75723   0.86197   13.206
 6974.00    0.78202   0.86005   12.787
 6975.00    0.79387   0.85886   12.597
 6976.00    0.79623   0.85861   12.559
 6977.00    0.79850   0.85901   12.523
 6978.00    0.80857   0.86039   12.368
 6979.00    0.83157   0.86262   12.025
 6980.00    0.86805   0.86515   11.520
 6981.00    0.90673   0.86753   11.029
 6982.00    0.92682   0.86976   10.790
 6983.00    0.92876   0.87164   10.767
 6984.00    0.93748   0.87299   10.667
 6985.00    0.94834   0.87399   10.545
 6986.00    0.92201   0.87456   10.846
 6987.00    0.86175   0.87488   11.604
 6988.00    0.82111   0.87482   12.179
 6989.00    0.81884   0.87463   12.212
 6990.00    0.82462   0.87421   12.127
 6991.00    0.81366   0.87350   12.290
 6992.00    0.78634   0.87253   12.717
 6993.00    0.77062   0.87136   -2.000
 6994.00    0.79901   0.87009   -2.000
 6995.00    0.85023   0.86868   -2.000
 6996.00    0.87188   0.86717   -2.000
 6997.00    0.86505   0.86572   -2.000
 6998.00    0.86883   0.86437   -2.000
 6999.00    0.88867   0.86329   -2.000
 7000.00    0.90256   0.86266   -2.000
 7001.00    0.90016   0.86234   -2.000
 7002.00    0.88897   0.86223   -2.000
 7003.00    0.89138   0.86210   -2.000
 7004.00    0.92451   0.86219   -2.000
 7005.00    0.97257   0.86237   -2.000
 7006.00    1.00465   0.86238   -2.000
 7007.00    1.00403   0.86224   -2.000
 7008.00    0.97295   0.86166   -2.000
 7009.00    0.93182   0.86098   -2.000
 7010.00    0.89790   0.86018   -2.000
 7011.00    0.86444   0.85929   -2.000
 7012.00    0.82258   0.85865   -2.000
 7013.00    0.78335   0.85805   -2.000
 7014.00    0.76448   0.85770   -2.000
 7015.00    0.77640   0.85742   -2.000
 7016.00    0.81504   0.85764   -2.000
 7017.00    0.85949   0.85842   -2.000
 7018.00    0.89018   0.85925   -2.000
 7019.00    0.90160   0.86007   -2.000
 7020.00    0.90057   0.86085   -2.000
 7021.00    0.90109   0.86158   -2.000
 7022.00    0.90473   0.86231   -2.000
 7023.00    0.89508   0.86314   -2.000
 7024.00    0.86557   0.86419   -2.000
 7025.00    0.83216   0.86535   -2.000
 7026.00    0.82474   0.86646   -2.000
 7027.00    0.86540   0.86743   -2.000
 7028.00    0.90099   0.86828   -2.000
 7029.00    0.83112   0.86896   -2.000
 7030.00    0.70376   0.86949   -2.000
 7031.00    0.69416   0.87000   -2.000
 7032.00    0.80814   0.87075   -2.000
 7033.00    0.88260   0.87160   -2.000
 7034.00    0.86935   0.87276   -2.000
 7035.00    0.85110   0.87419   -2.000
 7036.00    0.86390   0.87589   -2.000
 7037.00    0.88180   0.87750   -2.000
 7038.00    0.89193   0.87950   -2.000
 7039.00    0.89950   0.88167   -2.000
 7040.00    0.90094   0.88357   -2.000
 7041.00    0.88959   0.88504   -2.000
 7042.00    0.87600   0.88589   -2.000
 7043.00    0.87395   0.88613   -2.000
 7044.00    0.87175   0.88565   -2.000
 7045.00    0.84981   0.88472   -2.000
 7046.00    0.81331   0.88338   -2.000
 7047.00    0.78312   0.88154   -2.000
 7048.00    0.77640   0.87935   -2.000
 7049.00    0.79724   0.87684   -2.000
 7050.00    0.82959   0.87423   -2.000
 7051.00    0.84935   0.87162   -2.000
 7052.00    0.83977   0.86903   -2.000
 7053.00    0.80578   0.86705   -2.000
 7054.00    0.78158   0.86528   -2.000
 7055.00    0.78541   0.86392   -2.000
 7056.00    0.78579   0.86275   -2.000
 7057.00    0.76019   0.86170   -2.000
 7058.00    0.73691   0.86065   -2.000
 7059.00    0.74440   0.85969   -2.000
 7060.00    0.77646   0.85895   -2.000
 7061.00    0.81665   0.85838   -2.000
 7062.00    0.85483   0.85795   -2.000
 7063.00    0.88377   0.85767   -2.000
 7064.00    0.89947   0.85766   -2.000
 7065.00    0.91507   0.85763   -2.000
 7066.00    0.95681   0.85803   -2.000
 7067.00    1.01394   0.85861   -2.000
 7068.00    1.03594   0.85962   -2.000
 7069.00    1.01576   0.86092   -2.000
 7070.00    1.00149   0.86220   -2.000
 7071.00    1.01114   0.86324   -2.000
 7072.00    1.01466   0.86396   -2.000
 7073.00    0.98108   0.86425   -2.000
 7074.00    0.89928   0.86392   -2.000
 7075.00    0.78999   0.86296   -2.000
 7076.00    0.69538   0.86146   -2.000
 7077.00    0.64329   0.85935   -2.000
 7078.00    0.64149   0.85674   -2.000
 7079.00    0.68707   0.85361   -2.000
 7080.00    0.76306   0.85020   -2.000
 7081.00    0.82739   0.84656   -2.000
 7082.00    0.83708   0.84297   -2.000
 7083.00    0.79679   0.83949   -2.000
 7084.00    0.74493   0.83655   -2.000
 7085.00    0.71389   0.83428   -2.000
 7086.00    0.71541   0.83245   -2.000
 7087.00    0.73024   0.83117   -2.000
 7088.00    0.72877   0.83029   -2.000
 7089.00    0.70098   0.83010   -2.000
 7090.00    0.65530   0.83008   -2.000
 7091.00    0.61120   0.83096   -2.000
 7092.00    0.58683   0.83167   -2.000
 7093.00    0.58676   0.83298   -2.000
 7094.00    0.60612   0.83432   -2.000
 7095.00    0.63698   0.83569   -2.000
 7096.00    0.67746   0.83722   -2.000
 7097.00    0.73607   0.83831   -2.000
 7098.00    0.80368   0.83962   -2.000
 7099.00    0.84072   0.84030   -2.000
 7100.00    0.85151   0.84081   -2.000
 7101.00    0.91666   0.84082   -2.000
 7102.00    1.04736   0.84056   -2.000
 7103.00    1.12221   0.84012   -2.000
 7104.00    1.08229   0.83946   -2.000
 7105.00    1.01265   0.83859   -2.000
 7106.00    0.95964   0.83764   -2.000
 7107.00    0.86733   0.83673   -2.000
 7108.00    0.73962   0.83609   -2.000
 7109.00    0.67904   0.83546   -2.000
 7110.00    0.72442   0.83503   -2.000
 7111.00    0.80983   0.83483   -2.000
 7112.00    0.87168   0.83474   -2.000
 7113.00    0.88624   0.83488   -2.000
 7114.00    0.85519   0.83478   -2.000
 7115.00    0.79634   0.83482   -2.000
 7116.00    0.73215   0.83451   -2.000
 7117.00    0.68191   0.83426   -2.000
 7118.00    0.65102   0.83377   -2.000
 7119.00    0.63765   0.83321   -2.000
 7120.00    0.65467   0.83247   -2.000
 7121.00    0.71142   0.83159   -2.000
 7122.00    0.76573   0.83079   -2.000
 7123.00    0.76352   0.83006   -2.000
 7124.00    0.73115   0.82924   -2.000
 7125.00    0.72802   0.82856   -2.000
 7126.00    0.73831   0.82807   -2.000
 7127.00    0.72034   0.82809   -2.000
 7128.00    0.70685   0.82837   -2.000
 7129.00    0.74202   0.82898   -2.000
 7130.00    0.77993   0.82990   -2.000
 7131.00    0.77696   0.83142   -2.000
 7132.00    0.80944   0.83293   -2.000
 7133.00    0.89625   0.83442   -2.000
 7134.00    0.81930   0.83577   -2.000
 7135.00    0.50466   0.83658   -2.000
 7136.00    0.36057   0.83734   -2.000
 7137.00    0.64932   0.83740   -2.000
 7138.00    0.97059   0.83706   -2.000
 7139.00    0.95662   0.83638   -2.000
 7140.00    0.80826   0.83566   -2.000
 7141.00    0.79634   0.83468   -2.000
 7142.00    0.89760   0.83364   -2.000
 7143.00    1.00349   0.83283   -2.000
 7144.00    1.06647   0.83222   -2.000
 7145.00    1.05850   0.83207   -2.000
 7146.00    0.95380   0.83239   -2.000
 7147.00    0.79180   0.83304   -2.000
 7148.00    0.68351   0.83441   -2.000
 7149.00    0.68381   0.83622   -2.000
 7150.00    0.74919   0.83794   -2.000
 7151.00    0.82001   0.83964   -2.000
 7152.00    0.85728   0.84108   -2.000
 7153.00    0.84341   0.84191   -2.000
 7154.00    0.78110   0.84222   -2.000
 7155.00    0.69010   0.84184   -2.000
 7156.00    0.60517   0.84136   -2.000
 7157.00    0.57348   0.84024   -2.000
 7158.00    0.62803   0.83894   -2.000
 7159.00    0.72177   0.83755   -2.000
 7160.00    0.76500   0.83636   -2.000
 7161.00    0.75588   0.83571   -2.000
 7162.00    0.75783   0.83544   -2.000
 7163.00    0.78291   0.83561   -2.000
 7164.00    0.80644   0.83636   -2.000
 7165.00    0.84335   0.83776   -2.000
 7166.00    0.91905   0.83951   -2.000
 7167.00    0.99598   0.84119   -2.000
 7168.00    1.02049   0.84257   -2.000
 7169.00    1.01179   0.84354   -2.000
 7170.00    1.00178   0.84398   -2.000
 7171.00    0.93872   0.84405   -2.000
 7172.00    0.78820   0.84353   -2.000
 7173.00    0.66443   0.84261   -2.000
 7174.00    0.67687   0.84128   -2.000
 7175.00    0.75177   0.83966   -2.000
 7176.00    0.77769   0.83809   -2.000
 7177.00    0.76427   0.83652   -2.000
 7178.00    0.75573   0.83492   -2.000
 7179.00    0.74292   0.83321   -2.000
 7180.00    0.70799   0.83168   -2.000
 7181.00    0.66394   0.83036   -2.000
 7182.00    0.62940   0.82931   -2.000
 7183.00    0.61056   0.82838   -2.000
 7184.00    0.61998   0.82738   -2.000
 7185.00    0.68182   0.82675   -2.000
 7186.00    0.78406   0.82620   -2.000
 7187.00    0.86514   0.82611   -2.000
 7188.00    0.89666   0.82660   -2.000
 7189.00    0.91063   0.82723   -2.000
 7190.00    0.91465   0.82833   -2.000
 7191.00    0.87473   0.82918   -2.000
 7192.00    0.81930   0.83016   -2.000
 7193.00    0.83783   0.83098   -2.000
 7194.00    0.90586   0.83184   -2.000
 7195.00    0.88720   0.83231   -2.000
 7196.00    0.77029   0.83240   -2.000
 7197.00    0.67926   0.83227   -2.000
 7198.00    0.65728   0.83199   -2.000
 7199.00    0.64999   0.83135   -2.000
 7200.00    0.64546   0.83059   -2.000
 7201.00    0.67693   0.82960   -2.000
 7202.00    0.73388   0.82884   -2.000
 7203.00    0.77121   0.82833   -2.000
 7204.00    0.77721   0.82784   -2.000
 7205.00    0.76814   0.82766   -2.000
 7206.00    0.74818   0.82752   -2.000
 7207.00    0.71746   0.82806   -2.000
 7208.00    0.69880   0.82902   -2.000
 7209.00    0.71784   0.83007   -2.000
 7210.00    0.76507   0.83135   -2.000
 7211.00    0.80665   0.83229   -2.000
 7212.00    0.80952   0.83324   -2.000
 7213.00    0.76334   0.83395   -2.000
 7214.00    0.70134   0.83472   -2.000
 7215.00    0.66886   0.83538   -2.000
 7216.00    0.68456   0.83601   -2.000
 7217.00    0.74260   0.83666   -2.000
 7218.00    0.82042   0.83720   -2.000
