###################################################################
## OUTPUT of StarlightChains_v04.for    [Cid@UFSC - 01/Apr/2007] ##
###################################################################

## Some input info
2003ki.txt                               [arq_obs]
Base.CB07.vall.4m                        [arq_base]
Masks.EmLines.NEW.gm                     [arq_masks]
StCv04.C11.config                        [arq_config]
   66                                    [N_base]
    0                                    [N_YAV_components = # of components with extra extinction!]
    0                                    [i_FitPowerLaw (1/0 = Yes/No)]
-9.99                                    [alpha_PowerLaw]
CCM                                      [red_law_option]
 1.458241                                [q_norm = A(l_norm)/A(V)]

## (Re)Sampling Parameters
 3741.00                                 [l_ini (A)]
 7218.00                                 [l_fin (A)]
    1.00                                 [dl    (A)]     (OBS: dl_cushion =    50.00 A)

## Normalization info
 4020.00                                 [l_norm (A) - for base]
 4010.00                                 [llow_norm (A) - window for f_obs]
 4060.00                                 [lupp_norm (A) - window for f_obs]
2.551100E-17                             [fobs_norm (in input units)]

## S/N
 3691.00                                 [llow_SN (A) - window for S/N]
 7268.00                                 [lupp_SN (A) - window for S/N]
   3.189                                 [S/N in S/N window]
   4.317                                 [S/N in norm. window]
  10.000                                 [S/N_err in S/N window]
  13.540                                 [S/N_err in norm. window]
  1.0000                                 [fscale_chi2]

## etc...
    -2007282                             [idum_orig]
  2368                                   [NOl_eff]
  2119                                   [Nl_eff]
   249    NSIGMA                         [Ntot_cliped & clip_method]
   675570                                [Nglobal_steps]
   7                                     [N_chains]
  12                                     [NEX0s_base = N_base in EX0s-fits]
 0   0   1        6   2.0   3.521E+01    [Clip-Bug, RC-Crash & Burn-In warning-flags, n_censored_weights, wei_nsig_threshold & wei_limit]
    10     10.684     10.188      0.496  [idt_all, wdt_TotTime, wdt_UsrTime & wdt_SysTime (sec)]

## Synthesis Results - Best model ##

 1.77455E+00                             [chi2/Nl_eff]
    10.89291                             [adev (%)]

   101.02469                             [sum-of-x (%)]
 3.58511E-17                             [Flux_tot (units of input spectrum!)]
 6.64935E-14                             [Mini_tot (???)]
 4.28161E-14                             [Mcor_tot (???)]

 140.29                                  [v0_min  (km/s)]
 357.91                                  [vd_min  (km/s)]
 0.2458                                  [AV_min  (mag)]
 0.0000                                  [YAV_min (mag)]

# j     x_j(%)      Mini_j(%)     Mcor_j(%)     age_j(yr)     Z_j      (L/M)_j    YAV?  Mstars   component_j        a/Fe...       SSP_chi2r SSP_adev(%)   SSP_AV   SSP_x(%)
  1      0.0000     0.0000E+00    0.0000E+00    1.000000E+06  0.00400  1.094E-02    0   1.0000   age020_m42            0.0000     2.2722E+00    11.9255   2.3104    82.7136
  2      0.0000     0.0000E+00    0.0000E+00    3.160000E+06  0.00400  4.007E-02    0   0.9999   age045_m42            0.0000     1.9830E+00    11.3807   1.5608    89.4590
  3      0.0000     0.0000E+00    0.0000E+00    5.010000E+06  0.00400  2.539E-02    0   0.9488   age055_m42            0.0000     2.0896E+00    11.5730   1.8906    86.8387
  4      0.0000     0.0000E+00    0.0000E+00    6.610000E+06  0.00400  2.620E-02    0   0.9220   age061_m42            0.0000     1.9591E+00    11.3252   1.4818    89.8741
  5      0.0000     0.0000E+00    0.0000E+00    1.000000E+07  0.00400  1.322E-02    0   0.8862   age070_m42            0.0000     2.0154E+00    11.4541   1.1916    92.0054
  6      0.0000     0.0000E+00    0.0000E+00    1.445000E+07  0.00400  7.883E-03    0   0.8571   age078_m42            0.0000     2.0848E+00    11.5851   1.5270    89.3055
  7      0.0000     0.0000E+00    0.0000E+00    2.512000E+07  0.00400  5.251E-03    0   0.8174   age090_m42            0.0000     2.0146E+00    11.4608   1.0583    92.6542
  8     18.3091     2.6779E+00    3.2650E+00    4.000000E+07  0.00400  3.649E-03    0   0.7851   age104_m42            0.0000     1.9606E+00    11.3401   0.8263    93.6703
  9      0.0000     0.0000E+00    0.0000E+00    5.500000E+07  0.00400  3.098E-03    0   0.7629   age110_m42            0.0000     1.8905E+00    11.1907   0.9784    93.8009
 10      0.3705     8.8752E-02    9.9335E-02    1.015200E+08  0.00400  2.228E-03    0   0.7207   age116_m42            0.0000     1.8561E+00    11.1188   0.9971    94.1063
 11      0.0000     0.0000E+00    0.0000E+00    2.861200E+08  0.00400  1.093E-03    0   0.6648   age125_m42            0.0000     1.8791E+00    11.2344   0.4153    97.4716
 12      0.0000     0.0000E+00    0.0000E+00    5.088000E+08  0.00400  6.597E-04    0   0.6365   age130_m42            0.0000     1.8310E+00    11.0956   0.4053    98.4049
 13      0.0000     0.0000E+00    0.0000E+00    1.434000E+09  0.00400  2.132E-04    0   0.5798   age139_m42            0.0000     1.7936E+00    10.9375  -0.5613   100.3571
 14      0.0000     0.0000E+00    0.0000E+00    4.250000E+09  0.00400  5.895E-05    0   0.5377   age158_m42            0.0000     1.9590E+00    11.2757  -0.9806    95.6753
 15      0.0000     0.0000E+00    0.0000E+00    7.500000E+09  0.00400  3.510E-05    0   0.5212   age171_m42            0.0000     2.1485E+00    11.6605  -1.0000    88.9587
 16      0.0000     0.0000E+00    0.0000E+00    1.300000E+10  0.00400  2.005E-05    0   0.5034   age193_m42            0.0000     2.5266E+00    12.3730  -1.0000    82.6805
 17      0.0000     0.0000E+00    0.0000E+00    1.800000E+10  0.00400  1.525E-05    0   0.4967   age213_m42            0.0000     2.5729E+00    12.4785  -1.0000    81.5201
 18      0.0000     0.0000E+00    0.0000E+00    1.000000E+06  0.00800  1.238E-02    0   1.0000   age020_m52            0.0000     2.2724E+00    11.9236   2.3067    82.8765
 19      0.0000     0.0000E+00    0.0000E+00    3.160000E+06  0.00800  3.074E-02    0   0.9966   age045_m52            0.0000     2.2486E+00    11.8675   2.2299    83.6333
 20      0.0000     0.0000E+00    0.0000E+00    5.010000E+06  0.00800  2.668E-02    0   0.9443   age055_m52            0.0000     2.1283E+00    11.6388   1.9764    85.9148
 21      0.0000     0.0000E+00    0.0000E+00    6.610000E+06  0.00800  2.136E-02    0   0.9177   age061_m52            0.0000     2.0286E+00    11.4083   0.6975    92.8754
 22      0.0000     0.0000E+00    0.0000E+00    1.000000E+07  0.00800  1.215E-02    0   0.8827   age070_m52            0.0000     2.1042E+00    11.6605   1.3731    91.6408
 23      0.0000     0.0000E+00    0.0000E+00    1.445000E+07  0.00800  8.717E-03    0   0.8552   age078_m52            0.0000     2.0599E+00    11.5347   1.4908    90.6239
 24      0.8670     8.2750E-02    1.0489E-01    2.512000E+07  0.00800  5.592E-03    0   0.8162   age090_m52            0.0000     2.0130E+00    11.4763   1.1208    93.8186
 25      0.0000     0.0000E+00    0.0000E+00    4.000000E+07  0.00800  3.896E-03    0   0.7841   age104_m52            0.0000     1.9528E+00    11.3421   1.0278    94.8074
 26      0.0000     0.0000E+00    0.0000E+00    1.015200E+08  0.00800  2.148E-03    0   0.7226   age116_m52            0.0000     1.8745E+00    11.1531   0.9651    94.8017
 27      0.0000     0.0000E+00    0.0000E+00    2.861200E+08  0.00800  9.925E-04    0   0.6683   age125_m52            0.0000     1.8184E+00    11.0472   0.4686    99.3821
 28      0.0000     0.0000E+00    0.0000E+00    9.047900E+08  0.00800  3.141E-04    0   0.6138   age135_m52            0.0000     1.8498E+00    11.0670  -0.3251   103.5244
 29      0.0000     0.0000E+00    0.0000E+00    1.434000E+09  0.00800  1.719E-04    0   0.5853   age139_m52            0.0000     1.9128E+00    11.2493  -0.8931   100.9547
 30      0.0000     0.0000E+00    0.0000E+00    2.500000E+09  0.00800  7.872E-05    0   0.5600   age150_m52            0.0000     2.1170E+00    11.6059  -1.0000    92.2519
 31      0.0000     0.0000E+00    0.0000E+00    4.250000E+09  0.00800  4.336E-05    0   0.5426   age158_m52            0.0000     2.1744E+00    11.7022  -1.0000    90.8037
 32      0.0000     0.0000E+00    0.0000E+00    6.250000E+09  0.00800  3.159E-05    0   0.5319   age166_m52            0.0000     2.6435E+00    12.5765  -1.0000    83.5951
 33      0.0000     0.0000E+00    0.0000E+00    1.300000E+10  0.00800  1.361E-05    0   0.5073   age193_m52            0.0000     4.4769E+00    16.0110  -1.0000    67.5294
 34      0.0000     0.0000E+00    0.0000E+00    1.800000E+10  0.00800  9.886E-06    0   0.4990   age213_m52            0.0000     5.0687E+00    16.9165  -1.0000    63.9689
 35      0.0000     0.0000E+00    0.0000E+00    1.000000E+06  0.02000  1.544E-02    0   1.0000   age020_m62            0.0000     2.2826E+00    11.9395   2.3030    83.0536
 36      0.0000     0.0000E+00    0.0000E+00    3.160000E+06  0.02000  3.762E-02    0   0.9858   age045_m62            0.0000     2.2763E+00    11.9228   2.2432    83.7550
 37      0.0000     0.0000E+00    0.0000E+00    5.010000E+06  0.02000  3.296E-02    0   0.9342   age055_m62            0.0000     2.0313E+00    11.4567   1.8449    88.1698
 38      0.0000     0.0000E+00    0.0000E+00    8.710000E+06  0.02000  1.154E-02    0   0.8861   age067_m62            0.0000     2.6934E+00    13.0003   0.8181    94.1591
 39      0.0000     0.0000E+00    0.0000E+00    1.445000E+07  0.02000  7.663E-03    0   0.8472   age078_m62            0.0000     2.2252E+00    11.9700   1.0145    93.8874
 40      0.0000     0.0000E+00    0.0000E+00    2.512000E+07  0.02000  4.532E-03    0   0.8099   age090_m62            0.0000     2.2419E+00    12.0498   1.0035    93.7638
 41      0.0040     7.9073E-04    9.3267E-04    5.500000E+07  0.02000  2.733E-03    0   0.7595   age110_m62            0.0000     1.9659E+00    11.3623   1.0140    93.9976
 42      0.0000     0.0000E+00    0.0000E+00    1.609000E+08  0.02000  1.369E-03    0   0.6985   age120_m62            0.0000     1.8408E+00    11.0951   0.8381    97.3566
 43     30.3809     1.7990E+01    1.8758E+01    2.861200E+08  0.02000  9.013E-04    0   0.6714   age125_m62            0.0000     1.8076E+00    11.0055   0.5787   100.6603
 44      0.0008     8.8577E-04    8.8712E-04    5.088000E+08  0.02000  5.028E-04    0   0.6449   age130_m62            0.0000     1.8216E+00    10.9883   0.2041   103.3674
 45      0.0000     0.0000E+00    0.0000E+00    9.047900E+08  0.02000  2.428E-04    0   0.6179   age135_m62            0.0000     1.8824E+00    11.1041  -0.3698   102.3239
 46      0.0000     0.0000E+00    0.0000E+00    1.434000E+09  0.02000  1.263E-04    0   0.5908   age139_m62            0.0000     1.9833E+00    11.3128  -0.8046   100.4679
 47      0.0000     0.0000E+00    0.0000E+00    2.500000E+09  0.02000  5.985E-05    0   0.5673   age150_m62            0.0000     2.2416E+00    11.7890  -1.0000    92.7173
 48      0.0000     0.0000E+00    0.0000E+00    4.250000E+09  0.02000  3.271E-05    0   0.5468   age158_m62            0.0000     3.0302E+00    13.2386  -1.0000    81.0378
 49      0.0000     0.0000E+00    0.0000E+00    1.000000E+10  0.02000  1.360E-05    0   0.5167   age181_m62            0.0000     4.5326E+00    15.8421  -1.0000    69.1812
 50      0.0000     0.0000E+00    0.0000E+00    1.800000E+10  0.02000  7.124E-06    0   0.5013   age213_m62            0.0000     5.6597E+00    17.5669  -1.0000    62.3105
 51      0.0000     0.0000E+00    0.0000E+00    1.000000E+06  0.05000  2.592E-02    0   0.9998   age020_m72            0.0000     2.3230E+00    12.0061   2.2994    82.8914
 52      0.0000     0.0000E+00    0.0000E+00    3.160000E+06  0.05000  4.845E-02    0   0.9577   age045_m72            0.0000     2.1784E+00    11.7406   2.1190    85.1880
 53      0.0000     0.0000E+00    0.0000E+00    5.010000E+06  0.05000  3.072E-02    0   0.9147   age055_m72            0.0000     2.2505E+00    11.9960   1.6179    89.6831
 54      0.0000     0.0000E+00    0.0000E+00    6.610000E+06  0.05000  1.455E-02    0   0.8877   age061_m72            0.0000     3.3819E+00    14.5976   0.8627    94.9911
 55      0.0000     0.0000E+00    0.0000E+00    1.000000E+07  0.05000  9.074E-03    0   0.8524   age070_m72            0.0000     2.3838E+00    12.3552   1.8047    89.3617
 56      0.0000     0.0000E+00    0.0000E+00    2.512000E+07  0.05000  4.250E-03    0   0.7902   age090_m72            0.0000     2.1835E+00    11.9460   1.4858    91.7765
 57      0.0000     0.0000E+00    0.0000E+00    4.000000E+07  0.05000  3.087E-03    0   0.7618   age104_m72            0.0000     2.1601E+00    11.9441   1.2497    93.6735
 58      0.0000     0.0000E+00    0.0000E+00    1.015200E+08  0.05000  1.700E-03    0   0.7096   age116_m72            0.0000     1.8949E+00    11.2491   0.9807    96.8822
 59      0.0000     0.0000E+00    0.0000E+00    2.861200E+08  0.05000  7.384E-04    0   0.6633   age125_m72            0.0000     1.8115E+00    10.9985   0.4474   102.0758
 60     46.7502     6.5333E+01    6.4651E+01    5.088000E+08  0.05000  3.819E-04    0   0.6372   age130_m72            0.0000     1.8279E+00    10.9784  -0.0360   103.5035
 61      4.3420     1.3827E+01    1.3120E+01    9.047900E+08  0.05000  1.676E-04    0   0.6110   age135_m72            0.0000     2.0483E+00    11.4343  -0.7113   100.9428
 62      0.0000     0.0000E+00    0.0000E+00    1.434000E+09  0.05000  8.837E-05    0   0.5874   age139_m72            0.0000     2.2732E+00    11.8269  -1.0000    94.1033
 63      0.0000     0.0000E+00    0.0000E+00    2.500000E+09  0.05000  4.233E-05    0   0.5598   age150_m72            0.0000     3.0932E+00    13.3270  -1.0000    81.7564
 64      0.0000     0.0000E+00    0.0000E+00    6.250000E+09  0.05000  1.435E-05    0   0.5249   age166_m72            0.0000     4.9952E+00    16.6201  -1.0000    65.9357
 65      0.0000     0.0000E+00    0.0000E+00    1.300000E+10  0.05000  6.513E-06    0   0.5036   age193_m72            0.0000     6.5913E+00    18.9546  -1.0000    58.3691
 66      0.0000     0.0000E+00    0.0000E+00    1.800000E+10  0.05000  4.527E-06    0   0.4945   age213_m72            0.0000     7.5803E+00    20.2897  -1.0000    53.9221


## Synthesis Results - Average & Chains ##

# j      x_j: min, <> & last-chain-values for 1 ...  7 chains
  1      0.0000      0.1206      0.0000      0.0000      0.0000      0.0000      1.7669      0.0557      0.0000
  2      0.0000      0.4694      0.0000      0.7747      0.0000      0.0000      0.1201      2.0868      0.0000
  3      0.0000      0.1187      0.0000      0.6076      0.0000      0.1221      0.4424      0.0000      0.0000
  4      0.0000      0.6969      0.0000      0.0000      0.0000      0.0000      0.0000      1.1695      0.9565
  5      0.0000      0.4336      2.0984      1.5991      0.0000      0.0000      0.0000      0.8363      0.0000
  6      0.0000      0.6839      0.0000      0.0000      3.5013      0.0000      0.7769      1.5417      0.0000
  7      0.0000      0.5472      0.1664      0.0000      0.0000      2.8469      2.3489      0.0000      0.0000
  8     18.3091      1.9591      1.4331      0.0000      0.0000      5.9741      4.8126      4.4640      0.9859
  9      0.0000      1.2894      1.3263      1.5537      0.9901      6.4648      0.0000      0.0000      0.0000
 10      0.3705      3.9101      2.5324      2.9674      8.9996      0.7356      6.1292      5.8768      0.9150
 11      0.0000      0.7092      0.0000      0.0000      0.8596      0.0000      0.0000      0.0000      0.0000
 12      0.0000      1.1022      0.0000      0.0000      0.0000      0.0542      0.3510      0.0000      0.0000
 13      0.0000      0.4701      1.2008      0.0225      0.0000      0.8863      0.0000      0.0000      0.2011
 14      0.0000      0.0865      0.0000      0.0000      0.0000      0.0000      0.0000      0.0000      0.0000
 15      0.0000      0.0428      0.0000      0.0000      0.0000      0.5900      0.0000      0.0000      0.0000
 16      0.0000      0.0181      0.0000      0.0000      0.0000      0.0000      0.0000      0.0000      0.0000
 17      0.0000      0.0571      0.0000      0.0000      0.0000      0.0000      0.0000      0.0000      0.0000
 18      0.0000      0.1155      0.0000      0.0000      0.0000      1.9683      0.0000      0.0000      0.0000
 19      0.0000      0.1564      0.0000      0.0000      0.0000      0.0000      0.0000      1.9827      0.0000
 20      0.0000      0.5888      4.0633      1.6272      0.0000      0.0000      0.0000      0.0000      0.0000
 21      0.0000      2.4045      0.0000      0.0000      1.9138      0.0000      3.3277      0.0000      6.7285
 22      0.0000      0.2976      0.0000      0.0000      0.0000      0.0000      0.3611      0.0000      0.0000
 23      0.0000      0.5001      0.0000      1.2347      0.0000      0.0000      0.0000      0.0000      0.0000
 24      0.8670      0.6986      0.0000      0.6371      0.0000      0.0000      1.8869      1.9734      2.2462
 25      0.0000      0.7569      1.2071      0.0000      0.0000      1.1644      0.0000      0.0000      0.0000
 26      0.0000      1.3856      4.5260      1.3429      0.6766      0.0000      2.3788      0.0000      0.0110
 27      0.0000      2.1217      0.0620      0.0000      0.0000      0.0000      0.0000      0.0000      0.0000
 28      0.0000      0.2633      0.0000      0.0000      0.0000      0.0000      0.0000      1.2121      1.5129
 29      0.0000      0.0573      0.0000      0.0000      0.0000      0.0000      0.0000      0.0000      0.0000
 30      0.0000      0.0433      0.0000      0.0000      0.0000      0.0000      0.0000      0.0000      0.0000
 31      0.0000      0.0408      0.0000      0.0094      0.0000      0.0000      0.0000      0.0000      0.0000
 32      0.0000      0.0100      0.0000      0.0000      0.0000      0.0000      0.0000      0.0000      0.0000
 33      0.0000      0.0388      0.0000      0.0000      0.0000      0.0000      0.0000      0.0000      0.0000
 34      0.0000      0.0469      0.0000      0.0000      0.0000      0.0000      0.0000      0.0000      0.0000
 35      0.0000      0.1348      1.5775      0.0000      0.0000      0.0000      0.0000      0.0000      0.0000
 36      0.0000      0.1366      0.0000      0.4076      0.0000      0.0000      0.0000      0.0000      0.0000
 37      0.0000      0.4434      0.0000      0.4554      2.7091      0.0000      0.0000      0.0000      0.0373
 38      0.0000      0.3375      0.0000      0.0000      0.0000      0.0000      0.0000      0.0000      0.0000
 39      0.0000      0.3254      0.0000      0.0000      0.0000      0.0000      0.0000      0.0000      1.6565
 40      0.0000      0.3239      0.0000      0.4038      0.0000      0.0000      0.0000      0.0000      0.0000
 41      0.0040      1.9771      0.0000      7.6327      0.0000      0.0000      0.0000      2.0225      5.3719
 42      0.0000      1.5295      0.0151      0.0000      4.5266      2.5209      0.0000      0.0000      0.0000
 43     30.3809     20.9406     22.6468     20.4666     22.4306     24.2307     25.0130     26.4693     31.4693
 44      0.0008     18.2510     25.0302     15.1927     16.4450     18.4036     25.0757     16.8295     22.4449
 45      0.0000      1.1065      0.0000      1.5588      0.0000      1.2752      0.0000      0.0899      0.5834
 46      0.0000      0.1207      0.0000      0.0000      0.0000      0.0000      0.3938      0.0000      0.0000
 47      0.0000      0.1301      0.0000      0.0000      1.4137      0.0000      0.0000      0.0000      0.0000
 48      0.0000      0.0612      0.0000      0.0000      0.0000      0.0000      0.0000      0.0000      0.0000
 49      0.0000      0.0068      0.0000      0.0000      0.0000      0.0000      0.0000      0.0000      0.0000
 50      0.0000      0.0035      0.0000      0.0000      0.0000      0.0000      0.0000      0.0000      0.0000
 51      0.0000      0.2246      1.4042      0.0000      0.0000      0.0000      0.0000      0.0000      0.7722
 52      0.0000      0.1830      0.0000      0.0000      0.5316      0.0000      0.0000      0.0000      0.0000
 53      0.0000      0.1471      0.0000      0.0000      0.0000      0.0000      0.0000      0.0000      0.0000
 54      0.0000      0.0389      0.0000      0.0000      0.0000      0.0000      0.0000      0.0000      0.0000
 55      0.0000      0.0655      0.0000      0.0000      0.0000      0.0000      0.0000      0.0000      0.0000
 56      0.0000      0.1984      0.0000      0.0000      0.0000      0.0000      0.0000      0.0000      0.1009
 57      0.0000      0.1406      0.0000      0.0000      0.0000      0.0000      0.0000      0.0000      0.0000
 58      0.0000      0.8055      0.2576      0.0000      3.1960      2.8988      0.7495      0.0000      0.0000
 59      0.0000      9.8886      8.4822     15.2905      5.4397     10.7031      2.8190      6.0125      0.0000
 60     46.7502     19.1618     20.5587     27.0804     24.7597     15.1548     18.4001     26.8808     22.7189
 61      4.3420      1.1795      1.7725      0.0000      2.2343      3.9339      2.8423      1.1328      1.6591
 62      0.0000      0.0617      0.0000      0.0000      0.0000      0.0000      0.0000      0.0000      0.0000
 63      0.0000      0.0138      0.2182      0.0000      0.0000      0.0000      0.0000      0.0000      0.0000
 64      0.0000      0.0026      0.0000      0.0000      0.0000      0.0000      0.0000      0.0000      0.0000
 65      0.0000      0.0063      0.0000      0.0000      0.0000      0.0000      0.0000      0.0000      0.0000
 66      0.0000      0.0032      0.0000      0.0000      0.0000      0.0000      0.0000      0.0000      0.0000

# j      m_j: min, <> & last-chain-values for 1 ...  7 chains
  1  0.0000E+00  9.9884E-03  0.0000E+00  0.0000E+00  0.0000E+00  0.0000E+00  1.5869E-01  4.9740E-03  0.0000E+00
  2  0.0000E+00  1.0613E-02  0.0000E+00  1.8909E-02  0.0000E+00  0.0000E+00  2.9456E-03  5.0862E-02  0.0000E+00
  3  0.0000E+00  4.0193E-03  0.0000E+00  2.2212E-02  0.0000E+00  4.0807E-03  1.6242E-02  0.0000E+00  0.0000E+00
  4  0.0000E+00  2.2224E-02  0.0000E+00  0.0000E+00  0.0000E+00  0.0000E+00  0.0000E+00  4.0201E-02  3.2348E-02
  5  0.0000E+00  2.6337E-02  1.3103E-01  1.0486E-01  0.0000E+00  0.0000E+00  0.0000E+00  5.4761E-02  0.0000E+00
  6  0.0000E+00  6.7379E-02  0.0000E+00  0.0000E+00  3.3498E-01  0.0000E+00  8.2993E-02  1.6373E-01  0.0000E+00
  7  0.0000E+00  7.7189E-02  2.4136E-02  0.0000E+00  0.0000E+00  3.9633E-01  3.5926E-01  0.0000E+00  0.0000E+00
  8  3.2650E+00  3.8195E-01  2.8722E-01  0.0000E+00  0.0000E+00  1.1495E+00  1.0174E+00  9.3812E-01  2.0385E-01
  9  0.0000E+00  2.8772E-01  3.0423E-01  3.7427E-01  2.1455E-01  1.4237E+00  0.0000E+00  0.0000E+00  0.0000E+00
 10  9.9335E-02  1.1461E+00  7.6307E-01  9.3893E-01  2.5616E+00  2.1279E-01  1.9480E+00  1.8568E+00  2.8443E-01
 11  0.0000E+00  3.9088E-01  0.0000E+00  0.0000E+00  4.6009E-01  0.0000E+00  0.0000E+00  0.0000E+00  0.0000E+00
 12  0.0000E+00  9.6362E-01  0.0000E+00  0.0000E+00  0.0000E+00  4.6729E-02  3.3276E-01  0.0000E+00  0.0000E+00
 13  0.0000E+00  1.1585E+00  3.0420E+00  5.9820E-02  0.0000E+00  2.1555E+00  0.0000E+00  0.0000E+00  5.2567E-01
 14  0.0000E+00  7.1494E-01  0.0000E+00  0.0000E+00  0.0000E+00  0.0000E+00  0.0000E+00  0.0000E+00  0.0000E+00
 15  0.0000E+00  5.7545E-01  0.0000E+00  0.0000E+00  0.0000E+00  7.8354E+00  0.0000E+00  0.0000E+00  0.0000E+00
 16  0.0000E+00  4.1269E-01  0.0000E+00  0.0000E+00  0.0000E+00  0.0000E+00  0.0000E+00  0.0000E+00  0.0000E+00
 17  0.0000E+00  1.6860E+00  0.0000E+00  0.0000E+00  0.0000E+00  0.0000E+00  0.0000E+00  0.0000E+00  0.0000E+00
 18  0.0000E+00  8.4540E-03  0.0000E+00  0.0000E+00  0.0000E+00  1.4219E-01  0.0000E+00  0.0000E+00  0.0000E+00
 19  0.0000E+00  4.5936E-03  0.0000E+00  0.0000E+00  0.0000E+00  0.0000E+00  0.0000E+00  6.2787E-02  0.0000E+00
 20  0.0000E+00  1.8883E-02  1.3397E-01  5.6335E-02  0.0000E+00  0.0000E+00  0.0000E+00  0.0000E+00  0.0000E+00
 21  0.0000E+00  9.3608E-02  0.0000E+00  0.0000E+00  7.2353E-02  0.0000E+00  1.4047E-01  0.0000E+00  2.7780E-01
 22  0.0000E+00  1.9591E-02  0.0000E+00  0.0000E+00  0.0000E+00  0.0000E+00  2.5774E-02  0.0000E+00  0.0000E+00
 23  0.0000E+00  4.4458E-02  0.0000E+00  1.1850E-01  0.0000E+00  0.0000E+00  0.0000E+00  0.0000E+00  0.0000E+00
 24  1.0489E-01  9.2401E-02  0.0000E+00  9.0961E-02  0.0000E+00  0.0000E+00  2.7059E-01  2.8133E-01  3.1505E-01
 25  0.0000E+00  1.3803E-01  2.2629E-01  0.0000E+00  0.0000E+00  2.0957E-01  0.0000E+00  0.0000E+00  0.0000E+00
 26  0.0000E+00  4.2237E-01  1.4183E+00  4.4191E-01  2.0029E-01  0.0000E+00  7.8628E-01  0.0000E+00  3.5487E-03
 27  0.0000E+00  1.2946E+00  3.8892E-02  0.0000E+00  0.0000E+00  0.0000E+00  0.0000E+00  0.0000E+00  0.0000E+00
 28  0.0000E+00  4.6615E-01  0.0000E+00  0.0000E+00  0.0000E+00  0.0000E+00  0.0000E+00  2.3135E+00  2.8410E+00
 29  0.0000E+00  1.7693E-01  0.0000E+00  0.0000E+00  0.0000E+00  0.0000E+00  0.0000E+00  0.0000E+00  0.0000E+00
 30  0.0000E+00  2.7920E-01  0.0000E+00  0.0000E+00  0.0000E+00  0.0000E+00  0.0000E+00  0.0000E+00  0.0000E+00
 31  0.0000E+00  4.6225E-01  0.0000E+00  1.1492E-01  0.0000E+00  0.0000E+00  0.0000E+00  0.0000E+00  0.0000E+00
 32  0.0000E+00  1.5199E-01  0.0000E+00  0.0000E+00  0.0000E+00  0.0000E+00  0.0000E+00  0.0000E+00  0.0000E+00
 33  0.0000E+00  1.3112E+00  0.0000E+00  0.0000E+00  0.0000E+00  0.0000E+00  0.0000E+00  0.0000E+00  0.0000E+00
 34  0.0000E+00  2.1470E+00  0.0000E+00  0.0000E+00  0.0000E+00  0.0000E+00  0.0000E+00  0.0000E+00  0.0000E+00
 35  0.0000E+00  7.9130E-03  9.5175E-02  0.0000E+00  0.0000E+00  0.0000E+00  0.0000E+00  0.0000E+00  0.0000E+00
 36  0.0000E+00  3.2428E-03  0.0000E+00  1.0447E-02  0.0000E+00  0.0000E+00  0.0000E+00  0.0000E+00  0.0000E+00
 37  0.0000E+00  1.1388E-02  0.0000E+00  1.2626E-02  6.7565E-02  0.0000E+00  0.0000E+00  0.0000E+00  1.0159E-03
 38  0.0000E+00  2.3480E-02  0.0000E+00  0.0000E+00  0.0000E+00  0.0000E+00  0.0000E+00  0.0000E+00  0.0000E+00
 39  0.0000E+00  3.2600E-02  0.0000E+00  0.0000E+00  0.0000E+00  0.0000E+00  0.0000E+00  0.0000E+00  1.7599E-01
 40  0.0000E+00  5.2457E-02  0.0000E+00  7.0582E-02  0.0000E+00  0.0000E+00  0.0000E+00  0.0000E+00  0.0000E+00
 41  9.3267E-04  4.9786E-01  0.0000E+00  2.0749E+00  0.0000E+00  0.0000E+00  0.0000E+00  5.4898E-01  1.4346E+00
 42  0.0000E+00  7.0714E-01  7.1681E-03  0.0000E+00  2.0323E+00  1.1503E+00  0.0000E+00  0.0000E+00  0.0000E+00
 43  1.8758E+01  1.4135E+01  1.5715E+01  1.4914E+01  1.4703E+01  1.6142E+01  1.8307E+01  1.9259E+01  2.2527E+01
 44  8.8712E-04  2.1212E+01  2.9905E+01  1.9062E+01  1.8560E+01  2.1110E+01  3.1601E+01  2.1084E+01  2.7665E+01
 45  0.0000E+00  2.5517E+00  0.0000E+00  3.8804E+00  0.0000E+00  2.9022E+00  0.0000E+00  2.2347E-01  1.4268E+00
 46  0.0000E+00  5.1156E-01  0.0000E+00  0.0000E+00  0.0000E+00  0.0000E+00  1.8099E+00  0.0000E+00  0.0000E+00
 47  0.0000E+00  1.1176E+00  0.0000E+00  0.0000E+00  1.1791E+01  0.0000E+00  0.0000E+00  0.0000E+00  0.0000E+00
 48  0.0000E+00  9.2630E-01  0.0000E+00  0.0000E+00  0.0000E+00  0.0000E+00  0.0000E+00  0.0000E+00  0.0000E+00
 49  0.0000E+00  2.3481E-01  0.0000E+00  0.0000E+00  0.0000E+00  0.0000E+00  0.0000E+00  0.0000E+00  0.0000E+00
 50  0.0000E+00  2.2178E-01  0.0000E+00  0.0000E+00  0.0000E+00  0.0000E+00  0.0000E+00  0.0000E+00  0.0000E+00
 51  0.0000E+00  7.8495E-03  5.0452E-02  0.0000E+00  0.0000E+00  0.0000E+00  0.0000E+00  0.0000E+00  2.8622E-02
 52  0.0000E+00  3.2775E-03  0.0000E+00  0.0000E+00  9.2471E-03  0.0000E+00  0.0000E+00  0.0000E+00  0.0000E+00
 53  0.0000E+00  3.9685E-03  0.0000E+00  0.0000E+00  0.0000E+00  0.0000E+00  0.0000E+00  0.0000E+00  0.0000E+00
 54  0.0000E+00  2.1479E-03  0.0000E+00  0.0000E+00  0.0000E+00  0.0000E+00  0.0000E+00  0.0000E+00  0.0000E+00
 55  0.0000E+00  5.5793E-03  0.0000E+00  0.0000E+00  0.0000E+00  0.0000E+00  0.0000E+00  0.0000E+00  0.0000E+00
 56  0.0000E+00  3.3421E-02  0.0000E+00  0.0000E+00  0.0000E+00  0.0000E+00  0.0000E+00  0.0000E+00  1.8037E-02
 57  0.0000E+00  3.1443E-02  0.0000E+00  0.0000E+00  0.0000E+00  0.0000E+00  0.0000E+00  0.0000E+00  0.0000E+00
 58  0.0000E+00  3.0465E-01  1.0017E-01  0.0000E+00  1.1739E+00  1.0821E+00  3.0739E-01  0.0000E+00  0.0000E+00
 59  0.0000E+00  8.0491E+00  7.0977E+00  1.3436E+01  4.2998E+00  8.5984E+00  2.4881E+00  5.2754E+00  0.0000E+00
 60  6.4651E+01  2.8971E+01  3.1953E+01  4.4198E+01  3.6352E+01  2.2613E+01  3.0164E+01  4.3808E+01  3.6427E+01
 61  1.3120E+01  3.8963E+00  6.0194E+00  0.0000E+00  7.1674E+00  1.2826E+01  1.0181E+01  4.0336E+00  5.8124E+00
 62  0.0000E+00  3.7147E-01  0.0000E+00  0.0000E+00  0.0000E+00  0.0000E+00  0.0000E+00  0.0000E+00  0.0000E+00
 63  0.0000E+00  1.6508E-01  2.6880E+00  0.0000E+00  0.0000E+00  0.0000E+00  0.0000E+00  0.0000E+00  0.0000E+00
 64  0.0000E+00  8.7328E-02  0.0000E+00  0.0000E+00  0.0000E+00  0.0000E+00  0.0000E+00  0.0000E+00  0.0000E+00
 65  0.0000E+00  4.3820E-01  0.0000E+00  0.0000E+00  0.0000E+00  0.0000E+00  0.0000E+00  0.0000E+00  0.0000E+00
 66  0.0000E+00  3.1579E-01  0.0000E+00  0.0000E+00  0.0000E+00  0.0000E+00  0.0000E+00  0.0000E+00  0.0000E+00

# AV, chi2 & Mass for <> & i_chain = 1 ...  7 solutions
AV       0.2458      0.3986      0.3998      0.4045      0.3761      0.3825      0.4005      0.3989      0.3591
chi2 1.7745E+00  1.7848E+00  1.7823E+00  1.7817E+00  1.7816E+00  1.7831E+00  1.7821E+00  1.7812E+00  1.7809E+00
Mass 4.2816E-14  4.8089E-14  4.6851E-14  4.4897E-14  4.8043E-14  4.7679E-14  4.4464E-14  4.4629E-14  4.3000E-14
 140.29                                  [v0_min (km/s) before EX0s...]
 357.91                                  [vd_min (km/s) before EX0s...]


## Synthetic spectrum (Best Model) ##l_obs f_obs f_syn wei
 3478    [Nl_obs]
 3741.00    1.08921   0.50464    0.000
 3742.00    0.81971   0.51217    0.000
 3743.00    0.47150   0.51685    0.000
 3744.00    0.40275   0.51772    0.000
 3745.00    0.56505   0.51489   17.698
 3746.00    0.62485   0.50832   16.004
 3747.00    0.60127   0.49979   16.632
 3748.00    0.75655   0.49014   -1.000
 3749.00    1.02649   0.48147   -1.000
 3750.00    1.16840   0.47575   -1.000
 3751.00    1.28051   0.47433   -1.000
 3752.00    1.66202   0.47775   -1.000
 3753.00    2.39021   0.48544   -1.000
 3754.00    3.16530   0.49734   -1.000
 3755.00    3.23066   0.51181   -1.000
 3756.00    2.12951   0.52790   -1.000
 3757.00    0.69440   0.54376   -1.000
 3758.00    0.03434   0.55854   -1.000
 3759.00    0.15635   0.57141   -1.000
 3760.00    0.50256   0.58145   19.898
 3761.00    0.73309   0.58772   13.641
 3762.00    0.74504   0.59006   13.422
 3763.00    0.60420   0.58862   16.551
 3764.00    0.49583   0.58306   20.168
 3765.00    0.65286   0.57461   15.317
 3766.00    1.07875   0.56323   -1.000
 3767.00    1.39755   0.55034   -1.000
 3768.00    1.36178   0.53720   -1.000
 3769.00    1.16786   0.52524   -1.000
 3770.00    1.06377   0.51563   -1.000
 3771.00    1.09801   0.51024   -1.000
 3772.00    1.21715   0.51036   -1.000
 3773.00    1.33856   0.51586   -1.000
 3774.00    1.39056   0.52682   -1.000
 3775.00    1.33371   0.54292   -1.000
 3776.00    1.16853   0.56317   -1.000
 3777.00    0.93305   0.58658   -1.000
 3778.00    0.68023   0.61145   14.701
 3779.00    0.47032   0.63634   21.262
 3780.00    0.37695   0.66002   -1.000
 3781.00    0.45689   0.68101   21.887
 3782.00    0.64934   0.69837   15.400
 3783.00    0.81854   0.71127   12.217
 3784.00    0.96558   0.71963   -1.000
 3785.00    1.18381   0.72302   -1.000
 3786.00    1.38953   0.72121   -1.000
 3787.00    1.38486   0.71514   -1.000
 3788.00    1.15942   0.70481   -1.000
 3789.00    0.86110   0.69079   11.613
 3790.00    0.59253   0.67338   16.877
 3791.00    0.41059   0.65321   -1.000
 3792.00    0.39913   0.63083   -1.000
 3793.00    0.57407   0.60697   17.420
 3794.00    0.71906   0.58277   13.907
 3795.00    0.59706   0.55929   16.749
 3796.00    0.28739   0.53836   -1.000
 3797.00    0.03023   0.52114   -1.000
 3798.00   -0.04168   0.50920   -2.000
 3799.00    0.08169   0.50395   -1.000
 3800.00    0.31459   0.50573   -1.000
 3801.00    0.53047   0.51430   18.851
 3802.00    0.62082   0.52899   -1.000
 3803.00    0.53624   0.54907   18.649
 3804.00    0.31741   0.57292   -1.000
 3805.00    0.06979   0.59911   -1.000
 3806.00   -0.06964   0.62624   -2.000
 3807.00   -0.00603   0.65289   -2.000
 3808.00    0.25893   0.67851   -1.000
 3809.00    0.62759   0.70164   15.934
 3810.00    0.92913   0.72174   -1.000
 3811.00    1.03925   0.73820   -1.000
 3812.00    0.95725   0.75119   10.447
 3813.00    0.82551   0.76051   12.114
 3814.00    0.87662   0.76699   11.407
 3815.00    1.14252   0.77099   -1.000
 3816.00    1.39963   0.77267   -1.000
 3817.00    1.54221   0.77265   -1.000
 3818.00    1.66771   0.77062   -1.000
 3819.00    1.77017   0.76679   -1.000
 3820.00    1.70993   0.76124   -1.000
 3821.00    1.52251   0.75436   -1.000
 3822.00    1.40940   0.74584   -1.000
 3823.00    1.38401   0.73518   -1.000
 3824.00    1.28516   0.72198   -1.000
 3825.00    1.11135   0.70659   -1.000
 3826.00    1.00228   0.68898   -1.000
 3827.00    0.96962   0.66895   -1.000
 3828.00    0.91348   0.64665   -1.000
 3829.00    0.80244   0.62256   12.462
 3830.00    0.68027   0.59716   14.700
 3831.00    0.60018   0.57139   16.662
 3832.00    0.59715   0.54583   16.746
 3833.00    0.66413   0.52213   15.057
 3834.00    0.77051   0.50163   -1.000
 3835.00    0.89604   0.48571   -1.000
 3836.00    1.01925   0.47567   -1.000
 3837.00    1.09595   0.47243   -1.000
 3838.00    1.08489   0.47591   -1.000
 3839.00    0.98338   0.48627   -1.000
 3840.00    0.83160   0.50289   -1.000
 3841.00    0.70768   0.52472   -1.000
 3842.00    0.67500   0.55089   -1.000
 3843.00    0.72822   0.57939   -1.000
 3844.00    0.77753   0.60927   -1.000
 3845.00    0.66572   0.63906   15.021
 3846.00    0.39336   0.66790   -1.000
 3847.00    0.24414   0.69498    0.000
 3848.00    0.37819   0.71977    0.000
 3849.00    0.59127   0.74182    0.000
 3850.00    0.70674   0.76121    0.000
 3851.00    0.79913   0.77831    0.000
 3852.00    0.95882   0.79299    0.000
 3853.00    1.14885   0.80518    0.000
 3854.00    1.21311   0.81538    0.000
 3855.00    0.96492   0.82395    0.000
 3856.00    0.54579   0.83079    0.000
 3857.00    0.41489   0.83702    0.000
 3858.00    0.64661   0.84218    0.000
 3859.00    0.83530   0.84668    0.000
 3860.00    0.80472   0.85083    0.000
 3861.00    0.74006   0.85494    0.000
 3862.00    0.75515   0.85859    0.000
 3863.00    0.80883   0.86169    0.000
 3864.00    0.88380   0.86431    0.000
 3865.00    1.00333   0.86601    0.000
 3866.00    1.13644   0.86677    0.000
 3867.00    1.19931   0.86637    0.000
 3868.00    1.11722   0.86466    0.000
 3869.00    0.87922   0.86152    0.000
 3870.00    0.61365   0.85649    0.000
 3871.00    0.48677   0.85008    0.000
 3872.00    0.49453   0.84198    0.000
 3873.00    0.52263   0.83283    0.000
 3874.00    0.50807   0.82245    0.000
 3875.00    0.46567   0.81077    0.000
 3876.00    0.48105   0.79740    0.000
 3877.00    0.60698   0.78253    0.000
 3878.00    0.73929   0.76577    0.000
 3879.00    0.75164   0.74751    0.000
 3880.00    0.66566   0.72753    0.000
 3881.00    0.57270   0.70531   17.461
 3882.00    0.52893   0.68119   18.906
 3883.00    0.53303   0.65557   18.761
 3884.00    0.52625   0.62906   19.002
 3885.00    0.49588   0.60238   20.166
 3886.00    0.53963   0.57656   18.531
 3887.00    0.67866   0.55321   14.735
 3888.00    0.74739   0.53357   -1.000
 3889.00    0.64537   0.51893   15.495
 3890.00    0.48500   0.51064   20.618
 3891.00    0.40699   0.50896   24.570
 3892.00    0.46133   0.51389   21.676
 3893.00    0.60886   0.52484   16.424
 3894.00    0.74925   0.54117   -1.000
 3895.00    0.83518   0.56171   -1.000
 3896.00    0.90081   0.58521   -1.000
 3897.00    0.94501   0.61060   -1.000
 3898.00    0.91793   0.63634   -1.000
 3899.00    0.86639   0.66196   -1.000
 3900.00    0.92317   0.68646   -1.000
 3901.00    1.07912   0.70981   -1.000
 3902.00    1.17973   0.73152   -1.000
 3903.00    1.15645   0.75122   -1.000
 3904.00    1.06066   0.76964   -1.000
 3905.00    0.95645   0.78653   10.455
 3906.00    0.88652   0.80214   11.280
 3907.00    0.86492   0.81691   11.562
 3908.00    0.89241   0.83059   11.206
 3909.00    0.99065   0.84312   10.094
 3910.00    1.14456   0.85425   -1.000
 3911.00    1.18632   0.86391   -1.000
 3912.00    0.98586   0.87186   10.143
 3913.00    0.79779   0.87809   12.535
 3914.00    0.91991   0.88246   10.871
 3915.00    1.10055   0.88557    9.086
 3916.00    0.95201   0.88692   10.504
 3917.00    0.62337   0.88723   -1.000
 3918.00    0.45083   0.88659   -1.000
 3919.00    0.42948   0.88514   -1.000
 3920.00    0.44928   0.88321   -1.000
 3921.00    0.60633   0.88043   -1.000
 3922.00    0.96775   0.87709   10.333
 3923.00    1.33134   0.87218   -1.000
 3924.00    1.48630   0.86590   -1.000
 3925.00    1.44841   0.85732   -1.000
 3926.00    1.30258   0.84630   -1.000
 3927.00    1.07285   0.83288    9.321
 3928.00    0.81365   0.81692   12.290
 3929.00    0.65925   0.79911   15.169
 3930.00    0.67508   0.78007   14.813
 3931.00    0.77760   0.76095   12.860
 3932.00    0.84175   0.74327   11.880
 3933.00    0.78521   0.72823   12.735
 3934.00    0.66172   0.71757   15.112
 3935.00    0.65041   0.71231   15.375
 3936.00    0.79813   0.71239   12.529
 3937.00    0.95914   0.71778   10.426
 3938.00    1.03705   0.72761   -1.000
 3939.00    1.05348   0.74102   -1.000
 3940.00    1.02610   0.75675    9.746
 3941.00    0.94223   0.77318   10.613
 3942.00    0.82301   0.78933   12.151
 3943.00    0.73061   0.80420   13.687
 3944.00    0.72674   0.81720   13.760
 3945.00    0.83233   0.82792   12.014
 3946.00    0.96146   0.83640   10.401
 3947.00    1.02252   0.84229    9.780
 3948.00    1.17647   0.84602   -1.000
 3949.00    1.61302   0.84777   -1.000
 3950.00    1.99267   0.84784   -1.000
 3951.00    1.81065   0.84613   -1.000
 3952.00    1.24911   0.84277   -1.000
 3953.00    0.84742   0.83768   11.801
 3954.00    0.71937   0.83090   13.901
 3955.00    0.70073   0.82203   14.271
 3956.00    0.74790   0.81090   13.371
 3957.00    0.85847   0.79745   11.649
 3958.00    0.90248   0.78147   11.081
 3959.00    0.77273   0.76254   12.941
 3960.00    0.57565   0.74059    0.000
 3961.00    0.50273   0.71546    0.000
 3962.00    0.66082   0.68758    0.000
 3963.00    0.95454   0.65727    0.000
 3964.00    1.03930   0.62515    0.000
 3965.00    0.76157   0.59214    0.000
 3966.00    0.46773   0.55953    0.000
 3967.00    0.45743   0.52882    0.000
 3968.00    0.59666   0.50169    0.000
 3969.00    0.65593   0.47984    0.000
 3970.00    0.55833   0.46471    0.000
 3971.00    0.36759   0.45722    0.000
 3972.00    0.24339   0.45790    0.000
 3973.00    0.28760   0.46651    0.000
 3974.00    0.46560   0.48255    0.000
 3975.00    0.63499   0.50489    0.000
 3976.00    0.61872   0.53221    0.000
 3977.00    0.44363   0.56281    0.000
 3978.00    0.34590   0.59537    0.000
 3979.00    0.39898   0.62823    0.000
 3980.00    0.45454   0.66036    0.000
 3981.00    0.44193   0.69084   -1.000
 3982.00    0.42834   0.71907   -1.000
 3983.00    0.47701   0.74506   -1.000
 3984.00    0.59556   0.76852   16.791
 3985.00    0.72177   0.78968   13.855
 3986.00    0.76719   0.80865   13.035
 3987.00    0.72873   0.82556   13.722
 3988.00    0.68503   0.84078   14.598
 3989.00    0.72661   0.85423   13.763
 3990.00    0.89831   0.86619   11.132
 3991.00    1.12256   0.87670    8.908
 3992.00    1.25741   0.88582   -1.000
 3993.00    1.22347   0.89361   -1.000
 3994.00    1.04828   0.90011    9.539
 3995.00    0.89029   0.90549   11.232
 3996.00    0.88034   0.90997   11.359
 3997.00    0.91231   0.91377   10.961
 3998.00    0.84976   0.91706   11.768
 3999.00    0.80019   0.91998   12.497
 4000.00    0.90055   0.92260   11.104
 4001.00    1.05911   0.92485    9.442
 4002.00    1.14168   0.92691    8.759
 4003.00    1.17150   0.92866    8.536
 4004.00    1.20164   0.93044    8.322
 4005.00    1.19471   0.93207    8.370
 4006.00    1.11241   0.93401    8.989
 4007.00    0.98719   0.93625   10.130
 4008.00    0.86000   0.93879   11.628
 4009.00    0.74112   0.94173   13.493
 4010.00    0.67077   0.94487   -1.000
 4011.00    0.73668   0.94851   13.574
 4012.00    0.94046   0.95209   10.633
 4013.00    1.15199   0.95591    8.681
 4014.00    1.27537   0.95951    7.841
 4015.00    1.30735   0.96291    7.649
 4016.00    1.20427   0.96594    8.304
 4017.00    0.89640   0.96850   11.156
 4018.00    0.59451   0.97046   -1.000
 4019.00    0.71449   0.97178   13.996
 4020.00    1.16119   0.97228    8.612
 4021.00    1.35031   0.97194   -1.000
 4022.00    1.12320   0.97074    8.903
 4023.00    0.83277   0.96883   12.008
 4024.00    0.71607   0.96629   13.965
 4025.00    0.77260   0.96330   12.943
 4026.00    0.93742   0.96005   10.668
 4027.00    1.10498   0.95670    9.050
 4028.00    1.08190   0.95329    9.243
 4029.00    0.74570   0.95018   13.410
 4030.00    0.37468   0.94757   -1.000
 4031.00    0.36722   0.94565   -1.000
 4032.00    0.62377   0.94486   -1.000
 4033.00    0.81669   0.94499   12.245
 4034.00    1.00000   0.94642   10.000
 4035.00    1.36164   0.94870   -1.000
 4036.00    1.73133   0.95189   -1.000
 4037.00    1.81864   0.95535   -1.000
 4038.00    1.61138   0.95885   -1.000
 4039.00    1.29071   0.96179    7.748
 4040.00    1.06132   0.96402    9.422
 4041.00    1.02967   0.96513    9.712
 4042.00    1.11000   0.96512    9.009
 4043.00    1.17099   0.96399    8.540
 4044.00    1.17940   0.96204    8.479
 4045.00    1.16361   0.95981    8.594
 4046.00    1.16847   0.95741    8.558
 4047.00    1.22578   0.95541    8.158
 4048.00    1.32726   0.95368   -1.000
 4049.00    1.37609   0.95246   -1.000
 4050.00    1.20023   0.95153    8.332
 4051.00    0.82587   0.95091   12.108
 4052.00    0.56654   0.95023   -1.000
 4053.00    0.60081   0.94949   -1.000
 4054.00    0.78817   0.94853   12.688
 4055.00    0.92098   0.94722   10.858
 4056.00    0.87842   0.94565   11.384
 4057.00    0.72796   0.94382   13.737
 4058.00    0.68656   0.94180   -1.000
 4059.00    0.81620   0.93964   12.252
 4060.00    0.97680   0.93730   10.238
 4061.00    1.07317   0.93485    9.318
 4062.00    1.10689   0.93234    9.034
 4063.00    1.06656   0.93002    9.376
 4064.00    0.93770   0.92763   10.664
 4065.00    0.82026   0.92549   12.191
 4066.00    0.85615   0.92336   11.680
 4067.00    0.98109   0.92146   10.193
 4068.00    0.99669   0.91942   10.033
 4069.00    0.85626   0.91732   11.679
 4070.00    0.66953   0.91487   -1.000
 4071.00    0.58487   0.91222   -1.000
 4072.00    0.68987   0.90900   14.496
 4073.00    0.88774   0.90544   11.265
 4074.00    1.00969   0.90131    9.904
 4075.00    1.02092   0.89698    9.795
 4076.00    1.02876   0.89258    9.720
 4077.00    1.23202   0.88851   -1.000
 4078.00    1.66188   0.88477   -1.000
 4079.00    1.91195   0.88160   -1.000
 4080.00    1.67239   0.87881   -1.000
 4081.00    1.30497   0.87641   -1.000
 4082.00    1.23616   0.87413   -1.000
 4083.00    1.33353   0.87175   -1.000
 4084.00    1.32059   0.86896   -1.000
 4085.00    1.18667   0.86545   -1.000
 4086.00    1.07102   0.86087    9.337
 4087.00    1.11942   0.85491    8.933
 4088.00    1.31232   0.84729   -1.000
 4089.00    1.39902   0.83772   -1.000
 4090.00    1.23143   0.82600   -1.000
 4091.00    0.95256   0.81186   10.498
 4092.00    0.81529   0.79528    0.000
 4093.00    1.01165   0.77597    0.000
 4094.00    1.38022   0.75432    0.000
 4095.00    1.42495   0.73035    0.000
 4096.00    1.06617   0.70487    0.000
 4097.00    0.79002   0.67834    0.000
 4098.00    0.83946   0.65201    0.000
 4099.00    1.00373   0.62675    0.000
 4100.00    1.09093   0.60416    0.000
 4101.00    1.07526   0.58536    0.000
 4102.00    0.98977   0.57149    0.000
 4103.00    0.88304   0.56323    0.000
 4104.00    0.80270   0.56112    0.000
 4105.00    0.78199   0.56507    0.000
 4106.00    0.81852   0.57481    0.000
 4107.00    0.87497   0.58951    0.000
 4108.00    0.89418   0.60826    0.000
 4109.00    0.83478   0.62992    0.000
 4110.00    0.73382   0.65339    0.000
 4111.00    0.66958   0.67758    0.000
 4112.00    0.67105   0.70164    0.000
 4113.00    0.72413   0.72477   13.810
 4114.00    0.80949   0.74650   12.354
 4115.00    0.90785   0.76637   11.015
 4116.00    0.99767   0.78421   10.023
 4117.00    1.04211   0.79990   -1.000
 4118.00    0.97991   0.81357   10.205
 4119.00    0.82760   0.82520   12.083
 4120.00    0.77882   0.83501   12.840
 4121.00    0.94398   0.84316   10.593
 4122.00    1.09937   0.84989    9.096
 4123.00    1.05052   0.85537    9.519
 4124.00    0.96281   0.85967   10.386
 4125.00    1.03026   0.86311    9.706
 4126.00    1.18932   0.86559   -1.000
 4127.00    1.27409   0.86766   -1.000
 4128.00    1.16706   0.86905    8.569
 4129.00    0.90668   0.87052   11.029
 4130.00    0.70860   0.87181   14.112
 4131.00    0.68346   0.87372   14.632
 4132.00    0.71121   0.87602   14.061
 4133.00    0.70631   0.87917   14.158
 4134.00    0.72897   0.88299   13.718
 4135.00    0.79956   0.88743   12.507
 4136.00    0.85036   0.89234   11.760
 4137.00    0.92022   0.89718   10.867
 4138.00    1.15333   0.90187    8.671
 4139.00    1.46972   0.90570   -1.000
 4140.00    1.56692   0.90885   -1.000
 4141.00    1.36252   0.91085   -1.000
 4142.00    1.05634   0.91199    9.467
 4143.00    0.84309   0.91221   11.861
 4144.00    0.79866   0.91185   12.521
 4145.00    0.82740   0.91116   12.086
 4146.00    0.77592   0.91033   12.888
 4147.00    0.73157   0.90970   13.669
 4148.00    0.88560   0.90914   11.292
 4149.00    1.09072   0.90893    9.168
 4150.00    1.05819   0.90874    9.450
 4151.00    0.91253   0.90883   10.959
 4152.00    0.96611   0.90884   10.351
 4153.00    1.15473   0.90907    8.660
 4154.00    1.22716   0.90930    8.149
 4155.00    1.18115   0.90977    8.466
 4156.00    1.14019   0.91051    8.770
 4157.00    1.09697   0.91155    9.116
 4158.00    1.01294   0.91307    9.872
 4159.00    0.97314   0.91482   10.276
 4160.00    1.03713   0.91702    9.642
 4161.00    1.07327   0.91918    9.317
 4162.00    0.98816   0.92145   10.120
 4163.00    0.94251   0.92330   10.610
 4164.00    1.05584   0.92473    9.471
 4165.00    1.15920   0.92541    8.627
 4166.00    1.09525   0.92517    9.130
 4167.00    0.95102   0.92401   10.515
 4168.00    0.87403   0.92172   11.441
 4169.00    0.92513   0.91858   10.809
 4170.00    1.06457   0.91450    9.393
 4171.00    1.17130   0.90996    8.538
 4172.00    1.17110   0.90501    8.539
 4173.00    1.09437   0.90020    9.138
 4174.00    0.99165   0.89566   10.084
 4175.00    0.89657   0.89184   11.154
 4176.00    0.86477   0.88886   11.564
 4177.00    0.96296   0.88694   10.385
 4178.00    1.15141   0.88605    8.685
 4179.00    1.28260   0.88622   -1.000
 4180.00    1.27090   0.88727   -1.000
 4181.00    1.14915   0.88908    8.702
 4182.00    1.04245   0.89142    9.593
 4183.00    1.07962   0.89414    9.263
 4184.00    1.17463   0.89701    8.513
 4185.00    1.11523   0.89996    8.967
 4186.00    0.94550   0.90283   10.576
 4187.00    0.89001   0.90558   11.236
 4188.00    0.95681   0.90813   10.451
 4189.00    0.99125   0.91042   10.088
 4190.00    0.97393   0.91237   10.268
 4191.00    0.98402   0.91389   10.162
 4192.00    1.02051   0.91484    9.799
 4193.00    1.03443   0.91520    9.667
 4194.00    1.03361   0.91475    9.675
 4195.00    1.04957   0.91368    9.528
 4196.00    1.06597   0.91180    9.381
 4197.00    1.04644   0.90955    9.556
 4198.00    0.98554   0.90684   10.147
 4199.00    0.92195   0.90429   10.847
 4200.00    0.93889   0.90187   10.651
 4201.00    1.07649   0.90013    9.289
 4202.00    1.24779   0.89910   -1.000
 4203.00    1.32518   0.89901   -1.000
 4204.00    1.23674   0.89984   -1.000
 4205.00    1.02449   0.90151    9.761
 4206.00    0.85994   0.90395   11.629
 4207.00    0.83095   0.90677   12.034
 4208.00    0.81436   0.90998   12.280
 4209.00    0.72587   0.91302   13.777
 4210.00    0.66635   0.91605   -1.000
 4211.00    0.73219   0.91850   13.658
 4212.00    0.90073   0.92068   11.102
 4213.00    1.07304   0.92217    9.319
 4214.00    1.13114   0.92329    8.841
 4215.00    1.08136   0.92383    9.248
 4216.00    1.06885   0.92397    9.356
 4217.00    1.14391   0.92370    8.742
 4218.00    1.20515   0.92286    8.298
 4219.00    1.17866   0.92169    8.484
 4220.00    1.07764   0.91970    9.280
 4221.00    0.95933   0.91739   10.424
 4222.00    0.89438   0.91415   11.181
 4223.00    0.92307   0.91076   10.833
 4224.00    1.02754   0.90677    9.732
 4225.00    1.09724   0.90296    9.114
 4226.00    1.01684   0.89928    9.834
 4227.00    0.89294   0.89628   11.199
 4228.00    0.94571   0.89409   10.574
 4229.00    1.16038   0.89278    8.618
 4230.00    1.33881   0.89253   -1.000
 4231.00    1.34952   0.89300   -1.000
 4232.00    1.17543   0.89427    8.508
 4233.00    0.90694   0.89584   11.026
 4234.00    0.68301   0.89761   14.641
 4235.00    0.60046   0.89941   -1.000
 4236.00    0.67296   0.90114   14.860
 4237.00    0.80263   0.90295   12.459
 4238.00    0.90646   0.90467   11.032
 4239.00    1.06168   0.90669    9.419
 4240.00    1.30337   0.90845   -1.000
 4241.00    1.41063   0.91044   -1.000
 4242.00    1.24382   0.91205   -1.000
 4243.00    1.05833   0.91354    9.449
 4244.00    1.06525   0.91446   -2.000
 4245.00    1.06440   0.91491   -2.000
 4246.00    0.89140   0.91468   -2.000
 4247.00    0.75131   0.91387   -2.000
 4248.00    0.84902   0.91251   -2.000
 4249.00    1.13087   0.91085   -2.000
 4250.00    1.45851   0.90898   -2.000
 4251.00    1.73240   0.90726   -2.000
 4252.00    1.89135   0.90564   -2.000
 4253.00    1.90438   0.90449   -2.000
 4254.00    1.74933   0.90368   -2.000
 4255.00    1.42614   0.90337   -2.000
 4256.00    1.06451   0.90335   -2.000
 4257.00    0.89389   0.90381   -2.000
 4258.00    0.92652   0.90451   -2.000
 4259.00    0.94235   0.90559   -2.000
 4260.00    0.90489   0.90673   11.051
 4261.00    0.97964   0.90812   10.208
 4262.00    1.09969   0.90948    9.093
 4263.00    1.00577   0.91079    9.943
 4264.00    0.76711   0.91192   13.036
 4265.00    0.71850   0.91249   13.918
 4266.00    0.91106   0.91243   10.976
 4267.00    1.12682   0.91136    8.874
 4268.00    1.24204   0.90953    8.051
 4269.00    1.26153   0.90667   -1.000
 4270.00    1.21086   0.90333    8.259
 4271.00    1.10698   0.89962    9.034
 4272.00    0.94913   0.89603   10.536
 4273.00    0.76964   0.89285   12.993
 4274.00    0.70988   0.89044   14.087
 4275.00    0.85660   0.88924   11.674
 4276.00    1.00372   0.88884    9.963
 4277.00    0.93361   0.88939   10.711
 4278.00    0.80700   0.89054   12.392
 4279.00    0.85355   0.89206   11.716
 4280.00    0.97214   0.89334   10.287
 4281.00    0.99158   0.89424   10.085
 4282.00    0.97106   0.89440   10.298
 4283.00    0.97860   0.89370   10.219
 4284.00    0.88540   0.89222   11.294
 4285.00    0.65338   0.88970   -1.000
 4286.00    0.54232   0.88670   -1.000
 4287.00    0.69793   0.88291   14.328
 4288.00    0.88366   0.87894   11.317
 4289.00    0.88314   0.87473   11.323
 4290.00    0.75829   0.87051   13.188
 4291.00    0.66342   0.86644   15.073
 4292.00    0.70348   0.86235   14.215
 4293.00    0.83997   0.85873   11.905
 4294.00    0.89931   0.85485   11.120
 4295.00    0.84157   0.85097   11.883
 4296.00    0.82253   0.84649   12.158
 4297.00    0.89286   0.84183   11.200
 4298.00    0.92772   0.83682   10.779
 4299.00    0.86917   0.83144   11.505
 4300.00    0.78567   0.82613   12.728
 4301.00    0.74445   0.82075   13.433
 4302.00    0.77124   0.81596   12.966
 4303.00    0.86801   0.81176   11.521
 4304.00    1.00212   0.80856    9.979
 4305.00    1.06405   0.80608    9.398
 4306.00    0.94430   0.80488   10.590
 4307.00    0.73956   0.80454   13.521
 4308.00    0.65439   0.80515   15.281
 4309.00    0.68602   0.80681   14.577
 4310.00    0.71270   0.80914   14.031
 4311.00    0.79100   0.81249   12.642
 4312.00    1.00794   0.81626    9.921
 4313.00    1.14282   0.82055   -1.000
 4314.00    0.97536   0.82480   10.253
 4315.00    0.82152   0.82890   12.172
 4316.00    1.05874   0.83267    9.445
 4317.00    1.39203   0.83555   -1.000
 4318.00    1.36462   0.83765   -1.000
 4319.00    1.08750   0.83808    9.195
 4320.00    0.90319   0.83710   11.072
 4321.00    0.91611   0.83417   10.916
 4322.00    1.01257   0.82985    9.876
 4323.00    0.96042   0.82374   10.412
 4324.00    0.70173   0.81648   14.250
 4325.00    0.55137   0.80799   -1.000
 4326.00    0.72636   0.79855   13.767
 4327.00    1.00803   0.78857    9.920
 4328.00    1.14185   0.77783   -1.000
 4329.00    1.12036   0.76676   -1.000
 4330.00    1.02808   0.75451    0.000
 4331.00    0.92574   0.74128    0.000
 4332.00    0.83184   0.72650    0.000
 4333.00    0.73060   0.71032    0.000
 4334.00    0.64877   0.69266    0.000
 4335.00    0.66334   0.67370    0.000
 4336.00    0.75715   0.65389    0.000
 4337.00    0.80534   0.63390    0.000
 4338.00    0.79101   0.61467    0.000
 4339.00    0.82754   0.59726    0.000
 4340.00    0.91643   0.58263    0.000
 4341.00    0.93974   0.57210    0.000
 4342.00    0.92335   0.56607    0.000
 4343.00    1.00945   0.56520    0.000
 4344.00    1.13215   0.56934    0.000
 4345.00    1.08418   0.57815    0.000
 4346.00    0.92493   0.59081    0.000
 4347.00    0.89107   0.60663    0.000
 4348.00    0.95516   0.62467    0.000
 4349.00    0.92207   0.64393    0.000
 4350.00    0.83120   0.66367    0.000
 4351.00    0.85610   0.68316   -1.000
 4352.00    0.97280   0.70205   -1.000
 4353.00    1.02679   0.72018   -1.000
 4354.00    0.94447   0.73740   -1.000
 4355.00    0.77741   0.75386   12.863
 4356.00    0.70435   0.76941   14.197
 4357.00    0.85380   0.78399   11.712
 4358.00    1.08680   0.79769   -1.000
 4359.00    1.19685   0.81042   -1.000
 4360.00    1.16847   0.82226   -1.000
 4361.00    1.07486   0.83304    9.304
 4362.00    0.94498   0.84285   10.582
 4363.00    0.82055   0.85141   12.187
 4364.00    0.80848   0.85881   12.369
 4365.00    0.95634   0.86483   10.457
 4366.00    1.16052   0.86958    8.617
 4367.00    1.30599   0.87304   -1.000
 4368.00    1.36481   0.87528   -1.000
 4369.00    1.30308   0.87667   -1.000
 4370.00    1.04755   0.87714    9.546
 4371.00    0.69823   0.87730   14.322
 4372.00    0.57783   0.87687   -1.000
 4373.00    0.78894   0.87634   12.675
 4374.00    1.05386   0.87538    9.489
 4375.00    1.12759   0.87446    8.868
 4376.00    0.99435   0.87334   10.057
 4377.00    0.81300   0.87223   12.300
 4378.00    0.80413   0.87081   12.436
 4379.00    0.93332   0.86905   10.714
 4380.00    0.92482   0.86666   10.813
 4381.00    0.72286   0.86376   13.834
 4382.00    0.53911   0.86043   -1.000
 4383.00    0.50341   0.85669   -1.000
 4384.00    0.59100   0.85318   -1.000
 4385.00    0.72779   0.84997   13.740
 4386.00    0.83704   0.84780   11.947
 4387.00    0.87759   0.84651   11.395
 4388.00    0.85221   0.84642   11.734
 4389.00    0.80404   0.84730   12.437
 4390.00    0.79212   0.84907   12.624
 4391.00    0.84543   0.85160   11.828
 4392.00    0.94022   0.85482   10.636
 4393.00    0.98154   0.85815   10.188
 4394.00    0.89355   0.86161   11.191
 4395.00    0.75613   0.86470   13.225
 4396.00    0.69343   0.86764   14.421
 4397.00    0.69721   0.87010   14.343
 4398.00    0.71572   0.87205   13.972
 4399.00    0.78590   0.87349   12.724
 4400.00    0.93480   0.87417   10.697
 4401.00    1.06437   0.87456    9.395
 4402.00    1.08405   0.87474    9.225
 4403.00    1.04385   0.87474    9.580
 4404.00    1.02390   0.87463    9.767
 4405.00    1.02986   0.87462    9.710
 4406.00    1.04050   0.87490    9.611
 4407.00    1.04927   0.87535    9.530
 4408.00    1.03814   0.87614    9.633
 4409.00    0.97122   0.87713   10.296
 4410.00    0.88832   0.87826   11.257
 4411.00    0.92677   0.87936   10.790
 4412.00    1.09696   0.88048    9.116
 4413.00    1.20594   0.88131   -1.000
 4414.00    1.13697   0.88184    8.795
 4415.00    0.96424   0.88204   10.371
 4416.00    0.80003   0.88232   12.500
 4417.00    0.72068   0.88249   13.876
 4418.00    0.76767   0.88299   13.026
 4419.00    0.93776   0.88377   10.664
 4420.00    1.14392   0.88471    8.742
 4421.00    1.24243   0.88579   -1.000
 4422.00    1.16363   0.88683    8.594
 4423.00    0.95252   0.88785   10.499
 4424.00    0.75621   0.88891   13.224
 4425.00    0.72634   0.88969   13.768
 4426.00    0.78850   0.89037   12.682
 4427.00    0.74025   0.89057   13.509
 4428.00    0.60531   0.89054   -1.000
 4429.00    0.56023   0.89021   -1.000
 4430.00    0.61895   0.88949   -1.000
 4431.00    0.69013   0.88877   14.490
 4432.00    0.79749   0.88799   12.539
 4433.00    0.99755   0.88710   10.025
 4434.00    1.18536   0.88643    8.436
 4435.00    1.20032   0.88575    8.331
 4436.00    1.02576   0.88548    9.749
 4437.00    0.77381   0.88548   12.923
 4438.00    0.61676   0.88568   -1.000
 4439.00    0.63831   0.88606   -1.000
 4440.00    0.69067   0.88622   14.479
 4441.00    0.64677   0.88633   -1.000
 4442.00    0.65357   0.88621   15.300
 4443.00    0.82899   0.88606   12.063
 4444.00    0.98695   0.88602   10.132
 4445.00    0.95756   0.88621   10.443
 4446.00    0.84676   0.88645   11.810
 4447.00    0.77937   0.88648   12.831
 4448.00    0.71463   0.88646   13.993
 4449.00    0.63102   0.88605   -1.000
 4450.00    0.63273   0.88514   -1.000
 4451.00    0.77505   0.88392   12.902
 4452.00    0.96924   0.88217   10.317
 4453.00    1.07150   0.87990    9.333
 4454.00    0.97234   0.87716   10.284
 4455.00    0.77228   0.87389   12.949
 4456.00    0.75761   0.87080   13.199
 4457.00    0.94101   0.86757   10.627
 4458.00    1.00101   0.86474    9.990
 4459.00    0.82008   0.86210   12.194
 4460.00    0.59939   0.86004   -1.000
 4461.00    0.52019   0.85837    0.000
 4462.00    0.62318   0.85720    0.000
 4463.00    0.81564   0.85697    0.000
 4464.00    0.94646   0.85686    0.000
 4465.00    0.99511   0.85741    0.000
 4466.00    1.04186   0.85816    0.000
 4467.00    1.07178   0.85920    0.000
 4468.00    1.00940   0.86058    0.000
 4469.00    0.89571   0.86203    0.000
 4470.00    0.84160   0.86413    0.000
 4471.00    0.86403   0.86618    0.000
 4472.00    0.90382   0.86881    0.000
 4473.00    0.91363   0.87140    0.000
 4474.00    0.89215   0.87405    0.000
 4475.00    0.90745   0.87633    0.000
 4476.00    1.00888   0.87816    0.000
 4477.00    1.10993   0.87968    0.000
 4478.00    1.12190   0.88038    0.000
 4479.00    1.12561   0.88062    0.000
 4480.00    1.19839   0.87999    0.000
 4481.00    1.21904   0.87912    0.000
 4482.00    1.08887   0.87820    9.184
 4483.00    0.94915   0.87795   10.536
 4484.00    0.95033   0.87773   10.523
 4485.00    1.04197   0.87811    9.597
 4486.00    1.09912   0.87849    9.098
 4487.00    1.04443   0.87910    9.575
 4488.00    0.89579   0.87963   11.163
 4489.00    0.77464   0.88021   12.909
 4490.00    0.77436   0.88097   12.914
 4491.00    0.88230   0.88184   11.334
 4492.00    1.02789   0.88293    9.729
 4493.00    1.12570   0.88416    8.883
 4494.00    1.13787   0.88528    8.788
 4495.00    1.09650   0.88678    9.120
 4496.00    1.06039   0.88857    9.431
 4497.00    1.07565   0.89070    9.297
 4498.00    1.10298   0.89342    9.066
 4499.00    1.04927   0.89617    9.530
 4500.00    0.98332   0.89927   10.170
 4501.00    1.08792   0.90209    9.192
 4502.00    1.25751   0.90530   -1.000
 4503.00    1.17375   0.90855    8.520
 4504.00    0.89333   0.91147   11.194
 4505.00    0.77614   0.91414   12.884
 4506.00    0.86438   0.91609   11.569
 4507.00    0.93007   0.91746   10.752
 4508.00    0.95237   0.91810   10.500
 4509.00    1.06286   0.91823    9.409
 4510.00    1.20834   0.91791    8.276
 4511.00    1.21697   0.91690    8.217
 4512.00    1.04727   0.91536    9.549
 4513.00    0.80375   0.91328   12.442
 4514.00    0.67747   0.91077   14.761
 4515.00    0.77782   0.90789   12.856
 4516.00    0.91965   0.90496   10.874
 4517.00    0.89240   0.90199   11.206
 4518.00    0.83100   0.89864   12.034
 4519.00    0.93097   0.89559   10.741
 4520.00    1.07903   0.89190    9.268
 4521.00    1.09626   0.88863    9.122
 4522.00    1.02248   0.88468    9.780
 4523.00    0.95419   0.88076   10.480
 4524.00    0.87854   0.87705   11.383
 4525.00    0.79646   0.87289   12.555
 4526.00    0.81693   0.86923   12.241
 4527.00    0.97987   0.86537   10.205
 4528.00    1.14308   0.86215    8.748
 4529.00    1.17533   0.85910    8.508
 4530.00    1.07979   0.85721    9.261
 4531.00    0.90561   0.85566   11.042
 4532.00    0.69816   0.85538   14.323
 4533.00    0.54727   0.85542   -1.000
 4534.00    0.57792   0.85622   -1.000
 4535.00    0.77421   0.85796   12.916
 4536.00    0.95348   0.86025   10.488
 4537.00    1.02401   0.86342    9.766
 4538.00    1.05466   0.86633    9.482
 4539.00    1.10246   0.86922    9.071
 4540.00    1.15364   0.87157    8.668
 4541.00    1.16051   0.87344    8.617
 4542.00    1.08436   0.87485    9.222
 4543.00    0.98050   0.87569   10.199
 4544.00    0.95938   0.87562   10.423
 4545.00    1.01378   0.87476    9.864
 4546.00    1.04346   0.87342    9.583
 4547.00    1.02901   0.87137    9.718
 4548.00    1.01778   0.86909    9.825
 4549.00    1.00175   0.86624    9.982
 4550.00    0.94657   0.86369    0.000
 4551.00    0.89677   0.86191    0.000
 4552.00    0.91940   0.86004    0.000
 4553.00    0.97465   0.85908    0.000
 4554.00    0.97403   0.85827    0.000
 4555.00    0.90377   0.85836    0.000
 4556.00    0.81388   0.85916    0.000
 4557.00    0.77247   0.86092    0.000
 4558.00    0.80430   0.86293    0.000
 4559.00    0.83072   0.86533    0.000
 4560.00    0.77333   0.86810    0.000
 4561.00    0.67041   0.87064    0.000
 4562.00    0.59922   0.87338    0.000
 4563.00    0.59045   0.87542    0.000
 4564.00    0.66996   0.87745    0.000
 4565.00    0.88648   0.87920    0.000
 4566.00    1.17336   0.88078    0.000
 4567.00    1.28151   0.88237    0.000
 4568.00    1.11646   0.88363    0.000
 4569.00    0.92706   0.88453    0.000
 4570.00    0.91885   0.88521    0.000
 4571.00    1.02799   0.88518    0.000
 4572.00    1.11443   0.88485    0.000
 4573.00    1.09762   0.88477    0.000
 4574.00    1.03486   0.88410    0.000
 4575.00    1.08901   0.88311    0.000
 4576.00    1.21608   0.88168    0.000
 4577.00    1.14295   0.87990    0.000
 4578.00    0.85831   0.87791    0.000
 4579.00    0.68160   0.87542    0.000
 4580.00    0.77366   0.87283    0.000
 4581.00    1.00722   0.87018    0.000
 4582.00    1.14778   0.86779    0.000
 4583.00    1.02174   0.86543    0.000
 4584.00    0.80726   0.86359    0.000
 4585.00    0.87031   0.86243    0.000
 4586.00    1.14250   0.86150    0.000
 4587.00    1.24067   0.86129    0.000
 4588.00    1.10540   0.86121    0.000
 4589.00    0.95230   0.86161    0.000
 4590.00    0.86741   0.86214    0.000
 4591.00    0.82694   0.86271    0.000
 4592.00    0.88353   0.86334    0.000
 4593.00    1.06539   0.86406    0.000
 4594.00    1.16966   0.86496    0.000
 4595.00    1.00511   0.86560    0.000
 4596.00    0.77495   0.86643    0.000
 4597.00    0.76884   0.86727    0.000
 4598.00    0.90491   0.86805    0.000
 4599.00    0.96182   0.86918    0.000
 4600.00    0.91300   0.86999    0.000
 4601.00    0.84581   0.87117    0.000
 4602.00    0.83234   0.87259    0.000
 4603.00    0.88387   0.87399    0.000
 4604.00    0.92936   0.87583    0.000
 4605.00    0.90106   0.87743    0.000
 4606.00    0.80630   0.87945    0.000
 4607.00    0.70580   0.88136    0.000
 4608.00    0.68024   0.88342    0.000
 4609.00    0.74119   0.88529    0.000
 4610.00    0.79395   0.88672    0.000
 4611.00    0.77404   0.88777    0.000
 4612.00    0.71880   0.88848    0.000
 4613.00    0.69163   0.88890    0.000
 4614.00    0.72955   0.88891    0.000
 4615.00    0.80390   0.88896    0.000
 4616.00    0.83704   0.88822    0.000
 4617.00    0.84909   0.88781    0.000
 4618.00    0.95773   0.88708    0.000
 4619.00    1.13452   0.88619    0.000
 4620.00    1.19322   0.88563    0.000
 4621.00    1.07424   0.88522    0.000
 4622.00    0.89420   0.88488    0.000
 4623.00    0.78879   0.88459    0.000
 4624.00    0.83212   0.88443    0.000
 4625.00    0.95957   0.88391    0.000
 4626.00    1.02227   0.88354    0.000
 4627.00    0.96757   0.88301    0.000
 4628.00    0.85686   0.88228    0.000
 4629.00    0.80373   0.88120    0.000
 4630.00    0.88989   0.88019    0.000
 4631.00    1.03591   0.87929    0.000
 4632.00    1.09280   0.87819    0.000
 4633.00    1.04044   0.87671    0.000
 4634.00    0.95703   0.87518    0.000
 4635.00    0.91562   0.87367    0.000
 4636.00    0.93529   0.87234    0.000
 4637.00    0.94300   0.87087    0.000
 4638.00    0.87427   0.86949    0.000
 4639.00    0.79554   0.86831    0.000
 4640.00    0.79397   0.86684    0.000
 4641.00    0.84606   0.86586    0.000
 4642.00    0.90124   0.86478    0.000
 4643.00    0.97134   0.86354    0.000
 4644.00    1.05608   0.86222    0.000
 4645.00    1.08153   0.86091    0.000
 4646.00    1.00620   0.85957    0.000
 4647.00    0.89734   0.85843    0.000
 4648.00    0.83354   0.85770    0.000
 4649.00    0.83728   0.85727    0.000
 4650.00    0.91988   0.85750    0.000
 4651.00    1.09325   0.85788    0.000
 4652.00    1.25544   0.85842    0.000
 4653.00    1.19205   0.85941    0.000
 4654.00    0.92038   0.85996    0.000
 4655.00    0.75969   0.86083    0.000
 4656.00    0.83852   0.86165    0.000
 4657.00    0.95904   0.86229    0.000
 4658.00    0.98547   0.86310    0.000
 4659.00    0.96051   0.86348    0.000
 4660.00    0.92976   0.86338    0.000
 4661.00    0.89847   0.86239    0.000
 4662.00    0.90785   0.86082    0.000
 4663.00    1.01095   0.85850    0.000
 4664.00    1.13398   0.85597    0.000
 4665.00    1.12494   0.85334    0.000
 4666.00    0.97869   0.85026    0.000
 4667.00    0.82529   0.84736    0.000
 4668.00    0.76740   0.84514    0.000
 4669.00    0.82782   0.84361    0.000
 4670.00    0.92623   0.84275    0.000
 4671.00    0.96372   0.84266    0.000
 4672.00    0.97856   0.84304    0.000
 4673.00    1.03566   0.84392    0.000
 4674.00    1.01129   0.84541    0.000
 4675.00    0.79232   0.84713    0.000
 4676.00    0.59886   0.84912    0.000
 4677.00    0.68800   0.85103    0.000
 4678.00    0.92433   0.85254    0.000
 4679.00    1.03537   0.85394    0.000
 4680.00    0.97052   0.85511    0.000
 4681.00    0.83821   0.85602    0.000
 4682.00    0.78533   0.85660    0.000
 4683.00    0.87424   0.85731    0.000
 4684.00    0.99516   0.85777    0.000
 4685.00    1.02461   0.85805    0.000
 4686.00    0.95962   0.85839    0.000
 4687.00    0.86208   0.85839    0.000
 4688.00    0.80109   0.85846    0.000
 4689.00    0.80070   0.85836    0.000
 4690.00    0.81825   0.85831    0.000
 4691.00    0.81533   0.85791    0.000
 4692.00    0.79897   0.85763    0.000
 4693.00    0.80203   0.85707    0.000
 4694.00    0.85488   0.85622    0.000
 4695.00    0.90846   0.85538    0.000
 4696.00    0.84561   0.85412    0.000
 4697.00    0.68663   0.85265    0.000
 4698.00    0.60992   0.85057    0.000
 4699.00    0.68796   0.84856    0.000
 4700.00    0.83043   0.84651    0.000
 4701.00    0.94803   0.84447    0.000
 4702.00    1.00096   0.84253    0.000
 4703.00    0.96715   0.84048    0.000
 4704.00    0.84972   0.83919    0.000
 4705.00    0.72328   0.83805    0.000
 4706.00    0.68928   0.83722    0.000
 4707.00    0.74092   0.83649    0.000
 4708.00    0.79203   0.83625    0.000
 4709.00    0.81071   0.83667    0.000
 4710.00    0.82468   0.83746    0.000
 4711.00    0.87267   0.83901    0.000
 4712.00    0.96919   0.84037    0.000
 4713.00    1.06332   0.84226    0.000
 4714.00    1.07745   0.84408    0.000
 4715.00    0.97895   0.84632    0.000
 4716.00    0.79700   0.84887    0.000
 4717.00    0.62670   0.85146    0.000
 4718.00    0.57329   0.85398    0.000
 4719.00    0.67990   0.85637    0.000
 4720.00    0.89345   0.85851    0.000
 4721.00    1.05072   0.85997    0.000
 4722.00    1.03522   0.86087    0.000
 4723.00    0.92072   0.86118    0.000
 4724.00    0.82880   0.86131    0.000
 4725.00    0.79228   0.86084    0.000
 4726.00    0.78168   0.85983    0.000
 4727.00    0.74510   0.85774    0.000
 4728.00    0.67979   0.85552    0.000
 4729.00    0.66618   0.85334    0.000
 4730.00    0.76449   0.85111    0.000
 4731.00    0.94750   0.84910    0.000
 4732.00    1.11059   0.84751    0.000
 4733.00    1.11215   0.84668    0.000
 4734.00    0.93688   0.84588    0.000
 4735.00    0.74036   0.84585    0.000
 4736.00    0.66901   0.84558    0.000
 4737.00    0.76514   0.84581    0.000
 4738.00    0.93211   0.84713    0.000
 4739.00    0.98912   0.84834    0.000
 4740.00    0.91003   0.84967    0.000
 4741.00    0.83365   0.85090    0.000
 4742.00    0.81418   0.85249    0.000
 4743.00    0.79740   0.85373    0.000
 4744.00    0.79005   0.85484    0.000
 4745.00    0.84593   0.85553    0.000
 4746.00    0.90467   0.85614    0.000
 4747.00    0.85540   0.85683    0.000
 4748.00    0.77260   0.85691    0.000
 4749.00    0.81783   0.85669    0.000
 4750.00    0.93328   0.85623    0.000
 4751.00    0.94753   0.85565    0.000
 4752.00    0.87946   0.85453    0.000
 4753.00    0.85579   0.85333    0.000
 4754.00    0.88752   0.85170    0.000
 4755.00    0.90977   0.85008    0.000
 4756.00    0.89366   0.84838    0.000
 4757.00    0.84740   0.84653    0.000
 4758.00    0.79441   0.84483    0.000
 4759.00    0.74577   0.84304    0.000
 4760.00    0.67742   0.84144    0.000
 4761.00    0.60399   0.83945   -1.000
 4762.00    0.64187   0.83750   15.580
 4763.00    0.82913   0.83592   12.061
 4764.00    0.97871   0.83447   10.218
 4765.00    0.94348   0.83342   10.599
 4766.00    0.82446   0.83278   12.129
 4767.00    0.75162   0.83283   13.305
 4768.00    0.72146   0.83323   13.861
 4769.00    0.71392   0.83399   14.007
 4770.00    0.76177   0.83522   13.127
 4771.00    0.83925   0.83622   11.915
 4772.00    0.82630   0.83774   12.102
 4773.00    0.69753   0.83957   14.336
 4774.00    0.58601   0.84158   -1.000
 4775.00    0.58481   0.84346   -1.000
 4776.00    0.66635   0.84480   15.007
 4777.00    0.76530   0.84624   13.067
 4778.00    0.82814   0.84706   12.075
 4779.00    0.85462   0.84722   11.701
 4780.00    0.88488   0.84712   11.301
 4781.00    0.90428   0.84680   11.059
 4782.00    0.85698   0.84628   11.669
 4783.00    0.78579   0.84521   12.726
 4784.00    0.79672   0.84429   12.551
 4785.00    0.84893   0.84348   11.780
 4786.00    0.80533   0.84219   12.417
 4787.00    0.69194   0.84160   14.452
 4788.00    0.66018   0.84129   15.147
 4789.00    0.76698   0.84089   13.038
 4790.00    0.94415   0.84112   10.592
 4791.00    1.04039   0.84151    9.612
 4792.00    0.95002   0.84216   10.526
 4793.00    0.80893   0.84296   12.362
 4794.00    0.81397   0.84416   12.285
 4795.00    0.90259   0.84515   11.079
 4796.00    0.91370   0.84565   10.945
 4797.00    0.87054   0.84615   11.487
 4798.00    0.87224   0.84600   11.465
 4799.00    0.91533   0.84570   10.925
 4800.00    0.93846   0.84525   10.656
 4801.00    0.89977   0.84479   11.114
 4802.00    0.81943   0.84419   12.204
 4803.00    0.79937   0.84324   12.510
 4804.00    0.88355   0.84205   11.318
 4805.00    0.95298   0.84043   10.493
 4806.00    0.91220   0.83938   10.963
 4807.00    0.82809   0.83841   12.076
 4808.00    0.79568   0.83763   12.568
 4809.00    0.83715   0.83733   11.945
 4810.00    0.92353   0.83704   10.828
 4811.00    1.00011   0.83693    9.999
 4812.00    1.02786   0.83682    9.729
 4813.00    1.00422   0.83696    9.958
 4814.00    0.94881   0.83725   10.540
 4815.00    0.88892   0.83749   11.250
 4816.00    0.83044   0.83762   12.042
 4817.00    0.75727   0.83757   13.205
 4818.00    0.68212   0.83730   14.660
 4819.00    0.65357   0.83688   15.300
 4820.00    0.70529   0.83591   14.178
 4821.00    0.82534   0.83450   12.116
 4822.00    0.92228   0.83284   10.843
 4823.00    0.88564   0.83033   11.291
 4824.00    0.78417   0.82782   12.752
 4825.00    0.79716   0.82570   12.544
 4826.00    0.89615   0.82355   11.159
 4827.00    0.90873   0.82136   11.004
 4828.00    0.84987   0.81890   11.767
 4829.00    0.85896   0.81642   11.642
 4830.00    0.91653   0.81418   10.911
 4831.00    0.91050   0.81177   10.983
 4832.00    0.86154   0.80958   11.607
 4833.00    0.86598   0.80762   11.548
 4834.00    0.93606   0.80563   10.683
 4835.00    1.01614   0.80341    9.841
 4836.00    1.04728   0.80049    9.549
 4837.00    1.00452   0.79787    9.955
 4838.00    0.92928   0.79479   10.761
 4839.00    0.87637   0.79117   11.411
 4840.00    0.84963   0.78741   11.770
 4841.00    0.83497   0.78327   11.976
 4842.00    0.84040   0.77887   11.899
 4843.00    0.87169   0.77365   11.472
 4844.00    0.90741   0.76822   11.020
 4845.00    0.91544   0.76223   10.924
 4846.00    0.87301   0.75535   11.455
 4847.00    0.79910   0.74750   12.514
 4848.00    0.76417   0.73843    0.000
 4849.00    0.79334   0.72885    0.000
 4850.00    0.81781   0.71864    0.000
 4851.00    0.78689   0.70718    0.000
 4852.00    0.72951   0.69463    0.000
 4853.00    0.70356   0.68088    0.000
 4854.00    0.75011   0.66577    0.000
 4855.00    0.81834   0.65007    0.000
 4856.00    0.78580   0.63475    0.000
 4857.00    0.69500   0.62014    0.000
 4858.00    0.75759   0.60577    0.000
 4859.00    0.97797   0.59212    0.000
 4860.00    1.12034   0.57970    0.000
 4861.00    1.09891   0.56879    0.000
 4862.00    1.02972   0.56143    0.000
 4863.00    0.96872   0.55775    0.000
 4864.00    0.87534   0.55656    0.000
 4865.00    0.73909   0.55851    0.000
 4866.00    0.60258   0.56289    0.000
 4867.00    0.52897   0.56957    0.000
 4868.00    0.56384   0.57818    0.000
 4869.00    0.67356   0.58908    0.000
 4870.00    0.77773   0.60176    0.000
 4871.00    0.83726   0.61401    0.000
 4872.00    0.85587   0.62737    0.000
 4873.00    0.85155   0.64102    0.000
 4874.00    0.83722   0.65399    0.000
 4875.00    0.80102   0.66652   12.484
 4876.00    0.74358   0.67821   13.448
 4877.00    0.72748   0.68945   13.746
 4878.00    0.78766   0.69913   12.696
 4879.00    0.82369   0.70872   12.141
 4880.00    0.74528   0.71776   13.418
 4881.00    0.63485   0.72500   15.752
 4882.00    0.59777   0.73159   16.729
 4883.00    0.60612   0.73707   16.498
 4884.00    0.59885   0.74164   16.699
 4885.00    0.58011   0.74570   17.238
 4886.00    0.58155   0.74940   17.195
 4887.00    0.62181   0.75329   16.082
 4888.00    0.67884   0.75642   14.731
 4889.00    0.68845   0.75957   14.525
 4890.00    0.65152   0.76287   15.349
 4891.00    0.67346   0.76551   14.849
 4892.00    0.79058   0.76954   12.649
 4893.00    0.89865   0.77389   11.128
 4894.00    0.91111   0.77852   10.976
 4895.00    0.83328   0.78325   12.001
 4896.00    0.71357   0.78729   14.014
 4897.00    0.61301   0.79126   16.313
 4898.00    0.58064   0.79455   -1.000
 4899.00    0.63403   0.79798   15.772
 4900.00    0.72690   0.80102   13.757
 4901.00    0.77544   0.80369   12.896
 4902.00    0.77783   0.80560   12.856
 4903.00    0.79793   0.80636   12.532
 4904.00    0.80815   0.80685   12.374
 4905.00    0.72603   0.80725   13.774
 4906.00    0.62201   0.80747   16.077
 4907.00    0.65213   0.80686   15.334
 4908.00    0.78475   0.80639   12.743
 4909.00    0.85634   0.80548   11.678
 4910.00    0.81509   0.80362   12.269
 4911.00    0.72046   0.80200   13.880
 4912.00    0.64751   0.80056   15.444
 4913.00    0.64817   0.79890   15.428
 4914.00    0.71890   0.79654   13.910
 4915.00    0.81380   0.79428   12.288
 4916.00    0.87374   0.79168   11.445
 4917.00    0.85925   0.78859   11.638
 4918.00    0.78611   0.78539   12.721
 4919.00    0.69976   0.78265   14.291
 4920.00    0.63862   0.78034   15.659
 4921.00    0.61787   0.77846   16.185
 4922.00    0.61939   0.77805   16.145
 4923.00    0.61950   0.77751   16.142
 4924.00    0.61582   0.77739   16.239
 4925.00    0.62421   0.77803   16.020
 4926.00    0.66969   0.77976   14.932
 4927.00    0.75114   0.78204   13.313
 4928.00    0.82280   0.78471   12.154
 4929.00    0.85050   0.78823   11.758
 4930.00    0.84539   0.79079   11.829
 4931.00    0.82906   0.79274   12.062
 4932.00    0.81152   0.79463   12.323
 4933.00    0.79540   0.79595   12.572
 4934.00    0.78108   0.79675   12.803
 4935.00    0.77699   0.79784   12.870
 4936.00    0.79776   0.79875   12.535
 4937.00    0.83481   0.79887   11.979
 4938.00    0.85705   0.79855   11.668
 4939.00    0.86179   0.79865   11.604
 4940.00    0.87532   0.79941    0.000
 4941.00    0.88746   0.80062    0.000
 4942.00    0.85619   0.80255    0.000
 4943.00    0.79041   0.80451    0.000
 4944.00    0.74885   0.80616    0.000
 4945.00    0.76653   0.80735    0.000
 4946.00    0.83032   0.80881    0.000
 4947.00    0.87212   0.81100    0.000
 4948.00    0.81881   0.81284    0.000
 4949.00    0.70019   0.81381    0.000
 4950.00    0.61233   0.81389    0.000
 4951.00    0.60154   0.81393    0.000
 4952.00    0.65777   0.81298    0.000
 4953.00    0.74485   0.81179    0.000
 4954.00    0.83431   0.81116    0.000
 4955.00    0.94496   0.81003    0.000
 4956.00    1.07469   0.80861    0.000
 4957.00    1.10786   0.80576    0.000
 4958.00    0.96092   0.80412    0.000
 4959.00    0.76459   0.80391    0.000
 4960.00    0.69222   0.80317    0.000
 4961.00    0.75112   0.80294    0.000
 4962.00    0.85543   0.80238    0.000
 4963.00    0.92530   0.80226    0.000
 4964.00    0.92928   0.80200    0.000
 4965.00    0.90379   0.80169    0.000
 4966.00    0.86375   0.80286    0.000
 4967.00    0.75177   0.80359    0.000
 4968.00    0.60316   0.80362    0.000
 4969.00    0.61742   0.80380    0.000
 4970.00    0.83031   0.80364    0.000
 4971.00    0.97149   0.80375    0.000
 4972.00    0.88678   0.80356    0.000
 4973.00    0.73096   0.80285    0.000
 4974.00    0.67011   0.80246    0.000
 4975.00    0.72674   0.80116    0.000
 4976.00    0.80846   0.79949    0.000
 4977.00    0.77371   0.79739    0.000
 4978.00    0.62660   0.79461    0.000
 4979.00    0.52845   0.79216    0.000
 4980.00    0.55168   0.78942    0.000
 4981.00    0.63488   0.78644    0.000
 4982.00    0.73510   0.78317    0.000
 4983.00    0.85069   0.77992    0.000
 4984.00    0.94022   0.77772    0.000
 4985.00    0.93308   0.77601    0.000
 4986.00    0.81772   0.77485    0.000
 4987.00    0.66113   0.77475    0.000
 4988.00    0.59649   0.77457    0.000
 4989.00    0.71964   0.77451    0.000
 4990.00    0.89399   0.77512    0.000
 4991.00    0.90927   0.77593    0.000
 4992.00    0.83380   0.77755    0.000
 4993.00    0.84595   0.77842    0.000
 4994.00    0.86507   0.77864    0.000
 4995.00    0.74697   0.77921    0.000
 4996.00    0.64103   0.77873    0.000
 4997.00    0.73940   0.77828    0.000
 4998.00    0.90112   0.77725    0.000
 4999.00    0.91902   0.77542    0.000
 5000.00    0.87132   0.77348    0.000
 5001.00    0.90846   0.77069    0.000
 5002.00    0.99909   0.76849    0.000
 5003.00    1.05635   0.76664    0.000
 5004.00    1.07369   0.76422    0.000
 5005.00    1.05924   0.76148    0.000
 5006.00    0.97987   0.75838    0.000
 5007.00    0.83687   0.75610    0.000
 5008.00    0.71369   0.75491    0.000
 5009.00    0.68175   0.75339    0.000
 5010.00    0.73653   0.75177    0.000
 5011.00    0.81525   0.75018    0.000
 5012.00    0.82838   0.74793    0.000
 5013.00    0.75688   0.74630    0.000
 5014.00    0.68163   0.74512    0.000
 5015.00    0.67076   0.74457    0.000
 5016.00    0.72286   0.74440    0.000
 5017.00    0.76746   0.74304    0.000
 5018.00    0.70827   0.74211    0.000
 5019.00    0.57888   0.74225    0.000
 5020.00    0.53354   0.74331    0.000
 5021.00    0.61185   0.74484    0.000
 5022.00    0.71548   0.74577    0.000
 5023.00    0.78897   0.74759    0.000
 5024.00    0.84193   0.75009    0.000
 5025.00    0.85458   0.75228    0.000
 5026.00    0.79408   0.75513    0.000
 5027.00    0.71519   0.75738    0.000
 5028.00    0.70568   0.75970    0.000
 5029.00    0.71894   0.76219   13.909
 5030.00    0.64879   0.76353   15.413
 5031.00    0.54028   0.76504   -1.000
 5032.00    0.51274   0.76621   -1.000
 5033.00    0.55982   0.76678   -1.000
 5034.00    0.60921   0.76666   16.415
 5035.00    0.66540   0.76527   15.029
 5036.00    0.75792   0.76385   13.194
 5037.00    0.84366   0.76333   11.853
 5038.00    0.86843   0.76234   11.515
 5039.00    0.85545   0.76084   11.690
 5040.00    0.85229   0.75905   11.733
 5041.00    0.86163   0.75702   11.606
 5042.00    0.85887   0.75658   11.643
 5043.00    0.82058   0.75669   12.187
 5044.00    0.75912   0.75685   13.173
 5045.00    0.74092   0.75770   13.497
 5046.00    0.79821   0.75804   12.528
 5047.00    0.86800   0.75877   11.521
 5048.00    0.87411   0.75970   11.440
 5049.00    0.79411   0.76111   12.593
 5050.00    0.68619   0.76331   14.573
 5051.00    0.67631   0.76454   14.786
 5052.00    0.80082   0.76574   12.487
 5053.00    0.94536   0.76731   10.578
 5054.00    0.99993   0.76889   10.001
 5055.00    0.93893   0.77059   10.650
 5056.00    0.80738   0.77181   12.386
 5057.00    0.69645   0.77314   14.359
 5058.00    0.67789   0.77494   14.752
 5059.00    0.76592   0.77564   13.056
 5060.00    0.88079   0.77626   11.353
 5061.00    0.89416   0.77695   11.184
 5062.00    0.81202   0.77700   12.315
 5063.00    0.76275   0.77692   13.111
 5064.00    0.79163   0.77554   12.632
 5065.00    0.84192   0.77431   11.878
 5066.00    0.86377   0.77340   11.577
 5067.00    0.84273   0.77143   11.866
 5068.00    0.79710   0.76957   12.545
 5069.00    0.76275   0.76730   13.110
 5070.00    0.76317   0.76533   13.103
 5071.00    0.79285   0.76339   12.613
 5072.00    0.80126   0.76076   12.480
 5073.00    0.74492   0.75911   13.424
 5074.00    0.67312   0.75702   14.856
 5075.00    0.66550   0.75480   15.026
 5076.00    0.72270   0.75314   13.837
 5077.00    0.79490   0.75156   12.580
 5078.00    0.84036   0.75042   11.900
 5079.00    0.82897   0.74836   12.063
 5080.00    0.74104   0.74695   13.495
 5081.00    0.60760   0.74667   16.458
 5082.00    0.53999   0.74663   -1.000
 5083.00    0.59596   0.74673   16.780
 5084.00    0.66897   0.74683   14.948
 5085.00    0.65771   0.74775   15.204
 5086.00    0.60377   0.74900   16.563
 5087.00    0.57729   0.75033   17.322
 5088.00    0.58805   0.75200   17.005
 5089.00    0.63023   0.75383   15.867
 5090.00    0.70983   0.75537   14.088
 5091.00    0.80094   0.75643   12.485
 5092.00    0.83465   0.75736   11.981
 5093.00    0.78882   0.75814   12.677
 5094.00    0.72287   0.75833   13.834
 5095.00    0.70529   0.75815   14.179
 5096.00    0.76666   0.75761   13.044
 5097.00    0.85828   0.75667   11.651
 5098.00    0.87471   0.75547   11.432
 5099.00    0.80371   0.75380   12.442
 5100.00    0.73874   0.75264   13.537
 5101.00    0.72218   0.75185   13.847
 5102.00    0.72250   0.75071   13.841
 5103.00    0.73333   0.74973   13.636
 5104.00    0.77977   0.74880   12.824
 5105.00    0.85066   0.74827   11.756
 5106.00    0.89565   0.74852   11.165
 5107.00    0.86452   0.74856   11.567
 5108.00    0.74539   0.74883   13.416
 5109.00    0.62112   0.74952   16.100
 5110.00    0.59450   0.74967   16.821
 5111.00    0.62562   0.75073   15.984
 5112.00    0.61606   0.75189   16.232
 5113.00    0.60362   0.75263   16.567
 5114.00    0.67580   0.75375   14.797
 5115.00    0.78879   0.75397   12.678
 5116.00    0.84301   0.75447   11.862
 5117.00    0.82423   0.75512   12.133
 5118.00    0.77987   0.75470   12.823
 5119.00    0.76290   0.75421   13.108
 5120.00    0.79538   0.75308   12.573
 5121.00    0.84010   0.75159   11.903
 5122.00    0.85372   0.75021   11.714
 5123.00    0.83922   0.74780   11.916
 5124.00    0.81157   0.74543   12.322
 5125.00    0.76675   0.74341   13.042
 5126.00    0.71688   0.74128   13.949
 5127.00    0.71017   0.73942   14.081
 5128.00    0.75534   0.73726   13.239
 5129.00    0.78273   0.73542   12.776
 5130.00    0.75393   0.73472   13.264
 5131.00    0.71640   0.73408   13.959
 5132.00    0.69753   0.73330   14.336
 5133.00    0.66015   0.73272   15.148
 5134.00    0.59814   0.73192   16.719
 5135.00    0.56901   0.73247   17.574
 5136.00    0.60965   0.73266   16.403
 5137.00    0.69769   0.73159   14.333
 5138.00    0.75887   0.73128   13.177
 5139.00    0.70874   0.73038   14.109
 5140.00    0.58562   0.73042   17.076
 5141.00    0.53217   0.73032   -1.000
 5142.00    0.58198   0.72849   17.183
 5143.00    0.64524   0.72778   15.498
 5144.00    0.67123   0.72725   14.898
 5145.00    0.66916   0.72679   14.944
 5146.00    0.63745   0.72651   15.688
 5147.00    0.57029   0.72541   17.535
 5148.00    0.51411   0.72499   -1.000
 5149.00    0.53193   0.72520   -1.000
 5150.00    0.60618   0.72531   16.497
 5151.00    0.67595   0.72551   14.794
 5152.00    0.73936   0.72571   13.525
 5153.00    0.81476   0.72596   12.274
 5154.00    0.85061   0.72632   11.756
 5155.00    0.79602   0.72697   12.562
 5156.00    0.71913   0.72725   13.906
 5157.00    0.71501   0.72701   13.986
 5158.00    0.76735   0.72668   13.032
 5159.00    0.80831   0.72565   12.371
 5160.00    0.80858   0.72448   12.367
 5161.00    0.76560   0.72227   13.062
 5162.00    0.68239   0.71839   14.654
 5163.00    0.58606   0.71486   17.063
 5164.00    0.53899   0.71119   -1.000
 5165.00    0.56344   0.70723   17.748
 5166.00    0.59064   0.70220   16.931
 5167.00    0.56972   0.69542   17.553
 5168.00    0.54332   0.69038   18.405
 5169.00    0.57347   0.68753   17.438
 5170.00    0.67925   0.68541   14.722
 5171.00    0.78984   0.68267   12.661
 5172.00    0.76210   0.67896   13.122
 5173.00    0.61745   0.67757   16.196
 5174.00    0.59195   0.67930   16.893
 5175.00    0.75388   0.68197   13.265
 5176.00    0.89372   0.68367   11.189
 5177.00    0.86713   0.68438   11.532
 5178.00    0.72048   0.68533   13.880
 5179.00    0.57967   0.68819   17.251
 5180.00    0.56341   0.69183   17.749
 5181.00    0.64949   0.69384   15.397
 5182.00    0.70423   0.69467   14.200
 5183.00    0.70836   0.69408   14.117
 5184.00    0.75126   0.69471   13.311
 5185.00    0.82543   0.69721   12.115
 5186.00    0.83950   0.69802   11.912
 5187.00    0.78716   0.69811   12.704
 5188.00    0.73963   0.69762   13.520
 5189.00    0.73758   0.69813   13.558
 5190.00    0.76807   0.70071    0.000
 5191.00    0.76968   0.70177    0.000
 5192.00    0.69234   0.70210    0.000
 5193.00    0.59398   0.70316    0.000
 5194.00    0.56702   0.70465    0.000
 5195.00    0.60260   0.70649    0.000
 5196.00    0.64139   0.70751    0.000
 5197.00    0.67099   0.70772    0.000
 5198.00    0.70086   0.70871    0.000
 5199.00    0.71651   0.70995    0.000
 5200.00    0.70208   0.70997    0.000
 5201.00    0.67014   0.71007    0.000
 5202.00    0.64702   0.70992    0.000
 5203.00    0.65381   0.70957    0.000
 5204.00    0.69474   0.70962    0.000
 5205.00    0.74935   0.70848    0.000
 5206.00    0.78132   0.70796    0.000
 5207.00    0.75297   0.70834    0.000
 5208.00    0.67495   0.70796    0.000
 5209.00    0.62561   0.70832    0.000
 5210.00    0.64642   0.70837    0.000
 5211.00    0.68922   0.70895   14.509
 5212.00    0.70861   0.71113   14.112
 5213.00    0.71186   0.71255   14.048
 5214.00    0.72963   0.71433   13.706
 5215.00    0.78760   0.71579   12.697
 5216.00    0.85466   0.71702   11.701
 5217.00    0.85140   0.71921   11.745
 5218.00    0.77792   0.72090   12.855
 5219.00    0.72365   0.72211   13.819
 5220.00    0.71261   0.72236   14.033
 5221.00    0.68717   0.72185   14.552
 5222.00    0.64132   0.72137   15.593
 5223.00    0.62888   0.72130   15.901
 5224.00    0.66008   0.72067   15.150
 5225.00    0.69560   0.71901   14.376
 5226.00    0.71036   0.71717   14.077
 5227.00    0.70538   0.71482   14.177
 5228.00    0.69539   0.71431   14.380
 5229.00    0.69304   0.71415   14.429
 5230.00    0.68442   0.71307   14.611
 5231.00    0.65699   0.71310   15.221
 5232.00    0.65690   0.71234   15.223
 5233.00    0.73937   0.71332   13.525
 5234.00    0.87243   0.71568   11.462
 5235.00    0.96723   0.71687   10.339
 5236.00    0.94863   0.71944   10.541
 5237.00    0.81366   0.72106   12.290
 5238.00    0.68423   0.72284   14.615
 5239.00    0.67307   0.72603   14.857
 5240.00    0.72805   0.72811   13.735
 5241.00    0.74656   0.73051   13.395
 5242.00    0.71087   0.73190   14.067
 5243.00    0.65105   0.73275   15.360
 5244.00    0.59569   0.73436   16.787
 5245.00    0.55883   0.73502   17.895
 5246.00    0.53568   0.73523   -1.000
 5247.00    0.53002   0.73462   -1.000
 5248.00    0.56898   0.73421   17.575
 5249.00    0.65978   0.73408   15.157
 5250.00    0.76454   0.73285   13.080
 5251.00    0.83227   0.73179   12.015
 5252.00    0.82847   0.73052   12.070
 5253.00    0.78289   0.72977   12.773
 5254.00    0.77989   0.72895   12.822
 5255.00    0.79190   0.72657   12.628
 5256.00    0.66996   0.72501   14.926
 5257.00    0.44980   0.72369   -1.000
 5258.00    0.38124   0.72179   -1.000
 5259.00    0.52778   0.71927   -1.000
 5260.00    0.69937   0.71513   14.299
 5261.00    0.76310   0.71164   13.104
 5262.00    0.72863   0.70884   13.724
 5263.00    0.66802   0.70496   14.970
 5264.00    0.65656   0.70015   15.231
 5265.00    0.68647   0.69484   14.567
 5266.00    0.68706   0.69087   14.555
 5267.00    0.63028   0.68855   15.866
 5268.00    0.54902   0.68599   18.214
 5269.00    0.51684   0.68243   -1.000
 5270.00    0.59244   0.67938   16.879
 5271.00    0.72549   0.67945   13.784
 5272.00    0.81256   0.68149   12.307
 5273.00    0.82407   0.68298   12.135
 5274.00    0.79479   0.68359   12.582
 5275.00    0.77242   0.68426   12.946
 5276.00    0.77433   0.68821   12.914
 5277.00    0.74503   0.69393   13.422
 5278.00    0.64325   0.69761   15.546
 5279.00    0.54865   0.70043   18.227
 5280.00    0.55758   0.70321   17.935
 5281.00    0.65740   0.70748   15.211
 5282.00    0.77611   0.71315   12.885
 5283.00    0.84812   0.71665   11.791
 5284.00    0.84262   0.71903   11.868
 5285.00    0.78018   0.72239   12.817
 5286.00    0.70292   0.72602   14.226
 5287.00    0.64874   0.72953   15.414
 5288.00    0.64795   0.73158   15.433
 5289.00    0.71440   0.73285   13.998
 5290.00    0.79729   0.73540   12.543
 5291.00    0.77990   0.73756   12.822
 5292.00    0.64925   0.73805   15.402
 5293.00    0.55097   0.73760   -1.000
 5294.00    0.56609   0.73750   17.665
 5295.00    0.62878   0.73799   15.904
 5296.00    0.68950   0.73759   14.503
 5297.00    0.76601   0.73582   13.055
 5298.00    0.83545   0.73403   11.970
 5299.00    0.82476   0.73397   12.125
 5300.00    0.73947   0.73422   13.523
 5301.00    0.67145   0.73337   14.893
 5302.00    0.66977   0.73214   14.931
 5303.00    0.71252   0.73181   14.035
 5304.00    0.75153   0.73351   13.306
 5305.00    0.74961   0.73502   13.340
 5306.00    0.73814   0.73516   13.548
 5307.00    0.77446   0.73530   12.912
 5308.00    0.81395   0.73611   12.286
 5309.00    0.76249   0.73801   13.115
 5310.00    0.64153   0.73908   15.588
 5311.00    0.54505   0.73859   -1.000
 5312.00    0.49961   0.73820   -1.000
 5313.00    0.48068   0.73782   -1.000
 5314.00    0.48146   0.73774   -1.000
 5315.00    0.51061   0.73701   -1.000
 5316.00    0.57196   0.73467   17.484
 5317.00    0.65749   0.73273   15.209
 5318.00    0.74257   0.73107   13.467
 5319.00    0.79225   0.72883   12.622
 5320.00    0.77196   0.72653   -2.000
 5321.00    0.67661   0.72356   -2.000
 5322.00    0.55674   0.72063   -2.000
 5323.00    0.48444   0.71801   -2.000
 5324.00    0.51281   0.71480   -2.000
 5325.00    0.62438   0.71240   -2.000
 5326.00    0.70648   0.71087   -2.000
 5327.00    0.67826   0.70842   -2.000
 5328.00    0.57786   0.70535   -2.000
 5329.00    0.48230   0.70369   -2.000
 5330.00    0.44458   0.70398   -2.000
 5331.00    0.47154   0.70471   -2.000
 5332.00    0.52244   0.70411   -2.000
 5333.00    0.56361   0.70292   -2.000
 5334.00    0.59381   0.70409   -2.000
 5335.00    0.62047   0.70644   16.117
 5336.00    0.64751   0.70798   15.444
 5337.00    0.67601   0.70874   14.793
 5338.00    0.70280   0.70956   14.229
 5339.00    0.71331   0.71148   14.019
 5340.00    0.69174   0.71256   14.456
 5341.00    0.66333   0.71341   15.075
 5342.00    0.67925   0.71504   14.722
 5343.00    0.72780   0.71619   13.740
 5344.00    0.74544   0.71761   13.415
 5345.00    0.72078   0.71800   13.874
 5346.00    0.69701   0.71879   14.347
 5347.00    0.70717   0.72153   14.141
 5348.00    0.75102   0.72296   13.315
 5349.00    0.78244   0.72423   12.781
 5350.00    0.75242   0.72593   13.291
 5351.00    0.69374   0.72773   14.415
 5352.00    0.67359   0.73053   14.846
 5353.00    0.68569   0.73208   14.584
 5354.00    0.68891   0.73327   14.516
 5355.00    0.69352   0.73544   14.419
 5356.00    0.72351   0.73696   13.821
 5357.00    0.74901   0.73788   13.351
 5358.00    0.72607   0.73817   13.773
 5359.00    0.65679   0.73796   15.226
 5360.00    0.58334   0.73801   17.143
 5361.00    0.56725   0.73709   17.629
 5362.00    0.62329   0.73493   16.044
 5363.00    0.66748   0.73316   14.982
 5364.00    0.62998   0.73110   15.873
 5365.00    0.55147   0.72853   18.133
 5366.00    0.50485   0.72601   -1.000
 5367.00    0.52561   0.72303   -1.000
 5368.00    0.61052   0.72106   16.379
 5369.00    0.72226   0.71941   13.845
 5370.00    0.80413   0.71706   12.436
 5371.00    0.80107   0.71553   12.483
 5372.00    0.72487   0.71498   13.796
 5373.00    0.66822   0.71547   14.965
 5374.00    0.68608   0.71591   14.576
 5375.00    0.74863   0.71582   13.358
 5376.00    0.81148   0.71637   12.323
 5377.00    0.84946   0.71761   11.772
 5378.00    0.85587   0.71935   11.684
 5379.00    0.83851   0.72068   11.926
 5380.00    0.80846   0.72129   12.369
 5381.00    0.77592   0.72206   12.888
 5382.00    0.75041   0.72280   13.326
 5383.00    0.73888   0.72293   13.534
 5384.00    0.74030   0.72304   13.508
 5385.00    0.74755   0.72291   13.377
 5386.00    0.75611   0.72211   13.226
 5387.00    0.76542   0.72132   13.065
 5388.00    0.77668   0.71984   12.875
 5389.00    0.79063   0.71814   12.648
 5390.00    0.80407   0.71698   12.437
 5391.00    0.80265   0.71492   12.459
 5392.00    0.75094   0.71259   13.317
 5393.00    0.63345   0.71058   15.787
 5394.00    0.52019   0.70829   -1.000
 5395.00    0.50311   0.70647   -1.000
 5396.00    0.58907   0.70394   16.976
 5397.00    0.71945   0.70079   13.899
 5398.00    0.81913   0.69925   12.208
 5399.00    0.83660   0.69789   11.953
 5400.00    0.78193   0.69572   12.789
 5401.00    0.70524   0.69352   14.180
 5402.00    0.66543   0.69169   15.028
 5403.00    0.68730   0.69098   14.550
 5404.00    0.73012   0.69007   13.696
 5405.00    0.74443   0.68831   13.433
 5406.00    0.72066   0.68758   13.876
 5407.00    0.67368   0.68823   14.844
 5408.00    0.62765   0.68898   15.933
 5409.00    0.61156   0.68884   16.352
 5410.00    0.65132   0.68869   15.353
 5411.00    0.73691   0.69033   13.570
 5412.00    0.81372   0.69289   12.289
 5413.00    0.84351   0.69488   11.855
 5414.00    0.83161   0.69616   12.025
 5415.00    0.79468   0.69737   12.584
 5416.00    0.74654   0.69990   13.395
 5417.00    0.70851   0.70270   14.114
 5418.00    0.70782   0.70403   14.128
 5419.00    0.75382   0.70505   13.266
 5420.00    0.82809   0.70603   12.076
 5421.00    0.88342   0.70681   11.320
 5422.00    0.86908   0.70823   11.506
 5423.00    0.80551   0.70821   12.415
 5424.00    0.76742   0.70678   13.031
 5425.00    0.77677   0.70679   12.874
 5426.00    0.80091   0.70661   12.486
 5427.00    0.82046   0.70629   12.188
 5428.00    0.83469   0.70571   11.981
 5429.00    0.83663   0.70294   11.953
 5430.00    0.81948   0.70249   -2.000
 5431.00    0.79822   0.70361   -2.000
 5432.00    0.78105   0.70276   -2.000
 5433.00    0.71666   0.70237   -2.000
 5434.00    0.56316   0.70169   -2.000
 5435.00    0.40331   0.70209   -2.000
 5436.00    0.36419   0.70401   -2.000
 5437.00    0.47939   0.70420   -2.000
 5438.00    0.65274   0.70478   -2.000
 5439.00    0.65188   0.70615   -2.000
 5440.00    0.30087   0.70734   -2.000
 5441.00   -0.31205   0.70833   -2.000
 5442.00   -0.91421   0.70865   -2.000
 5443.00   -1.17291   0.70946   -2.000
 5444.00   -0.91312   0.71015   -2.000
 5445.00   -0.28425   0.71036   -2.000
 5446.00    0.39380   0.70973   -2.000
 5447.00    0.79741   0.70868   -2.000
 5448.00    0.83797   0.70923   -2.000
 5449.00    0.76563   0.70912   -2.000
 5450.00    0.77767   0.70798   -2.000
 5451.00    0.80292   0.70728   -2.000
 5452.00    0.75403   0.70624   -2.000
 5453.00    0.66322   0.70637   15.078
 5454.00    0.58903   0.70621   16.977
 5455.00    0.56331   0.70432   17.752
 5456.00    0.58739   0.70434   17.024
 5457.00    0.63833   0.70494   15.666
 5458.00    0.69666   0.70450   14.354
 5459.00    0.75288   0.70440   13.282
 5460.00    0.78915   0.70337   12.672
 5461.00    0.78202   0.70347   12.787
 5462.00    0.73317   0.70414   13.639
 5463.00    0.67113   0.70294   14.900
 5464.00    0.62702   0.70305   15.949
 5465.00    0.62111   0.70330   16.100
 5466.00    0.64809   0.70254   15.430
 5467.00    0.68451   0.70232   14.609
 5468.00    0.71433   0.70104   13.999
 5469.00    0.72989   0.70038   13.701
 5470.00    0.72210   0.70012   13.849
 5471.00    0.68833   0.69863   14.528
 5472.00    0.64983   0.69780   15.389
 5473.00    0.63733   0.69623   15.691
 5474.00    0.66227   0.69487   15.100
 5475.00    0.71423   0.69440   14.001
 5476.00    0.76574   0.69225   13.059
 5477.00    0.80005   0.69100   12.499
 5478.00    0.84281   0.69085   11.865
 5479.00    0.91004   0.69035   10.989
 5480.00    0.94931   0.69037   10.534
 5481.00    0.92142   0.68938   10.853
 5482.00    0.88320   0.68924   11.322
 5483.00    0.88296   0.69079   11.325
 5484.00    0.86681   0.69137   11.537
 5485.00    0.79606   0.69204   12.562
 5486.00    0.73923   0.69298   13.528
 5487.00    0.75724   0.69366   13.206
 5488.00    0.81986   0.69497   12.197
 5489.00    0.87239   0.69577   11.463
 5490.00    0.88570   0.69620   11.291
 5491.00    0.85890   0.69750   11.643
 5492.00    0.81433   0.69810   12.280
 5493.00    0.77065   0.69793   12.976
 5494.00    0.73201   0.69815   13.661
 5495.00    0.70665   0.69830   14.151
 5496.00    0.71049   0.69840   14.075
 5497.00    0.74250   0.69786   13.468
 5498.00    0.77826   0.69693   12.849
 5499.00    0.78696   0.69713   12.707
 5500.00    0.74881   0.69676   13.354
 5501.00    0.68920   0.69522   14.510
 5502.00    0.66565   0.69421   15.023
 5503.00    0.69371   0.69353   14.415
 5504.00    0.74228   0.69321   13.472
 5505.00    0.78423   0.69249   12.751
 5506.00    0.80916   0.69061   12.359
 5507.00    0.81911   0.69018   12.208
 5508.00    0.82621   0.69056   12.103
 5509.00    0.84916   0.68960   11.776
 5510.00    0.89111   0.68929   11.222
 5511.00    0.90152   0.68925   11.092
 5512.00    0.83156   0.68918   12.026
 5513.00    0.73803   0.69013   13.550
 5514.00    0.71248   0.69020   14.035
 5515.00    0.74705   0.69068   13.386
 5516.00    0.77762   0.69205   12.860
 5517.00    0.77269   0.69240   12.942
 5518.00    0.74378   0.69343   13.445
 5519.00    0.73871   0.69434   13.537
 5520.00    0.78624   0.69437   12.719
 5521.00    0.84131   0.69520   11.886
 5522.00    0.85027   0.69560   11.761
 5523.00    0.81755   0.69563   12.232
 5524.00    0.76352   0.69575   13.097
 5525.00    0.68572   0.69500   14.583
 5526.00    0.59679   0.69468   16.756
 5527.00    0.54873   0.69423   18.224
 5528.00    0.56699   0.69298   17.637
 5529.00    0.61242   0.69259   16.329
 5530.00    0.65240   0.69239   15.328
 5531.00    0.69921   0.69185   14.302
 5532.00    0.75651   0.69142   13.219
 5533.00    0.79509   0.69114   12.577
 5534.00    0.79436   0.69118   12.589
 5535.00    0.76116   0.69109   13.138
 5536.00    0.71363   0.69157   14.013
 5537.00    0.67081   0.69235   14.907
 5538.00    0.64304   0.69281   15.551
 5539.00    0.62843   0.69369   15.913
 5540.00    0.61454   0.69431   16.272
 5541.00    0.58855   0.69519   16.991
 5542.00    0.56675   0.69622   17.645
 5543.00    0.58886   0.69629   16.982
 5544.00    0.67410   0.69732   14.835
 5545.00    0.80443   0.69855   12.431
 5546.00    0.91719   0.69858   10.903
 5547.00    0.93854   0.69923   10.655
 5548.00    0.86231   0.70000   11.597
 5549.00    0.74575   0.70025   13.409
 5550.00    0.66128   0.70064   15.122
 5551.00    0.65965   0.70056   15.160
 5552.00    0.72351   0.70052   13.822
 5553.00    0.79611   0.70084   12.561
 5554.00    0.84210   0.70017   11.875
 5555.00    0.85256   0.69955   11.729
 5556.00    0.83694   0.69963   11.948
 5557.00    0.81043   0.69873   12.339
 5558.00    0.77934   0.69760   12.831
 5559.00    0.74639   0.69688   13.398
 5560.00    0.71876   0.69572   13.913
 5561.00    0.70580   0.69469   14.168
 5562.00    0.71495   0.69333   13.987
 5563.00    0.74581   0.69192   13.408
 5564.00    0.78485   0.69113   12.741
 5565.00    0.80506   0.68984   12.421
 5566.00    0.77262   0.68848   12.943
 5567.00    0.69789   0.68761   14.329
 5568.00    0.65924   0.68691   15.169
 5569.00    0.69977   0.68595   14.290
 5570.00    0.76931   0.68496   12.999
 5571.00    0.80967   0.68516   12.351
 5572.00    0.80533   0.68474   12.417
 5573.00    0.76184   0.68377   13.126
 5574.00    0.69221   0.68433   14.446
 5575.00    0.61572   0.68429   16.241
 5576.00    0.55531   0.68393   18.008
 5577.00    0.52794   0.68423   18.941
 5578.00    0.53989   0.68344   18.522
 5579.00    0.58484   0.68342   17.099
 5580.00    0.64402   0.68346   15.527
 5581.00    0.68905   0.68179   14.513
 5582.00    0.69392   0.68127   14.411
 5583.00    0.66715   0.68066   14.989
 5584.00    0.64245   0.67873   15.565
 5585.00    0.62719   0.67778   15.944
 5586.00    0.60884   0.67593   16.425
 5587.00    0.60421   0.67378   16.550
 5588.00    0.64557   0.67314   15.490
 5589.00    0.72483   0.67144   13.796
 5590.00    0.80172   0.66995   12.473
 5591.00    0.84357   0.66944   11.854
 5592.00    0.83839   0.66844   11.928
 5593.00    0.80250   0.66829   12.461
 5594.00    0.76240   0.66768   13.117
 5595.00    0.72552   0.66712   13.783
 5596.00    0.69018   0.66870   14.489
 5597.00    0.66448   0.66925   15.049
 5598.00    0.64977   0.66921   15.390
 5599.00    0.61984   0.67069   16.133
 5600.00    0.55899   0.67189   17.889
 5601.00    0.50324   0.67314   -1.000
 5602.00    0.49781   0.67425   -1.000
 5603.00    0.55108   0.67511   18.146
 5604.00    0.64061   0.67755   15.610
 5605.00    0.72637   0.67941   13.767
 5606.00    0.78339   0.67998   12.765
 5607.00    0.82109   0.68127   12.179
 5608.00    0.83814   0.68274   11.931
 5609.00    0.79937   0.68374   12.510
 5610.00    0.70484   0.68429   14.188
 5611.00    0.62031   0.68463   16.121
 5612.00    0.58896   0.68490   16.979
 5613.00    0.59135   0.68521   16.910
 5614.00    0.60892   0.68492   16.422
 5615.00    0.64847   0.68326   15.421
 5616.00    0.69838   0.68241   14.319
 5617.00    0.72104   0.68234   13.869
 5618.00    0.70602   0.68119   14.164
 5619.00    0.68282   0.68009   14.645
 5620.00    0.68603   0.67917   14.577
 5621.00    0.73176   0.67851   13.666
 5622.00    0.78649   0.67838   12.715
 5623.00    0.79321   0.67737   12.607
 5624.00    0.77252   0.67643   12.945
 5625.00    0.80014   0.67698   12.498
 5626.00    0.87488   0.67769   11.430
 5627.00    0.92673   0.67756   10.791
 5628.00    0.91462   0.67767   10.934
 5629.00    0.84429   0.67836   11.844
 5630.00    0.75600   0.67891   13.228
 5631.00    0.69839   0.67936   14.319
 5632.00    0.68647   0.67932   14.567
 5633.00    0.70474   0.67924   14.190
 5634.00    0.72602   0.67989   13.774
 5635.00    0.72828   0.67999   13.731
 5636.00    0.71378   0.67964   14.010
 5637.00    0.69712   0.67954   14.345
 5638.00    0.68578   0.67915   14.582
 5639.00    0.68005   0.67905   14.705
 5640.00    0.67642   0.67881   14.784
 5641.00    0.67647   0.67788   14.783
 5642.00    0.69316   0.67771   14.427
 5643.00    0.72496   0.67769   13.794
 5644.00    0.73591   0.67719   13.589
 5645.00    0.70297   0.67713   14.225
 5646.00    0.65203   0.67674   15.337
 5647.00    0.61334   0.67652   16.304
 5648.00    0.58960   0.67684   16.961
 5649.00    0.58504   0.67604   17.093
 5650.00    0.61982   0.67541   16.134
 5651.00    0.68709   0.67537   14.554
 5652.00    0.73686   0.67453   13.571
 5653.00    0.73444   0.67408   13.616
 5654.00    0.68972   0.67315   14.499
 5655.00    0.64004   0.67133   15.624
 5656.00    0.62957   0.67112   15.884
 5657.00    0.66141   0.67050   15.119
 5658.00    0.69136   0.66818   14.464
 5659.00    0.68371   0.66735   14.626
 5660.00    0.63293   0.66746   15.799
 5661.00    0.56110   0.66689   17.822
 5662.00    0.50675   0.66606   19.733
 5663.00    0.49527   0.66551   -1.000
 5664.00    0.52960   0.66628   18.882
 5665.00    0.59084   0.66727   16.925
 5666.00    0.64763   0.66711   15.441
 5667.00    0.67764   0.66757   14.757
 5668.00    0.67858   0.66933   14.737
 5669.00    0.67878   0.67073   14.732
 5670.00    0.70962   0.67145   14.092
 5671.00    0.75006   0.67249   13.332
 5672.00    0.75255   0.67405   13.288
 5673.00    0.70613   0.67547   14.162
 5674.00    0.63368   0.67626   15.781
 5675.00    0.56922   0.67658   17.568
 5676.00    0.53383   0.67725   18.732
 5677.00    0.51024   0.67802   19.599
 5678.00    0.48341   0.67798   -1.000
 5679.00    0.49021   0.67742   -1.000
 5680.00    0.55637   0.67736   17.974
 5681.00    0.62660   0.67734   15.959
 5682.00    0.64142   0.67634   15.590
 5683.00    0.61615   0.67524   16.230
 5684.00    0.59263   0.67490   16.874
 5685.00    0.59012   0.67442   16.946
 5686.00    0.61278   0.67358   16.319
 5687.00    0.65693   0.67272   15.222
 5688.00    0.69780   0.67227   14.331
 5689.00    0.68844   0.67232   14.526
 5690.00    0.61650   0.67192   16.221
 5691.00    0.53077   0.67138   18.841
 5692.00    0.48106   0.67168   -1.000
 5693.00    0.48355   0.67181   -1.000
 5694.00    0.52807   0.67140   18.937
 5695.00    0.58792   0.67097   17.009
 5696.00    0.64319   0.67095   15.547
 5697.00    0.68741   0.67072   14.547
 5698.00    0.71078   0.66959   14.069
 5699.00    0.70032   0.66890   14.279
 5700.00    0.66552   0.66825   15.026
 5701.00    0.63743   0.66679   15.688
 5702.00    0.63554   0.66562   15.735
 5703.00    0.65922   0.66417   15.169
 5704.00    0.69546   0.66301   14.379
 5705.00    0.72593   0.66205   13.775
 5706.00    0.73876   0.65985   13.536
 5707.00    0.73337   0.65916   13.636
 5708.00    0.72373   0.65880   13.817
 5709.00    0.72566   0.65702   13.780
 5710.00    0.73028   0.65737   13.693
 5711.00    0.71768   0.65771   13.934
 5712.00    0.69161   0.65716   14.459
 5713.00    0.67565   0.65874   14.801
 5714.00    0.69507   0.65961   14.387
 5715.00    0.75261   0.66034   13.287
 5716.00    0.80093   0.66266   12.485
 5717.00    0.79495   0.66381   12.579
 5718.00    0.76176   0.66550   13.127
 5719.00    0.74999   0.66811   13.333
 5720.00    0.76157   0.66925   13.131
 5721.00    0.77175   0.67111   12.958
 5722.00    0.75934   0.67343   13.169
 5723.00    0.71721   0.67431   13.943
 5724.00    0.65821   0.67557   15.193
 5725.00    0.60375   0.67705   16.563
 5726.00    0.57256   0.67757   17.465
 5727.00    0.57267   0.67807   17.462
 5728.00    0.59785   0.67859   16.727
 5729.00    0.64141   0.67889   15.591
 5730.00    0.70263   0.67928   14.232
 5731.00    0.76743   0.67903   13.031
 5732.00    0.80346   0.67876   12.446
 5733.00    0.79889   0.67915   12.517
 5734.00    0.77706   0.67898   12.869
 5735.00    0.76271   0.67859   13.111
 5736.00    0.76319   0.67857   13.103
 5737.00    0.76097   0.67837   13.141
 5738.00    0.72564   0.67822   13.781
 5739.00    0.66930   0.67792   14.941
 5740.00    0.64595   0.67760   -2.000
 5741.00    0.67635   0.67761   -2.000
 5742.00    0.72930   0.67712   -2.000
 5743.00    0.74688   0.67654   -2.000
 5744.00    0.67907   0.67633   -2.000
 5745.00    0.55259   0.67576   -2.000
 5746.00    0.45061   0.67526   -2.000
 5747.00    0.41854   0.67471   -2.000
 5748.00    0.45088   0.67363   -2.000
 5749.00    0.51460   0.67311   -2.000
 5750.00    0.56096   0.67268   -2.000
 5751.00    0.53943   0.67162   -2.000
 5752.00    0.43730   0.67101   -2.000
 5753.00    0.33855   0.67046   -2.000
 5754.00    0.34451   0.66954   -2.000
 5755.00    0.43974   0.66928   -2.000
 5756.00    0.54675   0.66903   -2.000
 5757.00    0.62962   0.66847   -2.000
 5758.00    0.68427   0.66852   -2.000
 5759.00    0.70933   0.66827   -2.000
 5760.00    0.71128   0.66790    0.000
 5761.00    0.71223   0.66843    0.000
 5762.00    0.72911   0.66843    0.000
 5763.00    0.75361   0.66819    0.000
 5764.00    0.76616   0.66908    0.000
 5765.00    0.75270   0.66944    0.000
 5766.00    0.72632   0.66935    0.000
 5767.00    0.73443   0.67009    0.000
 5768.00    0.79128   0.67031    0.000
 5769.00    0.84158   0.67011    0.000
 5770.00    0.84422   0.67043    0.000
 5771.00    0.81792   0.67014    0.000
 5772.00    0.78255   0.66961    0.000
 5773.00    0.73132   0.66957    0.000
 5774.00    0.67065   0.66862    0.000
 5775.00    0.63115   0.66756    0.000
 5776.00    0.62005   0.66713    0.000
 5777.00    0.60936   0.66565    0.000
 5778.00    0.57830   0.66403    0.000
 5779.00    0.53055   0.66302    0.000
 5780.00    0.49071   0.66130    0.000
 5781.00    0.49395   0.65965    0.000
 5782.00    0.55800   0.65834    0.000
 5783.00    0.67107   0.65714    0.000
 5784.00    0.78493   0.65630    0.000
 5785.00    0.83893   0.65505    0.000
 5786.00    0.82490   0.65451    0.000
 5787.00    0.78384   0.65465    0.000
 5788.00    0.75934   0.65414    0.000
 5789.00    0.77783   0.65453    0.000
 5790.00    0.83188   0.65514    0.000
 5791.00    0.88926   0.65524    0.000
 5792.00    0.91611   0.65641    0.000
 5793.00    0.89275   0.65735    0.000
 5794.00    0.83161   0.65814    0.000
 5795.00    0.76902   0.65963    0.000
 5796.00    0.74710   0.66057    0.000
 5797.00    0.78504   0.66146    0.000
 5798.00    0.84742   0.66254    0.000
 5799.00    0.87689   0.66350    0.000
 5800.00    0.83895   0.66459    0.000
 5801.00    0.74117   0.66502    0.000
 5802.00    0.64304   0.66553    0.000
 5803.00    0.60281   0.66632    0.000
 5804.00    0.62796   0.66645    0.000
 5805.00    0.69090   0.66673    0.000
 5806.00    0.74979   0.66700    0.000
 5807.00    0.77836   0.66716    0.000
 5808.00    0.78372   0.66742    0.000
 5809.00    0.78008   0.66718    0.000
 5810.00    0.77139   0.66731    0.000
 5811.00    0.76178   0.66782    0.000
 5812.00    0.76009   0.66759    0.000
 5813.00    0.76731   0.66754    0.000
 5814.00    0.77219   0.66804    0.000
 5815.00    0.76435   0.66810    0.000
 5816.00    0.74323   0.66803    0.000
 5817.00    0.72757   0.66850    0.000
 5818.00    0.74878   0.66905    0.000
 5819.00    0.81102   0.66930    0.000
 5820.00    0.88400   0.66963    0.000
 5821.00    0.93204   0.67010    0.000
 5822.00    0.93017   0.67054    0.000
 5823.00    0.88030   0.67089    0.000
 5824.00    0.80820   0.67111    0.000
 5825.00    0.74165   0.67155    0.000
 5826.00    0.70146   0.67189    0.000
 5827.00    0.69486   0.67190    0.000
 5828.00    0.71411   0.67204    0.000
 5829.00    0.73729   0.67229    0.000
 5830.00    0.73858   0.67233    0.000
 5831.00    0.70752   0.67214    0.000
 5832.00    0.65459   0.67198    0.000
 5833.00    0.61293   0.67205    0.000
 5834.00    0.61272   0.67180    0.000
 5835.00    0.64258   0.67123    0.000
 5836.00    0.67040   0.67128    0.000
 5837.00    0.68020   0.67120    0.000
 5838.00    0.67202   0.67048    0.000
 5839.00    0.65490   0.67022    0.000
 5840.00    0.64048   0.67013    0.000
 5841.00    0.63605   0.66949    0.000
 5842.00    0.63681   0.66895    0.000
 5843.00    0.62223   0.66850    0.000
 5844.00    0.58705   0.66767    0.000
 5845.00    0.56348   0.66690    0.000
 5846.00    0.57195   0.66601    0.000
 5847.00    0.58703   0.66481    0.000
 5848.00    0.59085   0.66380    0.000
 5849.00    0.60660   0.66259    0.000
 5850.00    0.65339   0.66100    0.000
 5851.00    0.71796   0.65970    0.000
 5852.00    0.76878   0.65843    0.000
 5853.00    0.77181   0.65668    0.000
 5854.00    0.72359   0.65509    0.000
 5855.00    0.65833   0.65417    0.000
 5856.00    0.60382   0.65296    0.000
 5857.00    0.56635   0.65141    0.000
 5858.00    0.55414   0.65081    0.000
 5859.00    0.57930   0.65031    0.000
 5860.00    0.62951   0.64955    0.000
 5861.00    0.66984   0.64967    0.000
 5862.00    0.68198   0.64964    0.000
 5863.00    0.67094   0.64947    0.000
 5864.00    0.64663   0.65015    0.000
 5865.00    0.62033   0.65067    0.000
 5866.00    0.60975   0.65100    0.000
 5867.00    0.62653   0.65175    0.000
 5868.00    0.64616   0.65238    0.000
 5869.00    0.63556   0.65290    0.000
 5870.00    0.62139   0.65348    0.000
 5871.00    0.65423   0.65380    0.000
 5872.00    0.71928   0.65397    0.000
 5873.00    0.76390   0.65393    0.000
 5874.00    0.76920   0.65363    0.000
 5875.00    0.74815   0.65318    0.000
 5876.00    0.72464   0.65237    0.000
 5877.00    0.72049   0.65106    0.000
 5878.00    0.74213   0.64959    0.000
 5879.00    0.77827   0.64799    0.000
 5880.00    0.80122   0.64559    0.000
 5881.00    0.79125   0.64270    0.000
 5882.00    0.76025   0.64028    0.000
 5883.00    0.73121   0.63686    0.000
 5884.00    0.71666   0.63255    0.000
 5885.00    0.71889   0.62949    0.000
 5886.00    0.73269   0.62508    0.000
 5887.00    0.75342   0.61963    0.000
 5888.00    0.78078   0.61690    0.000
 5889.00    0.80337   0.61220    0.000
 5890.00    0.79473   0.60624    0.000
 5891.00    0.75447   0.60496    0.000
 5892.00    0.72277   0.60172    0.000
 5893.00    0.72128   0.59702    0.000
 5894.00    0.72852   0.59767    0.000
 5895.00    0.72070   0.59619    0.000
 5896.00    0.69476   0.59360    0.000
 5897.00    0.67715   0.59650    0.000
 5898.00    0.70940   0.59773    0.000
 5899.00    0.78109   0.59816    0.000
 5900.00    0.82860   0.60227    0.000
 5901.00    0.81933   0.60496   12.205
 5902.00    0.77093   0.60776   12.971
 5903.00    0.71820   0.61231   13.924
 5904.00    0.69255   0.61527   14.439
 5905.00    0.69628   0.61902   14.362
 5906.00    0.70765   0.62337   14.131
 5907.00    0.71018   0.62590   14.081
 5908.00    0.69839   0.62916   14.319
 5909.00    0.67420   0.63245   14.832
 5910.00    0.64600   0.63387   15.480
 5911.00    0.62823   0.63595   15.918
 5912.00    0.63281   0.63843   15.803
 5913.00    0.65502   0.63907   15.267
 5914.00    0.68055   0.63990   14.694
 5915.00    0.69989   0.64137   14.288
 5916.00    0.70797   0.64153   14.125
 5917.00    0.70120   0.64199   14.261
 5918.00    0.68935   0.64283   14.506
 5919.00    0.70746   0.64263   14.135
 5920.00    0.77582   0.64308   12.890
 5921.00    0.85777   0.64356   11.658
 5922.00    0.90333   0.64327   -1.000
 5923.00    0.89639   0.64378   11.156
 5924.00    0.84692   0.64396   11.808
 5925.00    0.77884   0.64376   12.840
 5926.00    0.71976   0.64425   13.894
 5927.00    0.69106   0.64409   14.471
 5928.00    0.68981   0.64399   14.497
 5929.00    0.68252   0.64433   14.652
 5930.00    0.64611   0.64399   15.477
 5931.00    0.59134   0.64396   16.911
 5932.00    0.54327   0.64415   18.407
 5933.00    0.52528   0.64403   19.037
 5934.00    0.54094   0.64389   18.486
 5935.00    0.57119   0.64369   17.507
 5936.00    0.60328   0.64395   16.576
 5937.00    0.63927   0.64389   15.643
 5938.00    0.67556   0.64340   14.803
 5939.00    0.69912   0.64381   14.304
 5940.00    0.70527   0.64373   14.179
 5941.00    0.70087   0.64315   14.268
 5942.00    0.69308   0.64344   14.428
 5943.00    0.68564   0.64326   14.585
 5944.00    0.67921   0.64284   14.723
 5945.00    0.67328   0.64292   14.853
 5946.00    0.67070   0.64244   14.910
 5947.00    0.67515   0.64220   14.812
 5948.00    0.68290   0.64221   14.643
 5949.00    0.68424   0.64142   14.615
 5950.00    0.67049   0.64122   14.915
 5951.00    0.64043   0.64149   15.615
 5952.00    0.60862   0.64083   16.431
 5953.00    0.59454   0.64046   16.820
 5954.00    0.60243   0.64084   16.599
 5955.00    0.62280   0.64068   16.056
 5956.00    0.64002   0.64049   15.625
 5957.00    0.64462   0.64085   15.513
 5958.00    0.64675   0.64110   15.462
 5959.00    0.65989   0.64127   15.154
 5960.00    0.68058   0.64172   14.693
 5961.00    0.69781   0.64229   14.331
 5962.00    0.70562   0.64269   14.172
 5963.00    0.70734   0.64305   14.138
 5964.00    0.71664   0.64379   13.954
 5965.00    0.74238   0.64425   13.470
 5966.00    0.77663   0.64440   12.876
 5967.00    0.80230   0.64505   12.464
 5968.00    0.80141   0.64544   12.478
 5969.00    0.76808   0.64532   13.020
 5970.00    0.71524   0.64557   13.981
 5971.00    0.66435   0.64567   15.052
 5972.00    0.63568   0.64520   15.731
 5973.00    0.63221   0.64497   15.818
 5974.00    0.63759   0.64474   15.684
 5975.00    0.64738   0.64386   15.447
 5976.00    0.67373   0.64319   14.843
 5977.00    0.69947   0.64276   14.296
 5978.00    0.67772   0.64161   14.755
 5979.00    0.60632   0.64076   16.493
 5980.00    0.53821   0.64030   18.580
 5981.00    0.51633   0.63896   19.367
 5982.00    0.55086   0.63819   18.153
 5983.00    0.62169   0.63787   16.085
 5984.00    0.69080   0.63657   14.476
 5985.00    0.73260   0.63598   13.650
 5986.00    0.74040   0.63599   13.506
 5987.00    0.72114   0.63515   13.867
 5988.00    0.68972   0.63466   14.499
 5989.00    0.65966   0.63475   15.159
 5990.00    0.64251   0.63453   15.564
 5991.00    0.65028   0.63413   15.378
 5992.00    0.68539   0.63413   14.590
 5993.00    0.72372   0.63429   13.818
 5994.00    0.73597   0.63390   13.587
 5995.00    0.72421   0.63383   13.808
 5996.00    0.70795   0.63396   14.125
 5997.00    0.69702   0.63339   14.347
 5998.00    0.68858   0.63336   14.523
 5999.00    0.66963   0.63319   14.934
 6000.00    0.63875   0.63235   15.656
 6001.00    0.62643   0.63249   15.964
 6002.00    0.65741   0.63189   15.211
 6003.00    0.71323   0.63085   14.021
 6004.00    0.75455   0.63111   13.253
 6005.00    0.74709   0.63014   13.385
 6006.00    0.68557   0.62920   14.586
 6007.00    0.60615   0.62950   16.498
 6008.00    0.54745   0.62829   18.267
 6009.00    0.52244   0.62764   19.141
 6010.00    0.52396   0.62781   19.085
 6011.00    0.53329   0.62668   18.752
 6012.00    0.54249   0.62646   18.433
 6013.00    0.56118   0.62625   17.820
 6014.00    0.58588   0.62521   17.068
 6015.00    0.59317   0.62554   16.859
 6016.00    0.58121   0.62521   17.205
 6017.00    0.57730   0.62429   17.322
 6018.00    0.58930   0.62484   16.969
 6019.00    0.59660   0.62473   16.762
 6020.00    0.59047   0.62420   16.936
 6021.00    0.58394   0.62469   17.125
 6022.00    0.59390   0.62500   16.838
 6023.00    0.62862   0.62516   15.908
 6024.00    0.67020   0.62552   14.921
 6025.00    0.68901   0.62623   14.514
 6026.00    0.69236   0.62709   14.443
 6027.00    0.71247   0.62749   14.036
 6028.00    0.75044   0.62841   13.326
 6029.00    0.78173   0.62967   12.792
 6030.00    0.79421   0.63024   12.591
 6031.00    0.78994   0.63119   12.659
 6032.00    0.77344   0.63245   12.929
 6033.00    0.74777   0.63307   13.373
 6034.00    0.71217   0.63390   14.042
 6035.00    0.67208   0.63494   14.879
 6036.00    0.65260   0.63538   15.323
 6037.00    0.67200   0.63595   14.881
 6038.00    0.70675   0.63673   14.149
 6039.00    0.72283   0.63684   13.835
 6040.00    0.71617   0.63713   13.963
 6041.00    0.69647   0.63770   14.358
 6042.00    0.66632   0.63749   15.008
 6043.00    0.63320   0.63752   15.793
 6044.00    0.61983   0.63793   16.133
 6045.00    0.63940   0.63755   15.640
 6046.00    0.67619   0.63733   14.789
 6047.00    0.70562   0.63750   14.172
 6048.00    0.71193   0.63709   14.046
 6049.00    0.69784   0.63670   14.330
 6050.00    0.68536   0.63652   14.591
 6051.00    0.68573   0.63610   14.583
 6052.00    0.68569   0.63566   14.584
 6053.00    0.67337   0.63511   14.851
 6054.00    0.65085   0.63465   15.365
 6055.00    0.62391   0.63430   16.028
 6056.00    0.59776   0.63353   16.729
 6057.00    0.58174   0.63305   17.190
 6058.00    0.58807   0.63288   17.005
 6059.00    0.61902   0.63204   16.155
 6060.00    0.66260   0.63161   15.092
 6061.00    0.69550   0.63176   14.378
 6062.00    0.69349   0.63090   14.420
 6063.00    0.65904   0.63061   15.174
 6064.00    0.61644   0.63119   16.222
 6065.00    0.57620   0.63050   17.355
 6066.00    0.53667   0.63035   18.634
 6067.00    0.51172   0.63116   19.542
 6068.00    0.52269   0.63078   19.132
 6069.00    0.56646   0.63074   17.654
 6070.00    0.61761   0.63142   16.192
 6071.00    0.64701   0.63127   15.456
 6072.00    0.63605   0.63118   15.722
 6073.00    0.59421   0.63143   16.829
 6074.00    0.55226   0.63137   18.108
 6075.00    0.54575   0.63099   18.324
 6076.00    0.59265   0.63058   16.873
 6077.00    0.66803   0.63052   14.969
 6078.00    0.73247   0.62982   13.652
 6079.00    0.77057   0.62876   12.977
 6080.00    0.77888   0.62860   12.839
 6081.00    0.74877   0.62773   13.355
 6082.00    0.68278   0.62637   14.646
 6083.00    0.61066   0.62612   16.376
 6084.00    0.56941   0.62520   17.562
 6085.00    0.58205   0.62401   17.181
 6086.00    0.64275   0.62383   15.558
 6087.00    0.71126   0.62288   14.060
 6088.00    0.75284   0.62206   13.283
 6089.00    0.76445   0.62216   13.081
 6090.00    0.75498   0.62121   13.245
 6091.00    0.73065   0.62068   13.686
 6092.00    0.69155   0.62111   14.460
 6093.00    0.63528   0.62018   15.741
 6094.00    0.58346   0.61971   17.139
 6095.00    0.58105   0.62038   17.210
 6096.00    0.63223   0.61940   15.817
 6097.00    0.68728   0.61883   14.550
 6098.00    0.71042   0.61971   14.076
 6099.00    0.70455   0.61856   14.193
 6100.00    0.69646   0.61774   14.358
 6101.00    0.71808   0.61890   13.926
 6102.00    0.76628   0.61781   13.050
 6103.00    0.80531   0.61693   12.418
 6104.00    0.81116   0.61820   12.328
 6105.00    0.78224   0.61728   12.784
 6106.00    0.73224   0.61667   13.657
 6107.00    0.68520   0.61794   14.594
 6108.00    0.66849   0.61718   14.959
 6109.00    0.69801   0.61692   14.326
 6110.00    0.75275   0.61797   13.285
 6111.00    0.79089   0.61740   12.644
 6112.00    0.78895   0.61744   12.675
 6113.00    0.74784   0.61784   13.372
 6114.00    0.68974   0.61731   14.498
 6115.00    0.64004   0.61759   15.624
 6116.00    0.60238   0.61712   16.601
 6117.00    0.56911   0.61647   17.571
 6118.00    0.53970   0.61687   18.529
 6119.00    0.52153   0.61553   19.174
 6120.00    0.52683   0.61478   18.982
 6121.00    0.55881   0.61536   17.895
 6122.00    0.59919   0.61354   16.689
 6123.00    0.62640   0.61273   15.964
 6124.00    0.63410   0.61341   15.770
 6125.00    0.63212   0.61150   15.820
 6126.00    0.64280   0.61072   15.557
 6127.00    0.67772   0.61139   14.755
 6128.00    0.72373   0.60966   13.817
 6129.00    0.76851   0.60893   13.012
 6130.00    0.81446   0.60943   12.278
 6131.00    0.85166   0.60787   11.742
 6132.00    0.84784   0.60714   11.795
 6133.00    0.78613   0.60734   12.720
 6134.00    0.68459   0.60589   14.607
 6135.00    0.58738   0.60514   17.025
 6136.00    0.54734   0.60529   18.270
 6137.00    0.57312   0.60427   17.448
 6138.00    0.62004   0.60351   16.128
 6139.00    0.64315   0.60352   15.548
 6140.00    0.62343   0.60320   16.040
 6141.00    0.58315   0.60280   -2.000
 6142.00    0.56885   0.60280   -2.000
 6143.00    0.58554   0.60308   -2.000
 6144.00    0.59340   0.60309   -2.000
 6145.00    0.55489   0.60308   -2.000
 6146.00    0.46093   0.60367   -2.000
 6147.00    0.35997   0.60397   -2.000
 6148.00    0.32986   0.60383   -2.000
 6149.00    0.40233   0.60425   -2.000
 6150.00    0.54999   0.60459   -2.000
 6151.00    0.69609   0.60411   -2.000
 6152.00    0.76189   0.60384   -2.000
 6153.00    0.74302   0.60396   13.459
 6154.00    0.68608   0.60312   14.576
 6155.00    0.63164   0.60201   15.832
 6156.00    0.60342   0.60175   16.572
 6157.00    0.60606   0.60062   16.500
 6158.00    0.63124   0.59882   15.842
 6159.00    0.66604   0.59819   15.014
 6160.00    0.70013   0.59692   14.283
 6161.00    0.73183   0.59505   13.664
 6162.00    0.75995   0.59454   13.159
 6163.00    0.77625   0.59331   12.882
 6164.00    0.77721   0.59171   12.867
 6165.00    0.77290   0.59176   12.938
 6166.00    0.76808   0.59089   13.019
 6167.00    0.74983   0.58977   13.336
 6168.00    0.71271   0.59061   14.031
 6169.00    0.67457   0.59052   14.824
 6170.00    0.65678   0.58998   15.226
 6171.00    0.66840   0.59136   14.961
 6172.00    0.69390   0.59207   14.411
 6173.00    0.69502   0.59205   14.388
 6174.00    0.65384   0.59356   15.294
 6175.00    0.58896   0.59490   16.979
 6176.00    0.52642   0.59524   18.996
 6177.00    0.48512   0.59644   20.614
 6178.00    0.47469   0.59801   21.066
 6179.00    0.49286   0.59848   20.290
 6180.00    0.51892   0.59909   19.271
 6181.00    0.52282   0.60052   19.127
 6182.00    0.50108   0.60084   19.957
 6183.00    0.47662   0.60079   20.981
 6184.00    0.46433   0.60190   21.536
 6185.00    0.46481   0.60181   21.514
 6186.00    0.47504   0.60126   21.051
 6187.00    0.49426   0.60214   20.232
 6188.00    0.53021   0.60160   18.861
 6189.00    0.58906   0.60077   16.976
 6190.00    0.65254   0.60162   15.325
 6191.00    0.69106   0.60090   14.470
 6192.00    0.69615   0.60015   14.365
 6193.00    0.68058   0.60108   14.693
 6194.00    0.66777   0.60045   14.975
 6195.00    0.67399   0.60003   14.837
 6196.00    0.68640   0.60109   14.569
 6197.00    0.68434   0.60074   14.613
 6198.00    0.67022   0.60069   14.920
 6199.00    0.65494   0.60175   15.269
 6200.00    0.63708   0.60171   15.697
 6201.00    0.61395   0.60183   16.288
 6202.00    0.59454   0.60262   16.820
 6203.00    0.58822   0.60274   17.000
 6204.00    0.59408   0.60272   16.833
 6205.00    0.61281   0.60302   16.318
 6206.00    0.65459   0.60308   15.277
 6207.00    0.71594   0.60261   13.968
 6208.00    0.76619   0.60230   13.052
 6209.00    0.77937   0.60215   12.831
 6210.00    0.75534   0.60110   13.239
 6211.00    0.71113   0.60026   14.062
 6212.00    0.67161   0.59988   14.890
 6213.00    0.65178   0.59837   15.343
 6214.00    0.64994   0.59722   15.386
 6215.00    0.66057   0.59670   15.138
 6216.00    0.67808   0.59507   14.747
 6217.00    0.68494   0.59396   14.600
 6218.00    0.65664   0.59337   15.229
 6219.00    0.59981   0.59196   16.672
 6220.00    0.55259   0.59121   18.097
 6221.00    0.53555   0.59055   18.672
 6222.00    0.54063   0.58956   18.497
 6223.00    0.55074   0.58932   18.157
 6224.00    0.55396   0.58848   18.052
 6225.00    0.56354   0.58784   17.745
 6226.00    0.60309   0.58813   16.581
 6227.00    0.65839   0.58704   15.189
 6228.00    0.69077   0.58652   14.477
 6229.00    0.69116   0.58722   14.468
 6230.00    0.67490   0.58592   14.817
 6231.00    0.64877   0.58525   15.414
 6232.00    0.61344   0.58624   16.302
 6233.00    0.57856   0.58494   17.284
 6234.00    0.55741   0.58388   17.940
 6235.00    0.55452   0.58498   18.034
 6236.00    0.56353   0.58397   17.745
 6237.00    0.56810   0.58240   17.602
 6238.00    0.55662   0.58341   17.966
 6239.00    0.53923   0.58291   18.545
 6240.00    0.53420   0.58080   18.719
 6241.00    0.54996   0.58155   18.183
 6242.00    0.58087   0.58165   17.216
 6243.00    0.60730   0.57913   16.466
 6244.00    0.61890   0.57951   16.158
 6245.00    0.63203   0.58018   15.822
 6246.00    0.66139   0.57750   15.120
 6247.00    0.69742   0.57751   14.339
 6248.00    0.71800   0.57860   13.928
 6249.00    0.70109   0.57605   14.263
 6250.00    0.64481   0.57575   15.508
 6251.00    0.57575   0.57711   17.369
 6252.00    0.52486   0.57493   19.053
 6253.00    0.51091   0.57445   19.573
 6254.00    0.52984   0.57601   18.874
 6255.00    0.55593   0.57439   17.988
 6256.00    0.57038   0.57387   17.532
 6257.00    0.57404   0.57566   17.420
 6258.00    0.58398   0.57474   17.124
 6259.00    0.62080   0.57431   16.108
 6260.00    0.66986   0.57637   14.929
 6261.00    0.68743   0.57621   14.547
 6262.00    0.66561   0.57592   15.024
 6263.00    0.63660   0.57814   15.708
 6264.00    0.62328   0.57870   16.044
 6265.00    0.62677   0.57849   15.955
 6266.00    0.63324   0.58063   15.792
 6267.00    0.62546   0.58170   15.988
 6268.00    0.60435   0.58150   16.547
 6269.00    0.58613   0.58327   17.061
 6270.00    0.58603   0.58458   17.064
 6271.00    0.60962   0.58431   16.404
 6272.00    0.64391   0.58556   15.530
 6273.00    0.66388   0.58686   15.063
 6274.00    0.64645   0.58650   15.469
 6275.00    0.58487   0.58727   17.098
 6276.00    0.50486   0.58839   19.808
 6277.00    0.44393   0.58796   -1.000
 6278.00    0.42143   0.58841   -1.000
 6279.00    0.43932   0.58930   -1.000
 6280.00    0.48802   0.58883    0.000
 6281.00    0.55055   0.58915    0.000
 6282.00    0.60699   0.58980    0.000
 6283.00    0.64208   0.58937    0.000
 6284.00    0.65235   0.58961    0.000
 6285.00    0.64809   0.59001    0.000
 6286.00    0.65159   0.58967    0.000
 6287.00    0.67412   0.58975    0.000
 6288.00    0.70113   0.58986    0.000
 6289.00    0.71149   0.58959    0.000
 6290.00    0.69297   0.58937    0.000
 6291.00    0.65255   0.58913    0.000
 6292.00    0.61724   0.58891    0.000
 6293.00    0.60799   0.58830    0.000
 6294.00    0.62626   0.58774    0.000
 6295.00    0.65916   0.58755    0.000
 6296.00    0.68618   0.58660    0.000
 6297.00    0.69504   0.58588    0.000
 6298.00    0.68648   0.58580    0.000
 6299.00    0.66560   0.58468    0.000
 6300.00    0.63820   0.58397    0.000
 6301.00    0.61016   0.58412    0.000
 6302.00    0.58797   0.58302    0.000
 6303.00    0.58085   0.58244    0.000
 6304.00    0.59524   0.58290    0.000
 6305.00    0.61896   0.58195    0.000
 6306.00    0.63097   0.58138    0.000
 6307.00    0.63482   0.58213    0.000
 6308.00    0.65146   0.58134    0.000
 6309.00    0.68586   0.58055    0.000
 6310.00    0.72381   0.58146    0.000
 6311.00    0.74073   0.58087    0.000
 6312.00    0.71525   0.57965    0.000
 6313.00    0.64946   0.58057    0.000
 6314.00    0.57003   0.58026    0.000
 6315.00    0.52260   0.57864    0.000
 6316.00    0.54035   0.57948    0.000
 6317.00    0.60363   0.57963    0.000
 6318.00    0.66520   0.57789    0.000
 6319.00    0.68960   0.57862    0.000
 6320.00    0.66776   0.57933    0.000
 6321.00    0.62561   0.57783   15.984
 6322.00    0.59569   0.57842   16.787
 6323.00    0.58847   0.57959   16.993
 6324.00    0.59822   0.57852   16.716
 6325.00    0.61147   0.57893   16.354
 6326.00    0.61516   0.58024   16.256
 6327.00    0.60331   0.57951   16.575
 6328.00    0.58231   0.57967   17.173
 6329.00    0.57111   0.58075   17.510
 6330.00    0.58043   0.58010   17.229
 6331.00    0.60112   0.57998   16.636
 6332.00    0.61521   0.58059   16.255
 6333.00    0.60681   0.57977   16.480
 6334.00    0.58192   0.57945   17.185
 6335.00    0.57005   0.57961   17.542
 6336.00    0.58599   0.57856   17.065
 6337.00    0.61630   0.57814   16.226
 6338.00    0.63739   0.57803   15.689
 6339.00    0.62721   0.57695   15.944
 6340.00    0.57878   0.57655   17.278
 6341.00    0.50468   0.57632   19.815
 6342.00    0.43517   0.57546   -1.000
 6343.00    0.40523   0.57516   -1.000
 6344.00    0.42021   0.57491   -1.000
 6345.00    0.45830   0.57445   21.820
 6346.00    0.50229   0.57424   19.909
 6347.00    0.54475   0.57391   18.357
 6348.00    0.58046   0.57384   17.228
 6349.00    0.60518   0.57367   16.524
 6350.00    0.61677   0.57313   16.214
 6351.00    0.61516   0.57325   16.256
 6352.00    0.60189   0.57303   16.614
 6353.00    0.58104   0.57231   17.210
 6354.00    0.56074   0.57238   17.834
 6355.00    0.54898   0.57197   18.216
 6356.00    0.54754   0.57115   18.264
 6357.00    0.55598   0.57113   17.986
 6358.00    0.57782   0.57046   17.306
 6359.00    0.61529   0.56964   16.252
 6360.00    0.66251   0.56973   15.094
 6361.00    0.70706   0.56902   14.143
 6362.00    0.73324   0.56829   13.638
 6363.00    0.72928   0.56869   13.712
 6364.00    0.69365   0.56832   14.416
 6365.00    0.63266   0.56782   15.806
 6366.00    0.55839   0.56855   17.909
 6367.00    0.49275   0.56875   20.294
 6368.00    0.46723   0.56862   21.403
 6369.00    0.49857   0.56957   20.057
 6370.00    0.57372   0.57029   17.430
 6371.00    0.65940   0.57050   15.165
 6372.00    0.71339   0.57146   14.018
 6373.00    0.71072   0.57249   14.070
 6374.00    0.65607   0.57286   15.242
 6375.00    0.57536   0.57356   17.380
 6376.00    0.50541   0.57471   19.786
 6377.00    0.46969   0.57513   21.291
 6378.00    0.47106   0.57532   21.229
 6379.00    0.50501   0.57634   19.801
 6380.00    0.56238   0.57681   17.782
 6381.00    0.62097   0.57647   16.104
 6382.00    0.65165   0.57715   15.346
 6383.00    0.64539   0.57766   15.494
 6384.00    0.61565   0.57690   16.243
 6385.00    0.58179   0.57720   17.188
 6386.00    0.56203   0.57776   17.793
 6387.00    0.56819   0.57672   17.600
 6388.00    0.60424   0.57660   16.550
 6389.00    0.66630   0.57724   15.008
 6390.00    0.73838   0.57604   13.543
 6391.00    0.78549   0.57553   12.731
 6392.00    0.77685   0.57631   12.873
 6393.00    0.72672   0.57501   13.761
 6394.00    0.67517   0.57414   14.811
 6395.00    0.64706   0.57516   15.455
 6396.00    0.64472   0.57391   15.511
 6397.00    0.64819   0.57264   15.428
 6398.00    0.63710   0.57395   15.696
 6399.00    0.61648   0.57309   16.221
 6400.00    0.60044   0.57154   16.655
 6401.00    0.59092   0.57287   16.923
 6402.00    0.58129   0.57241   17.203
 6403.00    0.56333   0.57081   17.752
 6404.00    0.53873   0.57194   18.562
 6405.00    0.52622   0.57178   19.003
 6406.00    0.53861   0.57060   18.566
 6407.00    0.56557   0.57143   17.681
 6408.00    0.58643   0.57098   17.052
 6409.00    0.58335   0.57035   17.142
 6410.00    0.56072   0.57112   17.834
 6411.00    0.55047   0.57014   18.166
 6412.00    0.57292   0.56991   17.454
 6413.00    0.61753   0.57095   16.193
 6414.00    0.66188   0.56967   15.109
 6415.00    0.68583   0.56941   14.581
 6416.00    0.68776   0.57071   14.540
 6417.00    0.68555   0.56967   14.587
 6418.00    0.69112   0.56927   14.469
 6419.00    0.70223   0.57059   14.240
 6420.00    0.71178   0.57009   14.049
 6421.00    0.71148   0.56958   14.055
 6422.00    0.69209   0.57071   14.449
 6423.00    0.64720   0.57081   15.451
 6424.00    0.58321   0.57019   17.146
 6425.00    0.51769   0.57093   19.317
 6426.00    0.46762   0.57160   21.385
 6427.00    0.44409   0.57102   22.518
 6428.00    0.44766   0.57119   22.339
 6429.00    0.47171   0.57196   21.200
 6430.00    0.51119   0.57145   19.562
 6431.00    0.55914   0.57130   17.885
 6432.00    0.59760   0.57193   16.734
 6433.00    0.60875   0.57141   16.427
 6434.00    0.59536   0.57114   16.797
 6435.00    0.57339   0.57156   17.440
 6436.00    0.55628   0.57105   17.976
 6437.00    0.55395   0.57100   18.052
 6438.00    0.57383   0.57128   17.427
 6439.00    0.61347   0.57058   16.301
 6440.00    0.65308   0.57068   15.312
 6441.00    0.67183   0.57098   14.885
 6442.00    0.66585   0.57014   15.018
 6443.00    0.64755   0.57006   15.443
 6444.00    0.64040   0.57043   15.615
 6445.00    0.65346   0.56985   15.303
 6446.00    0.66440   0.56920   15.051
 6447.00    0.65341   0.56917   15.304
 6448.00    0.62731   0.56913   15.941
 6449.00    0.59929   0.56802   16.686
 6450.00    0.57487   0.56728   17.395
 6451.00    0.55778   0.56790   17.928
 6452.00    0.55237   0.56672   18.104
 6453.00    0.55463   0.56512   18.030
 6454.00    0.55068   0.56623   18.159
 6455.00    0.53406   0.56568   18.725
 6456.00    0.51224   0.56359   19.522
 6457.00    0.49797   0.56473   20.081
 6458.00    0.50251   0.56507   19.900
 6459.00    0.52515   0.56280   19.042
 6460.00    0.55255   0.56361   18.098
 6461.00    0.56984   0.56505   17.549
 6462.00    0.56668   0.56311   17.647
 6463.00    0.54339   0.56325   18.403
 6464.00    0.50858   0.56541   19.663
 6465.00    0.46782   0.56406   21.376
 6466.00    0.42720   0.56346   -1.000
 6467.00    0.40872   0.56590   -1.000
 6468.00    0.43772   0.56541   22.846
 6469.00    0.50791   0.56427   19.689
 6470.00    0.58459   0.56638   17.106
 6471.00    0.62670   0.56652   15.957
 6472.00    0.61025   0.56502   16.387
 6473.00    0.55957   0.56655   17.871
 6474.00    0.52033   0.56711   19.219
 6475.00    0.51006   0.56542   19.606
 6476.00    0.52130   0.56615   19.183
 6477.00    0.53739   0.56694   18.608
 6478.00    0.54557   0.56524   18.329
 6479.00    0.54967   0.56497   18.193
 6480.00    0.55981   0.56567   17.863
 6481.00    0.57925   0.56415   17.264
 6482.00    0.60390   0.56295   16.559
 6483.00    0.62406   0.56318   16.024
 6484.00    0.63265   0.56182   15.806
 6485.00    0.63098   0.55999   15.848
 6486.00    0.61684   0.55955   16.212
 6487.00    0.57808   0.55822   17.299
 6488.00    0.51798   0.55608   19.306
 6489.00    0.46918   0.55512   21.314
 6490.00    0.46201   0.55363   21.644
 6491.00    0.50311   0.55134   19.876
 6492.00    0.57432   0.55028   17.412
 6493.00    0.63900   0.54886   15.649
 6494.00    0.67348   0.54665   14.848
 6495.00    0.67895   0.54594   14.729
 6496.00    0.66120   0.54500   15.124
 6497.00    0.62437   0.54337   16.016
 6498.00    0.58507   0.54341   17.092
 6499.00    0.56948   0.54317   17.560
 6500.00    0.58198   0.54255   17.183
 6501.00    0.60196   0.54356   16.612
 6502.00    0.61086   0.54400   16.370
 6503.00    0.60075   0.54420   16.646
 6504.00    0.57253   0.54587   17.466
 6505.00    0.53676   0.54682   18.630
 6506.00    0.51707   0.54743   19.340
 6507.00    0.53814   0.54927   18.583
 6508.00    0.59684   0.55037   16.755
 6509.00    0.66305   0.55086   15.082
 6510.00    0.69598   0.55238   14.368
 6511.00    0.66912   0.55344   14.945
 6512.00    0.60773   0.55344   16.455
 6513.00    0.56172   0.55427   17.802
 6514.00    0.55081   0.55523   18.155
 6515.00    0.56569   0.55481   17.678
 6516.00    0.58395   0.55479   17.125
 6517.00    0.58465   0.55558   17.104
 6518.00    0.56400   0.55507   17.730
 6519.00    0.53188   0.55442   18.801
 6520.00    0.50442   0.55493   19.825
 6521.00    0.49294   0.55459   20.287
 6522.00    0.49415   0.55376   20.237
 6523.00    0.49984   0.55385   20.007
 6524.00    0.50715   0.55363   19.718
 6525.00    0.51977   0.55294   19.239
 6526.00    0.54633   0.55260   18.304
 6527.00    0.58578   0.55227   17.071
 6528.00    0.61956   0.55175    0.000
 6529.00    0.63468   0.55120    0.000
 6530.00    0.63729   0.55063    0.000
 6531.00    0.63715   0.55006    0.000
 6532.00    0.63723   0.54939    0.000
 6533.00    0.63198   0.54858    0.000
 6534.00    0.61028   0.54775    0.000
 6535.00    0.57243   0.54693    0.000
 6536.00    0.53495   0.54587    0.000
 6537.00    0.51480   0.54461    0.000
 6538.00    0.52038   0.54350    0.000
 6539.00    0.54481   0.54217    0.000
 6540.00    0.56998   0.54038    0.000
 6541.00    0.58902   0.53878    0.000
 6542.00    0.60900   0.53696    0.000
 6543.00    0.63547   0.53452    0.000
 6544.00    0.66553   0.53233    0.000
 6545.00    0.68302   0.52989    0.000
 6546.00    0.66655   0.52653    0.000
 6547.00    0.61171   0.52357    0.000
 6548.00    0.53594   0.52052    0.000
 6549.00    0.47600   0.51628    0.000
 6550.00    0.46607   0.51227    0.000
 6551.00    0.49795   0.50855    0.000
 6552.00    0.54136   0.50364    0.000
 6553.00    0.59182   0.49849    0.000
 6554.00    0.67034   0.49415    0.000
 6555.00    0.80792   0.48904    0.000
 6556.00    1.01504   0.48298    0.000
 6557.00    1.24528   0.47832    0.000
 6558.00    1.42821   0.47408    0.000
 6559.00    1.51719   0.46785    0.000
 6560.00    1.49956   0.46320    0.000
 6561.00    1.39936   0.46104    0.000
 6562.00    1.25179   0.45601    0.000
 6563.00    1.07847   0.45166    0.000
 6564.00    0.89687   0.45231    0.000
 6565.00    0.72972   0.45055    0.000
 6566.00    0.59780   0.44749    0.000
 6567.00    0.51281   0.45036    0.000
 6568.00    0.47272   0.45251    0.000
 6569.00    0.46126   0.45181    0.000
 6570.00    0.46271   0.45583    0.000
 6571.00    0.47019   0.46071    0.000
 6572.00    0.47734   0.46246    0.000
 6573.00    0.47639   0.46698    0.000
 6574.00    0.47439   0.47308    0.000
 6575.00    0.49614   0.47658    0.000
 6576.00    0.55925   0.48110    0.000
 6577.00    0.66169   0.48701    0.000
 6578.00    0.77989   0.49115    0.000
 6579.00    0.87417   0.49527    0.000
 6580.00    0.91048   0.50013    0.000
 6581.00    0.87320   0.50392    0.000
 6582.00    0.77934   0.50743    0.000
 6583.00    0.67255   0.51092    0.000
 6584.00    0.59287   0.51385    0.000
 6585.00    0.56132   0.51673    0.000
 6586.00    0.56474   0.51893    0.000
 6587.00    0.56890   0.52085    0.000
 6588.00    0.55720   0.52322    0.000
 6589.00    0.53429   0.52450    0.000
 6590.00    0.51416   0.52542    0.000
 6591.00    0.51058   0.52739    0.000
 6592.00    0.52437   0.52829    0.000
 6593.00    0.54417   0.52829    0.000
 6594.00    0.55228   0.52985    0.000
 6595.00    0.53901   0.53094    0.000
 6596.00    0.52085   0.53056    0.000
 6597.00    0.52103   0.53163    0.000
 6598.00    0.54109   0.53294    0.000
 6599.00    0.56755   0.53268    0.000
 6600.00    0.58495   0.53336    0.000
 6601.00    0.58815   0.53469    0.000
 6602.00    0.59142   0.53471    0.000
 6603.00    0.60599   0.53507    0.000
 6604.00    0.62022   0.53628    0.000
 6605.00    0.62072   0.53661    0.000
 6606.00    0.61099   0.53672    0.000
 6607.00    0.60468   0.53769    0.000
 6608.00    0.61703   0.53829    0.000
 6609.00    0.64843   0.53828   15.422
 6610.00    0.67753   0.53895   14.759
 6611.00    0.68534   0.53978   14.591
 6612.00    0.66954   0.53990   14.936
 6613.00    0.63962   0.54025   15.634
 6614.00    0.61069   0.54094   16.375
 6615.00    0.58881   0.54132   16.983
 6616.00    0.56803   0.54158   17.605
 6617.00    0.54855   0.54193   18.230
 6618.00    0.53947   0.54225   18.537
 6619.00    0.53861   0.54253   18.566
 6620.00    0.53193   0.54267   18.800
 6621.00    0.51830   0.54263   19.294
 6622.00    0.51195   0.54274   19.533
 6623.00    0.52315   0.54285   19.115
 6624.00    0.55168   0.54236   18.126
 6625.00    0.58597   0.54211   17.066
 6626.00    0.61027   0.54230   16.386
 6627.00    0.62174   0.54155   16.084
 6628.00    0.62541   0.54092   15.989
 6629.00    0.61458   0.54119   16.271
 6630.00    0.57997   0.54040   17.242
 6631.00    0.53513   0.53953   18.687
 6632.00    0.50514   0.53988   19.796
 6633.00    0.49894   0.53919   20.043
 6634.00    0.51096   0.53817   19.571
 6635.00    0.53139   0.53868   18.819
 6636.00    0.54828   0.53842   18.239
 6637.00    0.54897   0.53735   18.216
 6638.00    0.52999   0.53790   18.868
 6639.00    0.50774   0.53816   19.695
 6640.00    0.50125   0.53712   19.950
 6641.00    0.51225   0.53755   19.522
 6642.00    0.53105   0.53834   18.831
 6643.00    0.54576   0.53743   18.323
 6644.00    0.55310   0.53745   18.080
 6645.00    0.56513   0.53861   17.695
 6646.00    0.59056   0.53821   16.933
 6647.00    0.62062   0.53775   16.113
 6648.00    0.63893   0.53873   15.651
 6649.00    0.63165   0.53892   15.832
 6650.00    0.60195   0.53828   16.613
 6651.00    0.57399   0.53872   17.422
 6652.00    0.56387   0.53921   17.735
 6653.00    0.56611   0.53858   17.664
 6654.00    0.57202   0.53845   17.482
 6655.00    0.57962   0.53900   17.253
 6656.00    0.59381   0.53849   16.840
 6657.00    0.62194   0.53781   16.079
 6658.00    0.65683   0.53823   15.225
 6659.00    0.67479   0.53793   14.819
 6660.00    0.65404   0.53687   15.290
 6661.00    0.58637   0.53700   17.054
 6662.00    0.49153   0.53698   20.345
 6663.00    0.41025   0.53576   24.375
 6664.00    0.37113   0.53556   -1.000
 6665.00    0.37877   0.53583   -1.000
 6666.00    0.40966   0.53490   24.410
 6667.00    0.42714   0.53444   23.412
 6668.00    0.41775   0.53466   23.938
 6669.00    0.39732   0.53421   -1.000
 6670.00    0.40442   0.53385   -1.000
 6671.00    0.46644   0.53384   21.439
 6672.00    0.54318   0.53363   18.410
 6673.00    0.57412   0.53357   17.418
 6674.00    0.56966   0.53343   17.554
 6675.00    0.56946   0.53315   17.561
 6676.00    0.56229   0.53350   17.784
 6677.00    0.52127   0.53341   19.184
 6678.00    0.46339   0.53272   21.580
 6679.00    0.42661   0.53332   23.441
 6680.00    0.43306   0.53380   23.091
 6681.00    0.47979   0.53302   20.842
 6682.00    0.53599   0.53341   18.657
 6683.00    0.57086   0.53431   17.517
 6684.00    0.57928   0.53387   17.263
 6685.00    0.57131   0.53393   17.504
 6686.00    0.56030   0.53483   17.848
 6687.00    0.55291   0.53480   18.086
 6688.00    0.54363   0.53460   18.395
 6689.00    0.52486   0.53524   19.053
 6690.00    0.49800   0.53546   20.080
 6691.00    0.49697   0.53517   20.122
 6692.00    0.58193   0.53540   17.184
 6693.00    0.73063   0.53556   13.687
 6694.00    0.81256   0.53531   -1.000
 6695.00    0.75150   0.53520   13.307
 6696.00    0.58716   0.53506    0.000
 6697.00    0.39174   0.53483    0.000
 6698.00    0.23179   0.53457    0.000
 6699.00    0.16899   0.53423    0.000
 6700.00    0.24122   0.53399    0.000
 6701.00    0.39844   0.53362    0.000
 6702.00    0.52417   0.53324    0.000
 6703.00    0.56654   0.53293    0.000
 6704.00    0.55737   0.53235    0.000
 6705.00    0.55088   0.53199    0.000
 6706.00    0.58970   0.53179    0.000
 6707.00    0.66675   0.53107    0.000
 6708.00    0.74439   0.53061    0.000
 6709.00    0.81516   0.53053    0.000
 6710.00    0.88978   0.52978    0.000
 6711.00    0.94916   0.52918    0.000
 6712.00    0.96352   0.52916    0.000
 6713.00    0.94051   0.52857    0.000
 6714.00    0.90622   0.52782    0.000
 6715.00    0.86405   0.52777    0.000
 6716.00    0.80779   0.52759    0.000
 6717.00    0.74764   0.52682    0.000
 6718.00    0.69539   0.52660    0.000
 6719.00    0.64318   0.52694    0.000
 6720.00    0.58172   0.52657    0.000
 6721.00    0.52221   0.52623    0.000
 6722.00    0.48334   0.52665    0.000
 6723.00    0.47510   0.52677    0.000
 6724.00    0.49158   0.52666    0.000
 6725.00    0.50887   0.52695    0.000
 6726.00    0.51041   0.52714    0.000
 6727.00    0.50504   0.52729    0.000
 6728.00    0.50865   0.52755    0.000
 6729.00    0.52885   0.52769    0.000
 6730.00    0.55931   0.52784    0.000
 6731.00    0.58062   0.52805    0.000
 6732.00    0.58379   0.52810    0.000
 6733.00    0.57831   0.52802    0.000
 6734.00    0.56441   0.52808    0.000
 6735.00    0.52655   0.52806    0.000
 6736.00    0.47069   0.52777    0.000
 6737.00    0.43110   0.52764    0.000
 6738.00    0.42759   0.52750    0.000
 6739.00    0.45618   0.52696    0.000
 6740.00    0.52026   0.52660    0.000
 6741.00    0.62658   0.52662    0.000
 6742.00    0.73560   0.52605    0.000
 6743.00    0.77546   0.52527    0.000
 6744.00    0.72761   0.52538    0.000
 6745.00    0.63283   0.52522    0.000
 6746.00    0.54134   0.52427    0.000
 6747.00    0.49254   0.52419    0.000
 6748.00    0.49976   0.52444    0.000
 6749.00    0.55140   0.52373    0.000
 6750.00    0.62051   0.52334    0.000
 6751.00    0.67166   0.52395    0.000
 6752.00    0.67073   0.52378    0.000
 6753.00    0.60736   0.52316   16.465
 6754.00    0.52603   0.52383   19.010
 6755.00    0.48248   0.52418   20.726
 6756.00    0.47478   0.52364   21.062
 6757.00    0.47510   0.52412   21.048
 6758.00    0.48288   0.52474   20.709
 6759.00    0.50857   0.52448   19.663
 6760.00    0.54702   0.52467   18.281
 6761.00    0.58430   0.52521   17.114
 6762.00    0.60837   0.52520   16.437
 6763.00    0.61134   0.52523   16.358
 6764.00    0.59165   0.52547   16.902
 6765.00    0.56317   0.52553   17.757
 6766.00    0.55784   0.52560   17.926
 6767.00    0.58734   0.52552   17.026
 6768.00    0.61950   0.52538   16.142
 6769.00    0.61854   0.52569   16.167
 6770.00    0.57433   0.52564   17.412
 6771.00    0.50501   0.52516   19.802
 6772.00    0.45153   0.52545   22.147
 6773.00    0.44581   0.52571   22.431
 6774.00    0.49433   0.52516   20.230
 6775.00    0.58378   0.52523   17.130
 6776.00    0.68518   0.52571   14.595
 6777.00    0.75783   0.52517   -1.000
 6778.00    0.76301   0.52494   -1.000
 6779.00    0.70820   0.52552   14.120
 6780.00    0.64052   0.52507   15.612
 6781.00    0.56677   0.52453   17.644
 6782.00    0.46388   0.52499   21.557
 6783.00    0.39300   0.52465   -1.000
 6784.00    0.45953   0.52388   21.761
 6785.00    0.61270   0.52415   16.321
 6786.00    0.69069   0.52398   14.478
 6787.00    0.66087   0.52320   15.132
 6788.00    0.60665   0.52332   16.484
 6789.00    0.56972   0.52331   17.553
 6790.00    0.54474   0.52253   18.358
 6791.00    0.53693   0.52248   18.624
 6792.00    0.55519   0.52272   18.012
 6793.00    0.58157   0.52202   17.195
 6794.00    0.59056   0.52172   16.933
 6795.00    0.58552   0.52215   17.079
 6796.00    0.57634   0.52173   17.351
 6797.00    0.54330   0.52126   18.406
 6798.00    0.47271   0.52170   21.155
 6799.00    0.40341   0.52161   24.789
 6800.00    0.37884   0.52107   -1.000
 6801.00    0.39098   0.52132   -1.000
 6802.00    0.41889   0.52156   23.873
 6803.00    0.46956   0.52102   21.297
 6804.00    0.54505   0.52084   18.347
 6805.00    0.61306   0.52133   16.312
 6806.00    0.63499   0.52099   15.748
 6807.00    0.59284   0.52040   16.868
 6808.00    0.50592   0.52089   19.766
 6809.00    0.43200   0.52086   23.148
 6810.00    0.40528   0.52015   24.674
 6811.00    0.40579   0.52038   24.643
 6812.00    0.41499   0.52060   24.097
 6813.00    0.44181   0.52014   22.634
 6814.00    0.48462   0.52002   20.635
 6815.00    0.51889   0.52022   19.272
 6816.00    0.53340   0.52011   18.748
 6817.00    0.54068   0.51994   18.495
 6818.00    0.54968   0.52007   18.193
 6819.00    0.55710   0.52011   17.950
 6820.00    0.55853   0.51990   17.904
 6821.00    0.55376   0.52002   18.058
 6822.00    0.55022   0.52013   18.175
 6823.00    0.55710   0.52000   17.950
 6824.00    0.56610   0.52002   17.665
 6825.00    0.55768   0.51999   17.932
 6826.00    0.53094   0.51995   18.835
 6827.00    0.50298   0.51988   19.881
 6828.00    0.48915   0.51953   20.443
 6829.00    0.49537   0.51934   20.187
 6830.00    0.51272   0.51933   19.504
 6831.00    0.52816   0.51897   18.934
 6832.00    0.54524   0.51853   18.340
 6833.00    0.56908   0.51821   17.572
 6834.00    0.57772   0.51789   17.309
 6835.00    0.55457   0.51746   18.032
 6836.00    0.53912   0.51693   18.549
 6837.00    0.57338   0.51652   17.441
 6838.00    0.62602   0.51604   15.974
 6839.00    0.64369   0.51542   15.535
 6840.00    0.62060   0.51506   16.114
 6841.00    0.57500   0.51456   17.391
 6842.00    0.51723   0.51396   19.334
 6843.00    0.46062   0.51379   21.710
 6844.00    0.43182   0.51357   23.158
 6845.00    0.44510   0.51314   22.467
 6846.00    0.48231   0.51299   20.734
 6847.00    0.51489   0.51295   19.421
 6848.00    0.52339   0.51261   19.106
 6849.00    0.50784   0.51253   19.691
 6850.00    0.48887   0.51273   20.455
 6851.00    0.47608   0.51228   21.005
 6852.00    0.45544   0.51201   21.957
 6853.00    0.42674   0.51259   23.434
 6854.00    0.41570   0.51223   24.056
 6855.00    0.43140   0.51141   23.180
 6856.00    0.45361   0.51202   22.045
 6857.00    0.46993   0.51217   21.280
 6858.00    0.48678   0.51104   20.543
 6859.00    0.50778   0.51129   19.694
 6860.00    0.52828   0.51190   18.929
 6861.00    0.54624   0.51079   18.307
 6862.00    0.56360   0.51031   17.743
 6863.00    0.57860   0.51124   17.283
 6864.00    0.58585   0.51085   17.069
 6865.00    0.58301   0.50983   17.152
 6866.00    0.57094   0.51048   17.515
 6867.00    0.54962   0.51079   18.194
 6868.00    0.52118   0.50966   19.187
 6869.00    0.49773   0.50971   20.091
 6870.00    0.48956   0.51060   20.426
 6871.00    0.48016   0.51006   20.826
 6872.00    0.44687   0.50939   22.378
 6873.00    0.40385   0.51012   24.761
 6874.00    0.38569   0.51043   -1.000
 6875.00    0.41004   0.50963   24.388
 6876.00    0.46768   0.50970   21.382
 6877.00    0.51908   0.51055   19.265
 6878.00    0.52808   0.51033   18.937
 6879.00    0.50257   0.50979   19.898
 6880.00    0.47602   0.51046   21.008
 6881.00    0.47938   0.51092   20.860
 6882.00    0.51898   0.51026   19.269
 6883.00    0.56116   0.51042   17.820
 6884.00    0.56932   0.51148   17.565
 6885.00    0.53751   0.51136   18.604
 6886.00    0.48174   0.51083   20.758
 6887.00    0.42886   0.51178   23.318
 6888.00    0.40122   0.51256   24.924
 6889.00    0.40642   0.51192   24.605
 6890.00    0.43996   0.51220   22.729
 6891.00    0.48787   0.51340   20.497
 6892.00    0.53009   0.51316   18.865
 6893.00    0.54536   0.51281   18.337
 6894.00    0.52590   0.51387   19.015
 6895.00    0.48228   0.51416   20.735
 6896.00    0.43072   0.51347   23.217
 6897.00    0.38847   0.51403   -1.000
 6898.00    0.37960   0.51482   -1.000
 6899.00    0.42541   0.51427   23.507
 6900.00    0.50224   0.51408   19.911
 6901.00    0.55097   0.51476   18.150
 6902.00    0.55603   0.51469   17.985
 6903.00    0.54834   0.51421   18.237
 6904.00    0.53898   0.51439   18.554
 6905.00    0.51700   0.51447   19.342
 6906.00    0.49393   0.51406   20.246
 6907.00    0.49325   0.51391   20.274
 6908.00    0.50056   0.51394   19.978
 6909.00    0.48157   0.51374   20.766
 6910.00    0.44164   0.51338   22.643
 6911.00    0.41370   0.51312   24.172
 6912.00    0.41352   0.51313   24.183
 6913.00    0.43885   0.51286   22.787
 6914.00    0.48175   0.51213   20.758
 6915.00    0.52815   0.51209   18.934
 6916.00    0.55567   0.51218   17.996
 6917.00    0.55299   0.51148   18.083
 6918.00    0.54362   0.51121   18.395
 6919.00    0.55686   0.51145   17.958
 6920.00    0.59099   0.51107   16.921
 6921.00    0.62132   0.51061   16.095
 6922.00    0.61585   0.51082   16.238
 6923.00    0.56459   0.51072   17.712
 6924.00    0.50167   0.51009   19.933
 6925.00    0.46832   0.51015   21.353
 6926.00    0.47929   0.51030   20.864
 6927.00    0.51951   0.50990   19.249
 6928.00    0.54892   0.50991   18.218
 6929.00    0.53954   0.51007   18.534
 6930.00    0.49886   0.50984   20.046
 6931.00    0.45750   0.50986   21.858
 6932.00    0.45399   0.50999   22.027
 6933.00    0.49834   0.50968   20.067
 6934.00    0.55804   0.50957   17.920
 6935.00    0.58536   0.50973   17.084
 6936.00    0.54272   0.50957   18.426
 6937.00    0.45012   0.50937   22.216
 6938.00    0.38098   0.50944   -1.000
 6939.00    0.36919   0.50941   -1.000
 6940.00    0.39075   0.50917   -1.000
 6941.00    0.42588   0.50903   23.481
 6942.00    0.47046   0.50895   21.256
 6943.00    0.50348   0.50874   19.862
 6944.00    0.49420   0.50839   20.235
 6945.00    0.44827   0.50804   22.308
 6946.00    0.40368   0.50810   24.772
 6947.00    0.38956   0.50796   -1.000
 6948.00    0.41016   0.50738   24.381
 6949.00    0.43447   0.50744   23.017
 6950.00    0.42590   0.50760   23.480
 6951.00    0.40183   0.50695   24.886
 6952.00    0.40524   0.50677   24.677
 6953.00    0.43671   0.50719   22.898
 6954.00    0.46920   0.50688   21.313
 6955.00    0.48900   0.50643   20.450
 6956.00    0.49419   0.50688   20.235
 6957.00    0.48445   0.50714   20.642
 6958.00    0.47352   0.50672   21.119
 6959.00    0.50138   0.50692   19.945
 6960.00    0.57390   0.50733   17.425
 6961.00    0.60513   0.50708   16.525
 6962.00    0.53956   0.50702   18.534
 6963.00    0.46563   0.50736   21.476
 6964.00    0.47392   0.50737   21.101
 6965.00    0.53129   0.50707   18.822
 6966.00    0.57185   0.50703   17.487
 6967.00    0.57604   0.50717   17.360
 6968.00    0.55409   0.50676   18.048
 6969.00    0.52666   0.50636   18.987
 6970.00    0.50292   0.50644   19.884
 6971.00    0.47248   0.50588   21.165
 6972.00    0.43626   0.50513   22.922
 6973.00    0.41676   0.50526   23.994
 6974.00    0.41780   0.50493   23.935
 6975.00    0.41311   0.50377   24.206
 6976.00    0.39116   0.50350   25.565
 6977.00    0.37253   0.50373   -1.000
 6978.00    0.39425   0.50261   25.364
 6979.00    0.48572   0.50177   20.588
 6980.00    0.60924   0.50256   16.414
 6981.00    0.67690   0.50225   14.773
 6982.00    0.67287   0.50119   14.862
 6983.00    0.65430   0.50188   15.284
 6984.00    0.63845   0.50243   15.663
 6985.00    0.59651   0.50159   16.764
 6986.00    0.52367   0.50165   19.096
 6987.00    0.44552   0.50264   22.446
 6988.00    0.38981   0.50250   -2.000
 6989.00    0.37648   0.50200   -2.000
 6990.00    0.41108   0.50277   -2.000
 6991.00    0.47792   0.50341   -2.000
 6992.00    0.53157   0.50308   -2.000
 6993.00    0.52909   0.50318   -2.000
 6994.00    0.48292   0.50359   -2.000
 6995.00    0.43143   0.50351   -2.000
 6996.00    0.38430   0.50323   -2.000
 6997.00    0.33803   0.50322   -2.000
 6998.00    0.30541   0.50329   -2.000
 6999.00    0.29990   0.50287   -2.000
 7000.00    0.31413   0.50233   -2.000
 7001.00    0.33687   0.50232   -2.000
 7002.00    0.37136   0.50229   -2.000
 7003.00    0.41534   0.50171   -2.000
 7004.00    0.44405   0.50117   -2.000
 7005.00    0.44280   0.50104   -2.000
 7006.00    0.43179   0.50064   -2.000
 7007.00    0.43348   0.50007   -2.000
 7008.00    0.44864   0.49996   -2.000
 7009.00    0.47391   0.49967   -2.000
 7010.00    0.51159   0.49903   -2.000
 7011.00    0.54947   0.49890   -2.000
 7012.00    0.55606   0.49885   -2.000
 7013.00    0.52298   0.49835   -2.000
 7014.00    0.48033   0.49813   -2.000
 7015.00    0.45714   0.49812   -2.000
 7016.00    0.46539   0.49743   -2.000
 7017.00    0.51704   0.49708   -2.000
 7018.00    0.61306   0.49763   -2.000
 7019.00    0.67440   0.49747   -2.000
 7020.00    0.58492   0.49688   -2.000
 7021.00    0.42343   0.49722   -2.000
 7022.00    0.41696   0.49749   -2.000
 7023.00    0.55961   0.49700   -2.000
 7024.00    0.63568   0.49695   -2.000
 7025.00    0.60118   0.49751   -2.000
 7026.00    0.57866   0.49750   -2.000
 7027.00    0.58722   0.49726   -2.000
 7028.00    0.55562   0.49774   -2.000
 7029.00    0.49488   0.49845   -2.000
 7030.00    0.47061   0.49862   -2.000
 7031.00    0.47736   0.49855   -2.000
 7032.00    0.46616   0.49898   -2.000
 7033.00    0.43366   0.49977   -2.000
 7034.00    0.40747   0.49974   -2.000
 7035.00    0.39980   0.49962   -2.000
 7036.00    0.41027   0.50087   -2.000
 7037.00    0.43940   0.50162   -2.000
 7038.00    0.48204   0.50087   -2.000
 7039.00    0.51786   0.50138   -2.000
 7040.00    0.52267   0.50296   -2.000
 7041.00    0.48414   0.50284   -2.000
 7042.00    0.42113   0.50238   -2.000
 7043.00    0.39406   0.50366   -2.000
 7044.00    0.43345   0.50421   -2.000
 7045.00    0.48527   0.50319   -2.000
 7046.00    0.49695   0.50365   -2.000
 7047.00    0.48364   0.50480   -2.000
 7048.00    0.47799   0.50406   -2.000
 7049.00    0.49114   0.50337   -2.000
 7050.00    0.51726   0.50412   -2.000
 7051.00    0.54032   0.50429   -2.000
 7052.00    0.54718   0.50313   -2.000
 7053.00    0.53574   0.50259   -2.000
 7054.00    0.51876   0.50285   -2.000
 7055.00    0.51672   0.50209   -2.000
 7056.00    0.51866   0.50104   -2.000
 7057.00    0.48082   0.50102   -2.000
 7058.00    0.39450   0.50090   -2.000
 7059.00    0.30937   0.49976   -2.000
 7060.00    0.31390   0.49887   -2.000
 7061.00    0.47618   0.49892   -2.000
 7062.00    0.68472   0.49832   -2.000
 7063.00    0.71923   0.49724   -2.000
 7064.00    0.59577   0.49721   -2.000
 7065.00    0.53079   0.49720   -2.000
 7066.00    0.59171   0.49641   -2.000
 7067.00    0.68482   0.49605   -2.000
 7068.00    0.74029   0.49600   -2.000
 7069.00    0.73803   0.49550   -2.000
 7070.00    0.67044   0.49519   -2.000
 7071.00    0.55146   0.49531   -2.000
 7072.00    0.44472   0.49508   -2.000
 7073.00    0.41518   0.49470   -2.000
 7074.00    0.44480   0.49480   -2.000
 7075.00    0.47836   0.49459   -2.000
 7076.00    0.50840   0.49401   -2.000
 7077.00    0.54542   0.49377   -2.000
 7078.00    0.56490   0.49347   -2.000
 7079.00    0.53755   0.49291   -2.000
 7080.00    0.47224   0.49254   -2.000
 7081.00    0.40845   0.49225   -2.000
 7082.00    0.39865   0.49164   -2.000
 7083.00    0.45906   0.49080   -2.000
 7084.00    0.53210   0.48996   -2.000
 7085.00    0.55108   0.48927   -2.000
 7086.00    0.49859   0.48864   -2.000
 7087.00    0.41023   0.48781   -2.000
 7088.00    0.36220   0.48706   -2.000
 7089.00    0.38967   0.48657   -2.000
 7090.00    0.44595   0.48576   -2.000
 7091.00    0.49187   0.48498   -2.000
 7092.00    0.53856   0.48471   -2.000
 7093.00    0.57305   0.48422   -2.000
 7094.00    0.54530   0.48353   -2.000
 7095.00    0.50683   0.48325   -2.000
 7096.00    0.61403   0.48324   -2.000
 7097.00    0.85236   0.48296   -2.000
 7098.00    1.00200   0.48278   -2.000
 7099.00    0.96881   0.48304   -2.000
 7100.00    0.84068   0.48282   -2.000
 7101.00    0.63362   0.48266   -2.000
 7102.00    0.30093   0.48294   -2.000
 7103.00    0.02742   0.48290   -2.000
 7104.00    0.11835   0.48276   -2.000
 7105.00    0.46143   0.48294   -2.000
 7106.00    0.63588   0.48313   -2.000
 7107.00    0.53363   0.48276   -2.000
 7108.00    0.35179   0.48260   -2.000
 7109.00    0.23953   0.48296   -2.000
 7110.00    0.23589   0.48270   -2.000
 7111.00    0.30502   0.48217   -2.000
 7112.00    0.37273   0.48211   -2.000
 7113.00    0.37941   0.48218   -2.000
 7114.00    0.33770   0.48179   -2.000
 7115.00    0.39561   0.48134   -2.000
 7116.00    0.64834   0.48145   -2.000
 7117.00    0.88440   0.48131   -2.000
 7118.00    0.85916   0.48075   -2.000
 7119.00    0.65946   0.48047   -2.000
 7120.00    0.48866   0.48054   -2.000
 7121.00    0.38862   0.48041   -2.000
 7122.00    0.34535   0.47977   -2.000
 7123.00    0.41166   0.47967   -2.000
 7124.00    0.59205   0.48002   -2.000
 7125.00    0.74860   0.47971   -2.000
 7126.00    0.76128   0.47924   -2.000
 7127.00    0.65278   0.47946   -2.000
 7128.00    0.50896   0.47977   -2.000
 7129.00    0.40893   0.47931   -2.000
 7130.00    0.38785   0.47910   -2.000
 7131.00    0.41780   0.47962   -2.000
 7132.00    0.42211   0.47958   -2.000
 7133.00    0.31984   0.47929   -2.000
 7134.00    0.20337   0.47980   -2.000
 7135.00    0.33488   0.48020   -2.000
 7136.00    0.72085   0.47990   -2.000
 7137.00    1.03302   0.48002   -2.000
 7138.00    1.08916   0.48052   -2.000
 7139.00    0.97544   0.48047   -2.000
 7140.00    0.75693   0.48034   -2.000
 7141.00    0.43524   0.48063   -2.000
 7142.00    0.16159   0.48084   -2.000
 7143.00    0.16392   0.48086   -2.000
 7144.00    0.34455   0.48094   -2.000
 7145.00    0.38974   0.48095   -2.000
 7146.00    0.34155   0.48117   -2.000
 7147.00    0.48342   0.48122   -2.000
 7148.00    0.74310   0.48064   -2.000
 7149.00    0.82207   0.48077   -2.000
 7150.00    0.73715   0.48144   -2.000
 7151.00    0.69109   0.48108   -2.000
 7152.00    0.63926   0.48075   -2.000
 7153.00    0.44493   0.48153   -2.000
 7154.00    0.25044   0.48166   -2.000
 7155.00    0.26325   0.48081   -2.000
 7156.00    0.37074   0.48118   -2.000
 7157.00    0.37796   0.48201   -2.000
 7158.00    0.37548   0.48135   -2.000
 7159.00    0.52219   0.48113   -2.000
 7160.00    0.74757   0.48209   -2.000
 7161.00    0.89646   0.48212   -2.000
 7162.00    0.91634   0.48165   -2.000
 7163.00    0.84892   0.48212   -2.000
 7164.00    0.79105   0.48243   -2.000
 7165.00    0.77119   0.48187   -2.000
 7166.00    0.67518   0.48195   -2.000
 7167.00    0.46828   0.48269   -2.000
 7168.00    0.32809   0.48272   -2.000
 7169.00    0.35967   0.48248   -2.000
 7170.00    0.43365   0.48273   -2.000
 7171.00    0.42954   0.48298   -2.000
 7172.00    0.36898   0.48288   -2.000
 7173.00    0.29393   0.48273   -2.000
 7174.00    0.21089   0.48289   -2.000
 7175.00    0.16278   0.48297   -2.000
 7176.00    0.23633   0.48263   -2.000
 7177.00    0.43867   0.48246   -2.000
 7178.00    0.66738   0.48274   -2.000
 7179.00    0.80563   0.48257   -2.000
 7180.00    0.78229   0.48168   -2.000
 7181.00    0.64263   0.48126   -2.000
 7182.00    0.50724   0.48130   -2.000
 7183.00    0.37878   0.48076   -2.000
 7184.00    0.18667   0.48027   -2.000
 7185.00    0.06533   0.48031   -2.000
 7186.00    0.26148   0.47980   -2.000
 7187.00    0.72847   0.47874   -2.000
 7188.00    1.16046   0.47860   -2.000
 7189.00    1.28803   0.47860   -2.000
 7190.00    1.02498   0.47784   -2.000
 7191.00    0.61010   0.47775   -2.000
 7192.00    0.37613   0.47797   -2.000
 7193.00    0.31611   0.47732   -2.000
 7194.00    0.25290   0.47690   -2.000
 7195.00    0.20919   0.47744   -2.000
 7196.00    0.28628   0.47732   -2.000
 7197.00    0.42492   0.47667   -2.000
 7198.00    0.50931   0.47726   -2.000
 7199.00    0.53170   0.47761   -2.000
 7200.00    0.53489   0.47684   -2.000
 7201.00    0.52747   0.47699   -2.000
 7202.00    0.49852   0.47762   -2.000
 7203.00    0.44291   0.47726   -2.000
 7204.00    0.37886   0.47710   -2.000
 7205.00    0.35330   0.47786   -2.000
 7206.00    0.37221   0.47773   -2.000
 7207.00    0.36386   0.47692   -2.000
 7208.00    0.32539   0.47737   -2.000
 7209.00    0.39307   0.47773   -2.000
 7210.00    0.59754   0.47724   -2.000
 7211.00    0.75163   0.47761   -2.000
 7212.00    0.73690   0.47817   -2.000
 7213.00    0.63502   0.47776   -2.000
 7214.00    0.52724   0.47745   -2.000
 7215.00    0.41051   0.47804   -2.000
 7216.00    0.30749   0.47815   -2.000
 7217.00    0.29628   0.47794   -2.000
 7218.00    0.41723   0.47867   -2.000
