###################################################################
## OUTPUT of StarlightChains_v04.for    [Cid@UFSC - 01/Apr/2007] ##
###################################################################

## Some input info
2004eu.txt                               [arq_obs]
Base.CB07.vall.4m                        [arq_base]
Masks.EmLines.NEW.gm                     [arq_masks]
StCv04.C11.config                        [arq_config]
   66                                    [N_base]
    0                                    [N_YAV_components = # of components with extra extinction!]
    0                                    [i_FitPowerLaw (1/0 = Yes/No)]
-9.99                                    [alpha_PowerLaw]
CCM                                      [red_law_option]
 1.458241                                [q_norm = A(l_norm)/A(V)]

## (Re)Sampling Parameters
 3741.00                                 [l_ini (A)]
 7218.00                                 [l_fin (A)]
    1.00                                 [dl    (A)]     (OBS: dl_cushion =    50.00 A)

## Normalization info
 4020.00                                 [l_norm (A) - for base]
 4010.00                                 [llow_norm (A) - window for f_obs]
 4060.00                                 [lupp_norm (A) - window for f_obs]
9.206236E-17                             [fobs_norm (in input units)]

## S/N
 3691.00                                 [llow_SN (A) - window for S/N]
 7268.00                                 [lupp_SN (A) - window for S/N]
   4.685                                 [S/N in S/N window]
   6.413                                 [S/N in norm. window]
  10.418                                 [S/N_err in S/N window]
  14.258                                 [S/N_err in norm. window]
  1.0000                                 [fscale_chi2]

## etc...
    -2007290                             [idum_orig]
  2383                                   [NOl_eff]
  2364                                   [Nl_eff]
    19    NSIGMA                         [Ntot_cliped & clip_method]
   979860                                [Nglobal_steps]
   7                                     [N_chains]
  15                                     [NEX0s_base = N_base in EX0s-fits]
 0   0   1        2   2.0   3.154E+01    [Clip-Bug, RC-Crash & Burn-In warning-flags, n_censored_weights, wei_nsig_threshold & wei_limit]
    14     13.880     13.388      0.493  [idt_all, wdt_TotTime, wdt_UsrTime & wdt_SysTime (sec)]

## Synthesis Results - Best model ##

 6.81897E-01                             [chi2/Nl_eff]
     6.23404                             [adev (%)]

   104.70842                             [sum-of-x (%)]
 2.03335E-16                             [Flux_tot (units of input spectrum!)]
 2.27282E-13                             [Mini_tot (???)]
 1.45709E-13                             [Mcor_tot (???)]

  13.70                                  [v0_min  (km/s)]
 193.45                                  [vd_min  (km/s)]
 0.5557                                  [AV_min  (mag)]
 0.0000                                  [YAV_min (mag)]

# j     x_j(%)      Mini_j(%)     Mcor_j(%)     age_j(yr)     Z_j      (L/M)_j    YAV?  Mstars   component_j        a/Fe...       SSP_chi2r SSP_adev(%)   SSP_AV   SSP_x(%)
  1      0.0000     0.0000E+00    0.0000E+00    1.000000E+06  0.00400  1.094E-02    0   1.0000   age020_m42            0.0000     8.5739E-01     6.5646   2.2240    89.0198
  2      3.9397     8.4006E-02    1.3102E-01    3.160000E+06  0.00400  4.007E-02    0   0.9999   age045_m42            0.0000     7.5839E-01     6.4518   1.4485    97.6384
  3      0.0000     0.0000E+00    0.0000E+00    5.010000E+06  0.00400  2.539E-02    0   0.9488   age055_m42            0.0000     7.6586E-01     6.3423   1.7869    94.3247
  4      0.0000     0.0000E+00    0.0000E+00    6.610000E+06  0.00400  2.620E-02    0   0.9220   age061_m42            0.0000     7.5369E-01     6.4466   1.3689    98.1742
  5      1.6739     1.0819E-01    1.4955E-01    1.000000E+07  0.00400  1.322E-02    0   0.8862   age070_m42            0.0000     7.2282E-01     6.3375   1.0806   100.6282
  6      0.0313     3.3966E-03    4.5410E-03    1.445000E+07  0.00400  7.883E-03    0   0.8571   age078_m42            0.0000     7.3729E-01     6.3092   1.4214    97.3914
  7      1.6714     2.7196E-01    3.4675E-01    2.512000E+07  0.00400  5.251E-03    0   0.8174   age090_m42            0.0000     7.3523E-01     6.4133   0.9446   101.5081
  8      0.0000     0.0000E+00    0.0000E+00    4.000000E+07  0.00400  3.649E-03    0   0.7851   age104_m42            0.0000     7.2878E-01     6.4320   0.7102   102.7212
  9      0.0000     0.0000E+00    0.0000E+00    5.500000E+07  0.00400  3.098E-03    0   0.7629   age110_m42            0.0000     7.4796E-01     6.5356   0.8578   103.0494
 10      0.0000     0.0000E+00    0.0000E+00    1.015200E+08  0.00400  2.228E-03    0   0.7207   age116_m42            0.0000     8.0017E-01     6.7157   0.8737   103.4811
 11      0.0000     0.0000E+00    0.0000E+00    2.861200E+08  0.00400  1.093E-03    0   0.6648   age125_m42            0.0000     8.9025E-01     7.0481   0.2943   107.3218
 12      0.0000     0.0000E+00    0.0000E+00    5.088000E+08  0.00400  6.597E-04    0   0.6365   age130_m42            0.0000     9.6474E-01     7.2297   0.2796   108.4401
 13      0.0000     0.0000E+00    0.0000E+00    1.434000E+09  0.00400  2.132E-04    0   0.5798   age139_m42            0.0000     9.4920E-01     7.2873  -0.6970   110.8087
 14      0.0000     0.0000E+00    0.0000E+00    4.250000E+09  0.00400  5.895E-05    0   0.5377   age158_m42            0.0000     1.0318E+00     7.1317  -1.0000   100.2540
 15      0.0000     0.0000E+00    0.0000E+00    7.500000E+09  0.00400  3.510E-05    0   0.5212   age171_m42            0.0000     1.4252E+00     7.8249  -1.0000    91.7586
 16      0.0000     0.0000E+00    0.0000E+00    1.300000E+10  0.00400  2.005E-05    0   0.5034   age193_m42            0.0000     1.9647E+00     9.0470  -1.0000    84.7631
 17      0.0000     0.0000E+00    0.0000E+00    1.800000E+10  0.00400  1.525E-05    0   0.4967   age213_m42            0.0000     2.0237E+00     9.2086  -1.0000    83.4855
 18      5.5028     3.7978E-01    5.9239E-01    1.000000E+06  0.00800  1.238E-02    0   1.0000   age020_m52            0.0000     8.5574E-01     6.5656   2.2203    89.1920
 19      5.1886     1.4421E-01    2.2419E-01    3.160000E+06  0.00800  3.074E-02    0   0.9966   age045_m52            0.0000     8.3711E-01     6.5161   2.1382    90.2195
 20      3.5359     1.1323E-01    1.6679E-01    5.010000E+06  0.00800  2.668E-02    0   0.9443   age055_m52            0.0000     7.6871E-01     6.3423   1.8750    93.1938
 21     30.0189     1.2008E+00    1.7188E+00    6.610000E+06  0.00800  2.136E-02    0   0.9177   age061_m52            0.0000     7.0688E-01     6.1931   0.5928   101.1072
 22      0.0000     0.0000E+00    0.0000E+00    1.000000E+07  0.00800  1.215E-02    0   0.8827   age070_m52            0.0000     7.5278E-01     6.4032   1.2652   100.1569
 23      0.0000     0.0000E+00    0.0000E+00    1.445000E+07  0.00800  8.717E-03    0   0.8552   age078_m52            0.0000     7.2359E-01     6.2912   1.3813    99.0065
 24      0.0000     0.0000E+00    0.0000E+00    2.512000E+07  0.00800  5.592E-03    0   0.8162   age090_m52            0.0000     7.3713E-01     6.4459   1.0035   102.9776
 25      0.0000     0.0000E+00    0.0000E+00    4.000000E+07  0.00800  3.896E-03    0   0.7841   age104_m52            0.0000     7.4178E-01     6.5268   0.9090   104.1989
 26      0.0000     0.0000E+00    0.0000E+00    1.015200E+08  0.00800  2.148E-03    0   0.7226   age116_m52            0.0000     7.6884E-01     6.6271   0.8418   104.3171
 27      0.0000     0.0000E+00    0.0000E+00    2.861200E+08  0.00800  9.925E-04    0   0.6683   age125_m52            0.0000     9.5544E-01     7.2002   0.3413   109.6064
 28      0.0000     0.0000E+00    0.0000E+00    9.047900E+08  0.00800  3.141E-04    0   0.6138   age135_m52            0.0000     1.1137E+00     7.8613  -0.4645   114.6685
 29      0.0000     0.0000E+00    0.0000E+00    1.434000E+09  0.00800  1.719E-04    0   0.5853   age139_m52            0.0000     1.0366E+00     7.5025  -1.0000   110.0923
 30      0.0000     0.0000E+00    0.0000E+00    2.500000E+09  0.00800  7.872E-05    0   0.5600   age150_m52            0.0000     1.4835E+00     7.9979  -1.0000    95.2730
 31      0.0000     0.0000E+00    0.0000E+00    4.250000E+09  0.00800  4.336E-05    0   0.5426   age158_m52            0.0000     1.5271E+00     8.0709  -1.0000    93.7242
 32      0.0000     0.0000E+00    0.0000E+00    6.250000E+09  0.00800  3.159E-05    0   0.5319   age166_m52            0.0000     2.2743E+00     9.6081  -1.0000    85.5850
 33      0.0000     0.0000E+00    0.0000E+00    1.300000E+10  0.00800  1.361E-05    0   0.5073   age193_m52            0.0000     4.6111E+00    14.6195  -1.0000    68.2176
 34      0.0000     0.0000E+00    0.0000E+00    1.800000E+10  0.00800  9.886E-06    0   0.4990   age213_m52            0.0000     5.3360E+00    15.8392  -1.0000    64.4785
 35      4.0056     2.2166E-01    3.4575E-01    1.000000E+06  0.02000  1.544E-02    0   1.0000   age020_m62            0.0000     8.5896E-01     6.5771   2.2172    89.3564
 36      4.9533     1.1250E-01    1.7298E-01    3.160000E+06  0.02000  3.762E-02    0   0.9858   age045_m62            0.0000     8.5213E-01     6.5487   2.1545    90.2209
 37      0.0000     0.0000E+00    0.0000E+00    5.010000E+06  0.02000  3.296E-02    0   0.9342   age055_m62            0.0000     7.5948E-01     6.3971   1.7376    95.9444
 38      0.4288     3.1745E-02    4.3877E-02    8.710000E+06  0.02000  1.154E-02    0   0.8861   age067_m62            0.0000     1.3099E+00     8.1255   0.7226   102.6460
 39      0.0000     0.0000E+00    0.0000E+00    1.445000E+07  0.02000  7.663E-03    0   0.8472   age078_m62            0.0000     8.6492E-01     6.7960   0.9104   102.5876
 40      0.0000     0.0000E+00    0.0000E+00    2.512000E+07  0.02000  4.532E-03    0   0.8099   age090_m62            0.0000     9.0092E-01     6.9478   0.8966   102.6562
 41      0.0000     0.0000E+00    0.0000E+00    5.500000E+07  0.02000  2.733E-03    0   0.7595   age110_m62            0.0000     7.3920E-01     6.4619   0.8957   103.2105
 42      0.0000     0.0000E+00    0.0000E+00    1.609000E+08  0.02000  1.369E-03    0   0.6985   age120_m62            0.0000     8.6637E-01     6.9145   0.7125   107.2718
 43      0.0000     0.0000E+00    0.0000E+00    2.861200E+08  0.02000  9.013E-04    0   0.6714   age125_m62            0.0000     1.0279E+00     7.3628   0.4469   111.1831
 44      0.0000     0.0000E+00    0.0000E+00    5.088000E+08  0.02000  5.028E-04    0   0.6449   age130_m62            0.0000     1.1929E+00     7.9433   0.0646   114.4644
 45      0.0000     0.0000E+00    0.0000E+00    9.047900E+08  0.02000  2.428E-04    0   0.6179   age135_m62            0.0000     1.1292E+00     7.9188  -0.5101   113.2057
 46      0.0000     0.0000E+00    0.0000E+00    1.434000E+09  0.02000  1.263E-04    0   0.5908   age139_m62            0.0000     1.1508E+00     7.9214  -0.9400   110.7594
 47      0.0000     0.0000E+00    0.0000E+00    2.500000E+09  0.02000  5.985E-05    0   0.5673   age150_m62            0.0000     1.6893E+00     8.4229  -1.0000    95.6475
 48      0.0000     0.0000E+00    0.0000E+00    4.250000E+09  0.02000  3.271E-05    0   0.5468   age158_m62            0.0000     2.8929E+00    10.7771  -1.0000    82.5843
 49      0.0000     0.0000E+00    0.0000E+00    1.000000E+10  0.02000  1.360E-05    0   0.5167   age181_m62            0.0000     4.8287E+00    14.3910  -1.0000    69.8495
 50      0.0000     0.0000E+00    0.0000E+00    1.800000E+10  0.02000  7.124E-06    0   0.5013   age213_m62            0.0000     6.1745E+00    16.7308  -1.0000    62.6666
 51      4.7584     1.5685E-01    2.4461E-01    1.000000E+06  0.05000  2.592E-02    0   0.9998   age020_m72            0.0000     8.7746E-01     6.6245   2.2135    89.1587
 52      0.0000     0.0000E+00    0.0000E+00    3.160000E+06  0.05000  4.845E-02    0   0.9577   age045_m72            0.0000     8.0851E-01     6.4676   2.0221    92.1441
 53      0.0000     0.0000E+00    0.0000E+00    5.010000E+06  0.05000  3.072E-02    0   0.9147   age055_m72            0.0000     8.4445E-01     6.6287   1.5224    97.5280
 54      0.0000     0.0000E+00    0.0000E+00    6.610000E+06  0.05000  1.455E-02    0   0.8877   age061_m72            0.0000     2.1615E+00    10.2463   0.7839   103.4374
 55      0.0000     0.0000E+00    0.0000E+00    1.000000E+07  0.05000  9.074E-03    0   0.8524   age070_m72            0.0000     9.9979E-01     7.1973   1.7170    97.0937
 56      0.0000     0.0000E+00    0.0000E+00    2.512000E+07  0.05000  4.250E-03    0   0.7902   age090_m72            0.0000     8.8321E-01     6.9604   1.3821   100.4071
 57      0.0000     0.0000E+00    0.0000E+00    4.000000E+07  0.05000  3.087E-03    0   0.7618   age104_m72            0.0000     9.2502E-01     7.1443   1.1396   102.8138
 58      0.0000     0.0000E+00    0.0000E+00    1.015200E+08  0.05000  1.700E-03    0   0.7096   age116_m72            0.0000     8.5507E-01     6.8948   0.8559   106.8095
 59      0.0000     0.0000E+00    0.0000E+00    2.861200E+08  0.05000  7.384E-04    0   0.6633   age125_m72            0.0000     1.1201E+00     7.6785   0.3084   113.1005
 60     35.5326     7.9496E+01    7.9013E+01    5.088000E+08  0.05000  3.819E-04    0   0.6372   age130_m72            0.0000     1.1450E+00     7.9671  -0.1836   114.8813
 61      3.4673     1.7676E+01    1.6846E+01    9.047900E+08  0.05000  1.676E-04    0   0.6110   age135_m72            0.0000     1.3299E+00     8.4811  -0.8517   111.4118
 62      0.0000     0.0000E+00    0.0000E+00    1.434000E+09  0.05000  8.837E-05    0   0.5874   age139_m72            0.0000     1.7893E+00     8.6289  -1.0000    97.0389
 63      0.0000     0.0000E+00    0.0000E+00    2.500000E+09  0.05000  4.233E-05    0   0.5598   age150_m72            0.0000     3.0093E+00    10.9278  -1.0000    83.2881
 64      0.0000     0.0000E+00    0.0000E+00    6.250000E+09  0.05000  1.435E-05    0   0.5249   age166_m72            0.0000     5.4026E+00    15.4756  -1.0000    66.3866
 65      0.0000     0.0000E+00    0.0000E+00    1.300000E+10  0.05000  6.513E-06    0   0.5036   age193_m72            0.0000     7.2406E+00    18.6662  -1.0000    58.5196
 66      0.0000     0.0000E+00    0.0000E+00    1.800000E+10  0.05000  4.527E-06    0   0.4945   age213_m72            0.0000     8.3331E+00    20.4646  -1.0000    53.9723


## Synthesis Results - Average & Chains ##

# j      x_j: min, <> & last-chain-values for 1 ...  7 chains
  1      0.0000      0.9182      1.7730      2.9705      0.0000      0.0000      2.6867      1.5064      0.0000
  2      3.9397      1.4136      3.6011      0.0000      4.0744      0.6582      1.5391      4.4088      6.0534
  3      0.0000      0.4676      0.7739      1.4900      0.0000      0.1243      0.7232      1.2924      0.0000
  4      0.0000      0.6826      0.0000      0.4448      0.0000      0.0000      2.0502      0.0000      0.0000
  5      1.6739      1.0873      2.1778      0.0000      0.0000      1.0144      0.0000      1.2898      2.1616
  6      0.0313      0.6553      2.7253      0.0000      1.4021      0.0000      2.0987      0.0000      2.1705
  7      1.6714      1.0744      0.7068      1.4744      0.2327      0.0111      3.1655      0.1684      1.2164
  8      0.0000      2.6719      0.0000      0.0000      0.0000      0.0000      0.0000      0.0000      0.0000
  9      0.0000      0.7726      0.0000      0.2744      2.3729      0.0000      0.0000      0.2842      0.2943
 10      0.0000      0.7157      0.0000      0.0000      0.9818      0.0000      0.0000      1.5996      0.0000
 11      0.0000      0.4810      0.0000      0.0509      0.0000      0.8706      0.0000      0.3688      0.0000
 12      0.0000      0.6286      0.0000      0.0000      0.0000      0.8180      0.0000      0.0000      0.0000
 13      0.0000      0.1748      0.0000      0.0000      0.0000      0.0000      0.0000      0.0000      0.0000
 14      0.0000      0.0261      0.0000      0.0522      0.0000      0.0000      0.0000      0.0000      0.4627
 15      0.0000      0.0369      0.4856      0.0000      0.0000      0.0000      0.0000      0.0000      0.0000
 16      0.0000      0.0097      0.0000      0.0000      0.0000      0.0000      0.0000      0.0000      0.0000
 17      0.0000      0.0233      0.0000      0.0000      0.0000      0.0000      0.0000      0.0000      0.0000
 18      5.5028      3.6835      4.1596      3.6303      4.3646      4.7470      3.8423      5.9218      3.8476
 19      5.1886      0.7748      1.5338      2.2526      0.0000      4.8038      0.0000      0.0000      1.3522
 20      3.5359      0.8329      0.5237      3.9453      2.4757      0.5496      1.5034      0.0000      3.7113
 21     30.0189     43.2828     43.4936     41.5131     40.1516     39.3235     44.0252     38.6811     43.9106
 22      0.0000      0.6889      0.0000      0.0000      0.0000      0.0000      1.2166      0.3145      0.0000
 23      0.0000      0.4729      0.9514      1.0479      0.7888      5.2726      0.0000      0.0000      0.0000
 24      0.0000      2.2294      3.7500      3.7530      3.7905      0.5534      0.0000      2.0700      0.3247
 25      0.0000      0.6649      0.0000      0.0000      0.0000      0.0000      0.0000      0.0000      0.0000
 26      0.0000      0.8326      0.0000      0.0000      0.0000      0.0000      2.1620      0.0000      0.0000
 27      0.0000      0.9085      0.0000      0.5054      0.0000      0.7642      0.0000      0.5909      0.6636
 28      0.0000      0.1490      0.0000      0.0000      0.0000      0.0000      0.0000      0.0000      0.0000
 29      0.0000      0.0776      0.8273      0.0000      0.0000      0.0000      0.0000      0.0000      0.0000
 30      0.0000      0.0324      0.0000      0.0000      0.0000      0.0000      0.0000      0.0000      0.0000
 31      0.0000      0.0081      0.0000      0.0000      0.0000      0.0000      0.0000      0.0000      0.0000
 32      0.0000      0.0220      0.0000      0.0000      0.0000      0.0000      0.0000      0.0000      0.0000
 33      0.0000      0.0143      0.0000      0.0000      0.0000      0.0000      0.0000      0.2379      0.0000
 34      0.0000      0.0119      0.0000      0.0000      0.1258      0.0000      0.0000      0.0000      0.1874
 35      4.0056      0.8319      4.6061      1.7702      1.8380      1.4707      0.0000      2.6211      1.4508
 36      4.9533      0.8632      0.0693      1.1463      1.9677      3.4526      0.0000      2.5218      2.4512
 37      0.0000      0.6444      0.0000      0.4709      0.0000      0.0000      2.3230      0.0000      0.0000
 38      0.4288      1.6142      0.0000      2.8850      3.6311      0.3791      1.0692      0.4774      1.2565
 39      0.0000      0.9358      0.0000      0.1663      0.0000      4.7173      0.3472      1.4319      0.0000
 40      0.0000      0.7513      0.0000      0.0000      0.0000      0.0000      2.3263      0.0000      0.0000
 41      0.0000      1.2232      0.7688      0.0000      0.0000      0.0000      0.0000      0.0000      0.0000
 42      0.0000      0.8306      1.2050      0.0000      0.0000      0.2649      0.0000      0.1373      0.0000
 43      0.0000      0.8285      0.9827      0.0000      0.0000      0.0000      0.0000      0.0000      0.0000
 44      0.0000      0.9880      0.0000      0.0000      0.0000      0.4725      0.5338      0.0000      0.0000
 45      0.0000      1.7243      2.2813      2.5529      3.0549      2.9581      1.9279      3.0320      0.0000
 46      0.0000      0.0435      0.0000      0.0000      0.0000      0.0000      0.0000      0.0000      0.0000
 47      0.0000      0.0494      0.3095      0.0000      0.0050      0.0000      0.0000      0.0000      0.0000
 48      0.0000      0.0191      0.0000      0.0000      0.0000      0.0000      0.0000      0.1189      0.0000
 49      0.0000      0.0039      0.0000      0.0000      0.0000      0.0000      0.0000      0.0000      0.0000
 50      0.0000      0.0189      0.0000      0.0000      0.0000      0.0000      0.0000      0.0000      0.0000
 51      4.7584      0.3070      0.7342      0.0000      1.2415      0.0000      1.2260      2.4182      1.8095
 52      0.0000      0.4428      0.0000      0.0000      1.9151      0.7429      1.4251      1.8369      0.2731
 53      0.0000      0.5050      0.0000      0.0000      0.0000      0.0000      0.0000      0.0000      0.0000
 54      0.0000      0.2342      0.1816      0.0000      0.0000      0.0000      0.0000      0.5811      0.0000
 55      0.0000      0.2544      0.0000      0.0000      0.0000      1.0941      0.0000      0.0000      0.0000
 56      0.0000      0.2034      0.0000      0.1632      0.0000      0.0000      0.0000      0.0000      0.0000
 57      0.0000      0.2768      0.0000      0.0000      0.0000      0.0000      0.0000      0.0000      0.0000
 58      0.0000      0.4492      0.2989      0.3847      0.0000      0.0000      0.2080      0.0000      0.0000
 59      0.0000      1.4003      0.1583      3.0755      0.0000      0.0000      0.0000      0.0000      0.0000
 60     35.5326     21.2892     23.4349     26.2385     29.5452     29.4493     26.2214     28.5823     27.7929
 61      3.4673      1.6758      1.8118      2.2181      1.4607      0.8040      2.4414      2.5620      2.7545
 62      0.0000      0.1463      0.0000      0.7683      0.0000      0.0000      0.0000      0.0000      0.0000
 63      0.0000      0.0153      0.2707      0.0000      0.0000      0.0000      0.0000      0.0000      0.0000
 64      0.0000      0.0202      0.0000      0.0000      0.0000      0.0000      0.0000      0.0000      0.0000
 65      0.0000      0.0334      0.0000      0.0000      0.0000      0.0000      0.0000      0.0000      0.4112
 66      0.0000      0.0038      0.0885      0.0000      0.0000      0.0000      0.0000      0.0000      0.0000

# j      m_j: min, <> & last-chain-values for 1 ...  7 chains
  1  0.0000E+00  1.2196E-01  1.9378E-01  3.8110E-01  0.0000E+00  0.0000E+00  3.8869E-01  1.7137E-01  0.0000E+00
  2  1.3102E-01  5.1259E-02  1.0745E-01  0.0000E+00  1.3868E-01  2.4899E-02  6.0787E-02  1.3692E-01  1.4266E-01
  3  0.0000E+00  2.5394E-02  3.4577E-02  7.8149E-02  0.0000E+00  7.0409E-03  4.2774E-02  6.0108E-02  0.0000E+00
  4  0.0000E+00  3.4908E-02  0.0000E+00  2.1969E-02  0.0000E+00  0.0000E+00  1.1419E-01  0.0000E+00  0.0000E+00
  5  1.4955E-01  1.0591E-01  1.7455E-01  0.0000E+00  0.0000E+00  1.0310E-01  0.0000E+00  1.0760E-01  1.3685E-01
  6  4.5410E-03  1.0353E-01  3.5430E-01  0.0000E+00  2.0793E-01  0.0000E+00  3.6117E-01  0.0000E+00  2.2288E-01
  7  3.4675E-01  2.4302E-01  1.3156E-01  3.2213E-01  4.9411E-02  2.6177E-03  7.7991E-01  3.2630E-02  1.7884E-01
  8  0.0000E+00  8.3535E-01  0.0000E+00  0.0000E+00  0.0000E+00  0.0000E+00  0.0000E+00  0.0000E+00  0.0000E+00
  9  0.0000E+00  2.7648E-01  0.0000E+00  9.4849E-02  7.9702E-01  0.0000E+00  0.0000E+00  8.7091E-02  6.8448E-02
 10  0.0000E+00  3.3643E-01  0.0000E+00  0.0000E+00  4.3318E-01  0.0000E+00  0.0000E+00  6.4397E-01  0.0000E+00
 11  0.0000E+00  4.2514E-01  0.0000E+00  4.3468E-02  0.0000E+00  8.0278E-01  0.0000E+00  2.7916E-01  0.0000E+00
 12  0.0000E+00  8.8129E-01  0.0000E+00  0.0000E+00  0.0000E+00  1.1965E+00  0.0000E+00  0.0000E+00  0.0000E+00
 13  0.0000E+00  6.9077E-01  0.0000E+00  0.0000E+00  0.0000E+00  0.0000E+00  0.0000E+00  0.0000E+00  0.0000E+00
 14  0.0000E+00  3.4629E-01  0.0000E+00  6.6861E-01  0.0000E+00  0.0000E+00  0.0000E+00  0.0000E+00  3.9862E+00
 15  0.0000E+00  7.9630E-01  8.6218E+00  0.0000E+00  0.0000E+00  0.0000E+00  0.0000E+00  0.0000E+00  0.0000E+00
 16  0.0000E+00  3.5365E-01  0.0000E+00  0.0000E+00  0.0000E+00  0.0000E+00  0.0000E+00  0.0000E+00  0.0000E+00
 17  0.0000E+00  1.1025E+00  0.0000E+00  0.0000E+00  0.0000E+00  0.0000E+00  0.0000E+00  0.0000E+00  0.0000E+00
 18  5.9239E-01  4.3236E-01  4.0174E-01  4.1158E-01  4.8088E-01  5.8132E-01  4.9123E-01  5.9531E-01  2.9352E-01
 19  2.2419E-01  3.6500E-02  5.9458E-02  1.0250E-01  0.0000E+00  2.3611E-01  0.0000E+00  0.0000E+00  4.1403E-02
 20  1.6679E-01  4.2838E-02  2.2162E-02  1.9599E-01  1.1952E-01  2.9492E-02  8.4221E-02  0.0000E+00  1.2406E-01
 21  1.7188E+00  2.7022E+00  2.2343E+00  2.5033E+00  2.3529E+00  2.5613E+00  2.9937E+00  2.0683E+00  1.7817E+00
 22  0.0000E+00  7.2726E-02  0.0000E+00  0.0000E+00  0.0000E+00  0.0000E+00  1.3989E-01  2.8438E-02  0.0000E+00
 23  0.0000E+00  6.7415E-02  1.1160E-01  1.4430E-01  1.0555E-01  7.8423E-01  0.0000E+00  0.0000E+00  0.0000E+00
 24  0.0000E+00  4.7284E-01  6.5444E-01  7.6884E-01  7.5463E-01  1.2246E-01  0.0000E+00  3.7603E-01  4.4766E-02
 25  0.0000E+00  1.9446E-01  0.0000E+00  0.0000E+00  0.0000E+00  0.0000E+00  0.0000E+00  0.0000E+00  0.0000E+00
 26  0.0000E+00  4.0701E-01  0.0000E+00  0.0000E+00  0.0000E+00  0.0000E+00  1.1512E+00  0.0000E+00  0.0000E+00
 27  0.0000E+00  8.8895E-01  0.0000E+00  4.7764E-01  0.0000E+00  7.8012E-01  0.0000E+00  4.9515E-01  4.2202E-01
 28  0.0000E+00  4.2300E-01  0.0000E+00  0.0000E+00  0.0000E+00  0.0000E+00  0.0000E+00  0.0000E+00  0.0000E+00
 29  0.0000E+00  3.8390E-01  3.3679E+00  0.0000E+00  0.0000E+00  0.0000E+00  0.0000E+00  0.0000E+00  0.0000E+00
 30  0.0000E+00  3.3510E-01  0.0000E+00  0.0000E+00  0.0000E+00  0.0000E+00  0.0000E+00  0.0000E+00  0.0000E+00
 31  0.0000E+00  1.4776E-01  0.0000E+00  0.0000E+00  0.0000E+00  0.0000E+00  0.0000E+00  0.0000E+00  0.0000E+00
 32  0.0000E+00  5.3795E-01  0.0000E+00  0.0000E+00  0.0000E+00  0.0000E+00  0.0000E+00  0.0000E+00  0.0000E+00
 33  0.0000E+00  7.7617E-01  0.0000E+00  0.0000E+00  0.0000E+00  0.0000E+00  0.0000E+00  1.1037E+01  0.0000E+00
 34  0.0000E+00  8.6983E-01  0.0000E+00  0.0000E+00  8.6599E+00  0.0000E+00  0.0000E+00  0.0000E+00  8.9351E+00
 35  3.4575E-01  7.8294E-02  3.5670E-01  1.6092E-01  1.6237E-01  1.4441E-01  0.0000E+00  2.1127E-01  8.8742E-02
 36  1.7298E-01  3.2870E-02  2.1714E-03  4.2161E-02  7.0329E-02  1.3716E-01  0.0000E+00  8.2243E-02  6.0662E-02
 37  0.0000E+00  2.6541E-02  0.0000E+00  1.8735E-02  0.0000E+00  0.0000E+00  1.0421E-01  0.0000E+00  0.0000E+00
 38  4.3877E-02  1.8011E-01  0.0000E+00  3.1092E-01  3.8029E-01  4.4133E-02  1.2995E-01  4.5621E-02  9.1119E-02
 39  0.0000E+00  1.5034E-01  0.0000E+00  2.5813E-02  0.0000E+00  7.9067E-01  6.0756E-02  1.9702E-01  0.0000E+00
 40  0.0000E+00  1.9510E-01  0.0000E+00  0.0000E+00  0.0000E+00  0.0000E+00  6.5799E-01  0.0000E+00  0.0000E+00
 41  0.0000E+00  4.9395E-01  2.5545E-01  0.0000E+00  0.0000E+00  0.0000E+00  0.0000E+00  0.0000E+00  0.0000E+00
 42  0.0000E+00  6.1581E-01  7.3513E-01  0.0000E+00  0.0000E+00  2.0489E-01  0.0000E+00  8.7176E-02  0.0000E+00
 43  0.0000E+00  8.9686E-01  8.7526E-01  0.0000E+00  0.0000E+00  0.0000E+00  0.0000E+00  0.0000E+00  0.0000E+00
 44  0.0000E+00  1.8414E+00  0.0000E+00  0.0000E+00  0.0000E+00  9.1876E-01  1.0837E+00  0.0000E+00  0.0000E+00
 45  0.0000E+00  6.3764E+00  6.9417E+00  9.1187E+00  1.0604E+01  1.1413E+01  7.7653E+00  9.6033E+00  0.0000E+00
 46  0.0000E+00  2.9541E-01  0.0000E+00  0.0000E+00  0.0000E+00  0.0000E+00  0.0000E+00  0.0000E+00  0.0000E+00
 47  0.0000E+00  6.7997E-01  3.5076E+00  0.0000E+00  6.4322E-02  0.0000E+00  0.0000E+00  0.0000E+00  0.0000E+00
 48  0.0000E+00  4.6502E-01  0.0000E+00  0.0000E+00  0.0000E+00  0.0000E+00  0.0000E+00  2.4730E+00  0.0000E+00
 49  0.0000E+00  2.1579E-01  0.0000E+00  0.0000E+00  0.0000E+00  0.0000E+00  0.0000E+00  0.0000E+00  0.0000E+00
 50  0.0000E+00  1.9369E+00  0.0000E+00  0.0000E+00  0.0000E+00  0.0000E+00  0.0000E+00  0.0000E+00  0.0000E+00
 51  2.4461E-01  1.7206E-02  3.3860E-02  0.0000E+00  6.5316E-02  0.0000E+00  7.4848E-02  1.1609E-01  6.5919E-02
 52  0.0000E+00  1.2719E-02  0.0000E+00  0.0000E+00  5.1633E-02  2.2263E-02  4.4587E-02  4.5190E-02  5.0989E-03
 53  0.0000E+00  2.1848E-02  0.0000E+00  0.0000E+00  0.0000E+00  0.0000E+00  0.0000E+00  0.0000E+00  0.0000E+00
 54  0.0000E+00  2.0762E-02  1.3246E-02  0.0000E+00  0.0000E+00  0.0000E+00  0.0000E+00  4.4127E-02  0.0000E+00
 55  0.0000E+00  3.4723E-02  0.0000E+00  0.0000E+00  0.0000E+00  1.5582E-01  0.0000E+00  0.0000E+00  0.0000E+00
 56  0.0000E+00  5.4953E-02  0.0000E+00  4.2587E-02  0.0000E+00  0.0000E+00  0.0000E+00  0.0000E+00  0.0000E+00
 57  0.0000E+00  9.9257E-02  0.0000E+00  0.0000E+00  0.0000E+00  0.0000E+00  0.0000E+00  0.0000E+00  0.0000E+00
 58  0.0000E+00  2.7247E-01  1.4916E-01  2.2537E-01  0.0000E+00  0.0000E+00  1.3745E-01  0.0000E+00  0.0000E+00
 59  0.0000E+00  1.8279E+00  1.7001E-01  3.8775E+00  0.0000E+00  0.0000E+00  0.0000E+00  0.0000E+00  0.0000E+00
 60  7.9013E+01  5.1616E+01  4.6752E+01  6.1446E+01  6.7239E+01  7.4493E+01  6.9246E+01  5.9352E+01  4.3796E+01
 61  1.6846E+01  8.8775E+00  7.8977E+00  1.1349E+01  7.2632E+00  4.4436E+00  1.4087E+01  1.1624E+01  9.4839E+00
 62  0.0000E+00  1.4132E+00  0.0000E+00  7.1680E+00  0.0000E+00  0.0000E+00  0.0000E+00  0.0000E+00  0.0000E+00
 63  0.0000E+00  2.9485E-01  4.2796E+00  0.0000E+00  0.0000E+00  0.0000E+00  0.0000E+00  0.0000E+00  0.0000E+00
 64  0.0000E+00  1.0724E+00  0.0000E+00  0.0000E+00  0.0000E+00  0.0000E+00  0.0000E+00  0.0000E+00  0.0000E+00
 65  0.0000E+00  3.7571E+00  0.0000E+00  0.0000E+00  0.0000E+00  0.0000E+00  0.0000E+00  0.0000E+00  3.0030E+01
 66  0.0000E+00  6.0510E-01  1.1560E+01  0.0000E+00  0.0000E+00  0.0000E+00  0.0000E+00  0.0000E+00  0.0000E+00

# AV, chi2 & Mass for <> & i_chain = 1 ...  7 solutions
AV       0.5557      0.4811      0.4887      0.4690      0.4721      0.5054      0.4918      0.4835      0.4782
chi2 6.8190E-01  6.8864E-01  6.8598E-01  6.8534E-01  6.8525E-01  6.8616E-01  6.8546E-01  6.8518E-01  6.8438E-01
Mass 1.4571E-13  1.2090E-13  1.4844E-13  1.2315E-13  1.2725E-13  1.1971E-13  1.1260E-13  1.4161E-13  1.8528E-13
  13.70                                  [v0_min (km/s) before EX0s...]
 193.45                                  [vd_min (km/s) before EX0s...]


## Synthetic spectrum (Best Model) ##l_obs f_obs f_syn wei
 3478    [Nl_obs]
 3741.00    0.88426   0.81606    0.000
 3742.00    1.01136   0.82093    0.000
 3743.00    1.01643   0.81519    0.000
 3744.00    0.92617   0.80007    0.000
 3745.00    0.81220   0.77738   12.312
 3746.00    0.72876   0.74957   13.722
 3747.00    0.70063   0.72011   14.273
 3748.00    0.72054   0.69374   13.878
 3749.00    0.77315   0.67588   12.934
 3750.00    0.84843   0.67101   11.786
 3751.00    0.91588   0.68090   -1.000
 3752.00    0.91819   0.70349   10.891
 3753.00    0.83654   0.73365   11.954
 3754.00    0.71992   0.76496   13.890
 3755.00    0.63359   0.79192   15.783
 3756.00    0.62401   0.81153   16.025
 3757.00    0.69051   0.82360   14.482
 3758.00    0.78536   0.83017   12.733
 3759.00    0.87102   0.83397   11.481
 3760.00    0.94008   0.83693   10.637
 3761.00    0.99253   0.83936   10.075
 3762.00    1.02582   0.83993    9.748
 3763.00    1.03380   0.83649    9.673
 3764.00    1.00793   0.82700    9.921
 3765.00    0.94217   0.81029   10.614
 3766.00    0.84326   0.78665   11.859
 3767.00    0.75436   0.75817   13.256
 3768.00    0.73255   0.72875   13.651
 3769.00    0.77266   0.70368   12.942
 3770.00    0.81516   0.68835   12.267
 3771.00    0.81436   0.68654   12.280
 3772.00    0.76150   0.69902   13.132
 3773.00    0.69645   0.72335   14.359
 3774.00    0.67432   0.75509   14.830
 3775.00    0.69712   0.78953   14.345
 3776.00    0.73119   0.82311   13.676
 3777.00    0.76243   0.85377   13.116
 3778.00    0.79869   0.88056   12.520
 3779.00    0.85582   0.90305   11.685
 3780.00    0.92608   0.92092   10.798
 3781.00    0.94080   0.93385   10.629
 3782.00    0.85748   0.94156   11.662
 3783.00    0.77361   0.94389   12.926
 3784.00    0.79547   0.94098   12.571
 3785.00    0.87046   0.93338   11.488
 3786.00    0.90246   0.92218   11.081
 3787.00    0.89483   0.90871   11.175
 3788.00    0.88575   0.89407   11.290
 3789.00    0.87140   0.87857   11.476
 3790.00    0.83830   0.86149   11.929
 3791.00    0.79762   0.84137   12.537
 3792.00    0.76919   0.81664   13.001
 3793.00    0.76407   0.78653   13.088
 3794.00    0.77142   0.75186   12.963
 3795.00    0.75685   0.71573   13.213
 3796.00    0.71362   0.68328   14.013
 3797.00    0.68641   0.66073   14.569
 3798.00    0.69723   0.65337   14.343
 3799.00    0.70971   0.66354   14.090
 3800.00    0.69619   0.68952   14.364
 3801.00    0.67009   0.72609   14.923
 3802.00    0.64958   0.76647   15.395
 3803.00    0.63920   0.80466   15.645
 3804.00    0.63667   0.83709   15.707
 3805.00    0.63833   0.86300   -1.000
 3806.00    0.64669   0.88375   -1.000
 3807.00    0.66951   0.90138   -1.000
 3808.00    0.70411   0.91713   14.202
 3809.00    0.73782   0.93074   13.553
 3810.00    0.76952   0.94078   12.995
 3811.00    0.81270   0.94580   12.305
 3812.00    0.88108   0.94546   11.350
 3813.00    0.97558   0.94089   10.250
 3814.00    1.06204   0.93405    9.416
 3815.00    1.08858   0.92663    9.186
 3816.00    1.04423   0.91926    9.576
 3817.00    0.96047   0.91182   10.412
 3818.00    0.87957   0.90431   11.369
 3819.00    0.84136   0.89754   11.885
 3820.00    0.87134   0.89268   11.477
 3821.00    0.95785   0.89012   10.440
 3822.00    1.01754   0.88876    9.828
 3823.00    0.96441   0.88636   10.369
 3824.00    0.83527   0.88084   11.972
 3825.00    0.73901   0.87130   13.532
 3826.00    0.74356   0.85792   13.449
 3827.00    0.84979   0.84115   11.768
 3828.00    0.98350   0.82091   10.168
 3829.00    1.05145   0.79644    9.511
 3830.00    1.01428   0.76694    9.859
 3831.00    0.88792   0.73255   11.262
 3832.00    0.73106   0.69531   13.679
 3833.00    0.60515   0.65943   16.525
 3834.00    0.53446   0.63050   18.710
 3835.00    0.51804   0.61391   19.304
 3836.00    0.54570   0.61295   18.325
 3837.00    0.60438   0.62773   16.546
 3838.00    0.68198   0.65535   14.663
 3839.00    0.76352   0.69123   13.097
 3840.00    0.83030   0.73061   12.044
 3841.00    0.87855   0.76962   11.382
 3842.00    0.92808   0.80559   10.775
 3843.00    0.98864   0.83695   10.115
 3844.00    1.04165   0.86311    9.600
 3845.00    1.06729   0.88419    9.370
 3846.00    1.06110   0.90081    9.424
 3847.00    1.03138   0.91384    0.000
 3848.00    0.99737   0.92421    0.000
 3849.00    0.98929   0.93282    0.000
 3850.00    1.03737   0.94037    0.000
 3851.00    1.12418   0.94706    0.000
 3852.00    1.18286   0.95257    0.000
 3853.00    1.17416   0.95635    0.000
 3854.00    1.11019   0.95808    0.000
 3855.00    1.02414   0.95802    0.000
 3856.00    0.95436   0.95698    0.000
 3857.00    0.93109   0.95599    0.000
 3858.00    0.96235   0.95596    0.000
 3859.00    1.00674   0.95748    0.000
 3860.00    1.00284   0.96063    0.000
 3861.00    0.96690   0.96493    0.000
 3862.00    0.96722   0.96938    0.000
 3863.00    0.99891   0.97292    0.000
 3864.00    1.00030   0.97487    0.000
 3865.00    0.95715   0.97513    0.000
 3866.00    0.90399   0.97400    0.000
 3867.00    0.87860   0.97169    0.000
 3868.00    0.89123   0.96799    0.000
 3869.00    0.88972   0.96250    0.000
 3870.00    0.82359   0.95520    0.000
 3871.00    0.75455   0.94685    0.000
 3872.00    0.77384   0.93886    0.000
 3873.00    0.85646   0.93230    0.000
 3874.00    0.92798   0.92718    0.000
 3875.00    0.98134   0.92229    0.000
 3876.00    1.03567   0.91606    0.000
 3877.00    1.06922   0.90753    0.000
 3878.00    1.05636   0.89663    0.000
 3879.00    1.01516   0.88368    0.000
 3880.00    0.97554   0.86864    0.000
 3881.00    0.94237   0.85076   10.611
 3882.00    0.90456   0.82878   11.055
 3883.00    0.84843   0.80158   11.787
 3884.00    0.77322   0.76883   12.933
 3885.00    0.70056   0.73170   14.274
 3886.00    0.65181   0.69336   15.342
 3887.00    0.63131   0.65896   15.840
 3888.00    0.63528   0.63460   15.741
 3889.00    0.65882   0.62533   15.179
 3890.00    0.69557   0.63321   14.377
 3891.00    0.73867   0.65637   13.538
 3892.00    0.78889   0.68980   12.676
 3893.00    0.85390   0.72739   11.711
 3894.00    0.92106   0.76398   10.857
 3895.00    0.95438   0.79648   10.478
 3896.00    0.94781   0.82388   10.551
 3897.00    0.93749   0.84653   10.667
 3898.00    0.94560   0.86542   10.575
 3899.00    0.96418   0.88155   10.372
 3900.00    0.98823   0.89554   10.119
 3901.00    1.02489   0.90751    9.757
 3902.00    1.07896   0.91728    9.268
 3903.00    1.14140   0.92491    8.761
 3904.00    1.17106   0.93107    8.539
 3905.00    1.11955   0.93702    8.932
 3906.00    1.01597   0.94410    9.843
 3907.00    0.94373   0.95296   10.596
 3908.00    0.91953   0.96315   10.875
 3909.00    0.90134   0.97326   11.095
 3910.00    0.88124   0.98158   11.348
 3911.00    0.88658   0.98687   11.279
 3912.00    0.93484   0.98875   10.697
 3913.00    1.02320   0.98768    9.773
 3914.00    1.12804   0.98448    8.865
 3915.00    1.21248   0.97995    8.248
 3916.00    1.24048   0.97466    8.061
 3917.00    1.19866   0.96904    8.343
 3918.00    1.12451   0.96361    8.893
 3919.00    1.07174   0.95904    9.331
 3920.00    1.05544   0.95587    9.475
 3921.00    1.06595   0.95414    9.381
 3922.00    1.09606   0.95309    9.124
 3923.00    1.12765   0.95132    8.868
 3924.00    1.11597   0.94722    8.961
 3925.00    1.04153   0.93956    9.601
 3926.00    0.96084   0.92773   10.408
 3927.00    0.92961   0.91167   10.757
 3928.00    0.92778   0.89165   10.778
 3929.00    0.91262   0.86825   10.957
 3930.00    0.87029   0.84269   11.490
 3931.00    0.79706   0.81728   12.546
 3932.00    0.68538   0.79555   14.590
 3933.00    0.55933   0.78159   -1.000
 3934.00    0.49067   0.77868   -1.000
 3935.00    0.52467   0.78791   -1.000
 3936.00    0.63694   0.80757   15.700
 3937.00    0.78144   0.83370   12.797
 3938.00    0.92344   0.86147   10.829
 3939.00    1.04916   0.88669    9.531
 3940.00    1.16270   0.90675    8.601
 3941.00    1.24831   0.92093    8.011
 3942.00    1.26578   0.93011    7.900
 3943.00    1.21432   0.93600    8.235
 3944.00    1.14387   0.94032    8.742
 3945.00    1.08147   0.94406    9.247
 3946.00    1.01552   0.94732    9.847
 3947.00    0.95153   0.94971   10.509
 3948.00    0.92156   0.95086   10.851
 3949.00    0.94470   0.95078   10.585
 3950.00    1.01268   0.94969    9.875
 3951.00    1.08940   0.94785    9.179
 3952.00    1.13094   0.94526    8.842
 3953.00    1.13843   0.94173    8.784
 3954.00    1.13985   0.93697    8.773
 3955.00    1.11069   0.93080    9.003
 3956.00    1.00918   0.92308    9.909
 3957.00    0.89648   0.91355   11.155
 3958.00    0.87630   0.90156   11.412
 3959.00    0.92085   0.88611   10.860
 3960.00    0.93041   0.86622    0.000
 3961.00    0.90591   0.84131    0.000
 3962.00    0.90438   0.81135    0.000
 3963.00    0.91321   0.77657    0.000
 3964.00    0.88746   0.73738    0.000
 3965.00    0.83689   0.69460    0.000
 3966.00    0.79840   0.65014    0.000
 3967.00    0.78075   0.60763    0.000
 3968.00    0.77293   0.57230    0.000
 3969.00    0.76439   0.54983    0.000
 3970.00    0.75040   0.54452    0.000
 3971.00    0.73507   0.55763    0.000
 3972.00    0.72816   0.58689    0.000
 3973.00    0.74057   0.62740    0.000
 3974.00    0.77526   0.67335    0.000
 3975.00    0.82072   0.71961    0.000
 3976.00    0.86659   0.76266    0.000
 3977.00    0.91500   0.80057    0.000
 3978.00    0.95947   0.83253    0.000
 3979.00    0.97183   0.85844    0.000
 3980.00    0.93279   0.87868    0.000
 3981.00    0.85510   0.89419   11.695
 3982.00    0.78760   0.90640   12.697
 3983.00    0.80108   0.91685   12.483
 3984.00    0.89627   0.92675   11.157
 3985.00    0.97589   0.93665   10.247
 3986.00    0.98101   0.94647   10.194
 3987.00    0.95057   0.95578   10.520
 3988.00    0.95030   0.96421   10.523
 3989.00    1.02348   0.97155    9.771
 3990.00    1.13694   0.97775    8.796
 3991.00    1.19107   0.98266    8.396
 3992.00    1.14748   0.98599    8.715
 3993.00    1.05955   0.98743    9.438
 3994.00    0.99872   0.98703   10.013
 3995.00    1.01439   0.98550    9.858
 3996.00    1.09576   0.98408    9.126
 3997.00    1.18042   0.98409    8.472
 3998.00    1.21441   0.98624    8.234
 3999.00    1.17807   0.99012    8.488
 4000.00    1.10484   0.99439    9.051
 4001.00    1.05815   0.99734    9.450
 4002.00    1.06615   0.99777    9.380
 4003.00    1.10899   0.99553    9.017
 4004.00    1.12801   0.99165    8.865
 4005.00    1.07057   0.98792    9.341
 4006.00    0.97011   0.98599   10.308
 4007.00    0.90318   0.98673   11.072
 4008.00    0.88701   0.99000   11.274
 4009.00    0.89495   0.99494   11.174
 4010.00    0.91070   1.00050   10.981
 4011.00    0.93257   1.00583   10.723
 4012.00    0.96636   1.01047   10.348
 4013.00    1.01914   1.01430    9.812
 4014.00    1.09187   1.01747    9.159
 4015.00    1.17272   1.02015    8.527
 4016.00    1.23230   1.02251    8.115
 4017.00    1.25119   1.02451    7.992
 4018.00    1.24742   1.02573    8.017
 4019.00    1.24011   1.02530    8.064
 4020.00    1.21427   1.02218    8.235
 4021.00    1.15897   1.01565    8.628
 4022.00    1.10031   1.00595    9.088
 4023.00    1.06009   0.99451    9.433
 4024.00    1.02572   0.98360    9.749
 4025.00    1.00001   0.97550   10.000
 4026.00    1.02790   0.97143    9.729
 4027.00    1.11049   0.97099    9.005
 4028.00    1.16279   0.97250    8.600
 4029.00    1.12561   0.97415    8.884
 4030.00    1.02684   0.97509    9.739
 4031.00    0.92284   0.97588   10.836
 4032.00    0.85940   0.97794   11.636
 4033.00    0.85349   0.98260   11.717
 4034.00    0.88945   0.99028   11.243
 4035.00    0.94127   1.00020   10.624
 4036.00    0.98436   1.01069   10.159
 4037.00    1.00000   1.01980   10.000
 4038.00    0.98134   1.02599   10.190
 4039.00    0.94846   1.02841   10.543
 4040.00    0.93520   1.02694   10.693
 4041.00    0.92713   1.02203   10.786
 4042.00    0.87544   1.01463   11.423
 4043.00    0.80336   1.00612   12.448
 4044.00    0.79379   0.99827   12.598
 4045.00    0.86338   0.99294   11.582
 4046.00    0.95610   0.99147   10.459
 4047.00    1.01841   0.99390    9.819
 4048.00    1.02508   0.99882    9.755
 4049.00    0.99189   1.00402   10.082
 4050.00    0.95687   1.00746   10.451
 4051.00    0.93681   1.00802   10.675
 4052.00    0.93609   1.00574   10.683
 4053.00    0.97870   1.00157   10.218
 4054.00    1.07479   0.99687    9.304
 4055.00    1.15752   0.99290    8.639
 4056.00    1.14946   0.99044    8.700
 4057.00    1.07757   0.98951    9.280
 4058.00    1.01437   0.98944    9.858
 4059.00    0.97295   0.98912   10.278
 4060.00    0.93580   0.98761   10.686
 4061.00    0.90924   0.98455   10.998
 4062.00    0.91262   0.98031   10.957
 4063.00    0.95709   0.97582   10.448
 4064.00    1.03346   0.97209    9.676
 4065.00    1.10426   0.96965    9.056
 4066.00    1.12851   0.96823    8.861
 4067.00    1.08776   0.96712    9.193
 4068.00    1.00073   0.96568    9.993
 4069.00    0.92687   0.96370   10.789
 4070.00    0.90654   0.96130   11.031
 4071.00    0.91934   0.95854   10.877
 4072.00    0.93065   0.95525   10.745
 4073.00    0.92750   0.95100   10.782
 4074.00    0.91763   0.94551   10.898
 4075.00    0.92101   0.93929   10.858
 4076.00    0.93149   0.93376   10.735
 4077.00    0.90884   0.93073   11.003
 4078.00    0.85791   0.93141   11.656
 4079.00    0.84836   0.93558   11.787
 4080.00    0.90092   0.94148   11.100
 4081.00    0.95610   0.94672   10.459
 4082.00    0.98669   0.94942   10.135
 4083.00    1.02684   0.94896    9.739
 4084.00    1.08428   0.94596    9.223
 4085.00    1.12313   0.94162    8.904
 4086.00    1.13233   0.93705    8.831
 4087.00    1.13365   0.93272    8.821
 4088.00    1.12554   0.92836    8.885
 4089.00    1.08424   0.92323    9.223
 4090.00    1.02215   0.91647    9.783
 4091.00    0.98286   0.90714   10.174
 4092.00    0.98147   0.89428    0.000
 4093.00    1.00262   0.87707    0.000
 4094.00    1.03502   0.85497    0.000
 4095.00    1.07141   0.82779    0.000
 4096.00    1.08985   0.79577    0.000
 4097.00    1.06909   0.75963    0.000
 4098.00    1.02587   0.72119    0.000
 4099.00    0.99612   0.68393    0.000
 4100.00    0.98780   0.65271    0.000
 4101.00    0.98044   0.63252    0.000
 4102.00    0.94001   0.62709    0.000
 4103.00    0.84846   0.63743    0.000
 4104.00    0.74160   0.66127    0.000
 4105.00    0.67623   0.69382    0.000
 4106.00    0.67805   0.72953    0.000
 4107.00    0.73512   0.76375    0.000
 4108.00    0.80183   0.79384    0.000
 4109.00    0.84421   0.81918    0.000
 4110.00    0.88448   0.84046    0.000
 4111.00    0.94118   0.85876    0.000
 4112.00    0.97056   0.87485    0.000
 4113.00    0.93683   0.88894   10.674
 4114.00    0.87571   0.90070   11.419
 4115.00    0.83660   0.90953   11.953
 4116.00    0.83056   0.91513   12.040
 4117.00    0.84029   0.91790   11.901
 4118.00    0.83669   0.91880   11.952
 4119.00    0.82082   0.91917   12.183
 4120.00    0.83949   0.92032   11.912
 4121.00    0.90372   0.92314   11.065
 4122.00    0.95187   0.92767   10.506
 4123.00    0.93928   0.93302   10.646
 4124.00    0.88336   0.93784   11.320
 4125.00    0.82284   0.94090   12.153
 4126.00    0.79162   0.94165   12.632
 4127.00    0.80296   0.94017   12.454
 4128.00    0.84634   0.93714   11.816
 4129.00    0.90418   0.93359   11.060
 4130.00    0.95843   0.93081   10.434
 4131.00    0.98777   0.92997   10.124
 4132.00    0.97393   0.93193   10.268
 4133.00    0.92669   0.93697   10.791
 4134.00    0.88245   0.94457   11.332
 4135.00    0.87244   0.95374   11.462
 4136.00    0.90967   0.96311   10.993
 4137.00    0.98208   0.97103   10.182
 4138.00    1.05631   0.97589    9.467
 4139.00    1.09230   0.97634    9.155
 4140.00    1.06458   0.97187    9.393
 4141.00    1.00056   0.96363    9.994
 4142.00    0.95605   0.95424   10.460
 4143.00    0.94625   0.94660   10.568
 4144.00    0.95296   0.94278   10.494
 4145.00    0.96640   0.94336   10.348
 4146.00    0.98628   0.94719   10.139
 4147.00    1.00945   0.95223    9.906
 4148.00    1.02833   0.95659    9.725
 4149.00    1.03276   0.95909    9.683
 4150.00    1.02190   0.95941    9.786
 4151.00    1.01938   0.95793    9.810
 4152.00    1.05217   0.95543    9.504
 4153.00    1.12054   0.95276    8.924
 4154.00    1.19746   0.95072    8.351
 4155.00    1.23566   0.95006    8.093
 4156.00    1.20736   0.95122    8.283
 4157.00    1.14226   0.95410    8.755
 4158.00    1.08753   0.95816    9.195
 4159.00    1.06546   0.96276    9.386
 4160.00    1.07836   0.96732    9.273
 4161.00    1.11616   0.97140    8.959
 4162.00    1.15552   0.97465    8.654
 4163.00    1.16334   0.97685    8.596
 4164.00    1.13123   0.97775    8.840
 4165.00    1.09321   0.97727    9.147
 4166.00    1.07348   0.97553    9.315
 4167.00    1.05729   0.97250    9.459
 4168.00    1.03141   0.96789    9.698
 4169.00    1.00730   0.96143    9.926
 4170.00    1.00644   0.95344    9.930
 4171.00    1.04417   0.94494    9.582
 4172.00    1.09460   0.93733    9.150
 4173.00    1.09437   0.93166    9.123
 4174.00    1.03573   0.92832    9.614
 4175.00    0.98322   0.92708   10.229
 4176.00    0.96971   0.92752   10.441
 4177.00    0.97136   0.92936   10.116
 4178.00    0.97544   0.93223    9.928
 4179.00    0.99186   0.93563   10.648
 4180.00    1.00588   0.93915   10.908
 4181.00    0.98167   0.94253    8.402
 4182.00    0.92047   0.94542    6.063
 4183.00    0.86256   0.94748    5.260
 4184.00    0.84368   0.94840    5.344
 4185.00    0.87350   0.94830    5.572
 4186.00    0.91523   0.94805    5.598
 4187.00    0.92165   0.94845    5.531
 4188.00    0.92337   0.94990    5.434
 4189.00    0.98111   0.95253    5.283
 4190.00    1.05248   0.95619    5.141
 4191.00    1.04045   0.96009    5.102
 4192.00    0.93058   0.96273    5.186
 4193.00    0.78933   0.96271    5.339
 4194.00    0.71502   0.95940    5.453
 4195.00    0.76309   0.95294    5.445
 4196.00    0.85318   0.94420    5.405
 4197.00    0.87679   0.93497    5.452
 4198.00    0.85715   0.92714    5.529
 4199.00    0.86113   0.92181    5.522
 4200.00    0.86903   0.91952    5.453
 4201.00    0.85189   0.92036    5.398
 4202.00    0.86688   0.92379    5.365
 4203.00    0.94118   0.92906    5.354
 4204.00    0.95996   0.93561    5.424
 4205.00    0.85244   0.94272    5.606
 4206.00    0.75331   0.94957    5.811
 4207.00    0.78939   0.95548    5.917
 4208.00    0.90259   0.96014    5.891
 4209.00    0.99147   0.96354    5.815
 4210.00    1.02708   0.96564    5.836
 4211.00    1.01565   0.96627    6.009
 4212.00    0.96827   0.96525    6.208
 4213.00    0.91082   0.96278    6.279
 4214.00    0.88333   0.96006    6.191
 4215.00    0.89242   0.95856    6.042
 4216.00    0.89590   0.95895    5.976
 4217.00    0.86819   0.96109    6.050
 4218.00    0.82735   0.96423    6.185
 4219.00    0.79572   0.96694    6.239
 4220.00    0.78113   0.96740    6.093
 4221.00    0.78172   0.96426    5.848
 4222.00    0.78660   0.95706    5.742
 4223.00    0.76949   0.94645    5.784
 4224.00    0.70757   0.93441    5.765
 4225.00    0.65372   0.92413    5.614
 4226.00    0.70654   0.91879    5.462
 4227.00    0.83720   0.91960    5.411
 4228.00    0.90851   0.92553    5.483
 4229.00    0.88902   0.93414    5.620
 4230.00    0.86478   0.94221    5.714
 4231.00    0.90384   0.94737    5.719
 4232.00    1.00139   0.94910    5.692
 4233.00    1.04238   0.94789    5.748
 4234.00    0.91024   0.94490    5.957
 4235.00    0.72798   0.94187    6.112
 4236.00    0.71398   0.93996    5.919
 4237.00    0.81086   0.93964    5.603
 4238.00    0.81969   0.94123    5.527
 4239.00    0.75682   0.94453    5.662
 4240.00    0.75374   0.94876    5.781
 4241.00    0.80124   0.95325    5.798
 4242.00    0.81772   0.95737    5.793
 4243.00    0.80441   0.96000    5.908
 4244.00    0.80445   0.96022    6.218
 4245.00    0.82098   0.95800    6.544
 4246.00    0.83433   0.95406    6.618
 4247.00    0.83533   0.94915    6.509
 4248.00    0.82814   0.94398    6.425
 4249.00    0.82724   0.93975    6.399
 4250.00    0.83772   0.93730    6.388
 4251.00    0.83826   0.93638    6.387
 4252.00    0.80372   0.93660    6.393
 4253.00    0.72957   0.93790    6.371
 4254.00    0.65389   0.94002    6.302
 4255.00    0.65896   0.94207    6.218
 4256.00    0.75726   0.94300    6.155
 4257.00    0.83137   0.94243    6.124
 4258.00    0.81057   0.94073   -2.000
 4259.00    0.77120   0.93917   -2.000
 4260.00    0.79387   0.93930   -2.000
 4261.00    0.87357   0.94187   -2.000
 4262.00    0.93440   0.94651   -2.000
 4263.00    0.87516   0.95211   -2.000
 4264.00    0.74009   0.95688   -2.000
 4265.00    0.73558   0.95901   -2.000
 4266.00    0.91669   0.95769   -2.000
 4267.00    1.10969   0.95286   -2.000
 4268.00    1.19503   0.94488   -2.000
 4269.00    1.19395   0.93476   -2.000
 4270.00    1.13866   0.92455   -2.000
 4271.00    1.03772   0.91631   -2.000
 4272.00    0.93111   0.91108   -2.000
 4273.00    0.88097   0.90944   -2.000
 4274.00    0.88659   0.91174    5.847
 4275.00    0.88983   0.91727    5.904
 4276.00    0.86299   0.92446    5.910
 4277.00    0.81596   0.93147    5.904
 4278.00    0.75180   0.93684    5.938
 4279.00    0.67737   0.93987    6.027
 4280.00    0.65119   0.94046    6.075
 4281.00    0.73788   0.93904    5.967
 4282.00    0.89533   0.93630    5.795
 4283.00    1.00887   0.93267    5.737
 4284.00    0.99989   0.92845    5.806
 4285.00    0.87072   0.92371    5.918
 4286.00    0.73920   0.91816    6.023
 4287.00    0.73291   0.91175    6.105
 4288.00    0.82321   0.90545    6.143
 4289.00    0.89213   0.90102    6.142
 4290.00    0.86366   0.89945    6.181
 4291.00    0.75246   0.90020    6.303
 4292.00    0.69050   0.90190    6.369
 4293.00    0.76641   0.90326    6.260
 4294.00    0.85458   0.90312    6.138
 4295.00    0.82219   0.90047    6.154
 4296.00    0.74827   0.89477    6.200
 4297.00    0.74002   0.88614    6.151
 4298.00    0.75171   0.87589    6.106
 4299.00    0.72128   0.86595    6.138
 4300.00    0.69087   0.85759    6.111
 4301.00    0.70754   0.85158    5.951
 4302.00    0.74647   0.84841    5.821
 4303.00    0.77865   0.84760    5.850
 4304.00    0.81585   0.84804    5.986
 4305.00    0.85995   0.84866    6.098
 4306.00    0.87842   0.84896    6.056
 4307.00    0.86641   0.84943    5.916
 4308.00    0.86959   0.85102    5.919
 4309.00    0.90441   0.85424    6.097
 4310.00    0.92716   0.85884    6.161
 4311.00    0.89674   0.86431    6.044
 4312.00    0.81129   0.87037    6.057
 4313.00    0.72744   0.87727    6.251
 4314.00    0.73567   0.88533    6.277
 4315.00    0.83471   0.89398    6.065
 4316.00    0.92323   0.90204    5.938
 4317.00    0.94957   0.90830    5.971
 4318.00    0.94753   0.91173    5.962
 4319.00    0.97173   0.91167    5.872
 4320.00    1.05031   0.90805    5.861
 4321.00    1.11519   0.90092    5.985
 4322.00    1.05079   0.89059    6.172
 4323.00    0.87348   0.87823    6.332
 4324.00    0.71528   0.86607    6.404
 4325.00    0.66794   0.85660    6.388
 4326.00    0.73645   0.85093    6.307
 4327.00    0.82681   0.84830    6.131
 4328.00    0.82900   0.84695    5.944
 4329.00    0.77945   0.84518    6.249
 4330.00    0.78296   0.84154    0.000
 4331.00    0.81985   0.83465    0.000
 4332.00    0.81148   0.82339    0.000
 4333.00    0.77834   0.80696    0.000
 4334.00    0.76956   0.78455    0.000
 4335.00    0.72896   0.75569    0.000
 4336.00    0.61229   0.72141    0.000
 4337.00    0.55703   0.68442    0.000
 4338.00    0.69825   0.64888    0.000
 4339.00    0.93028   0.62048    0.000
 4340.00    1.06322   0.60462    0.000
 4341.00    1.02761   0.60352    0.000
 4342.00    0.87890   0.61615    0.000
 4343.00    0.76403   0.63967    0.000
 4344.00    0.76103   0.67006    0.000
 4345.00    0.75919   0.70278    0.000
 4346.00    0.67847   0.73401    0.000
 4347.00    0.63359   0.76120    0.000
 4348.00    0.71428   0.78269    0.000
 4349.00    0.83085   0.79804    0.000
 4350.00    0.87220   0.80873    0.000
 4351.00    0.81970   0.81761    6.815
 4352.00    0.72843   0.82684    6.784
 4353.00    0.69151   0.83717    6.759
 4354.00    0.73079   0.84859    6.811
 4355.00    0.76364   0.86051    6.910
 4356.00    0.74884   0.87173    7.023
 4357.00    0.74052   0.88144    7.154
 4358.00    0.78111   0.88987    7.274
 4359.00    0.85671   0.89768    7.309
 4360.00    0.92808   0.90510    7.255
 4361.00    0.95666   0.91207    7.195
 4362.00    0.94781   0.91846    7.180
 4363.00    0.94736   0.92389    7.191
 4364.00    0.97373   0.92738    7.178
 4365.00    1.00472   0.92818    7.106
 4366.00    1.01128   0.92659    7.048
 4367.00    0.97838   0.92371    7.120
 4368.00    0.93089   0.92053    7.254
 4369.00    0.91393   0.91766    7.249
 4370.00    0.92583   0.91534    7.122
 4371.00    0.92636   0.91326    7.066
 4372.00    0.89558   0.91090    7.131
 4373.00    0.84494   0.90860    7.240
 4374.00    0.80956   0.90766    7.318
 4375.00    0.81888   0.90903    7.327
 4376.00    0.84673   0.91217    7.278
 4377.00    0.84711   0.91554    7.205
 4378.00    0.83023   0.91752    7.121
 4379.00    0.83662   0.91679    7.030
 4380.00    0.87637   0.91212    6.941
 4381.00    0.92164   0.90295    6.880
 4382.00    0.91396   0.89069    6.903
 4383.00    0.82869   0.87859    7.037
 4384.00    0.74883   0.86955    7.211
 4385.00    0.76152   0.86459    7.303
 4386.00    0.83235   0.86357    7.246
 4387.00    0.87936   0.86635    7.084
 4388.00    0.86756   0.87214    6.965
 4389.00    0.81681   0.87944    6.974
 4390.00    0.79199   0.88715    7.033
 4391.00    0.82539   0.89442    7.042
 4392.00    0.86075   0.90023    7.016
 4393.00    0.85434   0.90431    6.999
 4394.00    0.84831   0.90758    6.996
 4395.00    0.88311   0.91091    7.008
 4396.00    0.93632   0.91383    7.054
 4397.00    0.96905   0.91536    7.104
 4398.00    0.96122   0.91521    7.058
 4399.00    0.92164   0.91394    6.920
 4400.00    0.88461   0.91245    6.851
 4401.00    0.86449   0.91088    6.937
 4402.00    0.84045   0.90864    7.103
 4403.00    0.80358   0.90608    7.221
 4404.00    0.77680   0.90456    7.185
 4405.00    0.79585   0.90466    7.007
 4406.00    0.88484   0.90585    6.809
 4407.00    0.99672   0.90807    6.663
 4408.00    1.02996   0.91159    6.572
 4409.00    0.97357   0.91584    6.544
 4410.00    0.91559   0.91967    6.601
 4411.00    0.89430   0.92195    6.703
 4412.00    0.87572   0.92151    6.754
 4413.00    0.83772   0.91801    6.720
 4414.00    0.78950   0.91298    6.650
 4415.00    0.75285   0.90863    6.624
 4416.00    0.75225   0.90635    6.692
 4417.00    0.80352   0.90696    6.777
 4418.00    0.89707   0.91029    6.743
 4419.00    0.96961   0.91489    6.657
 4420.00    0.95654   0.91908    6.678
 4421.00    0.90477   0.92216    6.763
 4422.00    0.90274   0.92441    6.759
 4423.00    0.91644   0.92595    6.696
 4424.00    0.86270   0.92662    6.709
 4425.00    0.77577   0.92652    6.830
 4426.00    0.75121   0.92603    6.983
 4427.00    0.82054   0.92526    7.033
 4428.00    0.94545   0.92384    6.917
 4429.00    1.03975   0.92168    6.816
 4430.00    1.03496   0.91929    6.890
 4431.00    0.95418   0.91672    7.024
 4432.00    0.86676   0.91376    7.051
 4433.00    0.82516   0.91100    7.070
 4434.00    0.83898   0.90963    7.207
 4435.00    0.86169   0.91056    7.342
 4436.00    0.85620   0.91359    7.321
 4437.00    0.84936   0.91758    7.217
 4438.00    0.86015   0.92085    7.148
 4439.00    0.84500   0.92188    7.123
 4440.00    0.78059   0.92015    7.112
 4441.00    0.71979   0.91647    7.098
 4442.00    0.71018   0.91266    7.067
 4443.00    0.73879   0.91071    7.003
 4444.00    0.76420   0.91132    6.961
 4445.00    0.74873   0.91366    7.073
 4446.00    0.71227   0.91681    7.313
 4447.00    0.73885   0.92015    7.404
 4448.00    0.85394   0.92256    7.230
 4449.00    0.98094   0.92317    7.040
 4450.00    1.04385   0.92207    7.036
 4451.00    1.01609   0.91937    7.247
 4452.00    0.91135   0.91481    7.592
 4453.00    0.77630   0.90868    7.876
 4454.00    0.68034   0.90235    7.927
 4455.00    0.68660   0.89710    7.737
 4456.00    0.76851   0.89303    7.492
 4457.00    0.82351   0.88986    7.423
 4458.00    0.80773   0.88770    7.563
 4459.00    0.75797   0.88657    7.757
 4460.00    0.72772   0.88632    7.842
 4461.00    0.75419   0.88728    0.000
 4462.00    0.82429   0.88945    0.000
 4463.00    0.88695   0.89158    0.000
 4464.00    0.90283   0.89268    0.000
 4465.00    0.86435   0.89242    0.000
 4466.00    0.81061   0.89052    0.000
 4467.00    0.79039   0.88696    0.000
 4468.00    0.78792   0.88263    0.000
 4469.00    0.76524   0.87898    0.000
 4470.00    0.75794   0.87770    0.000
 4471.00    0.81620   0.88040    0.000
 4472.00    0.88966   0.88716    0.000
 4473.00    0.90275   0.89615    0.000
 4474.00    0.88428   0.90534    0.000
 4475.00    0.89515   0.91332    0.000
 4476.00    0.91417   0.91874    0.000
 4477.00    0.89651   0.92007    0.000
 4478.00    0.85711   0.91670    0.000
 4479.00    0.82829   0.90984    0.000
 4480.00    0.80744   0.90254    0.000
 4481.00    0.79875   0.89822    0.000
 4482.00    0.84972   0.89827    8.103
 4483.00    0.95524   0.90176    7.950
 4484.00    0.98991   0.90710    7.860
 4485.00    0.89112   0.91254    8.145
 4486.00    0.78692   0.91634    8.472
 4487.00    0.79220   0.91752    8.430
 4488.00    0.86554   0.91659    8.156
 4489.00    0.91627   0.91484    7.962
 4490.00    0.88964   0.91332    8.014
 4491.00    0.80411   0.91249    8.258
 4492.00    0.75046   0.91211    8.387
 4493.00    0.77674   0.91205    8.270
 4494.00    0.83821   0.91284    8.162
 4495.00    0.87118   0.91479    8.238
 4496.00    0.84158   0.91766    8.433
 4497.00    0.78645   0.92106    8.571
 4498.00    0.79659   0.92440    8.487
 4499.00    0.87435   0.92728    8.275
 4500.00    0.92002   0.93020    8.216
 4501.00    0.89976   0.93421    8.338
 4502.00    0.87349   0.93920    8.410
 4503.00    0.87363   0.94383    8.363
 4504.00    0.88200   0.94724    8.353
 4505.00    0.88819   0.94910    8.414
 4506.00    0.89991   0.94932    8.435
 4507.00    0.92077   0.94838    8.366
 4508.00    0.94207   0.94699    8.263
 4509.00    0.93926   0.94522    8.220
 4510.00    0.89221   0.94270    8.301
 4511.00    0.83093   0.93940    8.456
 4512.00    0.80993   0.93557    8.558
 4513.00    0.83609   0.93139    8.575
 4514.00    0.87901   0.92750    8.563
 4515.00    0.91780   0.92454    8.564
 4516.00    0.94475   0.92235    8.586
 4517.00    0.95632   0.92070    8.606
 4518.00    0.94764   0.91958    8.590
 4519.00    0.90764   0.91859    8.532
 4520.00    0.83796   0.91699    8.465
 4521.00    0.77732   0.91409    8.451
 4522.00    0.76317   0.91016    8.539
 4523.00    0.78165   0.90567    8.709
 4524.00    0.79672   0.90046    8.875
 4525.00    0.79108   0.89474    8.910
 4526.00    0.77278   0.88902    8.774
 4527.00    0.77333   0.88375    8.631
 4528.00    0.80567   0.87968    8.618
 4529.00    0.83077   0.87747    8.696
 4530.00    0.81669   0.87694    8.791
 4531.00    0.78739   0.87750    8.909
 4532.00    0.78340   0.87845    9.025
 4533.00    0.82427   0.88008    9.009
 4534.00    0.88247   0.88342    8.855
 4535.00    0.88298   0.88865    8.784
 4536.00    0.81027   0.89462    8.894
 4537.00    0.75485   0.89946    9.011
 4538.00    0.77644   0.90220    9.026
 4539.00    0.83766   0.90298    9.062
 4540.00    0.89218   0.90273    9.160
 4541.00    0.92837   0.90248    9.157
 4542.00    0.94130   0.90216    9.020
 4543.00    0.92640   0.90111    8.928
 4544.00    0.91426   0.89958    8.925
 4545.00    0.96024   0.89806    8.871
 4546.00    1.04548   0.89607    8.764
 4547.00    1.07638   0.89279    8.772
 4548.00    1.02220   0.88844    8.928
 4549.00    0.93989   0.88469    9.088
 4550.00    0.89178   0.88238    0.000
 4551.00    0.90313   0.88068    0.000
 4552.00    0.92240   0.87933    0.000
 4553.00    0.86594   0.87885    0.000
 4554.00    0.76147   0.87991    0.000
 4555.00    0.71633   0.88327    0.000
 4556.00    0.75210   0.88852    0.000
 4557.00    0.81055   0.89417    0.000
 4558.00    0.85422   0.89960    0.000
 4559.00    0.87914   0.90466    0.000
 4560.00    0.89513   0.90861    0.000
 4561.00    0.91487   0.91054    0.000
 4562.00    0.94156   0.91012    0.000
 4563.00    0.96614   0.90833    0.000
 4564.00    0.96755   0.90685    0.000
 4565.00    0.93252   0.90664    0.000
 4566.00    0.88285   0.90762    0.000
 4567.00    0.85041   0.90912    0.000
 4568.00    0.83955   0.91056    0.000
 4569.00    0.83781   0.91143    0.000
 4570.00    0.83536   0.91131    0.000
 4571.00    0.83159   0.91108    0.000
 4572.00    0.83821   0.91157    0.000
 4573.00    0.86099   0.91193    0.000
 4574.00    0.88360   0.91165    0.000
 4575.00    0.89223   0.91101    0.000
 4576.00    0.89676   0.90986    0.000
 4577.00    0.90712   0.90766    0.000
 4578.00    0.91387   0.90394    0.000
 4579.00    0.90135   0.89906    0.000
 4580.00    0.86197   0.89405    0.000
 4581.00    0.81817   0.88961    0.000
 4582.00    0.82516   0.88607    0.000
 4583.00    0.89740   0.88416    0.000
 4584.00    0.97504   0.88430    0.000
 4585.00    0.99592   0.88598    0.000
 4586.00    0.94239   0.88855    0.000
 4587.00    0.86292   0.89132    0.000
 4588.00    0.85197   0.89357    0.000
 4589.00    0.91337   0.89472    0.000
 4590.00    0.93882   0.89460    0.000
 4591.00    0.88207   0.89376    0.000
 4592.00    0.80462   0.89302    0.000
 4593.00    0.76528   0.89252    0.000
 4594.00    0.77825   0.89201    0.000
 4595.00    0.82038   0.89189    0.000
 4596.00    0.85160   0.89248    0.000
 4597.00    0.86688   0.89358    0.000
 4598.00    0.88936   0.89465    0.000
 4599.00    0.90673   0.89518    0.000
 4600.00    0.88362   0.89557    0.000
 4601.00    0.83710   0.89647    0.000
 4602.00    0.82096   0.89777    0.000
 4603.00    0.84584   0.89923    0.000
 4604.00    0.88255   0.90097    0.000
 4605.00    0.90807   0.90341    0.000
 4606.00    0.91696   0.90675    0.000
 4607.00    0.92339   0.91049    0.000
 4608.00    0.94390   0.91366    0.000
 4609.00    0.96826   0.91552    0.000
 4610.00    0.97187   0.91613    0.000
 4611.00    0.94303   0.91590    0.000
 4612.00    0.88837   0.91490    0.000
 4613.00    0.83338   0.91348    0.000
 4614.00    0.80329   0.91178    0.000
 4615.00    0.79962   0.90965    0.000
 4616.00    0.81549   0.90770    0.000
 4617.00    0.85511   0.90597    0.000
 4618.00    0.91498   0.90450    0.000
 4619.00    0.96424   0.90431    0.000
 4620.00    0.97191   0.90549    0.000
 4621.00    0.93545   0.90706    0.000
 4622.00    0.88455   0.90871    0.000
 4623.00    0.87484   0.90998    0.000
 4624.00    0.92569   0.91040    0.000
 4625.00    0.98156   0.91023    0.000
 4626.00    0.99203   0.90954    0.000
 4627.00    0.96585   0.90778    0.000
 4628.00    0.92875   0.90526    0.000
 4629.00    0.89395   0.90325    0.000
 4630.00    0.86676   0.90209    0.000
 4631.00    0.84985   0.90085    0.000
 4632.00    0.85168   0.89898    0.000
 4633.00    0.88365   0.89692    0.000
 4634.00    0.92506   0.89529    0.000
 4635.00    0.92482   0.89404    0.000
 4636.00    0.88409   0.89257    0.000
 4637.00    0.86725   0.89097    0.000
 4638.00    0.89824   0.88984    0.000
 4639.00    0.93720   0.88928    0.000
 4640.00    0.95089   0.88908    0.000
 4641.00    0.93521   0.88859    0.000
 4642.00    0.90130   0.88710    0.000
 4643.00    0.86786   0.88450    0.000
 4644.00    0.85330   0.88062    0.000
 4645.00    0.86558   0.87541    0.000
 4646.00    0.88284   0.87016    0.000
 4647.00    0.87379   0.86647    0.000
 4648.00    0.85788   0.86489    0.000
 4649.00    0.87986   0.86533    0.000
 4650.00    0.92314   0.86745    0.000
 4651.00    0.93199   0.87090    0.000
 4652.00    0.89372   0.87481    0.000
 4653.00    0.83736   0.87809    0.000
 4654.00    0.79996   0.88087    0.000
 4655.00    0.80366   0.88370    0.000
 4656.00    0.82986   0.88687    0.000
 4657.00    0.84388   0.89067    0.000
 4658.00    0.83738   0.89431    0.000
 4659.00    0.82379   0.89644    0.000
 4660.00    0.82244   0.89630    0.000
 4661.00    0.84094   0.89381    0.000
 4662.00    0.85880   0.88927    0.000
 4663.00    0.85980   0.88331    0.000
 4664.00    0.86642   0.87613    0.000
 4665.00    0.89461   0.86790    0.000
 4666.00    0.90965   0.86030    0.000
 4667.00    0.88348   0.85579    0.000
 4668.00    0.84606   0.85506    0.000
 4669.00    0.83448   0.85730    0.000
 4670.00    0.84870   0.86145    0.000
 4671.00    0.87036   0.86638    0.000
 4672.00    0.88185   0.87144    0.000
 4673.00    0.88066   0.87647    0.000
 4674.00    0.88325   0.88081    0.000
 4675.00    0.89150   0.88375    0.000
 4676.00    0.88034   0.88476    0.000
 4677.00    0.85029   0.88382    0.000
 4678.00    0.84395   0.88184    0.000
 4679.00    0.87227   0.87969    0.000
 4680.00    0.89188   0.87749    0.000
 4681.00    0.88207   0.87546    0.000
 4682.00    0.86897   0.87394    0.000
 4683.00    0.87004   0.87253    0.000
 4684.00    0.87515   0.87110    0.000
 4685.00    0.86879   0.87053    0.000
 4686.00    0.84423   0.87119    0.000
 4687.00    0.82056   0.87247    0.000
 4688.00    0.82870   0.87392    0.000
 4689.00    0.85112   0.87541    0.000
 4690.00    0.83890   0.87699    0.000
 4691.00    0.81252   0.87895    0.000
 4692.00    0.83975   0.88094    0.000
 4693.00    0.90604   0.88240    0.000
 4694.00    0.93600   0.88321    0.000
 4695.00    0.92103   0.88301    0.000
 4696.00    0.90701   0.88123    0.000
 4697.00    0.90475   0.87772    0.000
 4698.00    0.89646   0.87353    0.000
 4699.00    0.88472   0.86965    0.000
 4700.00    0.88390   0.86595    0.000
 4701.00    0.88951   0.86213    0.000
 4702.00    0.88493   0.85903    0.000
 4703.00    0.86068   0.85770    0.000
 4704.00    0.82047   0.85792    0.000
 4705.00    0.78399   0.85841    0.000
 4706.00    0.76706   0.85854    0.000
 4707.00    0.75746   0.85863    0.000
 4708.00    0.74423   0.85920    0.000
 4709.00    0.75217   0.86040    0.000
 4710.00    0.79657   0.86181    0.000
 4711.00    0.83579   0.86240    0.000
 4712.00    0.83108   0.86248    0.000
 4713.00    0.80423   0.86346    0.000
 4714.00    0.78437   0.86630    0.000
 4715.00    0.76159   0.87058    0.000
 4716.00    0.73545   0.87536    0.000
 4717.00    0.74815   0.88008    0.000
 4718.00    0.81407   0.88501    0.000
 4719.00    0.87837   0.88974    0.000
 4720.00    0.90145   0.89326    0.000
 4721.00    0.90794   0.89502    0.000
 4722.00    0.92691   0.89536    0.000
 4723.00    0.95495   0.89473    0.000
 4724.00    0.96545   0.89281    0.000
 4725.00    0.92551   0.88903    0.000
 4726.00    0.84832   0.88355    0.000
 4727.00    0.79919   0.87772    0.000
 4728.00    0.80698   0.87277    0.000
 4729.00    0.83817   0.86880    0.000
 4730.00    0.85841   0.86583    0.000
 4731.00    0.85490   0.86460    0.000
 4732.00    0.82234   0.86524    0.000
 4733.00    0.76551   0.86704    0.000
 4734.00    0.72531   0.86914    0.000
 4735.00    0.75493   0.87066    0.000
 4736.00    0.82479   0.87218    0.000
 4737.00    0.84443   0.87450    0.000
 4738.00    0.79966   0.87666    0.000
 4739.00    0.75243   0.87792    0.000
 4740.00    0.74569   0.87890    0.000
 4741.00    0.78252   0.88038    0.000
 4742.00    0.83507   0.88220    0.000
 4743.00    0.86897   0.88351    0.000
 4744.00    0.88670   0.88422    0.000
 4745.00    0.90542   0.88506    0.000
 4746.00    0.90220   0.88586    0.000
 4747.00    0.85321   0.88597    0.000
 4748.00    0.81185   0.88554    0.000
 4749.00    0.84330   0.88477    0.000
 4750.00    0.91017   0.88333    0.000
 4751.00    0.93541   0.88109    0.000
 4752.00    0.91043   0.87845    0.000
 4753.00    0.87139   0.87590    0.000
 4754.00    0.84995   0.87371    0.000
 4755.00    0.85620   0.87197    0.000
 4756.00    0.86823   0.87088    0.000
 4757.00    0.85796   0.87043    0.000
 4758.00    0.81909   0.87013    0.000
 4759.00    0.76790   0.86925    0.000
 4760.00    0.73823   0.86710    0.000
 4761.00    0.75160   0.86378   11.949
 4762.00    0.79433   0.86029   11.623
 4763.00    0.83740   0.85715   11.325
 4764.00    0.85573   0.85457   11.238
 4765.00    0.84499   0.85314   11.358
 4766.00    0.82739   0.85353   11.403
 4767.00    0.81754   0.85574   11.301
 4768.00    0.80532   0.85918   11.406
 4769.00    0.78666   0.86281   11.778
 4770.00    0.77726   0.86588   11.877
 4771.00    0.78679   0.86878   11.523
 4772.00    0.80709   0.87198   11.276
 4773.00    0.82390   0.87517   11.368
 4774.00    0.82683   0.87758   11.487
 4775.00    0.82564   0.87910   11.416
 4776.00    0.84408   0.88041   11.269
 4777.00    0.86977   0.88126   11.191
 4778.00    0.86114   0.88089   11.222
 4779.00    0.84031   0.87954   11.308
 4780.00    0.88001   0.87774   11.334
 4781.00    0.95788   0.87540   11.273
 4782.00    0.97167   0.87239   11.212
 4783.00    0.91794   0.86951   11.256
 4784.00    0.88096   0.86708   11.455
 4785.00    0.86707   0.86463   11.660
 4786.00    0.82004   0.86276   11.629
 4787.00    0.76052   0.86208   11.449
 4788.00    0.75483   0.86234   11.410
 4789.00    0.77851   0.86356   11.541
 4790.00    0.76153   0.86575   11.649
 4791.00    0.73051   0.86872   11.554
 4792.00    0.75317   0.87227   11.263
 4793.00    0.79493   0.87568   11.082
 4794.00    0.78528   0.87817   11.274
 4795.00    0.75989   0.87927   11.601
 4796.00    0.78505   0.87894   11.642
 4797.00    0.82055   0.87742   11.520
 4798.00    0.80558   0.87512   11.547
 4799.00    0.79077   0.87270   11.609
 4800.00    0.83841   0.87086   11.494
 4801.00    0.89070   0.86963   11.355
 4802.00    0.87269   0.86839   11.390
 4803.00    0.81498   0.86675   11.496
 4804.00    0.78153   0.86506   11.540
 4805.00    0.78724   0.86389   11.636
 4806.00    0.81768   0.86288   11.852
 4807.00    0.85336   0.86171   11.937
 4808.00    0.86712   0.86090   11.766
 4809.00    0.82678   0.86082   11.677
 4810.00    0.74522   0.86140   11.894
 4811.00    0.70203   0.86233   12.187
 4812.00    0.73391   0.86359   12.312
 4813.00    0.77763   0.86532   12.341
 4814.00    0.78860   0.86728   12.342
 4815.00    0.80046   0.86910   12.203
 4816.00    0.83326   0.87054   12.031
 4817.00    0.85404   0.87115   12.193
 4818.00    0.84949   0.87072   12.586
 4819.00    0.84976   0.86916   12.451
 4820.00    0.86262   0.86653   11.821
 4821.00    0.85628   0.86268   11.645
 4822.00    0.81717   0.85752   12.164
 4823.00    0.76801   0.85269   12.736
 4824.00    0.74224   0.84977   12.782
 4825.00    0.76324   0.84822   12.386
 4826.00    0.81028   0.84686   11.953
 4827.00    0.83102   0.84541   11.828
 4828.00    0.81414   0.84467   12.020
 4829.00    0.79195   0.84478   12.288
 4830.00    0.78461   0.84443   12.487
 4831.00    0.79103   0.84322   12.638
 4832.00    0.80654   0.84210   12.757
 4833.00    0.82457   0.84131   12.835
 4834.00    0.83035   0.84020   12.874
 4835.00    0.81225   0.83842   12.890
 4836.00    0.78720   0.83639   12.874
 4837.00    0.78284   0.83405   12.791
 4838.00    0.79560   0.83090   12.598
 4839.00    0.80626   0.82741   12.335
 4840.00    0.81851   0.82441   12.229
 4841.00    0.83931   0.82168   12.437
 4842.00    0.84122   0.81850   12.672
 4843.00    0.80357   0.81526   12.548
 4844.00    0.77351   0.81239   12.258
 4845.00    0.79966   0.80910   12.174
 4846.00    0.84254   0.80427   12.328
 4847.00    0.84083   0.79790   12.604
 4848.00    0.79808   0.79109    0.000
 4849.00    0.75140   0.78394    0.000
 4850.00    0.72717   0.77520    0.000
 4851.00    0.72705   0.76434    0.000
 4852.00    0.72268   0.75153    0.000
 4853.00    0.69302   0.73622    0.000
 4854.00    0.65469   0.71769    0.000
 4855.00    0.63944   0.69652    0.000
 4856.00    0.67257   0.67382    0.000
 4857.00    0.75990   0.64990    0.000
 4858.00    0.88327   0.62521    0.000
 4859.00    1.02630   0.60161    0.000
 4860.00    1.18549   0.58307    0.000
 4861.00    1.33356   0.57406    0.000
 4862.00    1.40845   0.57540    0.000
 4863.00    1.37320   0.58465    0.000
 4864.00    1.24409   0.60004    0.000
 4865.00    1.06632   0.62045    0.000
 4866.00    0.89538   0.64380    0.000
 4867.00    0.77154   0.66677    0.000
 4868.00    0.70802   0.68669    0.000
 4869.00    0.68927   0.70247    0.000
 4870.00    0.68156   0.71443    0.000
 4871.00    0.67166   0.72467    0.000
 4872.00    0.66956   0.73484    0.000
 4873.00    0.67174   0.74465    0.000
 4874.00    0.66198   0.75359    0.000
 4875.00    0.64933   0.76224   13.689
 4876.00    0.66157   0.77134   13.646
 4877.00    0.69836   0.78039   13.403
 4878.00    0.73488   0.78856   13.465
 4879.00    0.76092   0.79489   13.750
 4880.00    0.78126   0.79879   13.753
 4881.00    0.79540   0.80101   13.452
 4882.00    0.79759   0.80225   13.209
 4883.00    0.78611   0.80232   13.122
 4884.00    0.76741   0.80098   13.098
 4885.00    0.75929   0.79899   13.125
 4886.00    0.77443   0.79774   13.237
 4887.00    0.79431   0.79758   13.410
 4888.00    0.79499   0.79798   13.556
 4889.00    0.78969   0.79870   13.562
 4890.00    0.80353   0.80062   13.405
 4891.00    0.83189   0.80549   13.273
 4892.00    0.85130   0.81287   13.330
 4893.00    0.84097   0.82071   13.464
 4894.00    0.80451   0.82795   13.516
 4895.00    0.78598   0.83448   13.569
 4896.00    0.81112   0.84023   13.732
 4897.00    0.83431   0.84393   13.893
 4898.00    0.81903   0.84459   13.897
 4899.00    0.80700   0.84341   13.760
 4900.00    0.83290   0.84227   13.639
 4901.00    0.85781   0.84126   13.747
 4902.00    0.84725   0.83981   14.054
 4903.00    0.82666   0.83862   14.106
 4904.00    0.82526   0.83866   13.741
 4905.00    0.83721   0.83921   13.476
 4906.00    0.84033   0.83869   13.605
 4907.00    0.81423   0.83696   13.859
 4908.00    0.76778   0.83475   13.951
 4909.00    0.74300   0.83237   13.897
 4910.00    0.75746   0.83045   13.825
 4911.00    0.78408   0.82950   13.833
 4912.00    0.79844   0.82909   13.920
 4913.00    0.79874   0.82843   13.989
 4914.00    0.79293   0.82724   13.972
 4915.00    0.78981   0.82487   13.886
 4916.00    0.78827   0.82012   13.801
 4917.00    0.77967   0.81255   13.797
 4918.00    0.77001   0.80332   13.870
 4919.00    0.77695   0.79436   13.932
 4920.00    0.79698   0.78731   13.895
 4921.00    0.80934   0.78362   13.733
 4922.00    0.81578   0.78325   13.536
 4923.00    0.83343   0.78608   13.448
 4924.00    0.84821   0.79265   13.523
 4925.00    0.83153   0.80241   13.697
 4926.00    0.80519   0.81285   13.772
 4927.00    0.81587   0.82189   13.590
 4928.00    0.85152   0.82916   13.398
 4929.00    0.86401   0.83445   13.548
 4930.00    0.84521   0.83733   13.911
 4931.00    0.81970   0.83706   14.084
 4932.00    0.80654   0.83364   14.038
 4933.00    0.80825   0.82896   14.016
 4934.00    0.80567   0.82511   14.107
 4935.00    0.78376   0.82202   14.225
 4936.00    0.76698   0.81875   14.177
 4937.00    0.78259   0.81591   13.869
 4938.00    0.80987   0.81559   13.522
 4939.00    0.81665   0.81844   13.391
 4940.00    0.80750   0.82263    0.000
 4941.00    0.79669   0.82661    0.000
 4942.00    0.77631   0.83093    0.000
 4943.00    0.74669   0.83578    0.000
 4944.00    0.74328   0.83987    0.000
 4945.00    0.78317   0.84255    0.000
 4946.00    0.82329   0.84452    0.000
 4947.00    0.82664   0.84606    0.000
 4948.00    0.81219   0.84667    0.000
 4949.00    0.80718   0.84648    0.000
 4950.00    0.81202   0.84589    0.000
 4951.00    0.81736   0.84425    0.000
 4952.00    0.81723   0.84095    0.000
 4953.00    0.81036   0.83703    0.000
 4954.00    0.80076   0.83332    0.000
 4955.00    0.79829   0.82893    0.000
 4956.00    0.81465   0.82358    0.000
 4957.00    0.84263   0.82038    0.000
 4958.00    0.85420   0.82147    0.000
 4959.00    0.83773   0.82438    0.000
 4960.00    0.80854   0.82661    0.000
 4961.00    0.78313   0.82888    0.000
 4962.00    0.76893   0.83223    0.000
 4963.00    0.76725   0.83483    0.000
 4964.00    0.77558   0.83466    0.000
 4965.00    0.79083   0.83281    0.000
 4966.00    0.80916   0.83113    0.000
 4967.00    0.82210   0.82984    0.000
 4968.00    0.82068   0.82878    0.000
 4969.00    0.80919   0.82842    0.000
 4970.00    0.79945   0.82939    0.000
 4971.00    0.78805   0.83135    0.000
 4972.00    0.76427   0.83336    0.000
 4973.00    0.73948   0.83488    0.000
 4974.00    0.73638   0.83555    0.000
 4975.00    0.75453   0.83493    0.000
 4976.00    0.77384   0.83247    0.000
 4977.00    0.77449   0.82784    0.000
 4978.00    0.74946   0.82171    0.000
 4979.00    0.71804   0.81494    0.000
 4980.00    0.70668   0.80760    0.000
 4981.00    0.71760   0.80000    0.000
 4982.00    0.73716   0.79386    0.000
 4983.00    0.75378   0.79075    0.000
 4984.00    0.76153   0.79045    0.000
 4985.00    0.76136   0.79221    0.000
 4986.00    0.75890   0.79591    0.000
 4987.00    0.76160   0.80083    0.000
 4988.00    0.77477   0.80552    0.000
 4989.00    0.79782   0.80916    0.000
 4990.00    0.82350   0.81195    0.000
 4991.00    0.83924   0.81415    0.000
 4992.00    0.84166   0.81527    0.000
 4993.00    0.84542   0.81543    0.000
 4994.00    0.85568   0.81549    0.000
 4995.00    0.85099   0.81527    0.000
 4996.00    0.81861   0.81406    0.000
 4997.00    0.77629   0.81162    0.000
 4998.00    0.74671   0.80816    0.000
 4999.00    0.74062   0.80382    0.000
 5000.00    0.75984   0.79880    0.000
 5001.00    0.79963   0.79386    0.000
 5002.00    0.84953   0.79002    0.000
 5003.00    0.89613   0.78713    0.000
 5004.00    0.93416   0.78453    0.000
 5005.00    0.96777   0.78268    0.000
 5006.00    0.99313   0.78284    0.000
 5007.00    0.99658   0.78450    0.000
 5008.00    0.97641   0.78557    0.000
 5009.00    0.94669   0.78517    0.000
 5010.00    0.92010   0.78395    0.000
 5011.00    0.89954   0.78200    0.000
 5012.00    0.87180   0.77870    0.000
 5013.00    0.81968   0.77419    0.000
 5014.00    0.76092   0.76988    0.000
 5015.00    0.73567   0.76709    0.000
 5016.00    0.74547   0.76530    0.000
 5017.00    0.75906   0.76420    0.000
 5018.00    0.76361   0.76519    0.000
 5019.00    0.76454   0.76879    0.000
 5020.00    0.75880   0.77307    0.000
 5021.00    0.74062   0.77680    0.000
 5022.00    0.72330   0.78094    0.000
 5023.00    0.72720   0.78596    0.000
 5024.00    0.75204   0.79052    0.000
 5025.00    0.78149   0.79357    0.000
 5026.00    0.79883   0.79551    0.000
 5027.00    0.79444   0.79774    0.000
 5028.00    0.77262   0.80069    0.000
 5029.00    0.74750   0.80314   15.608
 5030.00    0.73549   0.80439   15.821
 5031.00    0.74398   0.80536   15.677
 5032.00    0.76029   0.80657   15.365
 5033.00    0.76788   0.80635   15.270
 5034.00    0.76496   0.80325   15.505
 5035.00    0.75979   0.79841   15.875
 5036.00    0.76279   0.79370   15.863
 5037.00    0.77321   0.78900   15.331
 5038.00    0.77114   0.78372   14.968
 5039.00    0.74714   0.77857   15.167
 5040.00    0.72231   0.77554   15.457
 5041.00    0.71174   0.77609   15.406
 5042.00    0.70155   0.77930   15.321
 5043.00    0.68676   0.78306   15.428
 5044.00    0.69139   0.78708   15.396
 5045.00    0.72690   0.79165   15.092
 5046.00    0.77114   0.79507   14.912
 5047.00    0.79753   0.79592   15.072
 5048.00    0.79375   0.79534   15.359
 5049.00    0.76874   0.79483   15.542
 5050.00    0.74963   0.79412   15.597
 5051.00    0.75392   0.79355   15.617
 5052.00    0.77841   0.79453   15.722
 5053.00    0.80730   0.79732   15.923
 5054.00    0.82015   0.80042   16.131
 5055.00    0.80766   0.80339   16.402
 5056.00    0.77630   0.80688   16.922
 5057.00    0.74376   0.81065   17.554
 5058.00    0.73124   0.81334   17.793
 5059.00    0.74573   0.81453   17.519
 5060.00    0.77769   0.81484   17.121
 5061.00    0.80998   0.81445   16.912
 5062.00    0.82451   0.81252   16.964
 5063.00    0.81194   0.80858   17.065
 5064.00    0.77570   0.80406   16.921
 5065.00    0.73492   0.80062   16.662
 5066.00    0.71340   0.79761   16.604
 5067.00    0.71626   0.79416   16.599
 5068.00    0.73435   0.79167   16.341
 5069.00    0.76123   0.79110   16.104
 5070.00    0.78975   0.79062   16.359
 5071.00    0.80176   0.78914   17.074
 5072.00    0.78409   0.78816   17.803
 5073.00    0.75415   0.78778   18.047
 5074.00    0.73656   0.78605   17.679
 5075.00    0.72679   0.78324   17.264
 5076.00    0.71024   0.78105   17.303
 5077.00    0.69160   0.77881   17.556
 5078.00    0.68501   0.77496   17.560
 5079.00    0.69810   0.77126   17.330
 5080.00    0.72730   0.77001   17.146
 5081.00    0.75615   0.77035   17.214
 5082.00    0.77087   0.77075   17.459
 5083.00    0.77429   0.77236   17.391
 5084.00    0.77614   0.77625   16.820
 5085.00    0.78330   0.78076   16.332
 5086.00    0.79791   0.78430   16.275
 5087.00    0.81658   0.78763   16.287
 5088.00    0.83205   0.79135   16.059
 5089.00    0.83548   0.79442   15.817
 5090.00    0.82419   0.79624   15.843
 5091.00    0.80583   0.79747   16.203
 5092.00    0.79364   0.79811   16.704
 5093.00    0.80024   0.79723   16.890
 5094.00    0.82108   0.79460   16.639
 5095.00    0.83191   0.79098   16.387
 5096.00    0.81861   0.78683   16.435
 5097.00    0.78863   0.78235   16.724
 5098.00    0.75620   0.77822   17.050
 5099.00    0.73293   0.77571   17.192
 5100.00    0.71791   0.77524   17.153
 5101.00    0.70057   0.77589   17.145
 5102.00    0.68402   0.77678   17.156
 5103.00    0.68522   0.77798   16.966
 5104.00    0.70857   0.77934   16.681
 5105.00    0.74186   0.77989   16.637
 5106.00    0.77058   0.77930   16.759
 5107.00    0.78656   0.77863   16.629
 5108.00    0.79884   0.77851   16.172
 5109.00    0.82330   0.77869   15.692
 5110.00    0.85192   0.77957   15.499
 5111.00    0.86238   0.78172   15.745
 5112.00    0.85422   0.78454   16.217
 5113.00    0.84246   0.78734   16.479
 5114.00    0.82942   0.79002   16.469
 5115.00    0.80894   0.79242   16.432
 5116.00    0.78363   0.79405   16.462
 5117.00    0.76222   0.79444   16.527
 5118.00    0.75018   0.79317   16.647
 5119.00    0.74536   0.79042   16.828
 5120.00    0.73502   0.78668   16.928
 5121.00    0.71015   0.78211   16.814
 5122.00    0.68390   0.77671   16.608
 5123.00    0.67317   0.77126   16.513
 5124.00    0.67456   0.76680   16.596
 5125.00    0.67995   0.76356   16.726
 5126.00    0.69503   0.76129   16.564
 5127.00    0.72180   0.76005   16.070
 5128.00    0.74168   0.75992   15.826
 5129.00    0.74240   0.76090   16.151
 5130.00    0.74019   0.76277   16.514
 5131.00    0.74650   0.76468   16.448
 5132.00    0.74354   0.76601   16.420
 5133.00    0.72272   0.76718   16.816
 5134.00    0.70906   0.76836   17.225
 5135.00    0.71745   0.76843   17.198
 5136.00    0.72779   0.76709   16.913
 5137.00    0.72559   0.76511   16.711
 5138.00    0.72290   0.76297   16.758
 5139.00    0.72721   0.76125   17.007
 5140.00    0.72794   0.75997   17.213
 5141.00    0.72174   0.75819   17.219
 5142.00    0.72128   0.75662   17.102
 5143.00    0.73344   0.75675   17.000
 5144.00    0.75205   0.75735   17.004
 5145.00    0.77089   0.75677   17.144
 5146.00    0.78876   0.75614   17.384
 5147.00    0.80688   0.75650   17.624
 5148.00    0.82514   0.75699   17.744
 5149.00    0.83343   0.75681   17.753
 5150.00    0.81723   0.75647   17.801
 5151.00    0.78321   0.75680   18.030
 5152.00    0.75494   0.75766   18.481
 5153.00    0.73848   0.75863   18.957
 5154.00    0.72367   0.76014   19.107
 5155.00    0.71209   0.76265   18.939
 5156.00    0.71520   0.76551   18.789
 5157.00    0.73339   0.76781   18.896
 5158.00    0.75393   0.76929   19.248
 5159.00    0.75754   0.76984   19.418
 5160.00    0.73299   0.76850   18.966
 5161.00    0.70062   0.76436   18.321
 5162.00    0.69009   0.75791   18.129
 5163.00    0.69610   0.74991   18.275
 5164.00    0.69579   0.74027   18.300
 5165.00    0.68714   0.72949   18.148
 5166.00    0.68124   0.71870   17.994
 5167.00    0.68288   0.70899   17.822
 5168.00    0.68899   0.70200   17.607
 5169.00    0.69072   0.69892   17.565
 5170.00    0.68335   0.69830   17.825
 5171.00    0.67628   0.69909   18.050
 5172.00    0.67944   0.70352   17.912
 5173.00    0.68880   0.71252   17.674
 5174.00    0.69939   0.72232   17.581
 5175.00    0.71735   0.73018   17.352
 5176.00    0.74277   0.73762   16.914
 5177.00    0.75682   0.74473   16.862
 5178.00    0.74968   0.74815   17.390
 5179.00    0.73925   0.74695   17.605
 5180.00    0.73823   0.74376   17.045
 5181.00    0.73343   0.73936   16.718
 5182.00    0.71515   0.73304   17.110
 5183.00    0.69447   0.72733   17.394
 5184.00    0.68450   0.72560   17.071
 5185.00    0.68834   0.72684   16.884
 5186.00    0.69875   0.72848   17.188
 5187.00    0.70243   0.73071   17.377
 5188.00    0.70020   0.73488   17.075
 5189.00    0.70939   0.73942   16.667
 5190.00    0.73065   0.74112    0.000
 5191.00    0.74180   0.74029    0.000
 5192.00    0.73328   0.74048    0.000
 5193.00    0.71794   0.74188    0.000
 5194.00    0.71293   0.74202    0.000
 5195.00    0.72959   0.74207    0.000
 5196.00    0.76349   0.74422    0.000
 5197.00    0.79628   0.74717    0.000
 5198.00    0.81083   0.74933    0.000
 5199.00    0.79892   0.75089    0.000
 5200.00    0.76874   0.75148    0.000
 5201.00    0.73874   0.75056    0.000
 5202.00    0.71803   0.74864    0.000
 5203.00    0.70477   0.74533    0.000
 5204.00    0.69373   0.74060    0.000
 5205.00    0.68186   0.73659    0.000
 5206.00    0.67557   0.73459    0.000
 5207.00    0.68365   0.73337    0.000
 5208.00    0.70223   0.73344    0.000
 5209.00    0.72045   0.73632    0.000
 5210.00    0.73419   0.74073    0.000
 5211.00    0.74537   0.74479   18.990
 5212.00    0.75721   0.74885   19.135
 5213.00    0.76917   0.75281   19.075
 5214.00    0.77199   0.75542   18.839
 5215.00    0.76055   0.75702   18.521
 5216.00    0.74921   0.75876   18.430
 5217.00    0.75425   0.76067   18.702
 5218.00    0.77298   0.76208   18.895
 5219.00    0.79309   0.76293   18.682
 5220.00    0.80477   0.76321   18.590
 5221.00    0.80310   0.76211   18.980
 5222.00    0.78877   0.75882   19.214
 5223.00    0.76367   0.75396   18.846
 5224.00    0.72844   0.74854   18.639
 5225.00    0.69313   0.74249   19.029
 5226.00    0.68121   0.73703   19.224
 5227.00    0.69881   0.73452   18.746
 5228.00    0.71932   0.73441   18.419
 5229.00    0.72453   0.73484   18.629
 5230.00    0.72660   0.73656   18.637
 5231.00    0.73942   0.73980   18.057
 5232.00    0.76240   0.74262   17.517
 5233.00    0.78709   0.74482   17.367
 5234.00    0.80304   0.74757   17.344
 5235.00    0.80717   0.75077   17.264
 5236.00    0.80602   0.75411   17.232
 5237.00    0.80673   0.75787   17.222
 5238.00    0.81289   0.76178   17.010
 5239.00    0.82358   0.76545   16.614
 5240.00    0.83391   0.76865   16.301
 5241.00    0.83775   0.77072   16.121
 5242.00    0.82985   0.77128   15.941
 5243.00    0.80935   0.77123   15.875
 5244.00    0.78296   0.77089   16.175
 5245.00    0.77015   0.76890   16.603
 5246.00    0.79054   0.76547   16.566
 5247.00    0.82880   0.76283   16.246
 5248.00    0.84794   0.76092   16.317
 5249.00    0.84098   0.75807   16.681
 5250.00    0.82692   0.75546   16.716
 5251.00    0.81601   0.75498   16.498
 5252.00    0.80722   0.75569   16.544
 5253.00    0.79779   0.75603   16.807
 5254.00    0.78502   0.75677   16.912
 5255.00    0.76620   0.75865   16.932
 5256.00    0.74376   0.76041   17.150
 5257.00    0.73263   0.76044   17.434
 5258.00    0.74352   0.75868   17.478
 5259.00    0.75881   0.75546   17.368
 5260.00    0.75412   0.75012   17.375
 5261.00    0.73013   0.74225   17.582
 5262.00    0.70414   0.73316   17.875
 5263.00    0.69449   0.72429   17.984
 5264.00    0.71142   0.71555   17.771
 5265.00    0.74936   0.70744   17.517
 5266.00    0.78983   0.70233   17.498
 5267.00    0.80725   0.70019   17.643
 5268.00    0.78987   0.69834   17.815
 5269.00    0.75512   0.69777   18.054
 5270.00    0.72465   0.70120   18.354
 5271.00    0.70433   0.70612   18.491
 5272.00    0.69489   0.70988   18.421
 5273.00    0.69983   0.71475   18.512
 5274.00    0.71793   0.72132   18.952
 5275.00    0.73981   0.72727   19.405
 5276.00    0.75954   0.73264   19.551
 5277.00    0.77964   0.73790   19.473
 5278.00    0.79868   0.74159   19.380
 5279.00    0.80695   0.74385   19.388
 5280.00    0.80069   0.74605   19.469
 5281.00    0.78714   0.74801   19.487
 5282.00    0.77454   0.74908   19.431
 5283.00    0.76776   0.75022   19.457
 5284.00    0.76953   0.75318   19.599
 5285.00    0.78038   0.75778   19.707
 5286.00    0.79635   0.76220   19.659
 5287.00    0.80974   0.76616   19.467
 5288.00    0.81447   0.77039   19.284
 5289.00    0.80876   0.77396   19.294
 5290.00    0.79735   0.77550   19.418
 5291.00    0.78736   0.77506   19.403
 5292.00    0.77560   0.77311   19.292
 5293.00    0.75384   0.76999   19.332
 5294.00    0.72988   0.76600   19.420
 5295.00    0.72169   0.76143   19.207
 5296.00    0.73246   0.75641   18.666
 5297.00    0.75070   0.75207   18.106
 5298.00    0.76223   0.74974   17.915
 5299.00    0.75856   0.74910   18.289
 5300.00    0.74701   0.74909   18.779
 5301.00    0.74266   0.75029   18.682
 5302.00    0.75183   0.75348   18.164
 5303.00    0.77295   0.75743   17.807
 5304.00    0.80186   0.76072   17.698
 5305.00    0.82848   0.76352   17.671
 5306.00    0.83262   0.76624   17.684
 5307.00    0.80466   0.76860   17.797
 5308.00    0.76976   0.77014   18.074
 5309.00    0.75629   0.77066   18.440
 5310.00    0.75852   0.77045   18.535
 5311.00    0.76048   0.76962   18.229
 5312.00    0.76355   0.76783   18.092
 5313.00    0.77318   0.76552   18.480
 5314.00    0.78480   0.76318   18.822
 5315.00    0.79324   0.76026   18.605
 5316.00    0.80052   0.75729   18.339
 5317.00    0.80473   0.75572   18.484
 5318.00    0.79353   0.75466   18.749
 5319.00    0.76440   0.75251   18.768
 5320.00    0.73511   0.75017   18.612
 5321.00    0.71601   0.74839   18.503
 5322.00    0.69644   0.74539   18.570
 5323.00    0.67305   0.74002   18.808
 5324.00    0.66149   0.73423   19.067
 5325.00    0.66788   0.72983   19.225
 5326.00    0.67839   0.72550   19.277
 5327.00    0.68429   0.72070   19.305
 5328.00    0.69051   0.71886   19.423
 5329.00    0.69875   0.72108   19.676
 5330.00    0.70379   0.72424   20.002
 5331.00    0.70854   0.72725   20.257
 5332.00    0.72473   0.73195   20.286
 5333.00    0.75404   0.73770   20.123
 5334.00    0.78386   0.74189   19.962
 5335.00    0.79619   0.74363   19.853
 5336.00    0.77764   0.74392   19.749
 5337.00    0.73902   0.74406   19.872
 5338.00    0.70787   0.74359   -2.000
 5339.00    0.69418   0.74193   -2.000
 5340.00    0.68927   0.74074   -2.000
 5341.00    0.68497   0.74113   -2.000
 5342.00    0.67974   0.74187   -2.000
 5343.00    0.68110   0.74244   -2.000
 5344.00    0.69930   0.74345   -2.000
 5345.00    0.73419   0.74476   -2.000
 5346.00    0.77480   0.74618   -2.000
 5347.00    0.80387   0.74757   -2.000
 5348.00    0.80754   0.74844   -2.000
 5349.00    0.78925   0.74992   -2.000
 5350.00    0.76512   0.75300   -2.000
 5351.00    0.75324   0.75629   -2.000
 5352.00    0.76392   0.75912   -2.000
 5353.00    0.78942   0.76268   19.019
 5354.00    0.81380   0.76673   18.615
 5355.00    0.82661   0.76965   18.405
 5356.00    0.82670   0.77127   18.642
 5357.00    0.82356   0.77210   18.907
 5358.00    0.82567   0.77176   18.812
 5359.00    0.82942   0.76994   18.761
 5360.00    0.82670   0.76680   19.023
 5361.00    0.81312   0.76253   18.969
 5362.00    0.79126   0.75784   18.349
 5363.00    0.77164   0.75306   18.119
 5364.00    0.76417   0.74800   18.688
 5365.00    0.77116   0.74309   19.020
 5366.00    0.78421   0.73870   18.514
 5367.00    0.78589   0.73490   18.274
 5368.00    0.77044   0.73202   18.848
 5369.00    0.75259   0.73015   19.315
 5370.00    0.74389   0.72927   19.102
 5371.00    0.74168   0.73045   18.998
 5372.00    0.74259   0.73352   19.331
 5373.00    0.74764   0.73701   19.392
 5374.00    0.75247   0.74107   19.048
 5375.00    0.74684   0.74565   19.137
 5376.00    0.73142   0.74933   19.834
 5377.00    0.72025   0.75159   20.310
 5378.00    0.72286   0.75281   20.224
 5379.00    0.73804   0.75262   20.159
 5380.00    0.75621   0.75174   20.300
 5381.00    0.76468   0.75107   20.281
 5382.00    0.76066   0.75006   20.126
 5383.00    0.75185   0.74906   20.260
 5384.00    0.74666   0.74890   20.726
 5385.00    0.74918   0.74863   21.144
 5386.00    0.75425   0.74766   21.237
 5387.00    0.75304   0.74677   21.027
 5388.00    0.74843   0.74546   20.798
 5389.00    0.74896   0.74297   20.838
 5390.00    0.74949   0.74020   21.026
 5391.00    0.73896   0.73752   21.046
 5392.00    0.72198   0.73412   20.951
 5393.00    0.71101   0.73067   20.978
 5394.00    0.70666   0.72842   21.055
 5395.00    0.70338   0.72635   20.972
 5396.00    0.70309   0.72369   20.768
 5397.00    0.71116   0.72229   20.588
 5398.00    0.72757   0.72228   20.408
 5399.00    0.74627   0.72110   20.145
 5400.00    0.75637   0.71906   19.818
 5401.00    0.75057   0.71799   19.515
 5402.00    0.73393   0.71651   19.332
 5403.00    0.71595   0.71350   19.318
 5404.00    0.70148   0.71047   19.445
 5405.00    0.69405   0.70822   19.627
 5406.00    0.69915   0.70634   19.754
 5407.00    0.71641   0.70537   19.757
 5408.00    0.73405   0.70551   19.666
 5409.00    0.74118   0.70654   19.556
 5410.00    0.73775   0.70881   19.504
 5411.00    0.73249   0.71228   19.524
 5412.00    0.73868   0.71614   19.554
 5413.00    0.75879   0.71990   19.531
 5414.00    0.77788   0.72399   19.459
 5415.00    0.78309   0.72843   19.404
 5416.00    0.77431   0.73210   19.466
 5417.00    0.75704   0.73443   19.672
 5418.00    0.73784   0.73617   19.930
 5419.00    0.72328   0.73714   20.116
 5420.00    0.71878   0.73682   20.142
 5421.00    0.72609   0.73620   20.016
 5422.00    0.74189   0.73545   19.845
 5423.00    0.75707   0.73390   19.746
 5424.00    0.76021   0.73240   19.788
 5425.00    0.75056   0.73134   19.918
 5426.00    0.73885   0.73014   19.977
 5427.00    0.73420   0.72866   19.902
 5428.00    0.73859   0.72665   19.774
 5429.00    0.74402   0.72468   19.777
 5430.00    0.73912   0.72360   20.079
 5431.00    0.72841   0.72245   20.578
 5432.00    0.72791   0.72096   20.941
 5433.00    0.74194   0.72117   21.005
 5434.00    0.76114   0.72327   20.890
 5435.00    0.77121   0.72569   20.887
 5436.00    0.76232   0.72878   21.225
 5437.00    0.74327   0.73289   21.708
 5438.00    0.73205   0.73704   21.872
 5439.00    0.73391   0.74043   21.581
 5440.00    0.74320   0.74264   21.051
 5441.00    0.75272   0.74337   20.587
 5442.00    0.75499   0.74234   20.375
 5443.00    0.74253   0.74002   20.328
 5444.00    0.72069   0.73722   20.207
 5445.00    0.72136   0.73414   19.823
 5446.00    0.75406   0.73138   19.418
 5447.00    0.75310   0.73009   19.902
 5448.00    0.69603   0.72994   -2.000
 5449.00    0.71861   0.73003   -2.000
 5450.00    0.84514   0.73042   -2.000
 5451.00    0.75723   0.73088   -2.000
 5452.00    0.34040   0.73090   -2.000
 5453.00    0.12149   0.73045   -2.000
 5454.00    0.48287   0.72936   -2.000
 5455.00    1.05079   0.72831   -2.000
 5456.00    1.34118   0.72836   -2.000
 5457.00    1.27551   0.72880   -2.000
 5458.00    1.07264   0.72865   -2.000
 5459.00    1.08489   0.72881   -2.000
 5460.00    1.39154   0.72968   -2.000
 5461.00    1.63925   0.72978   -2.000
 5462.00    1.57394   0.72868   -2.000
 5463.00    1.29988   0.72820   -2.000
 5464.00    1.00042   0.72865   -2.000
 5465.00    0.78330   0.72843   -2.000
 5466.00    0.67805   0.72806   -2.000
 5467.00    0.65165   0.72895   -2.000
 5468.00    0.66700   0.72946   -2.000
 5469.00    0.70417   0.72823   -2.000
 5470.00    0.74459   0.72697   -2.000
 5471.00    0.76823   0.72559   20.347
 5472.00    0.76560   0.72214   20.382
 5473.00    0.74104   0.71812   20.503
 5474.00    0.70925   0.71549   20.641
 5475.00    0.68868   0.71256   20.811
 5476.00    0.68663   0.70914   21.029
 5477.00    0.69856   0.70791   21.270
 5478.00    0.71741   0.70861   21.417
 5479.00    0.73645   0.70909   21.370
 5480.00    0.75008   0.71034   21.323
 5481.00    0.75457   0.71343   21.536
 5482.00    0.74910   0.71647   21.741
 5483.00    0.73693   0.71847   21.453
 5484.00    0.72681   0.72068   20.870
 5485.00    0.72697   0.72299   20.525
 5486.00    0.73466   0.72402   20.557
 5487.00    0.74160   0.72457   20.793
 5488.00    0.74519   0.72549   20.929
 5489.00    0.74714   0.72561   20.761
 5490.00    0.74891   0.72526   20.485
 5491.00    0.75036   0.72572   20.403
 5492.00    0.74909   0.72588   20.533
 5493.00    0.74313   0.72515   20.732
 5494.00    0.73422   0.72508   20.861
 5495.00    0.72750   0.72536   20.824
 5496.00    0.73018   0.72443   20.594
 5497.00    0.74463   0.72335   20.274
 5498.00    0.76250   0.72308   20.091
 5499.00    0.77110   0.72225   20.125
 5500.00    0.76071   0.72057   20.124
 5501.00    0.73491   0.71923   19.937
 5502.00    0.71500   0.71798   19.794
 5503.00    0.71436   0.71650   19.783
 5504.00    0.72222   0.71523   19.608
 5505.00    0.72438   0.71392   19.467
 5506.00    0.71730   0.71289   20.262
 5507.00    0.70583   0.71256   21.334
 5508.00    0.69949   0.71197   19.433
 5509.00    0.70273   0.71122   15.718
 5510.00    0.71146   0.71137   13.696
 5511.00    0.72195   0.71184   13.478
 5512.00    0.73440   0.71213   13.815
 5513.00    0.74808   0.71327   13.655
 5514.00    0.75959   0.71526   12.901
 5515.00    0.76490   0.71731   12.565
 5516.00    0.76106   0.71959   14.096
 5517.00    0.74947   0.72219   18.237
 5518.00    0.73648   0.72439   22.088
 5519.00    0.73129   0.72584   21.742
 5520.00    0.74125   0.72653   20.589
 5521.00    0.76035   0.72636   20.708
 5522.00    0.77329   0.72527   21.357
 5523.00    0.77552   0.72328   21.774
 5524.00    0.77358   0.72049   21.776
 5525.00    0.77173   0.71776   21.577
 5526.00    0.76894   0.71541   21.519
 5527.00    0.75967   0.71294   21.692
 5528.00    0.74019   0.71119   21.942
 5529.00    0.72019   0.71095   22.009
 5530.00    0.71373   0.71097   21.742
 5531.00    0.71880   0.71098   21.399
 5532.00    0.72419   0.71214   21.324
 5533.00    0.72699   0.71350   21.440
 5534.00    0.73129   0.71410   21.466
 5535.00    0.74143   0.71517   21.353
 5536.00    0.75690   0.71682   21.229
 5537.00    0.76751   0.71797   21.214
 5538.00    0.76307   0.71896   21.332
 5539.00    0.74600   0.72022   21.431
 5540.00    0.72768   0.72119   21.353
 5541.00    0.72179   0.72160   21.119
 5542.00    0.73582   0.72165   20.781
 5543.00    0.76349   0.72177   20.272
 5544.00    0.79089   0.72210   19.708
 5545.00    0.80384   0.72229   19.519
 5546.00    0.79710   0.72268   19.809
 5547.00    0.78019   0.72377   19.947
 5548.00    0.76391   0.72479   19.559
 5549.00    0.75049   0.72535   19.260
 5550.00    0.74030   0.72585   19.500
 5551.00    0.73635   0.72606   19.976
 5552.00    0.73969   0.72564   20.222
 5553.00    0.74660   0.72477   20.088
 5554.00    0.75073   0.72376   19.812
 5555.00    0.74603   0.72280   19.846
 5556.00    0.73513   0.72170   20.225
 5557.00    0.72990   0.72052   20.403
 5558.00    0.73363   0.71945   20.203
 5559.00    0.73637   0.71827   20.103
 5560.00    0.73198   0.71692   20.218
 5561.00    0.72364   0.71538   20.131
 5562.00    0.71605   0.71359   19.847
 5563.00    0.71208   0.71197   19.862
 5564.00    0.71275   0.71056   20.133
 5565.00    0.71771   0.70878   20.064
 5566.00    0.72688   0.70742   19.638
 5567.00    0.74028   0.70705   19.440
 5568.00    0.75630   0.70619   19.698
 5569.00    0.77163   0.70530   20.202
 5570.00    0.78265   0.70591   20.577
 5571.00    0.78672   0.70639   20.517
 5572.00    0.78429   0.70611   20.241
 5573.00    0.77835   0.70721   20.229
 5574.00    0.77209   0.70884   20.538
 5575.00    0.76749   0.70934   20.894
 5576.00    0.76365   0.71039   21.100
 5577.00    0.75826   0.71201   21.117
 5578.00    0.75080   0.71239   21.020
 5579.00    0.74162   0.71230   20.926
 5580.00    0.72981   0.71217   20.913
 5581.00    0.71543   0.71073   20.957
 5582.00    0.70301   0.70822   20.877
 5583.00    0.69749   0.70529   20.600
 5584.00    0.69832   0.70157   20.463
 5585.00    0.70107   0.69726   20.699
 5586.00    0.70040   0.69322   20.870
 5587.00    0.69264   0.68976   20.629
 5588.00    0.67812   0.68707   20.577
 5589.00    0.66118   0.68557   21.173
 5590.00    0.64941   0.68524   21.716
 5591.00    0.64866   0.68592   21.472
 5592.00    0.65875   0.68758   20.996
 5593.00    0.67503   0.68948   20.858
 5594.00    0.69060   0.69110   20.754
 5595.00    0.70186   0.69298   20.483
 5596.00    0.71142   0.69451   20.507
 5597.00    0.72124   0.69481   20.971
 5598.00    0.72855   0.69495   21.189
 5599.00    0.73069   0.69548   20.842
 5600.00    0.72787   0.69571   20.624
 5601.00    0.72138   0.69623   20.932
 5602.00    0.71237   0.69798   21.385
 5603.00    0.70122   0.70064   21.644
 5604.00    0.68857   0.70377   21.816
 5605.00    0.68100   0.70728   22.030
 5606.00    0.68956   0.71093   22.231
 5607.00    0.71316   0.71410   22.340
 5608.00    0.73692   0.71611   22.340
 5609.00    0.75172   0.71705   22.285
 5610.00    0.75806   0.71682   22.262
 5611.00    0.75350   0.71497   22.276
 5612.00    0.73309   0.71227   22.261
 5613.00    0.70405   0.70932   22.244
 5614.00    0.68323   0.70567   22.301
 5615.00    0.67797   0.70228   22.307
 5616.00    0.68395   0.70031   22.060
 5617.00    0.69365   0.69884   21.736
 5618.00    0.70064   0.69778   21.663
 5619.00    0.70390   0.69793   21.675
 5620.00    0.70622   0.69830   21.385
 5621.00    0.70873   0.69833   20.995
 5622.00    0.70993   0.69866   20.957
 5623.00    0.70623   0.69882   21.196
 5624.00    0.69641   0.69878   21.324
 5625.00    0.68846   0.69957   21.234
 5626.00    0.69203   0.70073   21.099
 5627.00    0.70549   0.70185   21.169
 5628.00    0.72032   0.70373   21.492
 5629.00    0.73028   0.70581   21.577
 5630.00    0.73418   0.70706   21.011
 5631.00    0.73715   0.70787   20.293
 5632.00    0.74134   0.70825   20.065
 5633.00    0.73669   0.70751   20.443
 5634.00    0.71810   0.70608   21.138
 5635.00    0.70246   0.70460   21.500
 5636.00    0.70650   0.70276   21.181
 5637.00    0.72522   0.70075   20.804
 5638.00    0.74253   0.69945   20.898
 5639.00    0.74327   0.69862   21.187
 5640.00    0.72274   0.69781   21.283
 5641.00    0.69178   0.69773   21.253
 5642.00    0.66445   0.69839   21.225
 5643.00    0.64904   0.69900   21.115
 5644.00    0.64906   0.69980   20.969
 5645.00    0.66434   0.70097   21.087
 5646.00    0.69083   0.70191   21.395
 5647.00    0.72063   0.70255   21.254
 5648.00    0.74254   0.70299   20.704
 5649.00    0.74500   0.70304   20.697
 5650.00    0.72780   0.70253   21.468
 5651.00    0.70457   0.70141   22.103
 5652.00    0.68843   0.69996   22.010
 5653.00    0.68518   0.69800   21.672
 5654.00    0.69256   0.69509   21.578
 5655.00    0.70218   0.69221   21.804
 5656.00    0.70721   0.68983   22.120
 5657.00    0.70525   0.68692   22.161
 5658.00    0.69831   0.68437   21.981
 5659.00    0.69079   0.68353   21.960
 5660.00    0.68395   0.68323   21.984
 5661.00    0.67593   0.68306   21.622
 5662.00    0.66639   0.68419   21.173
 5663.00    0.65726   0.68614   21.261
 5664.00    0.65174   0.68788   21.507
 5665.00    0.65255   0.68974   20.983
 5666.00    0.65891   0.69188   19.991
 5667.00    0.66737   0.69387   19.459
 5668.00    0.67478   0.69573   19.573
 5669.00    0.68010   0.69766   20.046
 5670.00    0.68620   0.69953   20.581
 5671.00    0.69730   0.70127   20.924
 5672.00    0.71427   0.70294   20.929
 5673.00    0.73426   0.70435   20.688
 5674.00    0.75138   0.70512   20.602
 5675.00    0.75924   0.70535   20.928
 5676.00    0.75425   0.70522   21.233
 5677.00    0.73756   0.70436   21.026
 5678.00    0.71632   0.70264   20.699
 5679.00    0.69824   0.70074   20.819
 5680.00    0.68573   0.69874   21.371
 5681.00    0.67947   0.69625   21.965
 5682.00    0.68211   0.69381   22.106
 5683.00    0.69289   0.69198   21.723
 5684.00    0.70349   0.69044   21.475
 5685.00    0.70743   0.68926   21.774
 5686.00    0.70754   0.68892   22.192
 5687.00    0.70990   0.68917   22.269
 5688.00    0.71826   0.68996   22.195
 5689.00    0.72998   0.69137   22.220
 5690.00    0.73504   0.69291   22.245
 5691.00    0.72559   0.69450   22.170
 5692.00    0.70222   0.69614   22.092
 5693.00    0.67413   0.69724   22.096
 5694.00    0.65657   0.69757   22.147
 5695.00    0.65797   0.69756   22.154
 5696.00    0.67441   0.69699   22.022
 5697.00    0.69505   0.69553   21.731
 5698.00    0.70722   0.69378   21.357
 5699.00    0.70622   0.69208   21.025
 5700.00    0.69758   0.68998   20.874
 5701.00    0.68953   0.68770   21.027
 5702.00    0.68901   0.68566   21.516
 5703.00    0.69843   0.68363   21.995
 5704.00    0.71458   0.68136   21.859
 5705.00    0.72912   0.67896   21.210
 5706.00    0.73236   0.67695   20.734
 5707.00    0.72314   0.67518   20.694
 5708.00    0.70880   0.67346   20.919
 5709.00    0.69756   0.67286   21.153
 5710.00    0.69535   0.67347   21.186
 5711.00    0.70326   0.67441   21.026
 5712.00    0.71824   0.67661   20.842
 5713.00    0.73589   0.67993   20.777
 5714.00    0.75164   0.68303   20.856
 5715.00    0.76167   0.68649   20.908
 5716.00    0.76407   0.69025   20.772
 5717.00    0.76025   0.69320   20.674
 5718.00    0.75356   0.69589   20.916
 5719.00    0.74673   0.69845   21.344
 5720.00    0.74156   0.70016   21.530
 5721.00    0.73906   0.70152   21.247
 5722.00    0.73745   0.70263   20.670
 5723.00    0.73024   0.70295   20.346
 5724.00    0.71388   0.70289   20.640
 5725.00    0.69625   0.70269   21.266
 5726.00    0.68825   0.70195   21.705
 5727.00    0.69369   0.70102   21.818
 5728.00    0.70834   0.70031   21.740
 5729.00    0.72085   0.69966   21.619
 5730.00    0.72232   0.69902   21.568
 5731.00    0.71425   0.69874   21.655
 5732.00    0.70512   0.69883   21.788
 5733.00    0.70581   0.69897   21.687
 5734.00    0.71886   0.69910   21.281
 5735.00    0.73292   0.69939   20.915
 5736.00    0.73586   0.69955   20.809
 5737.00    0.72427   0.69946   20.820
 5738.00    0.70560   0.69928   20.715
 5739.00    0.69604   0.69900   20.352
 5740.00    0.70354   0.69858    0.000
 5741.00    0.72086   0.69819    0.000
 5742.00    0.73733   0.69780    0.000
 5743.00    0.74547   0.69733    0.000
 5744.00    0.74338   0.69682    0.000
 5745.00    0.73421   0.69622    0.000
 5746.00    0.72043   0.69542    0.000
 5747.00    0.70322   0.69434    0.000
 5748.00    0.68881   0.69313    0.000
 5749.00    0.68665   0.69186    0.000
 5750.00    0.69611   0.69039    0.000
 5751.00    0.70680   0.68904    0.000
 5752.00    0.71261   0.68805    0.000
 5753.00    0.71458   0.68725    0.000
 5754.00    0.71639   0.68685    0.000
 5755.00    0.72109   0.68695    0.000
 5756.00    0.72637   0.68712    0.000
 5757.00    0.72435   0.68737    0.000
 5758.00    0.70406   0.68769    0.000
 5759.00    0.65528   0.68763   -2.000
 5760.00    0.57557   0.68757   -2.000
 5761.00    0.47873   0.68768   -2.000
 5762.00    0.40663   0.68772   -2.000
 5763.00    0.40966   0.68828   -2.000
 5764.00    0.51035   0.68938   -2.000
 5765.00    0.68733   0.69041   -2.000
 5766.00    0.86355   0.69166   -2.000
 5767.00    0.95764   0.69294   -2.000
 5768.00    0.95517   0.69358   -2.000
 5769.00    0.89879   0.69384   -2.000
 5770.00    0.86019   0.69382   -2.000
 5771.00    0.88750   0.69313   -2.000
 5772.00    0.95369   0.69224   -2.000
 5773.00    0.99974   0.69131   -2.000
 5774.00    0.98602   0.68989   -2.000
 5775.00    0.90871   0.68836   -2.000
 5776.00    0.80618   0.68674   -2.000
 5777.00    0.72052   0.68445   -2.000
 5778.00    0.66595   0.68187    0.000
 5779.00    0.64189   0.67926    0.000
 5780.00    0.64476   0.67633    0.000
 5781.00    0.66677   0.67353    0.000
 5782.00    0.69507   0.67149    0.000
 5783.00    0.71494   0.67010    0.000
 5784.00    0.71413   0.66930    0.000
 5785.00    0.69492   0.66959    0.000
 5786.00    0.67710   0.67078    0.000
 5787.00    0.67704   0.67212    0.000
 5788.00    0.69728   0.67389    0.000
 5789.00    0.73008   0.67603    0.000
 5790.00    0.76153   0.67770    0.000
 5791.00    0.78028   0.67926    0.000
 5792.00    0.78108   0.68089    0.000
 5793.00    0.76349   0.68197    0.000
 5794.00    0.73186   0.68285    0.000
 5795.00    0.69718   0.68387    0.000
 5796.00    0.67372   0.68455    0.000
 5797.00    0.66691   0.68501    0.000
 5798.00    0.67240   0.68565    0.000
 5799.00    0.68483   0.68622    0.000
 5800.00    0.70036   0.68640    0.000
 5801.00    0.71668   0.68655    0.000
 5802.00    0.73144   0.68668    0.000
 5803.00    0.73895   0.68638    0.000
 5804.00    0.73411   0.68597    0.000
 5805.00    0.72236   0.68572    0.000
 5806.00    0.71559   0.68540    0.000
 5807.00    0.72019   0.68520    0.000
 5808.00    0.73460   0.68526    0.000
 5809.00    0.74942   0.68536    0.000
 5810.00    0.75503   0.68556    0.000
 5811.00    0.75308   0.68575    0.000
 5812.00    0.74912   0.68579    0.000
 5813.00    0.73992   0.68588    0.000
 5814.00    0.72184   0.68606    0.000
 5815.00    0.70347   0.68620    0.000
 5816.00    0.69704   0.68660    0.000
 5817.00    0.70635   0.68736    0.000
 5818.00    0.72716   0.68819    0.000
 5819.00    0.74962   0.68912    0.000
 5820.00    0.76446   0.69020    0.000
 5821.00    0.76864   0.69112    0.000
 5822.00    0.76262   0.69181    0.000
 5823.00    0.74798   0.69237    0.000
 5824.00    0.73131   0.69273    0.000
 5825.00    0.72567   0.69290    0.000
 5826.00    0.73662   0.69293    0.000
 5827.00    0.75391   0.69285    0.000
 5828.00    0.76650   0.69266    0.000
 5829.00    0.77205   0.69238    0.000
 5830.00    0.77000   0.69197    0.000
 5831.00    0.75802   0.69143    0.000
 5832.00    0.73793   0.69091    0.000
 5833.00    0.71779   0.69038    0.000
 5834.00    0.70573   0.68979    0.000
 5835.00    0.70631   0.68940    0.000
 5836.00    0.71875   0.68925    0.000
 5837.00    0.73712   0.68909    0.000
 5838.00    0.75389   0.68909    0.000
 5839.00    0.76214   0.68933    0.000
 5840.00    0.75803   0.68939    0.000
 5841.00    0.74249   0.68927    0.000
 5842.00    0.72357   0.68911    0.000
 5843.00    0.71288   0.68858    0.000
 5844.00    0.71271   0.68765    0.000
 5845.00    0.71531   0.68659    0.000
 5846.00    0.71199   0.68522    0.000
 5847.00    0.69890   0.68353    0.000
 5848.00    0.68454   0.68181    0.000
 5849.00    0.68321   0.67983    0.000
 5850.00    0.69650   0.67761    0.000
 5851.00    0.71469   0.67542    0.000
 5852.00    0.72837   0.67309    0.000
 5853.00    0.73200   0.67066    0.000
 5854.00    0.72580   0.66853    0.000
 5855.00    0.71382   0.66676    0.000
 5856.00    0.70025   0.66523    0.000
 5857.00    0.68832   0.66440    0.000
 5858.00    0.67962   0.66437    0.000
 5859.00    0.67509   0.66465    0.000
 5860.00    0.67629   0.66559    0.000
 5861.00    0.68233   0.66709    0.000
 5862.00    0.68644   0.66855    0.000
 5863.00    0.68384   0.67020    0.000
 5864.00    0.68054   0.67190    0.000
 5865.00    0.68573   0.67327    0.000
 5866.00    0.70271   0.67445    0.000
 5867.00    0.72745   0.67546    0.000
 5868.00    0.74905   0.67599    0.000
 5869.00    0.75931   0.67605    0.000
 5870.00    0.76030   0.67579    0.000
 5871.00    0.75915   0.67487    0.000
 5872.00    0.76270   0.67354    0.000
 5873.00    0.77282   0.67196    0.000
 5874.00    0.78414   0.67016    0.000
 5875.00    0.79025   0.66857    0.000
 5876.00    0.78755   0.66711    0.000
 5877.00    0.77339   0.66605    0.000
 5878.00    0.74629   0.66537    0.000
 5879.00    0.71313   0.66463    0.000
 5880.00    0.68961   0.66393    0.000
 5881.00    0.68383   0.66280    0.000
 5882.00    0.69029   0.66083    0.000
 5883.00    0.69901   0.65774    0.000
 5884.00    0.70158   0.65351    0.000
 5885.00    0.69789   0.64808    0.000
 5886.00    0.69513   0.64105    0.000
 5887.00    0.69467   0.63364    0.000
 5888.00    0.68994   0.62637    0.000
 5889.00    0.67463   0.61870    0.000
 5890.00    0.64763   0.61275    0.000
 5891.00    0.61853   0.60887    0.000
 5892.00    0.60219   0.60554    0.000
 5893.00    0.60060   0.60486    0.000
 5894.00    0.60409   0.60654    0.000
 5895.00    0.60587   0.60843    0.000
 5896.00    0.60549   0.61253    0.000
 5897.00    0.60839   0.61835    0.000
 5898.00    0.62056   0.62385    0.000
 5899.00    0.63888   0.63049    0.000
 5900.00    0.65527   0.63764    0.000
 5901.00    0.66736   0.64363   22.597
 5902.00    0.67687   0.64928   22.352
 5903.00    0.68402   0.65433   22.340
 5904.00    0.68812   0.65798   22.753
 5905.00    0.68978   0.66080   23.176
 5906.00    0.69073   0.66297   23.103
 5907.00    0.69300   0.66428   22.858
 5908.00    0.69722   0.66503   22.952
 5909.00    0.70087   0.66537   23.230
 5910.00    0.70077   0.66520   23.339
 5911.00    0.69602   0.66473   23.338
 5912.00    0.68788   0.66408   23.364
 5913.00    0.67917   0.66326   23.256
 5914.00    0.67207   0.66266   22.999
 5915.00    0.66637   0.66229   23.046
 5916.00    0.66220   0.66210   23.576
 5917.00    0.66190   0.66250   23.952
 5918.00    0.66702   0.66309   23.707
 5919.00    0.67631   0.66377   23.337
 5920.00    0.68779   0.66473   23.187
 5921.00    0.70013   0.66545   22.895
 5922.00    0.71106   0.66599   22.378
 5923.00    0.71700   0.66642   22.194
 5924.00    0.71640   0.66635   22.509
 5925.00    0.71116   0.66613   22.746
 5926.00    0.70374   0.66568   22.506
 5927.00    0.69572   0.66488   22.043
 5928.00    0.68811   0.66422   21.765
 5929.00    0.68147   0.66349   21.946
 5930.00    0.67564   0.66290   22.532
 5931.00    0.67070   0.66266   23.122
 5932.00    0.67090   0.66251   23.385
 5933.00    0.68233   0.66273   23.287
 5934.00    0.70034   0.66308   22.962
 5935.00    0.71065   0.66345   22.625
 5936.00    0.70618   0.66394   22.545
 5937.00    0.69072   0.66420   22.924
 5938.00    0.67392   0.66438   23.562
 5939.00    0.66602   0.66447   23.930
 5940.00    0.66820   0.66421   23.849
 5941.00    0.67498   0.66401   23.617
 5942.00    0.68492   0.66374   23.622
 5943.00    0.70023   0.66322   24.025
 5944.00    0.72064   0.66286   24.282
 5945.00    0.74188   0.66239   23.738
 5946.00    0.75561   0.66171   23.027
 5947.00    0.75535   0.66114   23.097
 5948.00    0.74634   0.66047   23.683
 5949.00    0.73818   0.65973   23.924
 5950.00    0.73128   0.65915   23.756
 5951.00    0.72005   0.65865   23.614
 5952.00    0.70061   0.65827   23.568
 5953.00    0.67487   0.65813   23.487
 5954.00    0.65347   0.65815   23.372
 5955.00    0.64606   0.65828   23.286
 5956.00    0.64992   0.65873   23.228
 5957.00    0.65656   0.65937   23.172
 5958.00    0.66006   0.66005   23.116
 5959.00    0.65886   0.66096   23.124
 5960.00    0.65627   0.66197   23.342
 5961.00    0.65583   0.66292   23.674
 5962.00    0.65762   0.66375   23.574
 5963.00    0.66145   0.66452   22.993
 5964.00    0.66896   0.66519   22.853
 5965.00    0.67904   0.66559   23.517
 5966.00    0.68574   0.66601   23.994
 5967.00    0.68763   0.66637   23.647
 5968.00    0.69157   0.66652   23.369
 5969.00    0.69848   0.66665   23.686
 5970.00    0.69797   0.66655   23.975
 5971.00    0.68660   0.66612   23.895
 5972.00    0.67465   0.66540   24.017
 5973.00    0.66980   0.66435   24.566
 5974.00    0.67020   0.66306   24.966
 5975.00    0.67054   0.66153   24.857
 5976.00    0.66681   0.66008   24.541
 5977.00    0.66349   0.65870   24.385
 5978.00    0.67119   0.65729   24.487
 5979.00    0.68864   0.65627   24.432
 5980.00    0.70160   0.65530   23.626
 5981.00    0.70145   0.65419   22.628
 5982.00    0.69017   0.65347   22.510
 5983.00    0.67640   0.65269   22.997
 5984.00    0.66993   0.65195   22.829
 5985.00    0.67082   0.65168   22.146
 5986.00    0.67230   0.65151   22.111
 5987.00    0.67486   0.65170   22.700
 5988.00    0.68320   0.65221   22.987
 5989.00    0.69221   0.65275   22.850
 5990.00    0.69127   0.65346   22.918
 5991.00    0.67910   0.65408   23.421
 5992.00    0.66355   0.65458   24.100
 5993.00    0.65567   0.65485   24.389
 5994.00    0.66352   0.65480   23.935
 5995.00    0.68401   0.65473   23.367
 5996.00    0.70688   0.65428   23.434
 5997.00    0.72265   0.65359   23.939
 5998.00    0.72632   0.65313   24.251
 5999.00    0.72028   0.65234   24.207
 6000.00    0.70886   0.65153   24.093
 6001.00    0.69147   0.65097   24.322
 6002.00    0.66744   0.65007   25.040
 6003.00    0.64206   0.64932   25.698
 6004.00    0.62364   0.64868   25.700
 6005.00    0.61950   0.64772   25.319
 6006.00    0.63250   0.64718   25.032
 6007.00    0.65822   0.64668   24.849
 6008.00    0.68595   0.64611   24.618
 6009.00    0.70111   0.64606   24.298
 6010.00    0.69689   0.64580   23.879
 6011.00    0.68138   0.64560   23.349
 6012.00    0.66603   0.64570   22.890
 6013.00    0.65723   0.64526   22.876
 6014.00    0.65706   0.64483   23.254
 6015.00    0.66414   0.64451   23.311
 6016.00    0.67467   0.64377   22.853
 6017.00    0.68375   0.64315   22.640
 6018.00    0.68927   0.64252   22.921
 6019.00    0.69315   0.64192   23.042
 6020.00    0.69744   0.64174   22.740
 6021.00    0.70216   0.64158   22.572
 6022.00    0.70471   0.64180   22.781
 6023.00    0.70068   0.64254   23.060
 6024.00    0.68784   0.64342   23.258
 6025.00    0.66846   0.64468   23.559
 6026.00    0.65178   0.64609   24.009
 6027.00    0.64976   0.64768   24.377
 6028.00    0.66186   0.64938   24.405
 6029.00    0.67582   0.65078   24.061
 6030.00    0.68379   0.65224   23.871
 6031.00    0.68505   0.65359   24.491
 6032.00    0.68090   0.65451   25.567
 6033.00    0.67316   0.65529   25.957
 6034.00    0.66407   0.65586   25.788
 6035.00    0.65625   0.65616   26.042
 6036.00    0.65286   0.65616   26.258
 6037.00    0.65619   0.65602   25.313
 6038.00    0.66508   0.65583   23.936
 6039.00    0.67475   0.65539   23.372
 6040.00    0.67770   0.65507   23.455
 6041.00    0.66933   0.65486   23.492
 6042.00    0.65612   0.65462   23.588
 6043.00    0.65005   0.65462   24.062
 6044.00    0.65840   0.65472   24.290
 6045.00    0.67924   0.65481   23.645
 6046.00    0.69822   0.65496   22.956
 6047.00    0.70161   0.65494   23.071
 6048.00    0.69150   0.65475   23.536
 6049.00    0.67763   0.65442   23.608
 6050.00    0.66668   0.65373   23.522
 6051.00    0.66073   0.65286   23.713
 6052.00    0.65745   0.65194   23.949
 6053.00    0.65466   0.65091   23.898
 6054.00    0.65397   0.64995   23.713
 6055.00    0.65659   0.64916   23.668
 6056.00    0.66017   0.64856   23.846
 6057.00    0.66237   0.64818   24.235
 6058.00    0.66354   0.64786   24.785
 6059.00    0.66615   0.64754   25.303
 6060.00    0.67336   0.64733   25.427
 6061.00    0.68443   0.64705   25.073
 6062.00    0.69341   0.64649   24.633
 6063.00    0.69798   0.64620   24.478
 6064.00    0.70210   0.64608   24.730
 6065.00    0.70432   0.64601   25.238
 6066.00    0.69538   0.64656   25.577
 6067.00    0.67329   0.64730   25.395
 6068.00    0.64810   0.64823   24.680
 6069.00    0.63225   0.64961   23.790
 6070.00    0.63445   0.65062   23.202
 6071.00    0.65256   0.65138   23.023
 6072.00    0.67426   0.65198   23.037
 6073.00    0.68797   0.65191   23.101
 6074.00    0.68779   0.65141   23.195
 6075.00    0.67670   0.65036   23.220
 6076.00    0.66338   0.64886   23.064
 6077.00    0.65096   0.64735   22.948
 6078.00    0.63791   0.64554   23.234
 6079.00    0.62742   0.64376   23.774
 6080.00    0.62608   0.64224   23.993
 6081.00    0.63538   0.64082   23.647
 6082.00    0.65103   0.63984   23.051
 6083.00    0.66558   0.63904   22.923
 6084.00    0.67213   0.63831   23.779
 6085.00    0.66994   0.63812   24.930
 6086.00    0.66273   0.63803   25.029
 6087.00    0.65419   0.63775   24.323
 6088.00    0.64815   0.63781   23.952
 6089.00    0.64976   0.63801   24.181
 6090.00    0.66072   0.63805   24.666
 6091.00    0.67310   0.63826   24.907
 6092.00    0.67649   0.63856   24.737
 6093.00    0.66796   0.63881   24.824
 6094.00    0.65158   0.63910   25.711
 6095.00    0.63573   0.63912   26.713
 6096.00    0.62485   0.63875   26.818
 6097.00    0.61234   0.63826   26.222
 6098.00    0.59150   0.63745   25.334
 6099.00    0.56612   0.63599   23.795
 6100.00    0.54662   0.63454   21.713
 6101.00    0.54489   0.63336   19.992
 6102.00    0.56662   0.63208   19.084
 6103.00    0.60638   0.63155   18.827
 6104.00    0.65390   0.63153   18.934
 6105.00    0.69881   0.63176   19.160
 6106.00    0.73080   0.63306   19.458
 6107.00    0.74112   0.63433   20.049
 6108.00    0.73153   0.63534   20.895
 6109.00    0.71629   0.63684   21.409
 6110.00    0.70482   0.63790   21.429
 6111.00    0.69482   0.63855   21.662
 6112.00    0.68384   0.63900   22.441
 6113.00    0.67375   0.63878   23.269
 6114.00    0.66510   0.63842   23.771
 6115.00    0.65543   0.63786   24.172
 6116.00    0.64294   0.63658   24.660
 6117.00    0.62783   0.63526   25.146
 6118.00    0.61185   0.63378   25.577
 6119.00    0.59630   0.63192   25.972
 6120.00    0.57678   0.63051   26.050
 6121.00    0.54705   0.62918   25.411
 6122.00    0.51502   0.62801   24.391
 6123.00    0.50089   0.62766   23.519
 6124.00    0.52027   0.62746   22.183
 6125.00    0.57518   0.62764   19.842
 6126.00    0.64451   0.62838   17.847
 6127.00    0.69532   0.62881   17.346
 6128.00    0.71157   0.62925   17.800
 6129.00    0.69753   0.62968   18.024
 6130.00    0.67147   0.62937   18.176
 6131.00    0.65435   0.62846   19.225
 6132.00    0.65245   0.62725   20.933
 6133.00    0.65977   0.62541   21.985
 6134.00    0.66718   0.62298   22.144
 6135.00    0.66753   0.62073   22.252
 6136.00    0.66080   0.61877   22.603
 6137.00    0.65130   0.61724   23.057
 6138.00    0.64293   0.61628   23.559
 6139.00    0.63690   0.61601   24.025
 6140.00    0.63011   0.61698   24.134
 6141.00    0.61986   0.61846   23.811
 6142.00    0.60879   0.61998   23.691
 6143.00    0.60143   0.62178   24.242
 6144.00    0.60011   0.62348   25.021
 6145.00    0.60391   0.62503   25.418
 6146.00    0.60844   0.62603   25.575
 6147.00    0.60967   0.62646   25.869
 6148.00    0.60666   0.62692   26.323
 6149.00    0.59921   0.62709   26.662
 6150.00    0.58663   0.62697   26.432
 6151.00    0.57328   0.62668   25.412
 6152.00    0.57048   0.62620   23.877
 6153.00    0.58529   0.62564   22.436
 6154.00    0.61386   0.62464   21.710
 6155.00    0.64402   0.62318   21.847
 6156.00    0.65971   0.62138   22.510
 6157.00    0.65378   0.61905   23.209
 6158.00    0.63105   0.61635   23.542
 6159.00    0.59255   0.61340   23.710
 6160.00    0.52928   0.61046   24.287
 6161.00    0.42765   0.60809   -2.000
 6162.00    0.28191   0.60624   -2.000
 6163.00    0.12987   0.60463   -2.000
 6164.00    0.05124   0.60406   -2.000
 6165.00    0.11609   0.60447   -2.000
 6166.00    0.34946   0.60489   -2.000
 6167.00    0.68148   0.60574   -2.000
 6168.00    0.97142   0.60708   -2.000
 6169.00    1.11583   0.60851   -2.000
 6170.00    1.08607   0.60995   -2.000
 6171.00    0.94172   0.61124   -2.000
 6172.00    0.79110   0.61277   -2.000
 6173.00    0.69582   0.61459   20.623
 6174.00    0.66122   0.61620   21.126
 6175.00    0.66353   0.61773   22.053
 6176.00    0.67020   0.61939   23.439
 6177.00    0.66642   0.62088   25.093
 6178.00    0.65422   0.62213   26.619
 6179.00    0.64196   0.62319   27.524
 6180.00    0.63691   0.62405   27.521
 6181.00    0.63675   0.62465   26.867
 6182.00    0.63367   0.62478   26.033
 6183.00    0.62217   0.62457   25.240
 6184.00    0.60401   0.62408   24.499
 6185.00    0.59221   0.62288   23.743
 6186.00    0.59906   0.62156   23.002
 6187.00    0.62204   0.62028   22.516
 6188.00    0.64801   0.61837   22.476
 6189.00    0.66024   0.61694   22.810
 6190.00    0.64895   0.61621   23.205
 6191.00    0.61983   0.61556   23.133
 6192.00    0.58593   0.61564   22.393
 6193.00    0.55962   0.61600   21.462
 6194.00    0.55078   0.61684   20.807
 6195.00    0.56496   0.61835   20.549
 6196.00    0.59720   0.61932   20.719
 6197.00    0.62993   0.62021   21.388
 6198.00    0.64770   0.62142   22.570
 6199.00    0.64673   0.62231   24.084
 6200.00    0.63311   0.62302   25.531
 6201.00    0.61901   0.62362   26.387
 6202.00    0.61019   0.62420   26.621
 6203.00    0.60204   0.62497   26.889
 6204.00    0.59304   0.62550   27.383
 6205.00    0.58917   0.62573   27.476
 6206.00    0.59320   0.62577   27.010
 6207.00    0.60086   0.62535   26.621
 6208.00    0.60467   0.62447   26.567
 6209.00    0.59812   0.62316   26.521
 6210.00    0.58431   0.62125   26.228
 6211.00    0.57514   0.61916   25.691
 6212.00    0.57864   0.61694   24.986
 6213.00    0.59433   0.61459   24.213
 6214.00    0.61229   0.61270   23.524
 6215.00    0.61798   0.61099   23.083
 6216.00    0.60529   0.60955   22.959
 6217.00    0.57920   0.60881   23.095
 6218.00    0.55327   0.60845   23.222
 6219.00    0.54308   0.60855   23.022
 6220.00    0.55363   0.60900   22.561
 6221.00    0.57703   0.60930   22.189
 6222.00    0.59402   0.60983   22.187
 6223.00    0.58345   0.61037   22.580
 6224.00    0.53875   0.61046   22.836
 6225.00    0.47346   0.61039   -1.000
 6226.00    0.42399   0.60989   -1.000
 6227.00    0.42725   0.60890   -1.000
 6228.00    0.48740   0.60795   18.896
 6229.00    0.58170   0.60696   18.446
 6230.00    0.67575   0.60597   18.763
 6231.00    0.73725   0.60549   20.077
 6232.00    0.75048   0.60513   -1.000
 6233.00    0.72018   0.60510   24.692
 6234.00    0.67204   0.60548   26.346
 6235.00    0.63292   0.60559   26.589
 6236.00    0.61110   0.60574   26.145
 6237.00    0.60196   0.60554   25.847
 6238.00    0.59568   0.60502   25.573
 6239.00    0.58500   0.60423   25.149
 6240.00    0.57088   0.60286   24.960
 6241.00    0.55897   0.60178   25.055
 6242.00    0.55593   0.60071   24.684
 6243.00    0.56419   0.59957   23.681
 6244.00    0.57910   0.59905   23.025
 6245.00    0.59249   0.59855   23.245
 6246.00    0.59611   0.59831   23.934
 6247.00    0.58758   0.59852   24.466
 6248.00    0.57292   0.59835   24.468
 6249.00    0.56239   0.59802   24.043
 6250.00    0.56604   0.59787   23.680
 6251.00    0.58428   0.59725   23.721
 6252.00    0.60626   0.59640   24.199
 6253.00    0.62204   0.59551   24.876
 6254.00    0.62771   0.59446   25.338
 6255.00    0.62455   0.59370   25.646
 6256.00    0.61684   0.59341   26.348
 6257.00    0.60607   0.59372   27.317
 6258.00    0.59120   0.59428   27.644
 6259.00    0.57573   0.59539   27.316
 6260.00    0.56692   0.59708   27.262
 6261.00    0.56708   0.59872   27.587
 6262.00    0.57295   0.60051   27.618
 6263.00    0.58045   0.60220   27.206
 6264.00    0.58632   0.60373   26.750
 6265.00    0.58882   0.60515   26.345
 6266.00    0.58816   0.60609   25.860
 6267.00    0.58700   0.60668   25.374
 6268.00    0.58782   0.60739   25.087
 6269.00    0.58810   0.60803   25.039
 6270.00    0.58368   0.60845   25.203
 6271.00    0.57592   0.60874   25.679
 6272.00    0.57003   0.60902   26.431
 6273.00    0.57028   0.60934   26.764
 6274.00    0.57683   0.60937   26.138
 6275.00    0.58275   0.60927   25.469
 6276.00    0.58201   0.60905   25.688
 6277.00    0.57946   0.60852   26.247
 6278.00    0.58203   0.60824   26.222
 6279.00    0.58742   0.60789   25.913
 6280.00    0.59075   0.60759    0.000
 6281.00    0.59277   0.60778    0.000
 6282.00    0.59642   0.60785    0.000
 6283.00    0.60264   0.60830    0.000
 6284.00    0.60950   0.60909    0.000
 6285.00    0.61246   0.60965    0.000
 6286.00    0.60933   0.61039    0.000
 6287.00    0.60372   0.61073    0.000
 6288.00    0.60026   0.61074    0.000
 6289.00    0.60104   0.61077    0.000
 6290.00    0.60682   0.61022    0.000
 6291.00    0.61763   0.60951    0.000
 6292.00    0.63110   0.60860    0.000
 6293.00    0.64200   0.60721    0.000
 6294.00    0.64583   0.60589    0.000
 6295.00    0.64123   0.60441    0.000
 6296.00    0.63265   0.60300    0.000
 6297.00    0.62915   0.60173    0.000
 6298.00    0.63445   0.60026    0.000
 6299.00    0.64350   0.59910    0.000
 6300.00    0.64771   0.59852    0.000
 6301.00    0.63960   0.59836    0.000
 6302.00    0.62172   0.59843    0.000
 6303.00    0.60521   0.59880    0.000
 6304.00    0.59465   0.59959    0.000
 6305.00    0.58634   0.60070    0.000
 6306.00    0.57842   0.60170    0.000
 6307.00    0.57270   0.60228    0.000
 6308.00    0.57075   0.60261    0.000
 6309.00    0.57288   0.60261    0.000
 6310.00    0.57829   0.60221    0.000
 6311.00    0.58482   0.60112    0.000
 6312.00    0.58842   0.59951    0.000
 6313.00    0.58576   0.59808    0.000
 6314.00    0.57964   0.59653    0.000
 6315.00    0.57624   0.59489    0.000
 6316.00    0.57831   0.59376    0.000
 6317.00    0.58434   0.59302    0.000
 6318.00    0.58948   0.59297    0.000
 6319.00    0.58858   0.59343    0.000
 6320.00    0.58043   0.59405    0.000
 6321.00    0.56766   0.59547   26.392
 6322.00    0.55560   0.59718   26.062
 6323.00    0.54905   0.59880   24.930
 6324.00    0.54859   0.60022   23.702
 6325.00    0.55221   0.60151   22.945
 6326.00    0.55774   0.60272   22.414
 6327.00    0.56477   0.60322   21.849
 6328.00    0.57583   0.60335   21.548
 6329.00    0.59004   0.60314   21.764
 6330.00    0.59845   0.60257   22.234
 6331.00    0.59507   0.60178   22.553
 6332.00    0.58577   0.60029   22.572
 6333.00    0.57987   0.59874   22.490
 6334.00    0.58278   0.59749   22.777
 6335.00    0.59355   0.59626   23.707
 6336.00    0.60473   0.59497   25.050
 6337.00    0.61118   0.59396   26.253
 6338.00    0.61473   0.59328   26.701
 6339.00    0.61921   0.59292   26.233
 6340.00    0.62662   0.59273   25.367
 6341.00    0.63395   0.59236   24.792
 6342.00    0.63332   0.59239   25.028
 6343.00    0.62060   0.59239   25.990
 6344.00    0.59909   0.59218   26.851
 6345.00    0.57771   0.59234   27.054
 6346.00    0.56734   0.59259   26.885
 6347.00    0.57077   0.59306   26.742
 6348.00    0.58153   0.59365   26.753
 6349.00    0.59352   0.59417   26.708
 6350.00    0.60340   0.59476   26.291
 6351.00    0.60673   0.59509   25.810
 6352.00    0.59881   0.59490   25.959
 6353.00    0.58074   0.59453   26.789
 6354.00    0.55890   0.59377   27.641
 6355.00    0.53897   0.59237   27.771
 6356.00    0.52386   0.59074   26.800
 6357.00    0.51281   0.58906   25.013
 6358.00    0.50392   0.58741   23.066
 6359.00    0.49993   0.58589   21.531
 6360.00    0.50697   0.58452   20.706
 6361.00    0.52971   0.58367   20.582
 6362.00    0.56658   0.58343   21.021
 6363.00    0.60370   0.58352   21.859
 6364.00    0.62424   0.58406   22.842
 6365.00    0.62494   0.58507   23.553
 6366.00    0.61370   0.58633   23.706
 6367.00    0.60201   0.58759   23.654
 6368.00    0.59740   0.58888   23.979
 6369.00    0.59553   0.59034   24.903
 6370.00    0.58969   0.59176   26.227
 6371.00    0.58270   0.59296   27.202
 6372.00    0.58102   0.59387   27.168
 6373.00    0.58674   0.59481   26.589
 6374.00    0.59667   0.59573   26.186
 6375.00    0.60299   0.59631   26.061
 6376.00    0.60076   0.59660   26.054
 6377.00    0.59367   0.59662   26.059
 6378.00    0.58614   0.59652   26.073
 6379.00    0.57692   0.59644   26.191
 6380.00    0.56367   0.59613   26.405
 6381.00    0.54701   0.59577   26.481
 6382.00    0.53334   0.59559   26.199
 6383.00    0.53422   0.59554   25.566
 6384.00    0.55240   0.59562   24.912
 6385.00    0.57589   0.59559   24.752
 6386.00    0.59313   0.59549   25.189
 6387.00    0.60058   0.59537   25.744
 6388.00    0.59710   0.59514   26.019
 6389.00    0.58201   0.59463   26.033
 6390.00    0.55984   0.59358   25.733
 6391.00    0.54104   0.59262   24.888
 6392.00    0.53546   0.59180   23.615
 6393.00    0.54848   0.59090   22.383
 6394.00    0.57734   0.59003   21.619
 6395.00    0.61104   0.58911   21.619
 6396.00    0.63495   0.58837   22.465
 6397.00    0.63626   0.58788   23.999
 6398.00    0.61517   0.58786   25.692
 6399.00    0.58413   0.58792   26.631
 6400.00    0.55617   0.58784   26.501
 6401.00    0.53985   0.58797   25.841
 6402.00    0.53527   0.58795   25.113
 6403.00    0.53641   0.58829   24.491
 6404.00    0.53847   0.58862   24.030
 6405.00    0.54000   0.58834   23.781
 6406.00    0.54338   0.58831   23.893
 6407.00    0.55053   0.58807   24.446
 6408.00    0.55499   0.58736   25.041
 6409.00    0.54696   0.58691   25.038
 6410.00    0.52419   0.58650   24.353
 6411.00    0.49346   0.58623   23.360
 6412.00    0.46937   0.58609   22.376
 6413.00    0.46665   0.58569   21.604
 6414.00    0.48965   0.58548   21.189
 6415.00    0.53205   0.58569   21.264
 6416.00    0.57878   0.58560   21.984
 6417.00    0.61354   0.58540   23.377
 6418.00    0.62708   0.58549   24.992
 6419.00    0.61784   0.58578   26.078
 6420.00    0.59155   0.58658   26.302
 6421.00    0.56068   0.58727   25.899
 6422.00    0.54256   0.58793   25.370
 6423.00    0.54716   0.58893   25.041
 6424.00    0.56772   0.59002   24.862
 6425.00    0.59062   0.59105   24.753
 6426.00    0.60445   0.59145   24.799
 6427.00    0.60537   0.59123   24.903
 6428.00    0.59935   0.59079   24.628
 6429.00    0.59493   0.59031   23.944
 6430.00    0.59735   0.58958   23.482
 6431.00    0.60308   0.58871   23.616
 6432.00    0.59983   0.58785   24.134
 6433.00    0.58330   0.58709   24.500
 6434.00    0.56333   0.58679   24.115
 6435.00    0.54991   0.58647   23.028
 6436.00    0.54706   0.58618   21.934
 6437.00    0.55679   0.58647   21.265
 6438.00    0.57988   0.58680   21.096
 6439.00    0.61209   0.58724   21.503
 6440.00    0.64382   0.58771   22.604
 6441.00    0.66474   0.58811   24.165
 6442.00    0.66747   0.58895   25.439
 6443.00    0.65355   0.58968   26.096
 6444.00    0.63234   0.58982   26.558
 6445.00    0.61185   0.58950   26.921
 6446.00    0.59650   0.58848   26.884
 6447.00    0.58838   0.58716   26.758
 6448.00    0.58718   0.58599   27.159
 6449.00    0.58929   0.58460   27.697
 6450.00    0.58909   0.58313   27.387
 6451.00    0.58202   0.58167   26.573
 6452.00    0.56680   0.58033   26.211
 6453.00    0.54814   0.57977   25.997
 6454.00    0.53444   0.57968   25.171
 6455.00    0.53256   0.57966   24.178
 6456.00    0.54485   0.57973   23.823
 6457.00    0.56602   0.57963   24.042
 6458.00    0.58606   0.57960   24.315
 6459.00    0.59570   0.57967   24.315
 6460.00    0.59157   0.57983   24.025
 6461.00    0.58162   0.58022   23.695
 6462.00    0.57674   0.58033   23.488
 6463.00    0.58013   0.58050   23.176
 6464.00    0.58917   0.58066   22.763
 6465.00    0.59913   0.58111   23.034
 6466.00    0.60534   0.58198   24.525
 6467.00    0.60508   0.58262   26.377
 6468.00    0.59833   0.58305   27.303
 6469.00    0.58816   0.58334   27.665
 6470.00    0.57929   0.58378   28.159
 6471.00    0.57654   0.58399   28.189
 6472.00    0.58174   0.58406   27.380
 6473.00    0.59185   0.58408   26.642
 6474.00    0.60130   0.58403   26.562
 6475.00    0.60417   0.58414   26.727
 6476.00    0.59703   0.58393   26.596
 6477.00    0.58112   0.58349   26.082
 6478.00    0.56504   0.58289   25.657
 6479.00    0.56227   0.58218   25.942
 6480.00    0.57124   0.58152   25.889
 6481.00    0.57296   0.58078   23.114
 6482.00    0.56681   0.58008   19.186
 6483.00    0.57721   0.57932   16.846
 6484.00    0.61137   0.57853   16.021
 6485.00    0.65146   0.57783   15.532
 6486.00    0.69395   0.57691   14.567
 6487.00    0.75374   0.57551   13.127
 6488.00    0.82648   0.57349   -1.000
 6489.00    0.88268   0.57083   -1.000
 6490.00    0.89101   0.56763   -1.000
 6491.00    0.83605   0.56373   -1.000
 6492.00    0.74520   0.55977   10.980
 6493.00    0.67034   0.55613   13.076
 6494.00    0.62360   0.55299   19.087
 6495.00    0.58393   0.55096   26.269
 6496.00    0.54995   0.54953   27.385
 6497.00    0.53658   0.54963   26.783
 6498.00    0.54232   0.55128   27.208
 6499.00    0.55295   0.55368   26.828
 6500.00    0.56164   0.55707   25.632
 6501.00    0.56861   0.56041   24.955
 6502.00    0.57379   0.56389   24.982
 6503.00    0.57507   0.56743   25.226
 6504.00    0.56785   0.57031   25.336
 6505.00    0.55120   0.57271   25.224
 6506.00    0.53593   0.57447   25.056
 6507.00    0.53400   0.57568   24.998
 6508.00    0.54404   0.57647   24.931
 6509.00    0.55755   0.57669   24.791
 6510.00    0.56848   0.57646   24.947
 6511.00    0.57354   0.57592   25.646
 6512.00    0.57161   0.57513   26.391
 6513.00    0.56380   0.57413   26.717
 6514.00    0.55347   0.57307   27.143
 6515.00    0.54503   0.57202   28.043
 6516.00    0.54243   0.57111   28.530
 6517.00    0.54551   0.57046   27.989
 6518.00    0.54821   0.56997   27.403
 6519.00    0.54617   0.56985   27.420
 6520.00    0.54165   0.56993   27.363
 6521.00    0.53847   0.57006   26.788
 6522.00    0.53840   0.57040   26.277
 6523.00    0.54105   0.57048   26.096
 6524.00    0.54445   0.57037   25.731
 6525.00    0.54759   0.57018   25.079
 6526.00    0.55162   0.56983   24.745
 6527.00    0.55899   0.56947   24.792
 6528.00    0.57157   0.56881    0.000
 6529.00    0.58530   0.56807    0.000
 6530.00    0.59063   0.56752    0.000
 6531.00    0.58408   0.56707    0.000
 6532.00    0.57097   0.56670    0.000
 6533.00    0.55797   0.56626    0.000
 6534.00    0.54991   0.56573    0.000
 6535.00    0.54864   0.56530    0.000
 6536.00    0.55298   0.56493    0.000
 6537.00    0.55972   0.56446    0.000
 6538.00    0.56485   0.56368    0.000
 6539.00    0.56586   0.56252    0.000
 6540.00    0.56356   0.56111    0.000
 6541.00    0.56460   0.55949    0.000
 6542.00    0.57826   0.55753    0.000
 6543.00    0.60800   0.55514    0.000
 6544.00    0.65091   0.55265    0.000
 6545.00    0.70026   0.55010    0.000
 6546.00    0.74724   0.54745    0.000
 6547.00    0.78306   0.54463    0.000
 6548.00    0.79981   0.54145    0.000
 6549.00    0.79128   0.53820    0.000
 6550.00    0.75600   0.53466    0.000
 6551.00    0.70141   0.53038    0.000
 6552.00    0.64088   0.52525    0.000
 6553.00    0.58871   0.51910    0.000
 6554.00    0.55683   0.51201    0.000
 6555.00    0.55277   0.50388    0.000
 6556.00    0.59350   0.49467    0.000
 6557.00    0.71978   0.48454    0.000
 6558.00    0.97896   0.47395    0.000
 6559.00    1.40148   0.46350    0.000
 6560.00    1.95654   0.45401    0.000
 6561.00    2.51972   0.44699    0.000
 6562.00    2.93302   0.44243    0.000
 6563.00    3.06539   0.44045    0.000
 6564.00    2.86906   0.44123    0.000
 6565.00    2.41310   0.44505    0.000
 6566.00    1.83665   0.45281    0.000
 6567.00    1.30196   0.46238    0.000
 6568.00    0.91632   0.47213    0.000
 6569.00    0.69131   0.48181    0.000
 6570.00    0.58734   0.49096    0.000
 6571.00    0.54750   0.49945    0.000
 6572.00    0.53062   0.50710    0.000
 6573.00    0.52422   0.51381    0.000
 6574.00    0.52597   0.51948    0.000
 6575.00    0.53414   0.52435    0.000
 6576.00    0.54618   0.52858    0.000
 6577.00    0.56206   0.53236    0.000
 6578.00    0.59814   0.53585    0.000
 6579.00    0.68374   0.53889    0.000
 6580.00    0.83083   0.54155    0.000
 6581.00    1.02256   0.54366    0.000
 6582.00    1.21249   0.54550    0.000
 6583.00    1.33876   0.54691    0.000
 6584.00    1.36424   0.54815    0.000
 6585.00    1.28685   0.54929    0.000
 6586.00    1.13531   0.54991    0.000
 6587.00    0.95725   0.55040    0.000
 6588.00    0.79461   0.55033    0.000
 6589.00    0.67381   0.55014    0.000
 6590.00    0.59826   0.54987    0.000
 6591.00    0.55600   0.54953    0.000
 6592.00    0.53739   0.54940    0.000
 6593.00    0.53549   0.54918    0.000
 6594.00    0.54081   0.54916    0.000
 6595.00    0.54428   0.54931    0.000
 6596.00    0.54330   0.55017    0.000
 6597.00    0.54064   0.55155    0.000
 6598.00    0.54122   0.55277    0.000
 6599.00    0.54688   0.55392    0.000
 6600.00    0.55105   0.55490    0.000
 6601.00    0.54776   0.55579    0.000
 6602.00    0.54238   0.55655    0.000
 6603.00    0.54110   0.55698    0.000
 6604.00    0.53919   0.55704    0.000
 6605.00    0.53139   0.55691    0.000
 6606.00    0.52241   0.55667    0.000
 6607.00    0.51863   0.55654    0.000
 6608.00    0.52021   0.55664    0.000
 6609.00    0.52479   0.55682   27.334
 6610.00    0.53098   0.55719   26.876
 6611.00    0.53815   0.55768   26.973
 6612.00    0.54588   0.55856   26.951
 6613.00    0.55270   0.55964   26.407
 6614.00    0.55573   0.56056   26.025
 6615.00    0.55357   0.56136   26.088
 6616.00    0.54791   0.56206   25.933
 6617.00    0.54225   0.56276   25.333
 6618.00    0.54030   0.56319   24.967
 6619.00    0.54171   0.56330   25.122
 6620.00    0.54189   0.56314   25.327
 6621.00    0.54029   0.56286   25.126
 6622.00    0.54220   0.56234   24.526
 6623.00    0.55019   0.56176   24.048
 6624.00    0.56129   0.56098   24.352
 6625.00    0.56961   0.56009   25.192
 6626.00    0.56906   0.55918   25.417
 6627.00    0.55853   0.55817   24.996
 6628.00    0.54254   0.55732   25.107
 6629.00    0.52771   0.55640   25.963
 6630.00    0.51971   0.55545   26.675
 6631.00    0.51819   0.55466   26.698
 6632.00    0.51806   0.55404   26.310
 6633.00    0.51613   0.55363   26.092
 6634.00    0.51316   0.55340   26.433
 6635.00    0.51457   0.55330   26.902
 6636.00    0.52594   0.55345   26.671
 6637.00    0.54396   0.55387   25.939
 6638.00    0.55905   0.55437   25.455
 6639.00    0.56389   0.55476   25.283
 6640.00    0.55646   0.55497   25.130
 6641.00    0.54228   0.55513   25.032
 6642.00    0.53011   0.55528   25.114
 6643.00    0.52484   0.55554   25.111
 6644.00    0.52512   0.55575   24.844
 6645.00    0.52225   0.55581   24.894
 6646.00    0.51106   0.55607   25.637
 6647.00    0.50250   0.55655   25.988
 6648.00    0.50806   0.55705   25.044
 6649.00    0.52137   0.55741   24.234
 6650.00    0.53056   0.55775   24.679
 6651.00    0.53291   0.55802   25.307
 6652.00    0.53207   0.55818   24.948
 6653.00    0.53346   0.55818   24.641
 6654.00    0.53957   0.55797   25.314
 6655.00    0.54694   0.55768   26.000
 6656.00    0.55225   0.55713   25.746
 6657.00    0.55657   0.55648   25.390
 6658.00    0.56045   0.55559   25.617
 6659.00    0.56088   0.55462   25.812
 6660.00    0.55564   0.55361   25.459
 6661.00    0.54607   0.55259   25.010
 6662.00    0.53536   0.55171   24.978
 6663.00    0.52723   0.55090   25.459
 6664.00    0.52441   0.55040   26.070
 6665.00    0.52791   0.55000   26.027
 6666.00    0.53707   0.55001   25.253
 6667.00    0.54920   0.55034   24.571
 6668.00    0.55757   0.55061   24.291
 6669.00    0.55401   0.55089   24.075
 6670.00    0.54192   0.55106   23.954
 6671.00    0.53571   0.55108   24.375
 6672.00    0.54064   0.55073   25.124
 6673.00    0.54932   0.55004   25.246
 6674.00    0.55400   0.54901   24.630
 6675.00    0.55070   0.54790   24.139
 6676.00    0.53900   0.54689   24.237
 6677.00    0.52064   0.54608   24.774
 6678.00    0.49617   0.54559   24.982
 6679.00    0.46648   0.54521   23.891
 6680.00    0.43834   0.54543   21.614
 6681.00    0.42295   0.54633   19.109
 6682.00    0.42971   0.54774   17.155
 6683.00    0.46023   0.54915   16.056
 6684.00    0.49989   0.55048   15.751
 6685.00    0.52829   0.55178   16.023
 6686.00    0.54018   0.55286   16.451
 6687.00    0.54387   0.55374   16.592
 6688.00    0.55191   0.55430   16.580
 6689.00    0.57134   0.55460   16.860
 6690.00    0.59228   0.55456   17.632
 6691.00    0.59923   0.55430   18.844
 6692.00    0.58819   0.55387   20.174
 6693.00    0.56724   0.55324   21.124
 6694.00    0.55346   0.55259   21.441
 6695.00    0.55784   0.55194   21.290
 6696.00    0.57072   0.55134    0.000
 6697.00    0.57796   0.55080    0.000
 6698.00    0.57778   0.55027    0.000
 6699.00    0.57293   0.54992    0.000
 6700.00    0.56265   0.54973    0.000
 6701.00    0.54723   0.54955    0.000
 6702.00    0.53183   0.54950    0.000
 6703.00    0.52200   0.54940    0.000
 6704.00    0.52000   0.54924    0.000
 6705.00    0.52383   0.54900    0.000
 6706.00    0.52809   0.54870    0.000
 6707.00    0.53206   0.54840    0.000
 6708.00    0.54264   0.54803    0.000
 6709.00    0.56245   0.54756    0.000
 6710.00    0.58648   0.54687    0.000
 6711.00    0.61948   0.54615    0.000
 6712.00    0.67808   0.54518    0.000
 6713.00    0.75966   0.54426    0.000
 6714.00    0.83710   0.54343    0.000
 6715.00    0.89754   0.54264    0.000
 6716.00    0.95025   0.54217    0.000
 6717.00    0.99423   0.54184    0.000
 6718.00    1.01109   0.54183    0.000
 6719.00    0.98351   0.54203    0.000
 6720.00    0.90564   0.54254    0.000
 6721.00    0.79379   0.54338    0.000
 6722.00    0.68194   0.54420    0.000
 6723.00    0.60031   0.54495    0.000
 6724.00    0.56821   0.54563    0.000
 6725.00    0.59150   0.54632    0.000
 6726.00    0.66178   0.54687    0.000
 6727.00    0.75602   0.54727    0.000
 6728.00    0.84659   0.54749    0.000
 6729.00    0.92135   0.54771    0.000
 6730.00    0.97539   0.54781    0.000
 6731.00    0.98872   0.54785    0.000
 6732.00    0.94277   0.54778    0.000
 6733.00    0.85472   0.54757    0.000
 6734.00    0.76241   0.54723    0.000
 6735.00    0.69190   0.54677    0.000
 6736.00    0.65255   0.54629    0.000
 6737.00    0.63767   0.54577    0.000
 6738.00    0.63315   0.54517    0.000
 6739.00    0.62826   0.54455    0.000
 6740.00    0.61824   0.54387    0.000
 6741.00    0.60545   0.54323    0.000
 6742.00    0.59722   0.54273    0.000
 6743.00    0.60236   0.54218    0.000
 6744.00    0.62038   0.54171    0.000
 6745.00    0.63378   0.54114    0.000
 6746.00    0.62920   0.54080    0.000
 6747.00    0.61448   0.54048    0.000
 6748.00    0.60027   0.54019    0.000
 6749.00    0.58583   0.54013    0.000
 6750.00    0.57019   0.54003    0.000
 6751.00    0.55947   0.54021    0.000
 6752.00    0.55755   0.54043    0.000
 6753.00    0.56101   0.54095   18.621
 6754.00    0.56820   0.54158   18.743
 6755.00    0.58248   0.54217   18.968
 6756.00    0.60027   0.54295   18.909
 6757.00    0.60781   0.54358   19.238
 6758.00    0.59798   0.54419   20.291
 6759.00    0.57608   0.54463   21.422
 6760.00    0.54858   0.54492   21.728
 6761.00    0.51915   0.54499   20.874
 6762.00    0.49406   0.54474   19.347
 6763.00    0.48266   0.54434   17.899
 6764.00    0.49123   0.54374   16.867
 6765.00    0.51900   0.54309   16.283
 6766.00    0.55277   0.54239   16.160
 6767.00    0.57283   0.54175   16.561
 6768.00    0.57478   0.54124   17.560
 6769.00    0.56846   0.54089   19.147
 6770.00    0.55763   0.54083   20.824
 6771.00    0.53930   0.54108   21.508
 6772.00    0.51555   0.54149   20.818
 6773.00    0.49563   0.54197   19.412
 6774.00    0.49366   0.54257   17.850
 6775.00    0.51880   0.54316   16.499
 6776.00    0.55779   0.54367   15.860
 6777.00    0.58723   0.54391   16.299
 6778.00    0.60139   0.54395   17.604
 6779.00    0.60611   0.54363   19.078
 6780.00    0.60083   0.54315   20.215
 6781.00    0.58350   0.54249   20.928
 6782.00    0.56181   0.54175   21.294
 6783.00    0.54691   0.54102   21.421
 6784.00    0.54263   0.54029   21.335
 6785.00    0.54500   0.53970   21.085
 6786.00    0.54399   0.53926   20.852
 6787.00    0.53142   0.53907   20.697
 6788.00    0.50920   0.53900   20.340
 6789.00    0.48593   0.53902   19.606
 6790.00    0.47209   0.53913   18.791
 6791.00    0.47507   0.53916   18.190
 6792.00    0.49473   0.53918   17.839
 6793.00    0.52175   0.53917   17.855
 6794.00    0.53862   0.53913   18.632
 6795.00    0.53781   0.53905   20.149
 6796.00    0.53172   0.53899   21.060
 6797.00    0.52635   0.53900   20.205
 6798.00    0.50776   0.53900   18.509
 6799.00    0.47656   0.53901   16.939
 6800.00    0.46315   0.53907   15.624
 6801.00    0.48672   0.53902   14.734
 6802.00    0.53433   0.53895   14.636
 6803.00    0.57765   0.53887   15.451
 6804.00    0.58930   0.53867   16.919
 6805.00    0.57463   0.53845   18.532
 6806.00    0.57084   0.53816   19.637
 6807.00    0.58195   0.53794   19.937
 6808.00    0.57122   0.53769   19.819
 6809.00    0.53818   0.53740   19.780
 6810.00    0.52625   0.53723   20.075
 6811.00    0.54453   0.53708   20.545
 6812.00    0.55854   0.53698   20.729
 6813.00    0.54786   0.53697   20.639
 6814.00    0.51989   0.53700   20.769
 6815.00    0.49496   0.53704   21.290
 6816.00    0.49295   0.53717   21.920
 6817.00    0.51114   0.53731   22.122
 6818.00    0.53043   0.53755   21.485
 6819.00    0.54272   0.53783   20.369
 6820.00    0.55208   0.53803   19.446
 6821.00    0.56322   0.53822   18.936
 6822.00    0.57718   0.53827   18.779
 6823.00    0.58805   0.53829   18.892
 6824.00    0.58735   0.53827   19.153
 6825.00    0.57251   0.53820   19.293
 6826.00    0.54750   0.53805   18.939
 6827.00    0.52114   0.53782   17.843
 6828.00    0.50232   0.53751   16.312
 6829.00    0.49389   0.53721   15.203
 6830.00    0.49621   0.53686   14.978
 6831.00    0.51226   0.53651   15.342
 6832.00    0.53687   0.53613   15.890
 6833.00    0.54569   0.53564   16.792
 6834.00    0.52491   0.53494   18.376
 6835.00    0.50060   0.53408   20.257
 6836.00    0.49973   0.53303   21.535
 6837.00    0.51200   0.53190   21.949
 6838.00    0.51780   0.53077   21.858
 6839.00    0.51495   0.52970   21.589
 6840.00    0.50912   0.52887   21.365
 6841.00    0.50435   0.52821   21.352
 6842.00    0.50220   0.52794   21.550
 6843.00    0.50208   0.52796   21.734
 6844.00    0.50345   0.52833   21.671
 6845.00    0.50677   0.52898   21.310
 6846.00    0.50988   0.52977   20.857
 6847.00    0.50728   0.53060   20.652
 6848.00    0.49832   0.53129   20.666
 6849.00    0.48974   0.53170   20.422
 6850.00    0.48579   0.53182   19.820
 6851.00    0.48407   0.53173   19.307
 6852.00    0.47956   0.53141   19.049
 6853.00    0.46841   0.53085   18.823
 6854.00    0.45491   0.53025   18.601
 6855.00    0.45047   0.52956   18.631
 6856.00    0.45964   0.52883   18.971
 6857.00    0.47675   0.52817   19.388
 6858.00    0.49199   0.52780   19.597
 6859.00    0.49595   0.52764   19.423
 6860.00    0.48638   0.52756   18.996
 6861.00    0.46940   0.52768   18.612
 6862.00    0.45703   0.52777   18.350
 6863.00    0.46062   0.52785   18.197
 6864.00    0.47714   0.52797   18.456
 6865.00    0.49436   0.52810   19.510
 6866.00    0.50979   0.52817   20.852
 6867.00    0.52729   0.52809   21.207
 6868.00    0.54199   0.52798   20.663
 6869.00    0.54428   0.52780   20.289
 6870.00    0.53271   0.52760   20.151
 6871.00    0.51415   0.52751   19.823
 6872.00    0.49974   0.52749   19.496
 6873.00    0.49702   0.52754   19.564
 6874.00    0.50015   0.52751   19.884
 6875.00    0.50073   0.52755   20.086
 6876.00    0.50396   0.52751   20.147
 6877.00    0.51464   0.52742   20.219
 6878.00    0.51885   0.52732   20.274
 6879.00    0.50525   0.52721   20.255
 6880.00    0.48946   0.52711   20.291
 6881.00    0.48808   0.52690   20.512
 6882.00    0.49172   0.52686   20.846
 6883.00    0.48973   0.52684   21.117
 6884.00    0.49313   0.52696   21.169
 6885.00    0.50979   0.52724   20.921
 6886.00    0.52459   0.52768   20.408
 6887.00    0.52465   0.52822   19.817
 6888.00    0.51778   0.52870   19.435
 6889.00    0.51565   0.52925   19.250
 6890.00    0.52105   0.52967   18.864
 6891.00    0.52870   0.53000   18.230
 6892.00    0.52863   0.53027   17.860
 6893.00    0.51965   0.53043   17.937
 6894.00    0.51404   0.53048   18.048
 6895.00    0.52082   0.53045   17.826
 6896.00    0.53827   0.53045   17.282
 6897.00    0.56161   0.53042   16.560
 6898.00    0.58456   0.53042   15.838
 6899.00    0.58981   0.53046   15.528
 6900.00    0.55857   0.53054   16.126
 6901.00    0.52217   0.53061   17.259
 6902.00    0.53939   0.53071   17.447
 6903.00    0.54983   0.53077   16.953
 6904.00    0.41769   0.53082   17.784
 6905.00    0.23105   0.53080   -1.000
 6906.00    0.24341   0.53068   -1.000
 6907.00    0.43374   0.53046   20.478
 6908.00    0.54538   0.53010   19.751
 6909.00    0.52088   0.52965   19.752
 6910.00    0.49485   0.52908   19.656
 6911.00    0.50345   0.52849   19.684
 6912.00    0.48699   0.52781   20.752
 6913.00    0.44543   0.52722   22.522
 6914.00    0.42923   0.52667   23.197
 6915.00    0.45560   0.52631   21.929
 6916.00    0.50437   0.52602   19.853
 6917.00    0.54126   0.52594   18.480
 6918.00    0.54300   0.52599   18.408
 6919.00    0.52848   0.52599   18.921
 6920.00    0.52343   0.52615   19.108
 6921.00    0.50641   0.52618   19.747
 6922.00    0.47228   0.52624   21.172
 6923.00    0.51228   0.52620   19.521
 6924.00    0.62488   0.52606   16.003
 6925.00    0.51536   0.52591   19.404
 6926.00    0.06390   0.52568   -1.000
 6927.00   -0.20854   0.52556   -2.000
 6928.00    0.09950   0.52540   -1.000
 6929.00    0.54860   0.52542   18.228
 6930.00    0.64142   0.52548   15.590
 6931.00    0.53101   0.52557   18.832
 6932.00    0.50450   0.52566   19.821
 6933.00    0.54072   0.52572   18.494
 6934.00    0.54292   0.52581   18.419
 6935.00    0.52507   0.52581   19.045
 6936.00    0.52695   0.52587   18.977
 6937.00    0.55067   0.52582   18.160
 6938.00    0.57587   0.52569   17.365
 6939.00    0.57647   0.52546   17.347
 6940.00    0.54868   0.52505   18.225
 6941.00    0.51929   0.52461   19.257
 6942.00    0.51013   0.52406   19.603
 6943.00    0.52124   0.52350   19.185
 6944.00    0.53816   0.52289   18.582
 6945.00    0.54170   0.52230   18.460
 6946.00    0.53170   0.52177   18.808
 6947.00    0.52792   0.52128   18.942
 6948.00    0.53702   0.52101   18.621
 6949.00    0.54716   0.52079   18.276
 6950.00    0.55242   0.52073   18.102
 6951.00    0.55674   0.52071   17.962
 6952.00    0.55976   0.52081   17.865
 6953.00    0.55615   0.52084   17.981
 6954.00    0.54588   0.52107   18.319
 6955.00    0.53492   0.52128   18.695
 6956.00    0.52945   0.52162   18.888
 6957.00    0.53162   0.52200   18.811
 6958.00    0.53369   0.52239   18.738
 6959.00    0.52394   0.52278   19.086
 6960.00    0.50134   0.52308   19.946
 6961.00    0.47710   0.52338   20.960
 6962.00    0.47110   0.52355   21.227
 6963.00    0.49658   0.52374   20.138
 6964.00    0.53668   0.52379   18.633
 6965.00    0.56320   0.52381   17.756
 6966.00    0.57091   0.52372   17.516
 6967.00    0.56972   0.52355   17.552
 6968.00    0.56660   0.52322   17.649
 6969.00    0.56423   0.52276   17.723
 6970.00    0.56279   0.52210   17.769
 6971.00    0.56210   0.52121   17.790
 6972.00    0.56354   0.52016   17.745
 6973.00    0.56600   0.51884   17.668
 6974.00    0.56253   0.51748   17.777
 6975.00    0.55082   0.51618   18.155
 6976.00    0.54182   0.51498   18.456
 6977.00    0.54321   0.51402   18.409
 6978.00    0.54627   0.51338   18.306
 6979.00    0.54203   0.51313   18.449
 6980.00    0.53333   0.51330   18.750
 6981.00    0.52362   0.51386   19.098
 6982.00    0.51007   0.51478   19.605
 6983.00    0.49523   0.51588   20.192
 6984.00    0.49189   0.51709   20.330
 6985.00    0.50471   0.51825   19.813
 6986.00    0.52181   0.51921   19.164
 6987.00    0.52850   0.52000   18.922
 6988.00    0.51662   0.52060   19.357
 6989.00    0.49188   0.52099   20.330
 6990.00    0.47245   0.52126   21.166
 6991.00    0.46836   0.52136   21.351
 6992.00    0.47591   0.52133   21.012
 6993.00    0.49190   0.52116   20.329
 6994.00    0.51620   0.52083   19.372
 6995.00    0.54021   0.52040   18.511
 6996.00    0.54878   0.51982   18.222
 6997.00    0.53965   0.51914   18.531
 6998.00    0.52430   0.51839   19.073
 6999.00    0.51138   0.51759   19.555
 7000.00    0.50596   0.51684   19.765
 7001.00    0.52022   0.51612   -2.000
 7002.00    0.56174   0.51550   -2.000
 7003.00    0.59971   0.51503   -2.000
 7004.00    0.58959   0.51469   -2.000
 7005.00    0.54277   0.51452   -2.000
 7006.00    0.50702   0.51440   -2.000
 7007.00    0.49814   0.51436   -2.000
 7008.00    0.50402   0.51426   -2.000
 7009.00    0.51643   0.51417   -2.000
 7010.00    0.53119   0.51399   -2.000
 7011.00    0.53970   0.51373   -2.000
 7012.00    0.53693   0.51336   -2.000
 7013.00    0.53431   0.51294   -2.000
 7014.00    0.54470   0.51247   -2.000
 7015.00    0.56070   0.51203   -2.000
 7016.00    0.56668   0.51163   -2.000
 7017.00    0.55680   0.51135   -2.000
 7018.00    0.53530   0.51116   -2.000
 7019.00    0.51416   0.51107   -2.000
 7020.00    0.50934   0.51114   -2.000
 7021.00    0.53463   0.51128   -2.000
 7022.00    0.57565   0.51158   -2.000
 7023.00    0.57571   0.51181   -2.000
 7024.00    0.51650   0.51206   -2.000
 7025.00    0.47243   0.51228   -2.000
 7026.00    0.49866   0.51259   -2.000
 7027.00    0.55408   0.51290   -2.000
 7028.00    0.58276   0.51329   -2.000
 7029.00    0.57180   0.51372   -2.000
 7030.00    0.53709   0.51408   -2.000
 7031.00    0.50801   0.51441   -2.000
 7032.00    0.50363   0.51458   -2.000
 7033.00    0.52125   0.51479   -2.000
 7034.00    0.54605   0.51493   -2.000
 7035.00    0.56017   0.51519   -2.000
 7036.00    0.55915   0.51546   -2.000
 7037.00    0.55518   0.51589   -2.000
 7038.00    0.55881   0.51644   -2.000
 7039.00    0.57102   0.51713   -2.000
 7040.00    0.58372   0.51791   -2.000
 7041.00    0.58464   0.51876   -2.000
 7042.00    0.57223   0.51958   -2.000
 7043.00    0.55690   0.52033   -2.000
 7044.00    0.54837   0.52106   -2.000
 7045.00    0.55033   0.52147   -2.000
 7046.00    0.55721   0.52165   -2.000
 7047.00    0.55922   0.52155   -2.000
 7048.00    0.55668   0.52122   -2.000
 7049.00    0.55721   0.52071   -2.000
 7050.00    0.56065   0.52001   -2.000
 7051.00    0.55997   0.51928   -2.000
 7052.00    0.55073   0.51835   -2.000
 7053.00    0.53450   0.51744   -2.000
 7054.00    0.52140   0.51650   -2.000
 7055.00    0.52203   0.51566   -2.000
 7056.00    0.53349   0.51494   -2.000
 7057.00    0.54302   0.51431   -2.000
 7058.00    0.53806   0.51391   -2.000
 7059.00    0.51652   0.51354   -2.000
 7060.00    0.49758   0.51326   -2.000
 7061.00    0.50157   0.51294   -2.000
 7062.00    0.52305   0.51266   -2.000
 7063.00    0.54510   0.51239   -2.000
 7064.00    0.55956   0.51212   -2.000
 7065.00    0.56244   0.51191   -2.000
 7066.00    0.54758   0.51176   -2.000
 7067.00    0.51640   0.51168   -2.000
 7068.00    0.48634   0.51163   -2.000
 7069.00    0.47642   0.51174   -2.000
 7070.00    0.49311   0.51185   -2.000
 7071.00    0.52577   0.51212   -2.000
 7072.00    0.54826   0.51244   -2.000
 7073.00    0.55185   0.51281   -2.000
 7074.00    0.56198   0.51318   -2.000
 7075.00    0.58863   0.51335   -2.000
 7076.00    0.60167   0.51330   -2.000
 7077.00    0.58562   0.51296   -2.000
 7078.00    0.56264   0.51241   -2.000
 7079.00    0.53253   0.51155   -2.000
 7080.00    0.45936   0.51045   -2.000
 7081.00    0.37080   0.50910   -2.000
 7082.00    0.37158   0.50760   -2.000
 7083.00    0.48369   0.50597   -2.000
 7084.00    0.60821   0.50432   -2.000
 7085.00    0.66501   0.50277   -2.000
 7086.00    0.65030   0.50126   -2.000
 7087.00    0.63024   0.50000   -2.000
 7088.00    0.69225   0.49892   -2.000
 7089.00    0.80010   0.49816   -2.000
 7090.00    0.82007   0.49770   -2.000
 7091.00    0.73941   0.49745   -2.000
 7092.00    0.66228   0.49742   -2.000
 7093.00    0.61997   0.49754   -2.000
 7094.00    0.56746   0.49791   -2.000
 7095.00    0.50326   0.49834   -2.000
 7096.00    0.46788   0.49904   -2.000
 7097.00    0.47407   0.49972   -2.000
 7098.00    0.50441   0.50047   -2.000
 7099.00    0.53852   0.50125   -2.000
 7100.00    0.56200   0.50184   -2.000
 7101.00    0.57168   0.50250   -2.000
 7102.00    0.56906   0.50283   -2.000
 7103.00    0.54858   0.50316   -2.000
 7104.00    0.51138   0.50313   -2.000
 7105.00    0.48681   0.50299   -2.000
 7106.00    0.50167   0.50265   -2.000
 7107.00    0.53621   0.50223   -2.000
 7108.00    0.55538   0.50174   -2.000
 7109.00    0.55362   0.50122   -2.000
 7110.00    0.54197   0.50070   -2.000
 7111.00    0.52771   0.50023   -2.000
 7112.00    0.51599   0.49988   -2.000
 7113.00    0.51231   0.49963   -2.000
 7114.00    0.50689   0.49948   -2.000
 7115.00    0.46585   0.49931   -2.000
 7116.00    0.38327   0.49930   -2.000
 7117.00    0.31836   0.49928   -2.000
 7118.00    0.33328   0.49930   -2.000
 7119.00    0.44250   0.49923   -2.000
 7120.00    0.61260   0.49915   -2.000
 7121.00    0.77298   0.49909   -2.000
 7122.00    0.87037   0.49893   -2.000
 7123.00    0.89376   0.49884   -2.000
 7124.00    0.81801   0.49864   -2.000
 7125.00    0.60340   0.49857   -2.000
 7126.00    0.36542   0.49839   -2.000
 7127.00    0.37402   0.49832   -2.000
 7128.00    0.63340   0.49835   -2.000
 7129.00    0.80708   0.49836   -2.000
 7130.00    0.75549   0.49852   -2.000
 7131.00    0.66525   0.49875   -2.000
 7132.00    0.63717   0.49921   -2.000
 7133.00    0.59064   0.49970   -2.000
 7134.00    0.50731   0.50030   -2.000
 7135.00    0.46850   0.50085   -2.000
 7136.00    0.49463   0.50151   -2.000
 7137.00    0.53187   0.50202   -2.000
 7138.00    0.56371   0.50239   -2.000
 7139.00    0.61283   0.50255   -2.000
 7140.00    0.66148   0.50247   -2.000
 7141.00    0.66206   0.50223   -2.000
 7142.00    0.61073   0.50181   -2.000
 7143.00    0.54175   0.50126   -2.000
 7144.00    0.47844   0.50063   -2.000
 7145.00    0.43240   0.50008   -2.000
 7146.00    0.42212   0.49954   -2.000
 7147.00    0.45897   0.49913   -2.000
 7148.00    0.51751   0.49888   -2.000
 7149.00    0.55543   0.49888   -2.000
 7150.00    0.55347   0.49907   -2.000
 7151.00    0.52079   0.49948   -2.000
 7152.00    0.49124   0.49995   -2.000
 7153.00    0.48765   0.50057   -2.000
 7154.00    0.47922   0.50125   -2.000
 7155.00    0.42718   0.50174   -2.000
 7156.00    0.34536   0.50209   -2.000
 7157.00    0.29856   0.50221   -2.000
 7158.00    0.38220   0.50207   -2.000
 7159.00    0.60262   0.50173   -2.000
 7160.00    0.78534   0.50124   -2.000
 7161.00    0.81019   0.50073   -2.000
 7162.00    0.79695   0.50017   -2.000
 7163.00    0.82166   0.49967   -2.000
 7164.00    0.71904   0.49937   -2.000
 7165.00    0.44140   0.49931   -2.000
 7166.00    0.26928   0.49954   -2.000
 7167.00    0.35095   0.50000   -2.000
 7168.00    0.45434   0.50060   -2.000
 7169.00    0.41886   0.50132   -2.000
 7170.00    0.38243   0.50215   -2.000
 7171.00    0.44507   0.50289   -2.000
 7172.00    0.51959   0.50342   -2.000
 7173.00    0.56069   0.50365   -2.000
 7174.00    0.63710   0.50359   -2.000
 7175.00    0.71617   0.50328   -2.000
 7176.00    0.64419   0.50276   -2.000
 7177.00    0.47247   0.50205   -2.000
 7178.00    0.45612   0.50117   -2.000
 7179.00    0.55185   0.50026   -2.000
 7180.00    0.43371   0.49928   -2.000
 7181.00    0.17224   0.49839   -2.000
 7182.00    0.20606   0.49759   -2.000
 7183.00    0.55845   0.49680   -2.000
 7184.00    0.83385   0.49607   -2.000
 7185.00    0.87382   0.49538   -2.000
 7186.00    0.80589   0.49488   -2.000
 7187.00    0.70267   0.49446   -2.000
 7188.00    0.55756   0.49421   -2.000
 7189.00    0.42595   0.49398   -2.000
 7190.00    0.39168   0.49396   -2.000
 7191.00    0.43489   0.49405   -2.000
 7192.00    0.47165   0.49430   -2.000
 7193.00    0.47643   0.49476   -2.000
 7194.00    0.47427   0.49524   -2.000
 7195.00    0.48765   0.49584   -2.000
 7196.00    0.51255   0.49637   -2.000
 7197.00    0.49979   0.49683   -2.000
 7198.00    0.42380   0.49721   -2.000
 7199.00    0.37312   0.49748   -2.000
 7200.00    0.43256   0.49761   -2.000
 7201.00    0.52983   0.49754   -2.000
 7202.00    0.56582   0.49740   -2.000
 7203.00    0.57495   0.49710   -2.000
 7204.00    0.60761   0.49674   -2.000
 7205.00    0.60049   0.49630   -2.000
 7206.00    0.48957   0.49593   -2.000
 7207.00    0.32329   0.49559   -2.000
 7208.00    0.20802   0.49549   -2.000
 7209.00    0.24092   0.49541   -2.000
 7210.00    0.41702   0.49554   -2.000
 7211.00    0.58949   0.49570   -2.000
 7212.00    0.68446   0.49600   -2.000
 7213.00    0.81069   0.49641   -2.000
 7214.00    0.95659   0.49675   -2.000
 7215.00    0.86771   0.49713   -2.000
 7216.00    0.51201   0.49737   -2.000
 7217.00    0.25398   0.49754   -2.000
 7218.00    0.29503   0.49767   -2.000
