###################################################################
## OUTPUT of StarlightChains_v04.for    [Cid@UFSC - 01/Apr/2007] ##
###################################################################

## Some input info
2004fd.txt                               [arq_obs]
Base.CB07.vall.4m                        [arq_base]
Masks.EmLines.NEW.gm                     [arq_masks]
StCv04.C11.config                        [arq_config]
   66                                    [N_base]
    0                                    [N_YAV_components = # of components with extra extinction!]
    0                                    [i_FitPowerLaw (1/0 = Yes/No)]
-9.99                                    [alpha_PowerLaw]
CCM                                      [red_law_option]
 1.458241                                [q_norm = A(l_norm)/A(V)]

## (Re)Sampling Parameters
 3741.00                                 [l_ini (A)]
 7218.00                                 [l_fin (A)]
    1.00                                 [dl    (A)]     (OBS: dl_cushion =    50.00 A)

## Normalization info
 4020.00                                 [l_norm (A) - for base]
 4010.00                                 [llow_norm (A) - window for f_obs]
 4060.00                                 [lupp_norm (A) - window for f_obs]
5.233238E-16                             [fobs_norm (in input units)]

## S/N
 3691.00                                 [llow_SN (A) - window for S/N]
 7268.00                                 [lupp_SN (A) - window for S/N]
   4.005                                 [S/N in S/N window]
   2.702                                 [S/N in norm. window]
  38.291                                 [S/N_err in S/N window]
  25.835                                 [S/N_err in norm. window]
  1.0000                                 [fscale_chi2]

## etc...
    -2007291                             [idum_orig]
  2385                                   [NOl_eff]
  2337                                   [Nl_eff]
    48    NSIGMA                         [Ntot_cliped & clip_method]
  1721090                                [Nglobal_steps]
   7                                     [N_chains]
  20                                     [NEX0s_base = N_base in EX0s-fits]
 0   0   1       13   2.0   5.544E+01    [Clip-Bug, RC-Crash & Burn-In warning-flags, n_censored_weights, wei_nsig_threshold & wei_limit]
    15     14.381     13.887      0.494  [idt_all, wdt_TotTime, wdt_UsrTime & wdt_SysTime (sec)]

## Synthesis Results - Best model ##

 1.21515E+00                             [chi2/Nl_eff]
     2.01342                             [adev (%)]

   108.93240                             [sum-of-x (%)]
 4.80045E-16                             [Flux_tot (units of input spectrum!)]
 6.50396E-11                             [Mini_tot (???)]
 3.24837E-11                             [Mcor_tot (???)]

 -50.16                                  [v0_min  (km/s)]
 342.19                                  [vd_min  (km/s)]
-0.1280                                  [AV_min  (mag)]
 0.0000                                  [YAV_min (mag)]

# j     x_j(%)      Mini_j(%)     Mcor_j(%)     age_j(yr)     Z_j      (L/M)_j    YAV?  Mstars   component_j        a/Fe...       SSP_chi2r SSP_adev(%)   SSP_AV   SSP_x(%)
  1      0.0000     0.0000E+00    0.0000E+00    1.000000E+06  0.00400  1.094E-02    0   1.0000   age020_m42            0.0000     1.8178E+01     9.7239   4.0000    96.5737
  2      0.0000     0.0000E+00    0.0000E+00    3.160000E+06  0.00400  4.007E-02    0   0.9999   age045_m42            0.0000     1.7435E+01     9.0352   3.3075   101.7952
  3      0.0000     0.0000E+00    0.0000E+00    5.010000E+06  0.00400  2.539E-02    0   0.9488   age055_m42            0.0000     1.7698E+01     9.3400   3.6172    99.7270
  4      0.0000     0.0000E+00    0.0000E+00    6.610000E+06  0.00400  2.620E-02    0   0.9220   age061_m42            0.0000     1.7465E+01     9.1138   3.2285   102.3230
  5      0.0000     0.0000E+00    0.0000E+00    1.000000E+07  0.00400  1.322E-02    0   0.8862   age070_m42            0.0000     2.0014E+01    10.5852   2.9069   106.5963
  6      0.0000     0.0000E+00    0.0000E+00    1.445000E+07  0.00400  7.883E-03    0   0.8571   age078_m42            0.0000     1.9901E+01    10.5699   3.2372   103.7172
  7      0.0000     0.0000E+00    0.0000E+00    2.512000E+07  0.00400  5.251E-03    0   0.8174   age090_m42            0.0000     2.0911E+01    10.8543   2.7708   107.5117
  8      0.0000     0.0000E+00    0.0000E+00    4.000000E+07  0.00400  3.649E-03    0   0.7851   age104_m42            0.0000     2.0104E+01    10.5376   2.5470   108.2270
  9      0.0000     0.0000E+00    0.0000E+00    5.500000E+07  0.00400  3.098E-03    0   0.7629   age110_m42            0.0000     1.8779E+01     9.7547   2.7214   107.1709
 10      0.0000     0.0000E+00    0.0000E+00    1.015200E+08  0.00400  2.228E-03    0   0.7207   age116_m42            0.0000     1.7921E+01     9.2090   2.7553   106.6857
 11      0.0000     0.0000E+00    0.0000E+00    2.861200E+08  0.00400  1.093E-03    0   0.6648   age125_m42            0.0000     1.8216E+01     9.7202   2.1811   110.5140
 12      0.0000     0.0000E+00    0.0000E+00    5.088000E+08  0.00400  6.597E-04    0   0.6365   age130_m42            0.0000     1.6045E+01     8.8146   2.1884   110.4549
 13      0.0000     0.0000E+00    0.0000E+00    1.434000E+09  0.00400  2.132E-04    0   0.5798   age139_m42            0.0000     1.1156E+01     7.2337   1.2071   113.0068
 14      0.0000     0.0000E+00    0.0000E+00    4.250000E+09  0.00400  5.895E-05    0   0.5377   age158_m42            0.0000     6.8015E+00     5.7001   0.7774   108.0568
 15      0.0127     2.4438E-03    2.5503E-03    7.500000E+09  0.00400  3.510E-05    0   0.5212   age171_m42            0.0000     5.3550E+00     5.0147   0.5993   106.9537
 16      5.9248     2.0022E+00    2.0180E+00    1.300000E+10  0.00400  2.005E-05    0   0.5034   age193_m42            0.0000     4.2850E+00     4.4413   0.4440   106.0159
 17      9.9503     4.4209E+00    4.3966E+00    1.800000E+10  0.00400  1.525E-05    0   0.4967   age213_m42            0.0000     4.3787E+00     4.5622   0.4164   105.7285
 18      0.0000     0.0000E+00    0.0000E+00    1.000000E+06  0.00800  1.238E-02    0   1.0000   age020_m52            0.0000     1.8125E+01     9.6920   4.0000    96.6049
 19      0.0000     0.0000E+00    0.0000E+00    3.160000E+06  0.00800  3.074E-02    0   0.9966   age045_m52            0.0000     1.7932E+01     9.5332   3.9365    96.8774
 20      0.0000     0.0000E+00    0.0000E+00    5.010000E+06  0.00800  2.668E-02    0   0.9443   age055_m52            0.0000     1.7615E+01     9.4043   3.6949    99.0340
 21      0.0000     0.0000E+00    0.0000E+00    6.610000E+06  0.00800  2.136E-02    0   0.9177   age061_m52            0.0000     1.7116E+01    10.0535   2.3962   108.2586
 22      0.0000     0.0000E+00    0.0000E+00    1.000000E+07  0.00800  1.215E-02    0   0.8827   age070_m52            0.0000     2.0875E+01    11.1444   3.0776   106.8916
 23      0.1701     1.3220E-04    2.2637E-04    1.445000E+07  0.00800  8.717E-03    0   0.8552   age078_m52            0.0000     1.9628E+01    10.5193   3.2011   105.2334
 24      0.0000     0.0000E+00    0.0000E+00    2.512000E+07  0.00800  5.592E-03    0   0.8162   age090_m52            0.0000     2.0664E+01    10.8928   2.8338   108.8995
 25      0.0000     0.0000E+00    0.0000E+00    4.000000E+07  0.00800  3.896E-03    0   0.7841   age104_m52            0.0000     1.9740E+01    10.4587   2.7584   109.1777
 26      0.0000     0.0000E+00    0.0000E+00    1.015200E+08  0.00800  2.148E-03    0   0.7226   age116_m52            0.0000     1.8021E+01     9.5574   2.7146   108.0426
 27      0.0000     0.0000E+00    0.0000E+00    2.861200E+08  0.00800  9.925E-04    0   0.6683   age125_m52            0.0000     1.5804E+01     8.7794   2.2505   111.6239
 28      0.0000     0.0000E+00    0.0000E+00    9.047900E+08  0.00800  3.141E-04    0   0.6138   age135_m52            0.0000     1.0562E+01     6.9778   1.4694   115.3969
 29      3.1087     1.2253E-01    1.4360E-01    1.434000E+09  0.00800  1.719E-04    0   0.5853   age139_m52            0.0000     7.4434E+00     6.1322   0.8819   113.4722
 30      0.0000     0.0000E+00    0.0000E+00    2.500000E+09  0.00800  7.872E-05    0   0.5600   age150_m52            0.0000     4.6072E+00     4.5976   0.6289   109.5592
 31      0.0000     0.0000E+00    0.0000E+00    4.250000E+09  0.00800  4.336E-05    0   0.5426   age158_m52            0.0000     4.5493E+00     4.5162   0.6131   108.5541
 32      0.0023     4.8477E-04    5.1627E-04    6.250000E+09  0.00800  3.159E-05    0   0.5319   age166_m52            0.0000     3.3169E+00     3.6177   0.4225   108.0392
 33      0.0000     0.0000E+00    0.0000E+00    1.300000E+10  0.00800  1.361E-05    0   0.5073   age193_m52            0.0000     2.0753E+00     2.6393  -0.0354   106.8682
 34      0.0000     0.0000E+00    0.0000E+00    1.800000E+10  0.00800  9.886E-06    0   0.4990   age213_m52            0.0000     1.7129E+00     2.3720  -0.1282   105.6822
 35      0.0000     0.0000E+00    0.0000E+00    1.000000E+06  0.02000  1.544E-02    0   1.0000   age020_m62            0.0000     1.8134E+01     9.6887   4.0000    96.6601
 36      0.5380     9.6897E-05    1.9125E-04    3.160000E+06  0.02000  3.762E-02    0   0.9858   age045_m62            0.0000     1.8029E+01     9.6100   3.9503    97.0275
 37      0.1999     4.1094E-05    7.6865E-05    5.010000E+06  0.02000  3.296E-02    0   0.9342   age055_m62            0.0000     1.7132E+01     9.0061   3.5839   100.6622
 38      0.9453     5.5503E-04    9.8471E-04    8.710000E+06  0.02000  1.154E-02    0   0.8861   age067_m62            0.0000     3.2333E+01    15.0764   2.4538   114.2243
 39      0.0000     0.0000E+00    0.0000E+00    1.445000E+07  0.02000  7.663E-03    0   0.8472   age078_m62            0.0000     2.2971E+01    12.2301   2.7036   110.6327
 40      0.0000     0.0000E+00    0.0000E+00    2.512000E+07  0.02000  4.532E-03    0   0.8099   age090_m62            0.0000     2.3944E+01    12.4480   2.6954   110.4390
 41      0.0000     0.0000E+00    0.0000E+00    5.500000E+07  0.02000  2.733E-03    0   0.7595   age110_m62            0.0000     1.9187E+01    10.3938   2.7370   108.5832
 42      0.0000     0.0000E+00    0.0000E+00    1.609000E+08  0.02000  1.369E-03    0   0.6985   age120_m62            0.0000     1.7438E+01     9.2517   2.6009   110.2815
 43      0.0000     0.0000E+00    0.0000E+00    2.861200E+08  0.02000  9.013E-04    0   0.6714   age125_m62            0.0000     1.6299E+01     8.8064   2.3606   112.8848
 44      0.0000     0.0000E+00    0.0000E+00    5.088000E+08  0.02000  5.028E-04    0   0.6449   age130_m62            0.0000     1.2988E+01     7.6543   2.0089   114.5344
 45      0.0000     0.0000E+00    0.0000E+00    9.047900E+08  0.02000  2.428E-04    0   0.6179   age135_m62            0.0000     8.1852E+00     5.9417   1.4251   113.8176
 46      0.0000     0.0000E+00    0.0000E+00    1.434000E+09  0.02000  1.263E-04    0   0.5908   age139_m62            0.0000     5.7376E+00     4.9814   0.9761   112.3859
 47      0.0000     0.0000E+00    0.0000E+00    2.500000E+09  0.02000  5.985E-05    0   0.5673   age150_m62            0.0000     3.6608E+00     3.7779   0.6230   110.2342
 48      0.7346     1.5217E-01    1.6660E-01    4.250000E+09  0.02000  3.271E-05    0   0.5468   age158_m62            0.0000     2.2318E+00     2.7140   0.3316   108.6576
 49      0.0219     1.0891E-02    1.1268E-02    1.000000E+10  0.02000  1.360E-05    0   0.5167   age181_m62            0.0000     1.5857E+00     2.4775   0.0029   107.4035
 50      0.0000     0.0000E+00    0.0000E+00    1.800000E+10  0.02000  7.124E-06    0   0.5013   age213_m62            0.0000     1.8220E+00     3.0557  -0.1867   105.7058
 51      0.5714     1.4937E-04    2.9900E-04    1.000000E+06  0.05000  2.592E-02    0   0.9998   age020_m72            0.0000     1.8292E+01     9.7611   3.9941    96.5701
 52      0.4451     6.2247E-05    1.1936E-04    3.160000E+06  0.05000  4.845E-02    0   0.9577   age045_m72            0.0000     1.7560E+01     9.2890   3.8397    98.0448
 53      0.9322     2.0561E-04    3.7657E-04    5.010000E+06  0.05000  3.072E-02    0   0.9147   age055_m72            0.0000     1.9884E+01    11.2447   3.3281   104.6948
 54      3.6700     1.7090E-03    3.0376E-03    6.610000E+06  0.05000  1.455E-02    0   0.8877   age061_m72            0.0000     4.2965E+01    17.7155   2.5204   115.7486
 55      0.4752     3.5483E-04    6.0559E-04    1.000000E+07  0.05000  9.074E-03    0   0.8524   age070_m72            0.0000     2.0814E+01    11.6679   3.5469   103.4209
 56      1.0756     1.7147E-03    2.7130E-03    2.512000E+07  0.05000  4.250E-03    0   0.7902   age090_m72            0.0000     2.0934E+01    11.3644   3.2262   105.9164
 57      0.0000     0.0000E+00    0.0000E+00    4.000000E+07  0.05000  3.087E-03    0   0.7618   age104_m72            0.0000     2.1911E+01    11.5495   2.9907   108.0580
 58      0.0000     0.0000E+00    0.0000E+00    1.015200E+08  0.05000  1.700E-03    0   0.7096   age116_m72            0.0000     1.8908E+01     9.9066   2.7384   110.2067
 59      0.0000     0.0000E+00    0.0000E+00    2.861200E+08  0.05000  7.384E-04    0   0.6633   age125_m72            0.0000     1.4279E+01     8.2008   2.2395   113.8667
 60      0.0000     0.0000E+00    0.0000E+00    5.088000E+08  0.05000  3.819E-04    0   0.6372   age130_m72            0.0000     9.8653E+00     6.5182   1.7581   115.0363
 61      0.0000     0.0000E+00    0.0000E+00    9.047900E+08  0.05000  1.676E-04    0   0.6110   age135_m72            0.0000     5.1267E+00     4.4232   1.0778   112.2650
 62      0.0000     0.0000E+00    0.0000E+00    1.434000E+09  0.05000  8.837E-05    0   0.5874   age139_m72            0.0000     3.2894E+00     3.5579   0.6242   111.7651
 63      6.2386     9.9858E-01    1.1193E+00    2.500000E+09  0.05000  4.233E-05    0   0.5598   age150_m72            0.0000     1.9944E+00     2.5211   0.3376   109.2956
 64      0.0000     0.0000E+00    0.0000E+00    6.250000E+09  0.05000  1.435E-05    0   0.5249   age166_m72            0.0000     1.6090E+00     2.5660  -0.0885   106.6999
 65     40.1973     4.1818E+01    4.2166E+01    1.300000E+10  0.05000  6.513E-06    0   0.5036   age193_m72            0.0000     2.1831E+00     3.5212  -0.3439   106.6787
 66     33.7187     5.0467E+01    4.9967E+01    1.800000E+10  0.05000  4.527E-06    0   0.4945   age213_m72            0.0000     2.9953E+00     4.3085  -0.4872   105.7148


## Synthesis Results - Average & Chains ##

# j      x_j: min, <> & last-chain-values for 1 ...  7 chains
  1      0.0000      0.0643      0.0000      0.0000      0.0000      0.0000      0.0329      0.0000      0.0631
  2      0.0000      0.0713      0.0000      0.0000      0.0000      0.0000      0.0654      0.0000      0.0000
  3      0.0000      0.0291      0.0000      0.0000      0.0000      0.0384      0.0000      0.0000      0.0000
  4      0.0000      0.0461      0.0000      0.0000      0.0000      0.0000      0.3679      0.0000      0.0000
  5      0.0000      0.0630      0.0000      0.0163      0.0000      0.0000      0.0000      0.0000      0.0000
  6      0.0000      0.3114      0.4023      0.3233      0.1352      0.0375      0.3840      0.4604      0.5203
  7      0.0000      0.0485      0.0000      0.0000      0.0000      0.0000      0.0000      0.1392      0.0000
  8      0.0000      0.0592      0.0000      0.2269      0.0000      0.0294      0.1711      0.0000      0.0000
  9      0.0000      0.0334      0.0812      0.1185      0.1844      0.0000      0.0000      0.0000      0.0000
 10      0.0000      0.0264      0.0000      0.0012      0.0000      0.0000      0.0876      0.0000      0.0000
 11      0.0000      0.0570      0.0000      0.0000      0.0000      0.0000      0.0000      0.0000      0.0000
 12      0.0000      0.0696      0.1575      0.1444      0.0000      0.0313      0.0000      0.0000      0.0000
 13      0.0000      0.1395      0.1461      0.0000      0.0831      0.0000      0.2775      0.5045      0.0000
 14      0.0000      0.0954      0.0000      0.0000      0.0000      0.2531      0.5291      0.2696      0.0890
 15      0.0127      0.4188      0.8082      0.0000      0.0000      0.4177      0.4666      0.8157      0.2852
 16      5.9248      1.8861      2.0619      2.0406      2.9251      1.7777      2.4017      1.5739      2.0940
 17      9.9503      6.1017      6.7941      6.0843      6.0452      6.6704      5.9688      5.9965      6.2925
 18      0.0000      0.1251      0.0000      0.0000      0.0000      0.1794      0.0000      0.1149      0.1903
 19      0.0000      0.0724      0.2505      0.0000      0.0000      0.0000      0.1393      0.0000      0.0000
 20      0.0000      0.0411      0.0000      0.1078      0.0653      0.0000      0.4448      0.0000      0.0000
 21      0.0000      0.1370      0.0000      0.0000      0.3982      0.1505      0.0123      0.0000      0.0000
 22      0.0000      0.0602      0.2362      0.3678      0.0000      0.0000      0.0000      0.1079      0.0000
 23      0.1701      0.0750      0.4215      0.0000      0.1152      0.3045      0.0000      0.0000      0.0186
 24      0.0000      0.0747      0.0000      0.2502      0.0000      0.0000      0.0000      0.0000      0.0000
 25      0.0000      0.0439      0.0315      0.1902      0.0000      0.0000      0.0000      0.0000      0.0000
 26      0.0000      0.0500      0.0000      0.0706      0.1765      0.0000      0.0000      0.2144      0.6552
 27      0.0000      0.0322      0.0280      0.0000      0.0000      0.0714      0.0000      0.0000      0.0000
 28      0.0000      0.0527      0.0498      0.0000      0.2739      0.0000      0.0000      0.0000      0.0000
 29      3.1087      1.8914      1.8232      2.5017      2.0601      1.9445      1.5814      2.1307      1.3591
 30      0.0000      0.2449      0.1830      0.4525      0.1677      0.0000      0.0000      0.1630      0.0083
 31      0.0000      0.1977      0.0000      0.6815      0.0000      0.0508      0.0097      0.0000      0.0000
 32      0.0023      0.4054      0.5132      0.0000      0.0000      0.3025      0.0000      0.6164      0.9157
 33      0.0000      0.2018      0.0000      0.0260      0.0000      0.0000      0.1477      0.0000      0.0000
 34      0.0000      0.3202      0.4693      0.5811      0.0000      0.0878      0.0000      0.9885      0.2154
 35      0.0000      0.2793      0.3628      0.0000      0.3959      0.2738      0.7425      0.4821      0.0408
 36      0.5380      0.1946      0.4806      0.0000      0.0000      0.6086      0.1032      0.4849      0.3279
 37      0.1999      0.3805      0.3916      0.0000      0.5144      0.6459      0.0521      0.3701      0.0000
 38      0.9453      0.4167      0.2511      0.4076      0.3924      0.4460      0.4204      0.4650      0.3694
 39      0.0000      0.0670      0.0000      0.2646      0.3051      0.0411      0.0000      0.0132      0.1642
 40      0.0000      0.1695      0.1834      0.0000      0.2683      0.1641      0.1657      0.5893      0.2921
 41      0.0000      0.0357      0.0000      0.0000      0.2025      0.1658      0.0000      0.0000      0.0000
 42      0.0000      0.0764      0.0000      0.0000      0.0984      0.0000      0.0000      0.0513      0.0664
 43      0.0000      0.0734      0.0000      0.0000      0.0000      0.0000      0.0454      0.0000      0.1461
 44      0.0000      0.0778      0.0000      0.2939      0.1526      0.0000      0.2944      0.0000      0.0000
 45      0.0000      0.0800      0.0000      0.6809      0.0000      0.0000      0.0000      0.0687      0.0409
 46      0.0000      0.1198      0.4214      0.0780      0.0607      0.0000      0.0000      0.0000      0.3710
 47      0.0000      0.1213      0.0000      0.0000      0.4779      0.0000      0.0000      0.0000      0.1328
 48      0.7346      8.4905      7.8457      7.0574      6.1705      8.6060      8.8357      7.0896      9.0070
 49      0.0219      2.3501      2.0776      3.2017      2.9187      2.6145      1.4549      1.5257      1.7978
 50      0.0000      0.5982      1.8621      0.3989      1.0665      0.0000      0.3577      0.7905      0.8863
 51      0.5714      0.6534      0.5427      0.6816      0.6375      0.5958      1.0766      0.4195      1.1908
 52      0.4451      0.6601      0.6890      0.5953      0.9664      0.6830      0.6856      0.4305      0.5079
 53      0.9322      0.5135      0.6711      0.4951      0.7372      0.2965      0.5330      0.6171      0.3728
 54      3.6700      1.5657      1.3764      1.5774      2.0954      1.5994      1.4833      1.8738      1.5305
 55      0.4752      0.0913      0.0000      0.3353      0.0000      0.2868      0.0000      0.0981      0.0000
 56      1.0756      0.8140      0.9374      1.4219      0.5413      1.0800      0.7623      0.8085      1.1091
 57      0.0000      0.0912      0.2779      0.0000      0.0967      0.0000      0.0000      0.0780      0.0332
 58      0.0000      0.0469      0.0000      0.0000      0.0891      0.0000      0.1767      0.0000      0.3145
 59      0.0000      0.0364      0.0000      0.0000      0.0000      0.1520      0.1186      0.2982      0.0000
 60      0.0000      0.1001      0.1922      0.6527      0.0000      0.0000      0.0541      0.0000      0.0000
 61      0.0000      0.0630      0.0000      0.0014      0.0000      0.1076      0.0000      0.0000      0.0000
 62      0.0000      0.2282      0.0375      0.0000      0.0000      0.1580      0.2504      0.0410      0.1178
 63      6.2386     17.4674     16.2195     16.0284     17.2435     16.8230     16.2205     17.2164     17.1684
 64      0.0000      0.3504      0.1579      0.0000      0.0000      0.0000      0.0000      0.4105      0.0000
 65     40.1973     36.2828     36.3202     37.0491     37.1356     37.2385     36.5743     36.0010     36.6874
 66     33.7187     22.9510     23.2263     23.5973     23.8003     24.1197     25.4269     24.6922     23.6926

# j      m_j: min, <> & last-chain-values for 1 ...  7 chains
  1  0.0000E+00  9.5889E-05  0.0000E+00  0.0000E+00  0.0000E+00  0.0000E+00  4.7513E-05  0.0000E+00  9.2499E-05
  2  0.0000E+00  2.9037E-05  0.0000E+00  0.0000E+00  0.0000E+00  0.0000E+00  2.5769E-05  0.0000E+00  0.0000E+00
  3  0.0000E+00  1.7737E-05  0.0000E+00  0.0000E+00  0.0000E+00  2.2885E-05  0.0000E+00  0.0000E+00  0.0000E+00
  4  0.0000E+00  2.6450E-05  0.0000E+00  0.0000E+00  0.0000E+00  0.0000E+00  2.0457E-04  0.0000E+00  0.0000E+00
  5  0.0000E+00  6.8933E-05  0.0000E+00  1.7542E-05  0.0000E+00  0.0000E+00  0.0000E+00  0.0000E+00  0.0000E+00
  6  0.0000E+00  5.5248E-04  7.0149E-04  5.6452E-04  2.3429E-04  6.4968E-05  6.5965E-04  7.9754E-04  9.0779E-04
  7  0.0000E+00  1.2313E-04  0.0000E+00  0.0000E+00  0.0000E+00  0.0000E+00  0.0000E+00  3.4526E-04  0.0000E+00
  8  0.0000E+00  2.0768E-04  0.0000E+00  7.8401E-04  0.0000E+00  1.0105E-04  5.8177E-04  0.0000E+00  0.0000E+00
  9  0.0000E+00  1.3417E-04  3.2054E-04  4.6860E-04  7.2399E-04  0.0000E+00  0.0000E+00  0.0000E+00  0.0000E+00
 10  0.0000E+00  1.3948E-04  0.0000E+00  6.0859E-06  0.0000E+00  0.0000E+00  4.4765E-04  0.0000E+00  0.0000E+00
 11  0.0000E+00  5.6542E-04  0.0000E+00  0.0000E+00  0.0000E+00  0.0000E+00  0.0000E+00  0.0000E+00  0.0000E+00
 12  0.0000E+00  1.0951E-03  2.4367E-03  2.2375E-03  0.0000E+00  4.8212E-04  0.0000E+00  0.0000E+00  0.0000E+00
 13  0.0000E+00  6.1892E-03  6.3734E-03  0.0000E+00  3.6013E-03  0.0000E+00  1.1922E-02  2.1859E-02  0.0000E+00
 14  0.0000E+00  1.4202E-02  0.0000E+00  0.0000E+00  0.0000E+00  3.6829E-02  7.6243E-02  3.9183E-02  1.3032E-02
 15  2.5503E-03  1.0146E-01  1.9245E-01  0.0000E+00  0.0000E+00  9.8945E-02  1.0947E-01  1.9297E-01  6.7965E-02
 16  2.0180E+00  7.7260E-01  8.3020E-01  8.2285E-01  1.1707E+00  7.1195E-01  9.5270E-01  6.2960E-01  8.4370E-01
 17  4.3966E+00  3.2424E+00  3.5488E+00  3.1827E+00  3.1386E+00  3.4655E+00  3.0716E+00  3.1117E+00  3.2889E+00
 18  0.0000E+00  1.6485E-04  0.0000E+00  0.0000E+00  0.0000E+00  2.3109E-04  0.0000E+00  1.4790E-04  2.4670E-04
 19  0.0000E+00  3.8299E-05  1.3023E-04  0.0000E+00  0.0000E+00  0.0000E+00  7.1372E-05  0.0000E+00  0.0000E+00
 20  0.0000E+00  2.3747E-05  0.0000E+00  6.1291E-05  3.6865E-05  0.0000E+00  2.4873E-04  0.0000E+00  0.0000E+00
 21  0.0000E+00  9.6059E-05  0.0000E+00  0.0000E+00  2.7270E-04  1.0314E-04  8.3694E-06  0.0000E+00  0.0000E+00
 22  0.0000E+00  7.1390E-05  2.7525E-04  4.2921E-04  0.0000E+00  0.0000E+00  0.0000E+00  1.2495E-04  0.0000E+00
 23  2.2637E-04  1.2000E-04  6.6311E-04  0.0000E+00  1.8021E-04  4.7653E-04  0.0000E+00  0.0000E+00  2.9231E-05
 24  0.0000E+00  1.7783E-04  0.0000E+00  5.8649E-04  0.0000E+00  0.0000E+00  0.0000E+00  0.0000E+00  0.0000E+00
 25  0.0000E+00  1.4410E-04  1.0156E-04  6.1482E-04  0.0000E+00  0.0000E+00  0.0000E+00  0.0000E+00  0.0000E+00
 26  0.0000E+00  2.7418E-04  0.0000E+00  3.8170E-04  9.4647E-04  0.0000E+00  0.0000E+00  1.1490E-03  3.5372E-03
 27  0.0000E+00  3.5372E-04  3.0224E-04  0.0000E+00  0.0000E+00  7.6685E-04  0.0000E+00  0.0000E+00  0.0000E+00
 28  0.0000E+00  1.6809E-03  1.5613E-03  0.0000E+00  8.5333E-03  0.0000E+00  0.0000E+00  0.0000E+00  0.0000E+00
 29  1.4360E-01  1.0507E-01  9.9556E-02  1.3680E-01  1.1181E-01  1.0561E-01  8.5071E-02  1.1558E-01  7.4258E-02
 30  0.0000E+00  2.8419E-02  2.0882E-02  5.1703E-02  1.9019E-02  0.0000E+00  0.0000E+00  1.8477E-02  9.4838E-04
 31  0.0000E+00  4.0368E-02  0.0000E+00  1.3697E-01  0.0000E+00  1.0140E-02  1.9199E-03  0.0000E+00  0.0000E+00
 32  5.1627E-04  1.1137E-01  1.3858E-01  0.0000E+00  0.0000E+00  8.1235E-02  0.0000E+00  1.6535E-01  2.4741E-01
 33  0.0000E+00  1.2273E-01  0.0000E+00  1.5553E-02  0.0000E+00  0.0000E+00  8.6965E-02  0.0000E+00  0.0000E+00
 34  0.0000E+00  2.6372E-01  3.7988E-01  4.7109E-01  0.0000E+00  7.0700E-02  0.0000E+00  7.9495E-01  1.7451E-01
 35  0.0000E+00  2.9516E-04  3.7678E-04  0.0000E+00  4.0875E-04  2.8283E-04  7.5980E-04  4.9745E-04  4.2358E-05
 36  1.9125E-04  8.3215E-05  2.0196E-04  0.0000E+00  0.0000E+00  2.5440E-04  4.2728E-05  2.0244E-04  1.3787E-04
 37  7.6865E-05  1.7594E-04  1.7799E-04  0.0000E+00  2.3240E-04  2.9202E-04  2.3322E-05  1.6713E-04  0.0000E+00
 38  9.8471E-04  5.2201E-04  3.0925E-04  5.0268E-04  4.8030E-04  5.4629E-04  5.1000E-04  5.6891E-04  4.5518E-04
 39  0.0000E+00  1.2078E-04  0.0000E+00  4.6983E-04  5.3763E-04  7.2511E-05  0.0000E+00  2.3223E-05  2.9131E-04
 40  0.0000E+00  4.9415E-04  5.2555E-04  0.0000E+00  7.6429E-04  4.6768E-04  4.6790E-04  1.6779E-03  8.3773E-04
 41  0.0000E+00  1.6208E-04  0.0000E+00  0.0000E+00  8.9698E-04  7.3488E-04  0.0000E+00  0.0000E+00  0.0000E+00
 42  0.0000E+00  6.3600E-04  0.0000E+00  0.0000E+00  8.0042E-04  0.0000E+00  0.0000E+00  4.1741E-04  5.4350E-04
 43  0.0000E+00  8.9167E-04  0.0000E+00  0.0000E+00  0.0000E+00  0.0000E+00  5.3462E-04  0.0000E+00  1.7465E-03
 44  0.0000E+00  1.6271E-03  0.0000E+00  6.0549E-03  3.1190E-03  0.0000E+00  5.9654E-03  0.0000E+00  0.0000E+00
 45  0.0000E+00  3.3212E-03  0.0000E+00  2.7828E-02  0.0000E+00  0.0000E+00  0.0000E+00  2.7845E-03  1.6684E-03
 46  0.0000E+00  9.1414E-03  3.1612E-02  5.8596E-03  4.5295E-03  0.0000E+00  0.0000E+00  0.0000E+00  2.7847E-02
 47  0.0000E+00  1.8752E-02  0.0000E+00  0.0000E+00  7.2211E-02  0.0000E+00  0.0000E+00  0.0000E+00  2.0207E-02
 48  1.6660E-01  2.3157E+00  2.1033E+00  1.8948E+00  1.6442E+00  2.2948E+00  2.3336E+00  1.8882E+00  2.4162E+00
 49  1.1268E-02  1.4567E+00  1.2659E+00  1.9536E+00  1.7676E+00  1.5844E+00  8.7330E-01  9.2350E-01  1.0961E+00
 50  0.0000E+00  6.8673E-01  2.1014E+00  4.5084E-01  1.1963E+00  0.0000E+00  3.9763E-01  8.8623E-01  1.0008E+00
 51  2.9900E-04  4.1122E-04  3.3572E-04  4.2226E-04  3.9200E-04  3.6660E-04  6.5613E-04  2.5780E-04  7.3710E-04
 52  1.1936E-04  2.1288E-04  2.1842E-04  1.8897E-04  3.0450E-04  2.1534E-04  2.1413E-04  1.3557E-04  1.6111E-04
 53  3.7657E-04  2.4947E-04  3.2047E-04  2.3678E-04  3.4992E-04  1.4082E-04  2.5076E-04  2.9274E-04  1.7812E-04
 54  3.0376E-03  1.5585E-03  1.3467E-03  1.5456E-03  2.0379E-03  1.5565E-03  1.4298E-03  1.8214E-03  1.4984E-03
 55  6.0559E-04  1.3994E-04  0.0000E+00  5.0590E-04  0.0000E+00  4.2969E-04  0.0000E+00  1.4689E-04  0.0000E+00
 56  2.7130E-03  2.4694E-03  2.7950E-03  4.2460E-03  1.6044E-03  3.2031E-03  2.2393E-03  2.3950E-03  3.3092E-03
 57  0.0000E+00  3.6716E-04  1.0997E-03  0.0000E+00  3.8034E-04  0.0000E+00  0.0000E+00  3.0659E-04  1.3133E-04
 58  0.0000E+00  3.1930E-04  0.0000E+00  0.0000E+00  5.9254E-04  0.0000E+00  1.1654E-03  0.0000E+00  2.1066E-03
 59  0.0000E+00  5.3304E-04  0.0000E+00  0.0000E+00  0.0000E+00  2.1786E-03  1.6839E-03  4.2679E-03  0.0000E+00
 60  0.0000E+00  2.7236E-03  5.1417E-03  1.7490E-02  0.0000E+00  0.0000E+00  1.4270E-03  0.0000E+00  0.0000E+00
 61  0.0000E+00  3.7479E-03  0.0000E+00  8.1694E-05  0.0000E+00  6.2591E-03  0.0000E+00  0.0000E+00  0.0000E+00
 62  0.0000E+00  2.4752E-02  3.9959E-03  0.0000E+00  0.0000E+00  1.6757E-02  2.6298E-02  4.3405E-03  1.2569E-02
 63  1.1193E+00  3.7688E+00  3.4399E+00  3.4044E+00  3.6350E+00  3.5488E+00  3.3892E+00  3.6275E+00  3.6435E+00
 64  0.0000E+00  2.0913E-01  9.2644E-02  0.0000E+00  0.0000E+00  0.0000E+00  0.0000E+00  2.3924E-01  0.0000E+00
 65  4.2166E+01  4.5772E+01  4.5038E+01  4.6009E+01  4.5771E+01  4.5929E+01  4.4681E+01  4.4350E+01  4.5522E+01
 66  4.9967E+01  4.0903E+01  4.0687E+01  4.1398E+01  4.1441E+01  4.2026E+01  4.3883E+01  4.2973E+01  4.1531E+01

# AV, chi2 & Mass for <> & i_chain = 1 ...  7 solutions
AV      -0.1280     -0.0404     -0.0469     -0.0443     -0.0475     -0.0542     -0.0508     -0.0516     -0.0523
chi2 1.2152E+00  1.2956E+00  1.2882E+00  1.2904E+00  1.2848E+00  1.2827E+00  1.2841E+00  1.2843E+00  1.2876E+00
Mass 3.2484E-11  3.0382E-11  3.0641E-11  3.0704E-11  3.0799E-11  3.0504E-11  3.0937E-11  3.0646E-11  3.0398E-11
 -50.16                                  [v0_min (km/s) before EX0s...]
 342.19                                  [vd_min (km/s) before EX0s...]


## Synthetic spectrum (Best Model) ##l_obs f_obs f_syn wei
 3478    [Nl_obs]
 3741.00    0.44108   0.45723    0.000
 3742.00    0.44287   0.45517    0.000
 3743.00    0.43545   0.45099    0.000
 3744.00    0.42279   0.44442    0.000
 3745.00    0.41329   0.43904   15.739
 3746.00    0.41429   0.43686   16.031
 3747.00    0.42762   0.43874   15.978
 3748.00    0.44490   0.44569   15.687
 3749.00    0.45781   0.45542   15.408
 3750.00    0.47186   0.46918   15.375
 3751.00    0.49567   0.48518   15.613
 3752.00    0.52603   0.50118   15.723
 3753.00    0.55349   0.51465   15.432
 3754.00    0.57116   0.52428   15.239
 3755.00    0.57853   0.53188   15.592
 3756.00    0.58341   0.53581   16.144
 3757.00    0.59012   0.53609   16.327
 3758.00    0.58919   0.53347   16.196
 3759.00    0.57288   0.52941   16.162
 3760.00    0.54899   0.52678   16.551
 3761.00    0.52968   0.52649   17.269
 3762.00    0.52100   0.52721   17.473
 3763.00    0.52253   0.52948   16.749
 3764.00    0.52875   0.53402   15.998
 3765.00    0.53724   0.54106   15.864
 3766.00    0.55297   0.55055   16.161
 3767.00    0.57750   0.56143   16.548
 3768.00    0.60321   0.57419   16.879
 3769.00    0.62384   0.58848   17.092
 3770.00    0.64015   0.60318   17.142
 3771.00    0.65300   0.61700   17.047
 3772.00    0.66003   0.63081   16.917
 3773.00    0.66043   0.64444   16.960
 3774.00    0.65732   0.65618   17.414
 3775.00    0.65641   0.66660   18.093
 3776.00    0.66354   0.67567   18.241
 3777.00    0.67681   0.68280   17.703
 3778.00    0.68683   0.68806   17.246
 3779.00    0.69201   0.69028   17.312
 3780.00    0.70047   0.68995   17.789
 3781.00    0.71238   0.68620   18.314
 3782.00    0.71758   0.67706   18.451
 3783.00    0.71197   0.66550   18.220
 3784.00    0.70094   0.65087   18.095
 3785.00    0.69091   0.63464   18.272
 3786.00    0.68572   0.61698   18.585
 3787.00    0.68465   0.59832   18.807
 3788.00    0.68215   0.58120   18.855
 3789.00    0.66909   0.56446   19.096
 3790.00    0.63931   0.55005   20.041
 3791.00    0.60474   0.53734   21.189
 3792.00    0.58595   0.52751   21.200
 3793.00    0.58115   0.51914   20.475
 3794.00    0.57270   0.51236   20.453
 3795.00    0.55756   0.50915   20.933
 3796.00    0.54536   0.50921   20.733
 3797.00    0.54090   0.51371   20.100
 3798.00    0.54356   0.52075   20.083
 3799.00    0.55300   0.53083   20.716
 3800.00    0.56844   0.54299   21.272
 3801.00    0.58555   0.55615   21.132
 3802.00    0.59874   0.56953   20.376
 3803.00    0.60550   0.58117   19.982
 3804.00    0.60652   0.59171   20.710
 3805.00    0.60454   0.59896   21.895
 3806.00    0.60200   0.60275   22.087
 3807.00    0.59804   0.60281   21.219
 3808.00    0.59028   0.59927   20.347
 3809.00    0.57752   0.59288   20.340
 3810.00    0.56049   0.58378   21.468
 3811.00    0.54234   0.57238   22.816
 3812.00    0.52731   0.55868   23.089
 3813.00    0.51909   0.54330   22.660
 3814.00    0.51787   0.52637   22.502
 3815.00    0.51809   0.50954   22.687
 3816.00    0.51378   0.49342   22.881
 3817.00    0.50352   0.47885   22.880
 3818.00    0.48870   0.46622   22.865
 3819.00    0.47155   0.45476   23.467
 3820.00    0.45466   0.44371   24.776
 3821.00    0.44046   0.43397   25.396
 3822.00    0.42839   0.42577   24.529
 3823.00    0.41375   0.41913   23.728
 3824.00    0.39398   0.41347   24.001
 3825.00    0.37262   0.40785   24.675
 3826.00    0.35631   0.40269   24.912
 3827.00    0.35174   0.39773   24.750
 3828.00    0.36000   0.39316   24.508
 3829.00    0.37443   0.38954   24.311
 3830.00    0.38703   0.38662   24.137
 3831.00    0.39259   0.38429   23.917
 3832.00    0.39107   0.38272   23.812
 3833.00    0.38738   0.38180   24.200
 3834.00    0.38498   0.38274   25.008
 3835.00    0.38380   0.38572   25.481
 3836.00    0.38465   0.39174   25.150
 3837.00    0.38984   0.40023   24.348
 3838.00    0.39787   0.41112   23.638
 3839.00    0.40345   0.42358   23.439
 3840.00    0.40524   0.43741   23.789
 3841.00    0.40718   0.45233   24.315
 3842.00    0.41349   0.46700   24.296
 3843.00    0.42591   0.48161   23.249
 3844.00    0.44112   0.49385   22.220
 3845.00    0.45311   0.50413   22.679
 3846.00    0.46217   0.51165   24.261
 3847.00    0.47318   0.51612    0.000
 3848.00    0.48426   0.51858    0.000
 3849.00    0.48922   0.51835    0.000
 3850.00    0.49070   0.51593    0.000
 3851.00    0.49669   0.51215    0.000
 3852.00    0.50541   0.50717    0.000
 3853.00    0.50829   0.50168    0.000
 3854.00    0.50314   0.49578    0.000
 3855.00    0.49393   0.49045    0.000
 3856.00    0.48489   0.48641    0.000
 3857.00    0.47877   0.48340    0.000
 3858.00    0.47606   0.48282    0.000
 3859.00    0.47573   0.48364    0.000
 3860.00    0.47674   0.48600    0.000
 3861.00    0.47894   0.48986    0.000
 3862.00    0.48389   0.49420    0.000
 3863.00    0.49217   0.49903    0.000
 3864.00    0.49978   0.50262    0.000
 3865.00    0.50223   0.50502    0.000
 3866.00    0.50050   0.50564    0.000
 3867.00    0.49668   0.50538    0.000
 3868.00    0.48846   0.50491    0.000
 3869.00    0.47417   0.50426    0.000
 3870.00    0.45888   0.50394    0.000
 3871.00    0.44925   0.50340    0.000
 3872.00    0.44765   0.50310    0.000
 3873.00    0.45425   0.50334    0.000
 3874.00    0.46937   0.50429    0.000
 3875.00    0.49216   0.50500    0.000
 3876.00    0.51914   0.50566    0.000
 3877.00    0.54429   0.50577    0.000
 3878.00    0.55997   0.50595    0.000
 3879.00    0.56383   0.50460    0.000
 3880.00    0.56266   0.50355    0.000
 3881.00    0.56190   0.50372   27.008
 3882.00    0.55944   0.50426   27.383
 3883.00    0.55493   0.50653   26.898
 3884.00    0.55443   0.51051   26.154
 3885.00    0.55890   0.51687   25.863
 3886.00    0.55958   0.52522   26.350
 3887.00    0.55315   0.53523   27.286
 3888.00    0.54786   0.54751   27.577
 3889.00    0.55032   0.56051   26.946
 3890.00    0.55973   0.57513   26.493
 3891.00    0.57432   0.59053   26.714
 3892.00    0.59382   0.60379   26.983
 3893.00    0.61563   0.61588   26.609
 3894.00    0.63424   0.62502   25.536
 3895.00    0.64603   0.63278   24.611
 3896.00    0.65063   0.63721   24.979
 3897.00    0.64858   0.63985   26.748
 3898.00    0.64069   0.64267   28.650
 3899.00    0.62920   0.64330   29.332
 3900.00    0.61801   0.64493   28.684
 3901.00    0.61219   0.64684   27.721
 3902.00    0.61568   0.65052   27.554
 3903.00    0.62542   0.65554   28.261
 3904.00    0.63418   0.66169   28.996
 3905.00    0.64264   0.67035   28.910
 3906.00    0.65699   0.67943   27.849
 3907.00    0.67423   0.68992   26.776
 3908.00    0.68518   0.70061   26.770
 3909.00    0.68987   0.71031   27.665
 3910.00    0.69577   0.71821   28.342
 3911.00    0.70607   0.72320   28.053
 3912.00    0.71843   0.72436   27.041
 3913.00    0.72776   0.72117   26.350
 3914.00    0.72970   0.71395   26.758
 3915.00    0.72554   0.70288   27.503
 3916.00    0.71816   0.68945   27.273
 3917.00    0.70379   0.67272   26.812
 3918.00    0.67811   0.65528   27.546
 3919.00    0.64765   0.63623   29.058
 3920.00    0.62173   0.61615   29.774
 3921.00    0.59885   0.59611   29.321
 3922.00    0.57337   0.57475   28.529
 3923.00    0.54697   0.55358   28.145
 3924.00    0.52366   0.53103   28.515
 3925.00    0.50206   0.50841   29.474
 3926.00    0.47896   0.48471   30.459
 3927.00    0.45438   0.46077   30.699
 3928.00    0.42951   0.43793   30.045
 3929.00    0.40411   0.41640   29.576
 3930.00    0.37839   0.39901   30.118
 3931.00    0.35495   0.38592   31.146
 3932.00    0.33675   0.37866   31.749
 3933.00    0.32520   0.37750   31.820
 3934.00    0.32121   0.38233   31.731
 3935.00    0.32606   0.39275   31.772
 3936.00    0.33981   0.40794   31.879
 3937.00    0.36034   0.42715   31.537
 3938.00    0.38605   0.44887   30.402
 3939.00    0.41722   0.47288   28.783
 3940.00    0.45126   0.49776   27.576
 3941.00    0.48068   0.52266   27.882
 3942.00    0.50097   0.54689   29.606
 3943.00    0.51502   0.57105   30.453
 3944.00    0.52916   0.59427   29.197
 3945.00    0.54950   0.61682   27.934
 3946.00    0.57601   0.63829   27.987
 3947.00    0.60154   0.65835   28.899
 3948.00    0.62282   0.67683   29.695
 3949.00    0.64384   0.69254   29.512
 3950.00    0.66622   0.70449   28.466
 3951.00    0.68606   0.71234   27.582
 3952.00    0.69982   0.71655   27.539
 3953.00    0.70655   0.71569   28.425
 3954.00    0.70641   0.70979   29.542
 3955.00    0.70000   0.69829   29.536
 3956.00    0.68808   0.68186   28.596
 3957.00    0.67137   0.66123   28.355
 3958.00    0.64993   0.63615   29.314
 3959.00    0.62340   0.60694   30.648
 3960.00    0.59244   0.57554    0.000
 3961.00    0.55874   0.54315    0.000
 3962.00    0.52412   0.51066    0.000
 3963.00    0.48980   0.47980    0.000
 3964.00    0.45530   0.45226    0.000
 3965.00    0.42051   0.42998    0.000
 3966.00    0.39106   0.41480    0.000
 3967.00    0.37525   0.40682    0.000
 3968.00    0.37441   0.40683    0.000
 3969.00    0.38462   0.41540    0.000
 3970.00    0.40464   0.43226    0.000
 3971.00    0.43403   0.45698    0.000
 3972.00    0.46700   0.48818    0.000
 3973.00    0.49823   0.52414    0.000
 3974.00    0.53469   0.56321    0.000
 3975.00    0.58534   0.60329    0.000
 3976.00    0.64192   0.64289    0.000
 3977.00    0.69231   0.68064    0.000
 3978.00    0.74410   0.71564    0.000
 3979.00    0.80512   0.74714    0.000
 3980.00    0.85362   0.77504    0.000
 3981.00    0.86671   0.79926   26.583
 3982.00    0.85987   0.82038   27.835
 3983.00    0.85916   0.83834   28.312
 3984.00    0.86365   0.85398   28.583
 3985.00    0.86303   0.86748   28.559
 3986.00    0.86087   0.87937   27.752
 3987.00    0.86463   0.89023   27.134
 3988.00    0.87355   0.89890   30.218
 3989.00    0.88433   0.90693   36.431
 3990.00    0.89718   0.91252   27.118
 3991.00    0.91169   0.91817   14.887
 3992.00    0.92341   0.92266   10.624
 3993.00    0.92973   0.92581   10.146
 3994.00    0.93429   0.93032   10.790
 3995.00    0.94128   0.93407   10.850
 3996.00    0.95119   0.93846   10.475
 3997.00    0.96244   0.94165   10.305
 3998.00    0.97306   0.94541   10.299
 3999.00    0.98288   0.94876   10.236
 4000.00    0.99412   0.95179   10.029
 4001.00    1.00634   0.95407    9.831
 4002.00    1.01464   0.95600    9.934
 4003.00    1.01631   0.95797   10.117
 4004.00    1.01387   0.95889    9.629
 4005.00    1.01120   0.96121    9.176
 4006.00    1.01121   0.96460   10.886
 4007.00    1.01497   0.96958   18.304
 4008.00    1.02179   0.97562   32.281
 4009.00    1.03158   0.98352   30.012
 4010.00    1.04495   0.99368   25.025
 4011.00    1.05970   1.00360   26.476
 4012.00    1.07085   1.01292   29.430
 4013.00    1.07582   1.02093   29.350
 4014.00    1.07575   1.02815   28.100
 4015.00    1.07334   1.03373   27.639
 4016.00    1.07089   1.03780   27.879
 4017.00    1.06672   1.04034   28.594
 4018.00    1.05728   1.04146   29.713
 4019.00    1.04629   1.04145   30.705
 4020.00    1.04212   1.03960   30.514
 4021.00    1.04370   1.03633   28.586
 4022.00    1.04190   1.03239   26.144
 4023.00    1.03248   1.02601   26.688
 4024.00    1.01797   1.01813   33.784
 4025.00    1.00421   1.00837   35.009
 4026.00    0.99617   0.99787   19.062
 4027.00    0.99087   0.98574   11.089
 4028.00    0.98127   0.97394    8.943
 4029.00    0.96635   0.96340    9.727
 4030.00    0.95042   0.95470   14.387
 4031.00    0.93791   0.94883   27.820
 4032.00    0.93163   0.94626   39.155
 4033.00    0.93141   0.94684   30.616
 4034.00    0.93625   0.95081   26.681
 4035.00    0.94772   0.95817   27.990
 4036.00    0.96648   0.96517   29.900
 4037.00    0.98686   0.97135   30.327
 4038.00    1.00181   0.97517   29.867
 4039.00    1.01031   0.97593   29.161
 4040.00    1.01441   0.97306   28.598
 4041.00    1.01448   0.96698   28.635
 4042.00    1.00955   0.95890   29.457
 4043.00    0.99845   0.95125   30.503
 4044.00    0.98329   0.94511   30.926
 4045.00    0.97226   0.94260   30.509
 4046.00    0.97269   0.94336   29.759
 4047.00    0.98419   0.94620   29.533
 4048.00    1.00000   0.95183   30.260
 4049.00    1.00988   0.95865   31.420
 4050.00    1.00941   0.96652   31.984
 4051.00    1.00587   0.97230   31.204
 4052.00    1.00443   0.97462   29.612
 4053.00    0.99874   0.97367   28.793
 4054.00    0.98416   0.96941   29.435
 4055.00    0.96622   0.96258   30.728
 4056.00    0.95062   0.95363   31.521
 4057.00    0.93704   0.94436   31.403
 4058.00    0.92516   0.93419   30.772
 4059.00    0.91783   0.92563   30.415
 4060.00    0.91666   0.91765   30.723
 4061.00    0.91981   0.91117   31.446
 4062.00    0.92411   0.90730   31.997
 4063.00    0.92673   0.90569   31.761
 4064.00    0.92742   0.90616   30.935
 4065.00    0.92902   0.90776   30.472
 4066.00    0.93490   0.91062   30.697
 4067.00    0.94673   0.91441   31.112
 4068.00    0.96053   0.91964   31.393
 4069.00    0.96815   0.92390   31.651
 4070.00    0.96903   0.92727   31.626
 4071.00    0.97074   0.93037   30.813
 4072.00    0.97521   0.93343   29.914
 4073.00    0.97697   0.93619   30.320
 4074.00    0.97362   0.93969   31.938
 4075.00    0.96779   0.94472   33.018
 4076.00    0.96224   0.95311   32.679
 4077.00    0.95864   0.96329   31.808
 4078.00    0.95837   0.97527   31.226
 4079.00    0.96269   0.98893   31.217
 4080.00    0.97240   1.00371   31.736
 4081.00    0.98680   1.01981   32.442
 4082.00    1.00151   1.03610   32.666
 4083.00    1.01169   1.05185   31.888
 4084.00    1.02000   1.06610   30.731
 4085.00    1.03237   1.07801   30.215
 4086.00    1.04627   1.08683   30.533
 4087.00    1.05485   1.09284   31.265
 4088.00    1.05887   1.09523   31.797
 4089.00    1.06333   1.09356   31.601
 4090.00    1.06792   1.08805   30.740
 4091.00    1.06868   1.07790   29.774
 4092.00    1.06302   1.06416    0.000
 4093.00    1.04933   1.04684    0.000
 4094.00    1.02531   1.02770    0.000
 4095.00    0.99149   1.00762    0.000
 4096.00    0.95589   0.98810    0.000
 4097.00    0.92811   0.97076    0.000
 4098.00    0.91128   0.95573    0.000
 4099.00    0.90429   0.94473    0.000
 4100.00    0.90544   0.93827    0.000
 4101.00    0.91168   0.93635    0.000
 4102.00    0.91771   0.93877    0.000
 4103.00    0.92045   0.94476    0.000
 4104.00    0.92311   0.95302    0.000
 4105.00    0.93088   0.96333    0.000
 4106.00    0.94615   0.97420    0.000
 4107.00    0.96597   0.98496    0.000
 4108.00    0.98129   0.99472    0.000
 4109.00    0.98660   1.00337    0.000
 4110.00    0.98680   1.01030    0.000
 4111.00    0.98943   1.01578    0.000
 4112.00    0.99848   1.02006    0.000
 4113.00    1.01380   1.02282   31.587
 4114.00    1.03127   1.02486   32.387
 4115.00    1.04459   1.02568   32.973
 4116.00    1.04772   1.02589   33.105
 4117.00    1.04216   1.02535   32.722
 4118.00    1.03840   1.02402   31.778
 4119.00    1.04103   1.02255   30.904
 4120.00    1.04312   1.02022   31.245
 4121.00    1.03968   1.01790   32.874
 4122.00    1.03292   1.01454   34.161
 4123.00    1.02450   1.01117   33.952
 4124.00    1.01332   1.00640   33.055
 4125.00    1.00183   1.00100   32.363
 4126.00    0.99613   0.99470   32.122
 4127.00    0.99560   0.98748   32.502
 4128.00    0.99233   0.98076   33.663
 4129.00    0.98396   0.97387   35.046
 4130.00    0.97539   0.96902   35.317
 4131.00    0.96882   0.96483   34.278
 4132.00    0.96237   0.96346   33.110
 4133.00    0.95662   0.96304   32.568
 4134.00    0.95481   0.96461   32.756
 4135.00    0.95740   0.96594   33.479
 4136.00    0.96156   0.96720   34.293
 4137.00    0.96384   0.96712   34.590
 4138.00    0.96171   0.96523   33.982
 4139.00    0.95536   0.96206   33.035
 4140.00    0.94677   0.95657   32.677
 4141.00    0.93679   0.95075   33.038
 4142.00    0.92526   0.94407   33.629
 4143.00    0.91274   0.93818   33.938
 4144.00    0.90106   0.93342   33.729
 4145.00    0.89347   0.93003   33.357
 4146.00    0.89240   0.92806   33.339
 4147.00    0.89552   0.92735   33.650
 4148.00    0.89789   0.92780   34.042
 4149.00    0.89664   0.92910   34.728
 4150.00    0.89207   0.93175   35.906
 4151.00    0.88801   0.93443   36.708
 4152.00    0.88901   0.93837   36.082
 4153.00    0.89639   0.94275   34.687
 4154.00    0.90895   0.94927   33.836
 4155.00    0.92449   0.95638   34.165
 4156.00    0.94019   0.96542   35.498
 4157.00    0.95294   0.97468   36.383
 4158.00    0.96108   0.98412   35.522
 4159.00    0.96605   0.99284   33.991
 4160.00    0.97002   0.99989   33.175
 4161.00    0.97325   1.00525   33.109
 4162.00    0.97509   1.00755   33.495
 4163.00    0.97497   1.00765   34.447
 4164.00    0.97154   1.00466   35.820
 4165.00    0.96225   0.99933   36.479
 4166.00    0.94747   0.99174   35.715
 4167.00    0.93311   0.98289   34.547
 4168.00    0.92431   0.97327   33.979
 4169.00    0.92089   0.96313   34.039
 4170.00    0.92058   0.95360   34.579
 4171.00    0.92157   0.94511   35.661
 4172.00    0.92273   0.93812   36.812
 4173.00    0.92363   0.93297   36.651
 4174.00    0.92449   0.93023   35.100
 4175.00    0.92603   0.92946   33.981
 4176.00    0.92933   0.93063   34.058
 4177.00    0.93514   0.93353   34.475
 4178.00    0.94074   0.93796   34.779
 4179.00    0.94027   0.94361   35.614
 4180.00    0.93348   0.94987   36.610
 4181.00    0.92775   0.95596   35.871
 4182.00    0.92832   0.96209   33.826
 4183.00    0.93497   0.96739   33.105
 4184.00    0.94606   0.97248   34.203
 4185.00    0.96007   0.97659   35.347
 4186.00    0.97448   0.97985   35.650
 4187.00    0.98590   0.98225   36.086
 4188.00    0.99188   0.98347   36.535
 4189.00    0.99156   0.98373   35.578
 4190.00    0.98520   0.98221   33.788
 4191.00    0.97417   0.97937   33.122
 4192.00    0.96103   0.97452   33.970
 4193.00    0.94881   0.96870   35.370
 4194.00    0.93899   0.96210   36.361
 4195.00    0.93137   0.95517   36.453
 4196.00    0.92519   0.94898   35.684
 4197.00    0.92028   0.94418   34.582
 4198.00    0.91914   0.94200   34.000
 4199.00    0.92503   0.94254   34.640
 4200.00    0.93728   0.94638   36.311
 4201.00    0.95211   0.95332   37.929
 4202.00    0.96630   0.96295   38.193
 4203.00    0.97840   0.97455   36.685
 4204.00    0.98939   0.98711   34.757
 4205.00    1.00158   0.99975   33.852
 4206.00    1.01634   1.01128   34.015
 4207.00    1.03333   1.02131   34.627
 4208.00    1.04987   1.02932   35.248
 4209.00    1.06260   1.03544   35.692
 4210.00    1.06993   1.03966   35.967
 4211.00    1.07138   1.04283   35.988
 4212.00    1.06632   1.04486   35.248
 4213.00    1.05588   1.04652   33.859
 4214.00    1.04513   1.04757   33.358
 4215.00    1.03880   1.04775   34.816
 4216.00    1.03629   1.04657   37.129
 4217.00    1.03442   1.04290   38.071
 4218.00    1.03110   1.03647   37.102
 4219.00    1.02526   1.02620   35.290
 4220.00    1.01639   1.01276   33.755
 4221.00    1.00377   0.99607   33.241
 4222.00    0.98603   0.97840   34.230
 4223.00    0.96421   0.96075   36.666
 4224.00    0.94371   0.94575   39.145
 4225.00    0.92913   0.93458   39.944
 4226.00    0.92063   0.92849   39.186
 4227.00    0.91822   0.92829   37.932
 4228.00    0.92430   0.93344   36.825
 4229.00    0.93900   0.94327   36.172
 4230.00    0.95773   0.95614   36.116
 4231.00    0.97706   0.97110   36.626
 4232.00    0.99740   0.98662   37.450
 4233.00    1.01699   1.00201   38.074
 4234.00    1.02996   1.01699   37.842
 4235.00    1.03559   1.03142   36.654
 4236.00    1.04107   1.04564   35.154
 4237.00    1.05090   1.05910   34.035
 4238.00    1.06290   1.07253   33.755
 4239.00    1.07483   1.08495   34.517
 4240.00    1.08679   1.09625   36.178
 4241.00    1.09820   1.10536   37.545
 4242.00    1.10719   1.11168   36.628
 4243.00    1.11318   1.11427   34.265
 4244.00    1.11703   1.11293   33.196
 4245.00    1.11765   1.10774   33.803
 4246.00    1.11220   1.09906   34.532
 4247.00    1.10065   1.08795   34.907
 4248.00    1.08585   1.07556   35.948
 4249.00    1.06936   1.06303   37.470
 4250.00    1.05169   1.05172   37.764
 4251.00    1.03636   1.04232   36.618
 4252.00    1.02871   1.03582   35.507
 4253.00    1.02980   1.03203   35.221
 4254.00    1.03677   1.03160   35.749
 4255.00    1.04749   1.03374   36.795
 4256.00    1.06069   1.03879   37.807
 4257.00    1.07364   1.04570   38.024
 4258.00    1.08303   1.05446   37.070
 4259.00    1.08749   1.06391   35.845
 4260.00    1.08763   1.07345   35.438
 4261.00    1.08508   1.08197   35.596
 4262.00    1.08219   1.08822   35.572
 4263.00    1.08177   1.09128   35.785
 4264.00    1.08447   1.09000   36.930
 4265.00    1.08498   1.08454   38.001
 4266.00    1.07664   1.07440   37.413
 4267.00    1.05916   1.06100   35.946
 4268.00    1.03687   1.04523   35.220
 4269.00    1.01474   1.02946   35.541
 4270.00    0.99699   1.01532   36.414
 4271.00    0.98615   1.00461   37.037
 4272.00    0.98355   0.99867   36.916
 4273.00    0.98986   0.99765   36.609
 4274.00    1.00304   1.00184   36.623
 4275.00    1.01650   1.00978   36.303
 4276.00    1.02503   1.02058   -2.000
 4277.00    1.03050   1.03205   -2.000
 4278.00    1.03516   1.04310   -2.000
 4279.00    1.03560   1.05183   -2.000
 4280.00    1.03003   1.05770   -2.000
 4281.00    1.02434   1.05990   -2.000
 4282.00    1.02604   1.05857   -2.000
 4283.00    1.03851   1.05405   -2.000
 4284.00    1.05804   1.04681   -2.000
 4285.00    1.07305   1.03796   -2.000
 4286.00    1.07340   1.02790   -2.000
 4287.00    1.05707   1.01778   -2.000
 4288.00    1.03063   1.00781   -2.000
 4289.00    1.00733   0.99832   -2.000
 4290.00    0.99493   0.98931   -2.000
 4291.00    0.98973   0.98015   -2.000
 4292.00    0.98411   0.97080   36.399
 4293.00    0.97215   0.96009   35.410
 4294.00    0.95638   0.94815   35.191
 4295.00    0.94742   0.93417   34.680
 4296.00    0.94682   0.91867   33.689
 4297.00    0.94251   0.90174   33.437
 4298.00    0.92379   0.88415   34.473
 4299.00    0.88897   0.86682   36.215
 4300.00    0.84826   0.85045   37.704
 4301.00    0.81918   0.83631   38.140
 4302.00    0.80636   0.82497   37.678
 4303.00    0.79954   0.81763   37.346
 4304.00    0.79227   0.81490   37.872
 4305.00    0.78670   0.81777   39.407
 4306.00    0.78781   0.82685   41.304
 4307.00    0.80007   0.84266   42.198
 4308.00    0.82334   0.86553   41.713
 4309.00    0.85368   0.89507   40.566
 4310.00    0.88847   0.93066   38.658
 4311.00    0.92718   0.97082   35.696
 4312.00    0.96978   1.01354   32.881
 4313.00    1.01591   1.05672   31.565
 4314.00    1.06404   1.09727   31.975
 4315.00    1.11074   1.13355   33.706
 4316.00    1.14982   1.16242   35.801
 4317.00    1.17517   1.18390   36.836
 4318.00    1.18651   1.19604   36.409
 4319.00    1.18769   1.20106   35.383
 4320.00    1.18161   1.19886   34.803
 4321.00    1.17045   1.19318   35.303
 4322.00    1.15760   1.18524   36.721
 4323.00    1.14721   1.17871   38.234
 4324.00    1.14303   1.17490   38.763
 4325.00    1.14721   1.17566   37.816
 4326.00    1.15898   1.18108   36.357
 4327.00    1.17558   1.19063   35.424
 4328.00    1.19391   1.20295   34.882
 4329.00    1.21135   1.21601   34.349
 4330.00    1.22658   1.22773    0.000
 4331.00    1.23889   1.23624    0.000
 4332.00    1.24737   1.24011    0.000
 4333.00    1.25095   1.23898    0.000
 4334.00    1.24857   1.23284    0.000
 4335.00    1.23893   1.22311    0.000
 4336.00    1.22069   1.21112    0.000
 4337.00    1.19617   1.19908    0.000
 4338.00    1.17394   1.18880    0.000
 4339.00    1.16149   1.18183    0.000
 4340.00    1.15929   1.17936    0.000
 4341.00    1.16389   1.18124    0.000
 4342.00    1.17105   1.18750    0.000
 4343.00    1.17870   1.19650    0.000
 4344.00    1.18827   1.20747    0.000
 4345.00    1.20065   1.21838    0.000
 4346.00    1.21363   1.22846    0.000
 4347.00    1.22398   1.23654    0.000
 4348.00    1.22911   1.24256    0.000
 4349.00    1.22912   1.24666    0.000
 4350.00    1.22711   1.24943    0.000
 4351.00    1.22503   1.25189   34.905
 4352.00    1.22229   1.25473   35.051
 4353.00    1.21960   1.25905   35.849
 4354.00    1.22011   1.26494   35.964
 4355.00    1.22588   1.27299   35.066
 4356.00    1.23656   1.28249   34.418
 4357.00    1.25061   1.29353   34.592
 4358.00    1.26608   1.30485   35.067
 4359.00    1.28187   1.31618   35.284
 4360.00    1.29782   1.32619   35.094
 4361.00    1.31351   1.33454   34.752
 4362.00    1.32735   1.34021   34.678
 4363.00    1.33497   1.34293   34.825
 4364.00    1.33143   1.34238   34.781
 4365.00    1.31871   1.33843   34.632
 4366.00    1.30400   1.33156   34.884
 4367.00    1.28871   1.32183   35.586
 4368.00    1.26995   1.31025   36.276
 4369.00    1.25162   1.29701   36.543
 4370.00    1.24113   1.28317   36.269
 4371.00    1.23508   1.26871   35.676
 4372.00    1.22365   1.25440   35.135
 4373.00    1.20704   1.23983   34.834
 4374.00    1.19220   1.22529   34.820
 4375.00    1.17928   1.21013   35.185
 4376.00    1.16413   1.19437   35.939
 4377.00    1.14789   1.17770   36.692
 4378.00    1.13475   1.16031   37.002
 4379.00    1.12532   1.14280   37.226
 4380.00    1.11725   1.12577   37.806
 4381.00    1.10817   1.11079   37.867
 4382.00    1.09726   1.09847   36.611
 4383.00    1.08667   1.09057   35.525
 4384.00    1.08050   1.08725   36.100
 4385.00    1.08289   1.08944   37.508
 4386.00    1.09531   1.09651   38.023
 4387.00    1.11374   1.10821   37.725
 4388.00    1.13215   1.12337   37.549
 4389.00    1.14701   1.14097   37.479
 4390.00    1.15808   1.15972   37.072
 4391.00    1.16837   1.17843   36.227
 4392.00    1.18022   1.19599   35.206
 4393.00    1.19171   1.21135   34.489
 4394.00    1.20110   1.22378   34.478
 4395.00    1.21063   1.23252   35.331
 4396.00    1.22174   1.23727   36.671
 4397.00    1.23129   1.23789   37.260
 4398.00    1.23590   1.23465   36.570
 4399.00    1.23544   1.22835   35.975
 4400.00    1.23120   1.21979   36.249
 4401.00    1.22453   1.21062   36.316
 4402.00    1.21781   1.20193   35.437
 4403.00    1.21433   1.19548   34.535
 4404.00    1.21301   1.19198   34.462
 4405.00    1.20721   1.19249   35.224
 4406.00    1.19752   1.19683   36.309
 4407.00    1.19575   1.20501   36.857
 4408.00    1.20602   1.21588   36.538
 4409.00    1.21841   1.22880   35.951
 4410.00    1.22956   1.24223   35.490
 4411.00    1.24875   1.25576   34.962
 4412.00    1.27756   1.26807   34.191
 4413.00    1.30438   1.27934   33.291
 4414.00    1.32207   1.28882   32.681
 4415.00    1.33348   1.29709   32.879
 4416.00    1.34314   1.30381   33.845
 4417.00    1.35314   1.30949   34.866
 4418.00    1.36067   1.31391   35.387
 4419.00    1.36029   1.31732   35.352
 4420.00    1.35370   1.31957   34.779
 4421.00    1.34925   1.32082   33.720
 4422.00    1.35009   1.32100   32.620
 4423.00    1.35339   1.32028   32.098
 4424.00    1.35816   1.31881   32.431
 4425.00    1.36572   1.31663   33.487
 4426.00    1.37465   1.31417   34.505
 4427.00    1.38079   1.31130   34.504
 4428.00    1.38044   1.30865   34.005
 4429.00    1.37248   1.30610   34.174
 4430.00    1.36111   1.30433   34.209
 4431.00    1.35275   1.30331   32.625
 4432.00    1.34871   1.30372   30.823
 4433.00    1.34708   1.30537   30.776
 4434.00    1.34917   1.30877   31.867
 4435.00    1.35822   1.31348   32.149
 4436.00    1.37480   1.31977   31.610
 4437.00    1.39629   1.32695   31.454
 4438.00    1.41740   1.33508   31.604
 4439.00    1.43230   1.34356   -1.000
 4440.00    1.43777   1.35222   30.963
 4441.00    1.43410   1.36077   30.850
 4442.00    1.42565   1.36874   30.857
 4443.00    1.41782   1.37592   30.668
 4444.00    1.41322   1.38161   30.608
 4445.00    1.41190   1.38546   31.060
 4446.00    1.41237   1.38671   31.722
 4447.00    1.41194   1.38498   32.150
 4448.00    1.40730   1.37976   32.535
 4449.00    1.39790   1.37122   33.120
 4450.00    1.38865   1.35921   33.464
 4451.00    1.38255   1.34485   33.051
 4452.00    1.37436   1.32834   32.064
 4453.00    1.35891   1.31154   31.142
 4454.00    1.33875   1.29489   30.990
 4455.00    1.32107   1.28023   31.736
 4456.00    1.31383   1.26804   32.509
 4457.00    1.31750   1.25948   32.579
 4458.00    1.32134   1.25485   32.415
 4459.00    1.31989   1.25431   32.539
 4460.00    1.32210   1.25775   32.708
 4461.00    1.33356   1.26481    0.000
 4462.00    1.34685   1.27475    0.000
 4463.00    1.35554   1.28740    0.000
 4464.00    1.36183   1.30146    0.000
 4465.00    1.36969   1.31732    0.000
 4466.00    1.38096   1.33348    0.000
 4467.00    1.39639   1.35065    0.000
 4468.00    1.41607   1.36754    0.000
 4469.00    1.43812   1.38458    0.000
 4470.00    1.45902   1.40090    0.000
 4471.00    1.47710   1.41627    0.000
 4472.00    1.49332   1.43037    0.000
 4473.00    1.50774   1.44230    0.000
 4474.00    1.51838   1.45240    0.000
 4475.00    1.52275   1.45955    0.000
 4476.00    1.51968   1.46492    0.000
 4477.00    1.51380   1.46748    0.000
 4478.00    1.51355   1.46896    0.000
 4479.00    1.52003   1.46866    0.000
 4480.00    1.52721   1.46828    0.000
 4481.00    1.53244   1.46709    0.000
 4482.00    1.53734   1.46619   30.477
 4483.00    1.54144   1.46473   29.996
 4484.00    1.54238   1.46337   29.804
 4485.00    1.54071   1.46108   29.698
 4486.00    1.53916   1.45860   29.313
 4487.00    1.53821   1.45499   28.844
 4488.00    1.53691   1.45143   28.760
 4489.00    1.53663   1.44732   29.035
 4490.00    1.53826   1.44410   -1.000
 4491.00    1.53538   1.44174   -1.000
 4492.00    1.52134   1.44134   30.430
 4493.00    1.50382   1.44345   30.720
 4494.00    1.49598   1.44827   29.993
 4495.00    1.49755   1.45650   29.062
 4496.00    1.50149   1.46715   28.898
 4497.00    1.50882   1.48094   28.943
 4498.00    1.52300   1.49622   28.350
 4499.00    1.53916   1.51320   27.897
 4500.00    1.55141   1.53020   28.521
 4501.00    1.56401   1.54693   29.464
 4502.00    1.58157   1.56199   29.479
 4503.00    1.59618   1.57488   29.090
 4504.00    1.59946   1.58488   29.209
 4505.00    1.59698   1.59178   29.319
 4506.00    1.59775   1.59536   28.661
 4507.00    1.60180   1.59593   27.638
 4508.00    1.60530   1.59353   26.798
 4509.00    1.60675   1.58879   26.033
 4510.00    1.60613   1.58253   25.437
 4511.00    1.60372   1.57497   25.811
 4512.00    1.60091   1.56736   27.501
 4513.00    1.60031   1.55903   29.221
 4514.00    1.60174   1.55146   29.465
 4515.00    1.60009   1.54340   28.821
 4516.00    1.59329   1.53577   28.226
 4517.00    1.58598   1.52709   27.560
 4518.00    1.57448   1.51766   26.902
 4519.00    1.54263   1.50646   26.983
 4520.00    1.49941   1.49324   27.541
 4521.00    1.48961   1.47838   26.737
 4522.00    1.51985   1.46099   24.520
 4523.00    1.53297   1.44337   23.070
 4524.00    1.49978   1.42399   23.119
 4525.00    1.45478   1.40653   23.849
 4526.00    1.42667   1.38923   24.409
 4527.00    1.41041   1.37586   24.569
 4528.00    1.40048   1.36499   24.414
 4529.00    1.40212   1.35913   24.140
 4530.00    1.41252   1.35757   24.035
 4531.00    1.41834   1.36006   24.350
 4532.00    1.41683   1.36674   24.778
 4533.00    1.41975   1.37584   24.553
 4534.00    1.43794   1.38816   23.836
 4535.00    1.47250   1.40095   23.579
 4536.00    1.50559   1.41506   23.877
 4537.00    1.51022   1.42776   24.020
 4538.00    1.48782   1.43943   23.891
 4539.00    1.46646   1.44942   23.997
 4540.00    1.46432   1.45696   24.244
 4541.00    1.48131   1.46282   24.065
 4542.00    1.50507   1.46563   23.693
 4543.00    1.51999   1.46753   23.829
 4544.00    1.52406   1.46772   24.264
 4545.00    1.52611   1.46705   24.172
 4546.00    1.53093   1.46608   23.609
 4547.00    1.53718   1.46501   23.280
 4548.00    1.54015   1.46523   23.420
 4549.00    1.53680   1.46610   23.831
 4550.00    1.53360   1.46964    0.000
 4551.00    1.53907   1.47388    0.000
 4552.00    1.54897   1.48090    0.000
 4553.00    1.55643   1.48854    0.000
 4554.00    1.57116   1.49820    0.000
 4555.00    1.60254   1.50826    0.000
 4556.00    1.63158   1.51839    0.000
 4557.00    1.63576   1.52806    0.000
 4558.00    1.62664   1.53657    0.000
 4559.00    1.62503   1.54412    0.000
 4560.00    1.62487   1.55026    0.000
 4561.00    1.61568   1.55510    0.000
 4562.00    1.61200   1.55856    0.000
 4563.00    1.62695   1.56126    0.000
 4564.00    1.64247   1.56270    0.000
 4565.00    1.63877   1.56414    0.000
 4566.00    1.62498   1.56547    0.000
 4567.00    1.61782   1.56648    0.000
 4568.00    1.61950   1.56744    0.000
 4569.00    1.62330   1.56785    0.000
 4570.00    1.62114   1.56744    0.000
 4571.00    1.61382   1.56619    0.000
 4572.00    1.61579   1.56352    0.000
 4573.00    1.63164   1.55970    0.000
 4574.00    1.64224   1.55434    0.000
 4575.00    1.63284   1.54836    0.000
 4576.00    1.61037   1.54137    0.000
 4577.00    1.58570   1.53449    0.000
 4578.00    1.56285   1.52766    0.000
 4579.00    1.54676   1.52124    0.000
 4580.00    1.54583   1.51656    0.000
 4581.00    1.55902   1.51273    0.000
 4582.00    1.57254   1.51149    0.000
 4583.00    1.57952   1.51096    0.000
 4584.00    1.58653   1.51229    0.000
 4585.00    1.59699   1.51347    0.000
 4586.00    1.60508   1.51529    0.000
 4587.00    1.60408   1.51635    0.000
 4588.00    1.59097   1.51700    0.000
 4589.00    1.56967   1.51658    0.000
 4590.00    1.55029   1.51494    0.000
 4591.00    1.54191   1.51245    0.000
 4592.00    1.54791   1.50954    0.000
 4593.00    1.55963   1.50589    0.000
 4594.00    1.56134   1.50318    0.000
 4595.00    1.55151   1.50037    0.000
 4596.00    1.54367   1.49895    0.000
 4597.00    1.54959   1.49934    0.000
 4598.00    1.57202   1.50080    0.000
 4599.00    1.59928   1.50496    0.000
 4600.00    1.61362   1.50993    0.000
 4601.00    1.61418   1.51823    0.000
 4602.00    1.61332   1.52736    0.000
 4603.00    1.61547   1.53936    0.000
 4604.00    1.61809   1.55159    0.000
 4605.00    1.62353   1.56486    0.000
 4606.00    1.63627   1.57763    0.000
 4607.00    1.65306   1.59055    0.000
 4608.00    1.66557   1.60268    0.000
 4609.00    1.66876   1.61345    0.000
 4610.00    1.66411   1.62410    0.000
 4611.00    1.66193   1.63172    0.000
 4612.00    1.67204   1.63936    0.000
 4613.00    1.68951   1.64460    0.000
 4614.00    1.70327   1.64910    0.000
 4615.00    1.71078   1.65200    0.000
 4616.00    1.71531   1.65537    0.000
 4617.00    1.71947   1.65652    0.000
 4618.00    1.72433   1.65766    0.000
 4619.00    1.72917   1.65793    0.000
 4620.00    1.73121   1.65748    0.000
 4621.00    1.72576   1.65610    0.000
 4622.00    1.71112   1.65451    0.000
 4623.00    1.69321   1.65226    0.000
 4624.00    1.68144   1.64877    0.000
 4625.00    1.68337   1.64481    0.000
 4626.00    1.69694   1.64064    0.000
 4627.00    1.70595   1.63524    0.000
 4628.00    1.69830   1.62823    0.000
 4629.00    1.67976   1.62088    0.000
 4630.00    1.66104   1.61225    0.000
 4631.00    1.64695   1.60305    0.000
 4632.00    1.63601   1.59237    0.000
 4633.00    1.62240   1.58105    0.000
 4634.00    1.60721   1.56954    0.000
 4635.00    1.60230   1.55700    0.000
 4636.00    1.60909   1.54583    0.000
 4637.00    1.61021   1.53409    0.000
 4638.00    1.59644   1.52317    0.000
 4639.00    1.57844   1.51209    0.000
 4640.00    1.56648   1.50239    0.000
 4641.00    1.56127   1.49252    0.000
 4642.00    1.56206   1.48463    0.000
 4643.00    1.56899   1.47819    0.000
 4644.00    1.57505   1.47392    0.000
 4645.00    1.56750   1.47191    0.000
 4646.00    1.54792   1.47226    0.000
 4647.00    1.53333   1.47471    0.000
 4648.00    1.52978   1.47998    0.000
 4649.00    1.52803   1.48606    0.000
 4650.00    1.52409   1.49455    0.000
 4651.00    1.52310   1.50369    0.000
 4652.00    1.52794   1.51393    0.000
 4653.00    1.53748   1.52478    0.000
 4654.00    1.55227   1.53476    0.000
 4655.00    1.57352   1.54398    0.000
 4656.00    1.59580   1.55010    0.000
 4657.00    1.60939   1.55421    0.000
 4658.00    1.61104   1.55423    0.000
 4659.00    1.60403   1.55191    0.000
 4660.00    1.59206   1.54619    0.000
 4661.00    1.57724   1.53763    0.000
 4662.00    1.55954   1.52683    0.000
 4663.00    1.53878   1.51508    0.000
 4664.00    1.51893   1.50414    0.000
 4665.00    1.50529   1.49432    0.000
 4666.00    1.49802   1.48741    0.000
 4667.00    1.49420   1.48249    0.000
 4668.00    1.49325   1.48052    0.000
 4669.00    1.49640   1.48118    0.000
 4670.00    1.50417   1.48380    0.000
 4671.00    1.51482   1.48908    0.000
 4672.00    1.52290   1.49435    0.000
 4673.00    1.52437   1.50047    0.000
 4674.00    1.52326   1.50543    0.000
 4675.00    1.52631   1.50963    0.000
 4676.00    1.53496   1.51273    0.000
 4677.00    1.54442   1.51471    0.000
 4678.00    1.54449   1.51653    0.000
 4679.00    1.53096   1.51710    0.000
 4680.00    1.51633   1.51806    0.000
 4681.00    1.51455   1.51856    0.000
 4682.00    1.52540   1.51904    0.000
 4683.00    1.53982   1.51960    0.000
 4684.00    1.54718   1.52056    0.000
 4685.00    1.54322   1.52157    0.000
 4686.00    1.53516   1.52279    0.000
 4687.00    1.53113   1.52420    0.000
 4688.00    1.53188   1.52524    0.000
 4689.00    1.53443   1.52616    0.000
 4690.00    1.53537   1.52703    0.000
 4691.00    1.53291   1.52693    0.000
 4692.00    1.52808   1.52642    0.000
 4693.00    1.52391   1.52422    0.000
 4694.00    1.52412   1.52110    0.000
 4695.00    1.52817   1.51681    0.000
 4696.00    1.52987   1.51146    0.000
 4697.00    1.52516   1.50654    0.000
 4698.00    1.51587   1.50016    0.000
 4699.00    1.50716   1.49531    0.000
 4700.00    1.50468   1.48966    0.000
 4701.00    1.50821   1.48650    0.000
 4702.00    1.51079   1.48331    0.000
 4703.00    1.50706   1.48226    0.000
 4704.00    1.49734   1.48187    0.000
 4705.00    1.48888   1.48364    0.000
 4706.00    1.49272   1.48776    0.000
 4707.00    1.51096   1.49255    0.000
 4708.00    1.53500   1.50048    0.000
 4709.00    1.55466   1.50798    0.000
 4710.00    1.56335   1.51788    0.000
 4711.00    1.56363   1.52831    0.000
 4712.00    1.56489   1.54032    0.000
 4713.00    1.57197   1.55360    0.000
 4714.00    1.58307   1.56718    0.000
 4715.00    1.59292   1.58018    0.000
 4716.00    1.59712   1.59272    0.000
 4717.00    1.60001   1.60345    0.000
 4718.00    1.61005   1.61219    0.000
 4719.00    1.62544   1.61833    0.000
 4720.00    1.63703   1.62148    0.000
 4721.00    1.64061   1.62238    0.000
 4722.00    1.63744   1.61924    0.000
 4723.00    1.63034   1.61358    0.000
 4724.00    1.62118   1.60450    0.000
 4725.00    1.60804   1.59476    0.000
 4726.00    1.58911   1.58497    0.000
 4727.00    1.56953   1.57608    0.000
 4728.00    1.55809   1.56838    0.000
 4729.00    1.56029   1.56233    0.000
 4730.00    1.57435   1.55961    0.000
 4731.00    1.58778   1.55763    0.000
 4732.00    1.58955   1.55973    0.000
 4733.00    1.58517   1.56294    0.000
 4734.00    1.58521   1.56814    0.000
 4735.00    1.58990   1.57604    0.000
 4736.00    1.59602   1.58425    0.000
 4737.00    1.60579   1.59257    0.000
 4738.00    1.62072   1.60083    0.000
 4739.00    1.63510   1.60984    0.000
 4740.00    1.64364   1.61804    0.000
 4741.00    1.64882   1.62600    0.000
 4742.00    1.65609   1.63203    0.000
 4743.00    1.66862   1.63817    0.000
 4744.00    1.68407   1.64294    0.000
 4745.00    1.69359   1.64579    0.000
 4746.00    1.69299   1.64769    0.000
 4747.00    1.68938   1.64750    0.000
 4748.00    1.68867   1.64678    0.000
 4749.00    1.68786   1.64289    0.000
 4750.00    1.68379   1.63920    0.000
 4751.00    1.67853   1.63306    0.000
 4752.00    1.67563   1.62735    0.000
 4753.00    1.67708   1.62029    0.000
 4754.00    1.68021   1.61292    0.000
 4755.00    1.67766   1.60544    0.000
 4756.00    1.66559   1.59706    0.000
 4757.00    1.64693   1.58952    0.000
 4758.00    1.62646   1.58079    0.000
 4759.00    1.60826   1.57219    0.000
 4760.00    1.59500   1.56476    0.000
 4761.00    1.58768   1.55821   29.466
 4762.00    1.58598   1.55301   29.402
 4763.00    1.58880   1.54912   29.381
 4764.00    1.59580   1.54876   29.484
 4765.00    1.60713   1.55052   29.466
 4766.00    1.62064   1.55443   29.331
 4767.00    1.63240   1.56097   29.331
 4768.00    1.64139   1.56757   29.373
 4769.00    1.64951   1.57632   29.120
 4770.00    1.65728   1.58587   28.821
 4771.00    1.66311   1.59657   29.072
 4772.00    1.66494   1.60658   29.667
 4773.00    1.66143   1.61416   29.772
 4774.00    1.65387   1.62160   29.346
 4775.00    1.64574   1.62668   29.068
 4776.00    1.64074   1.62921   29.229
 4777.00    1.64053   1.62969   29.634
 4778.00    1.64135   1.62825   29.758
 4779.00    1.63763   1.62500   29.216
 4780.00    1.63012   1.61994   28.575
 4781.00    1.62344   1.61519   28.625
 4782.00    1.61865   1.61192   29.193
 4783.00    1.61441   1.60712   29.560
 4784.00    1.61098   1.60452   29.531
 4785.00    1.61057   1.60434   29.336
 4786.00    1.61645   1.60502   29.081
 4787.00    1.62953   1.60791   28.817
 4788.00    1.64398   1.61326   28.750
 4789.00    1.65326   1.61996   29.038
 4790.00    1.65858   1.62813   29.506
 4791.00    1.66505   1.63692   29.797
 4792.00    1.67541   1.64562   29.661
 4793.00    1.68755   1.65245   29.143
 4794.00    1.69334   1.65837   28.654
 4795.00    1.68728   1.66235   28.574
 4796.00    1.67508   1.66529   28.944
 4797.00    1.66581   1.66687   29.473
 4798.00    1.66350   1.66773   29.567
 4799.00    1.66743   1.66856   29.074
 4800.00    1.67358   1.66681   28.789
 4801.00    1.67878   1.66500   29.159
 4802.00    1.68352   1.66077   29.464
 4803.00    1.68779   1.65873   29.150
 4804.00    1.68846   1.65541   28.865
 4805.00    1.68481   1.65310   29.129
 4806.00    1.68168   1.65223   29.552
 4807.00    1.68228   1.65283   29.639
 4808.00    1.68401   1.65404   29.386
 4809.00    1.68336   1.65612   29.056
 4810.00    1.67950   1.65930   28.916
 4811.00    1.67687   1.66296   28.973
 4812.00    1.68387   1.66744   28.943
 4813.00    1.69921   1.67164   28.799
 4814.00    1.70868   1.67665   28.925
 4815.00    1.70446   1.68006   29.474
 4816.00    1.69253   1.68318   30.139
 4817.00    1.68266   1.68456   30.579
 4818.00    1.68214   1.68396   30.636
 4819.00    1.68963   1.68247   30.238
 4820.00    1.69534   1.67728   29.435
 4821.00    1.69088   1.67285   28.650
 4822.00    1.67411   1.66867   28.415
 4823.00    1.65249   1.66428   28.500
 4824.00    1.63963   1.65882   28.116
 4825.00    1.64098   1.65339   27.421
 4826.00    1.65139   1.64828   27.353
 4827.00    1.66225   1.64458   28.130
 4828.00    1.66587   1.64093   29.190
 4829.00    1.66129   1.63646   29.994
 4830.00    1.65332   1.63505   30.350
 4831.00    1.64619   1.63353   30.450
 4832.00    1.64230   1.63298   30.669
 4833.00    1.64293   1.63183   31.115
 4834.00    1.64754   1.63162   31.512
 4835.00    1.65167   1.63042   31.228
 4836.00    1.65070   1.62849   30.194
 4837.00    1.64780   1.62718   30.227
 4838.00    1.64925   1.62646   32.569
 4839.00    1.65291   1.62653   32.416
 4840.00    1.65301   1.62467   27.379
 4841.00    1.65175   1.62443   28.713
 4842.00    1.65468   1.62510   51.880
 4843.00    1.66058   1.62421   38.171
 4844.00    1.66468   1.62276   11.354
 4845.00    1.66564   1.61928    6.223
 4846.00    1.66334   1.61516    5.477
 4847.00    1.65494   1.61089    5.994
 4848.00    1.63904   1.60398    0.000
 4849.00    1.62126   1.59513    0.000
 4850.00    1.60764   1.58473    0.000
 4851.00    1.59673   1.57165    0.000
 4852.00    1.58419   1.55541    0.000
 4853.00    1.56880   1.53962    0.000
 4854.00    1.55115   1.52400    0.000
 4855.00    1.53203   1.50724    0.000
 4856.00    1.51375   1.49031    0.000
 4857.00    1.50081   1.47421    0.000
 4858.00    1.49425   1.45927    0.000
 4859.00    1.48782   1.44864    0.000
 4860.00    1.47829   1.44267    0.000
 4861.00    1.47236   1.43771    0.000
 4862.00    1.47454   1.43745    0.000
 4863.00    1.47936   1.43862    0.000
 4864.00    1.48228   1.44277    0.000
 4865.00    1.48660   1.44747    0.000
 4866.00    1.49710   1.45422    0.000
 4867.00    1.51532   1.46108    0.000
 4868.00    1.53670   1.46669    0.000
 4869.00    1.55113   1.47508    0.000
 4870.00    1.55328   1.48479    0.000
 4871.00    1.54724   1.49566    0.000
 4872.00    1.54092   1.50524    0.000
 4873.00    1.54167   1.51495    0.000
 4874.00    1.55030   1.52521    0.000
 4875.00    1.56014   1.53342   32.919
 4876.00    1.56499   1.54305   33.683
 4877.00    1.56319   1.54974   34.072
 4878.00    1.56002   1.55341   33.784
 4879.00    1.56503   1.55607   33.575
 4880.00    1.57956   1.55806   33.595
 4881.00    1.59491   1.55788   33.253
 4882.00    1.60157   1.55563   32.642
 4883.00    1.59444   1.55270   32.521
 4884.00    1.57833   1.55045   33.064
 4885.00    1.56520   1.55002   33.750
 4886.00    1.56176   1.55046   33.994
 4887.00    1.56722   1.55309   33.572
 4888.00    1.57715   1.55576   33.034
 4889.00    1.58737   1.56582   33.149
 4890.00    1.60045   1.57781   33.646
 4891.00    1.62157   1.59224   33.560
 4892.00    1.64622   1.60865   32.794
 4893.00    1.66417   1.62417   32.008
 4894.00    1.67352   1.64013   31.579
 4895.00    1.67978   1.65398   31.531
 4896.00    1.68835   1.66604   31.677
 4897.00    1.70168   1.67395   31.702
 4898.00    1.71688   1.68194   31.312
 4899.00    1.72825   1.68676   30.603
 4900.00    1.73195   1.68833   30.427
 4901.00    1.72768   1.68870   31.426
 4902.00    1.71967   1.68695   32.625
 4903.00    1.71328   1.68464   32.540
 4904.00    1.71001   1.68000   31.907
 4905.00    1.70812   1.67428   32.000
 4906.00    1.70439   1.66679   32.183
 4907.00    1.69586   1.65872   31.593
 4908.00    1.68175   1.65098   31.309
 4909.00    1.66423   1.64276   32.273
 4910.00    1.64863   1.63478   33.087
 4911.00    1.63961   1.62600   32.281
 4912.00    1.63715   1.61741   31.362
 4913.00    1.63721   1.60716   31.807
 4914.00    1.63334   1.59636   32.829
 4915.00    1.62344   1.58420   33.186
 4916.00    1.61447   1.57269   33.118
 4917.00    1.61191   1.56360   33.274
 4918.00    1.61178   1.55783   33.601
 4919.00    1.60860   1.55738   33.694
 4920.00    1.60177   1.55892   33.228
 4921.00    1.59499   1.56376   32.429
 4922.00    1.59468   1.57048   32.088
 4923.00    1.60515   1.58097   32.442
 4924.00    1.62555   1.59247   32.750
 4925.00    1.65058   1.60487   32.564
 4926.00    1.67224   1.61893   32.404
 4927.00    1.68625   1.63015   32.629
 4928.00    1.69486   1.64102   32.928
 4929.00    1.70255   1.64863   32.977
 4930.00    1.71237   1.65143   32.779
 4931.00    1.71983   1.65271   32.470
 4932.00    1.71387   1.65368   32.209
 4933.00    1.69336   1.65260   32.216
 4934.00    1.67063   1.65063   32.676
 4935.00    1.65630   1.64809   33.201
 4936.00    1.65329   1.64648   32.917
 4937.00    1.65878   1.64795   31.980
 4938.00    1.66681   1.65283   31.495
 4939.00    1.67412   1.65862   31.774
 4940.00    1.68116   1.66698    0.000
 4941.00    1.68857   1.67766    0.000
 4942.00    1.69657   1.68727    0.000
 4943.00    1.70633   1.69642    0.000
 4944.00    1.71953   1.70547    0.000
 4945.00    1.73598   1.71258    0.000
 4946.00    1.75315   1.71911    0.000
 4947.00    1.76696   1.72184    0.000
 4948.00    1.77320   1.72206    0.000
 4949.00    1.77043   1.71869    0.000
 4950.00    1.76013   1.71245    0.000
 4951.00    1.74562   1.70397    0.000
 4952.00    1.72992   1.69203    0.000
 4953.00    1.71233   1.68154    0.000
 4954.00    1.69158   1.66652    0.000
 4955.00    1.67258   1.65435    0.000
 4956.00    1.66219   1.64493    0.000
 4957.00    1.66019   1.63704    0.000
 4958.00    1.66132   1.63255    0.000
 4959.00    1.66106   1.62713    0.000
 4960.00    1.65729   1.62509    0.000
 4961.00    1.65141   1.62297    0.000
 4962.00    1.64680   1.62209    0.000
 4963.00    1.64654   1.62137    0.000
 4964.00    1.65103   1.62268    0.000
 4965.00    1.65590   1.62616    0.000
 4966.00    1.65709   1.63018    0.000
 4967.00    1.65660   1.63241    0.000
 4968.00    1.65770   1.63391    0.000
 4969.00    1.65939   1.63624    0.000
 4970.00    1.65905   1.63615    0.000
 4971.00    1.65544   1.63578    0.000
 4972.00    1.64889   1.63186    0.000
 4973.00    1.64081   1.62740    0.000
 4974.00    1.63091   1.62128    0.000
 4975.00    1.61554   1.61156    0.000
 4976.00    1.59404   1.60192    0.000
 4977.00    1.57273   1.59067    0.000
 4978.00    1.55720   1.57967    0.000
 4979.00    1.54695   1.56757    0.000
 4980.00    1.53884   1.55686    0.000
 4981.00    1.53008   1.54864    0.000
 4982.00    1.52093   1.54290    0.000
 4983.00    1.51536   1.54097    0.000
 4984.00    1.51589   1.54163    0.000
 4985.00    1.52129   1.54431    0.000
 4986.00    1.53069   1.54913    0.000
 4987.00    1.54469   1.55484    0.000
 4988.00    1.56020   1.55870    0.000
 4989.00    1.57001   1.56458    0.000
 4990.00    1.57245   1.56969    0.000
 4991.00    1.57325   1.57307    0.000
 4992.00    1.57477   1.57586    0.000
 4993.00    1.57336   1.57509    0.000
 4994.00    1.56712   1.57281    0.000
 4995.00    1.55838   1.56737    0.000
 4996.00    1.55135   1.55848    0.000
 4997.00    1.54945   1.54930    0.000
 4998.00    1.54955   1.53981    0.000
 4999.00    1.54415   1.52980    0.000
 5000.00    1.53333   1.51906    0.000
 5001.00    1.52435   1.50913    0.000
 5002.00    1.52026   1.49891    0.000
 5003.00    1.51887   1.48818    0.000
 5004.00    1.51853   1.47905    0.000
 5005.00    1.51826   1.47249    0.000
 5006.00    1.51461   1.46677    0.000
 5007.00    1.50401   1.46275    0.000
 5008.00    1.48924   1.45909    0.000
 5009.00    1.47722   1.45367    0.000
 5010.00    1.47147   1.45064    0.000
 5011.00    1.47120   1.44606    0.000
 5012.00    1.47258   1.44366    0.000
 5013.00    1.47151   1.44443    0.000
 5014.00    1.46786   1.44617    0.000
 5015.00    1.46496   1.44912    0.000
 5016.00    1.46722   1.45178    0.000
 5017.00    1.47610   1.45535    0.000
 5018.00    1.48504   1.46070    0.000
 5019.00    1.48649   1.46681    0.000
 5020.00    1.48216   1.47528    0.000
 5021.00    1.47856   1.48520    0.000
 5022.00    1.47951   1.49527    0.000
 5023.00    1.48584   1.50736    0.000
 5024.00    1.49625   1.51575    0.000
 5025.00    1.50873   1.52519    0.000
 5026.00    1.52181   1.53423    0.000
 5027.00    1.53333   1.54158    0.000
 5028.00    1.53941   1.54924    0.000
 5029.00    1.53863   1.55412   37.424
 5030.00    1.53535   1.55776   37.723
 5031.00    1.53393   1.55705   36.461
 5032.00    1.53374   1.55442   35.276
 5033.00    1.53280   1.54906   35.474
 5034.00    1.53091   1.54364   36.474
 5035.00    1.52868   1.53794   37.137
 5036.00    1.52654   1.53256   36.899
 5037.00    1.52343   1.52723   36.169
 5038.00    1.51660   1.51986   36.060
 5039.00    1.50578   1.51747   36.762
 5040.00    1.49528   1.51607   36.930
 5041.00    1.49011   1.51828   36.088
 5042.00    1.49332   1.52380   35.668
 5043.00    1.50441   1.53018   36.187
 5044.00    1.51900   1.53808   36.399
 5045.00    1.53165   1.54381   35.822
 5046.00    1.53819   1.55074   35.611
 5047.00    1.53939   1.55799   36.056
 5048.00    1.54099   1.56636   36.007
 5049.00    1.54648   1.57621   35.213
 5050.00    1.55480   1.58565   34.822
 5051.00    1.56394   1.59424   35.334
 5052.00    1.57245   1.60318   36.200
 5053.00    1.57959   1.61122   36.651
 5054.00    1.58502   1.61750   36.236
 5055.00    1.58764   1.62383   35.381
 5056.00    1.58613   1.62892   35.005
 5057.00    1.58197   1.63316   35.317
 5058.00    1.57898   1.63571   35.811
 5059.00    1.57936   1.63555   35.959
 5060.00    1.58246   1.63455   35.528
 5061.00    1.58465   1.62892   34.803
 5062.00    1.58121   1.62155   34.335
 5063.00    1.57095   1.61433   34.410
 5064.00    1.55648   1.60501   35.000
 5065.00    1.54223   1.59799   35.737
 5066.00    1.53257   1.58985   36.107
 5067.00    1.52877   1.58247   36.043
 5068.00    1.52908   1.57471   35.915
 5069.00    1.53019   1.56568   36.121
 5070.00    1.52919   1.55923   36.779
 5071.00    1.52644   1.55062   37.287
 5072.00    1.52346   1.54448   36.972
 5073.00    1.51868   1.53917   36.442
 5074.00    1.50936   1.53303   36.679
 5075.00    1.49542   1.52760   37.558
 5076.00    1.47943   1.52070   38.276
 5077.00    1.46574   1.51668   38.315
 5078.00    1.45852   1.51191   37.943
 5079.00    1.45946   1.51027   38.330
 5080.00    1.46670   1.51203   39.269
 5081.00    1.47420   1.51527   36.711
 5082.00    1.47565   1.52033   30.519
 5083.00    1.46902   1.52596   26.450
 5084.00    1.45801   1.53447   26.012
 5085.00    1.45235   1.54273   26.903
 5086.00    1.46038   1.55178   27.013
 5087.00    1.48185   1.56071   27.894
 5088.00    1.50831   1.56863   31.584
 5089.00    1.52555   1.57485   36.664
 5090.00    1.52669   1.57923   39.049
 5091.00    1.52123   1.58179   38.778
 5092.00    1.52077   1.58271   38.426
 5093.00    1.52777   1.58128   38.536
 5094.00    1.53851   1.57747   38.715
 5095.00    1.54648   1.57216   38.666
 5096.00    1.54720   1.56555   38.317
 5097.00    1.54087   1.55991   37.869
 5098.00    1.52939   1.55397   37.734
 5099.00    1.51458   1.54922   38.377
 5100.00    1.49873   1.54472   39.470
 5101.00    1.48481   1.54039   39.610
 5102.00    1.47549   1.53585   38.646
 5103.00    1.47238   1.53312   38.267
 5104.00    1.47466   1.53220   38.850
 5105.00    1.47920   1.53239   38.837
 5106.00    1.48402   1.53447   37.847
 5107.00    1.48922   1.53616   37.337
 5108.00    1.49460   1.54065   37.514
 5109.00    1.49898   1.54485   37.045
 5110.00    1.50164   1.54991   35.901
 5111.00    1.50279   1.55655   35.500
 5112.00    1.50341   1.56096   36.183
 5113.00    1.50491   1.56530   37.069
 5114.00    1.50851   1.56857   37.645
 5115.00    1.51427   1.56950   38.128
 5116.00    1.51906   1.56959   38.488
 5117.00    1.51805   1.56684   38.430
 5118.00    1.51035   1.56195   38.321
 5119.00    1.49939   1.55517   38.879
 5120.00    1.48970   1.54548   39.811
 5121.00    1.48447   1.53687   40.025
 5122.00    1.48184   1.52759   39.401
 5123.00    1.47697   1.51917   38.723
 5124.00    1.46827   1.51274   38.412
 5125.00    1.45763   1.50719   38.430
 5126.00    1.44825   1.50287   38.522
 5127.00    1.44259   1.50057   38.429
 5128.00    1.43983   1.50021   38.223
 5129.00    1.43828   1.50086   38.114
 5130.00    1.44024   1.50384   38.052
 5131.00    1.44837   1.50526   37.915
 5132.00    1.45906   1.50876   37.880
 5133.00    1.46651   1.51062   38.071
 5134.00    1.47001   1.51060   38.003
 5135.00    1.47176   1.51111   37.321
 5136.00    1.47263   1.50810   36.801
 5137.00    1.47315   1.50695   37.188
 5138.00    1.47536   1.50317   37.923
 5139.00    1.47943   1.49918   38.087
 5140.00    1.48014   1.49667   37.815
 5141.00    1.47398   1.49151   37.624
 5142.00    1.46651   1.48716   37.474
 5143.00    1.46400   1.48396   37.292
 5144.00    1.46480   1.48115   37.462
 5145.00    1.46453   1.47969   38.138
 5146.00    1.46150   1.47877   38.610
 5147.00    1.45689   1.47946   38.249
 5148.00    1.45413   1.48279   37.459
 5149.00    1.45555   1.48527   37.000
 5150.00    1.46010   1.48866   37.388
 5151.00    1.46518   1.49183   38.415
 5152.00    1.46840   1.49594   38.864
 5153.00    1.46892   1.50025   38.338
 5154.00    1.46782   1.50223   38.288
 5155.00    1.46524   1.50351   39.363
 5156.00    1.45928   1.50041   40.163
 5157.00    1.45049   1.49354   39.768
 5158.00    1.44289   1.48147   39.264
 5159.00    1.43540   1.46501   39.441
 5160.00    1.41952   1.44791   39.883
 5161.00    1.39105   1.42613   40.178
 5162.00    1.35454   1.40276   40.462
 5163.00    1.31620   1.37529   40.964
 5164.00    1.28055   1.34361   41.732
 5165.00    1.25106   1.31558   42.451
 5166.00    1.22994   1.29135   42.552
 5167.00    1.21631   1.27426   42.098
 5168.00    1.20629   1.25976   41.837
 5169.00    1.19599   1.24760   42.149
 5170.00    1.18368   1.23898   42.874
 5171.00    1.17274   1.23323   -1.000
 5172.00    1.17032   1.23582   -1.000
 5173.00    1.18001   1.24441   -1.000
 5174.00    1.19952   1.25536   44.628
 5175.00    1.22089   1.26170   43.354
 5176.00    1.23445   1.26728   42.480
 5177.00    1.23853   1.27775   42.542
 5178.00    1.23857   1.28866   43.412
 5179.00    1.23867   1.29973   -1.000
 5180.00    1.24021   1.30632   -1.000
 5181.00    1.24354   1.31379   -1.000
 5182.00    1.24884   1.32305   -1.000
 5183.00    1.25721   1.33101   -1.000
 5184.00    1.26997   1.34453   -1.000
 5185.00    1.28700   1.35868   -1.000
 5186.00    1.30741   1.37313   41.318
 5187.00    1.33109   1.38470   40.845
 5188.00    1.35771   1.39653   41.004
 5189.00    1.38472   1.41376   41.373
 5190.00    1.40925   1.42750    0.000
 5191.00    1.43137   1.43965    0.000
 5192.00    1.45243   1.45110    0.000
 5193.00    1.47222   1.46209    0.000
 5194.00    1.48923   1.47029    0.000
 5195.00    1.50152   1.47531    0.000
 5196.00    1.50862   1.47914    0.000
 5197.00    1.51317   1.47980    0.000
 5198.00    1.51662   1.48045    0.000
 5199.00    1.51492   1.47835    0.000
 5200.00    1.50516   1.47293    0.000
 5201.00    1.49214   1.46778    0.000
 5202.00    1.48038   1.46094    0.000
 5203.00    1.46674   1.45514    0.000
 5204.00    1.44791   1.45072    0.000
 5205.00    1.42730   1.44739    0.000
 5206.00    1.41252   1.44889    0.000
 5207.00    1.41202   1.44893    0.000
 5208.00    1.42746   1.45328    0.000
 5209.00    1.44996   1.46193    0.000
 5210.00    1.47248   1.47276    0.000
 5211.00    1.49732   1.48806   39.019
 5212.00    1.52721   1.49891   38.978
 5213.00    1.55937   1.51172   38.142
 5214.00    1.58736   1.52328   36.976
 5215.00    1.60371   1.53364   36.707
 5216.00    1.60758   1.54402   37.616
 5217.00    1.60664   1.55034   38.524
 5218.00    1.60552   1.55492   38.516
 5219.00    1.60161   1.55314   38.001
 5220.00    1.59406   1.55334   37.699
 5221.00    1.58689   1.55291   37.996
 5222.00    1.58365   1.55011   38.550
 5223.00    1.58485   1.54843   38.439
 5224.00    1.58724   1.54323   37.807
 5225.00    1.58548   1.54181   37.855
 5226.00    1.57866   1.54209   38.639
 5227.00    1.57135   1.54609   38.929
 5228.00    1.56864   1.55529   38.627
 5229.00    1.57354   1.56104   38.900
 5230.00    1.58461   1.56993   39.563
 5231.00    1.59729   1.57936   39.214
 5232.00    1.60980   1.58998   38.358
 5233.00    1.62367   1.60617   38.794
 5234.00    1.64014   1.61784   40.120
 5235.00    1.65858   1.63062   40.126
 5236.00    1.67512   1.64195   38.941
 5237.00    1.68484   1.64851   38.512
 5238.00    1.68757   1.65544   38.979
 5239.00    1.68717   1.65807   39.148
 5240.00    1.68702   1.66209   38.709
 5241.00    1.68832   1.66353   38.222
 5242.00    1.68872   1.65949   38.009
 5243.00    1.68462   1.65635   38.123
 5244.00    1.67573   1.65056   38.639
 5245.00    1.66436   1.64474   39.447
 5246.00    1.65281   1.63700   39.792
 5247.00    1.64368   1.62922   39.112
 5248.00    1.64057   1.62710   38.434
 5249.00    1.64453   1.62153   38.792
 5250.00    1.64907   1.61688   39.193
 5251.00    1.64707   1.61348   38.355
 5252.00    1.64040   1.60945   37.426
 5253.00    1.63553   1.60768   37.784
 5254.00    1.63640   1.59968   38.652
 5255.00    1.64264   1.59387   38.516
 5256.00    1.64878   1.58800   37.329
 5257.00    1.64844   1.57617   35.986
 5258.00    1.63876   1.56274   35.237
 5259.00    1.62091   1.54617   35.323
 5260.00    1.59957   1.52963   35.837
 5261.00    1.57893   1.51068   36.209
 5262.00    1.55929   1.49028   36.207
 5263.00    1.54010   1.47301   35.970
 5264.00    1.52248   1.45926   35.887
 5265.00    1.50791   1.44769   36.103
 5266.00    1.49705   1.44111   36.252
 5267.00    1.48977   1.43720   36.199
 5268.00    1.48561   1.43534   36.460
 5269.00    1.48632   1.44089   37.162
 5270.00    1.49653   1.45445   37.479
 5271.00    1.51760   1.47485   36.970
 5272.00    1.54463   1.49236   36.340
 5273.00    1.57107   1.50846   36.212
 5274.00    1.59206   1.52678   36.563
 5275.00    1.60704   1.54919   36.995
 5276.00    1.62012   1.57571   36.973
 5277.00    1.63589   1.59683   36.579
 5278.00    1.65681   1.61598   36.524
 5279.00    1.68087   1.63268   36.714
 5280.00    1.70237   1.64700   36.144
 5281.00    1.71843   1.66450   35.064
 5282.00    1.73060   1.67982   34.927
 5283.00    1.73989   1.69252   35.791
 5284.00    1.74577   1.70458   36.155
 5285.00    1.74943   1.71382   35.718
 5286.00    1.75369   1.72202   35.757
 5287.00    1.75895   1.72698   36.509
 5288.00    1.76290   1.72952   36.962
 5289.00    1.76365   1.73238   36.808
 5290.00    1.76086   1.73188   36.718
 5291.00    1.75573   1.72925   36.998
 5292.00    1.75010   1.72350   37.419
 5293.00    1.74393   1.71813   37.737
 5294.00    1.73622   1.71415   37.874
 5295.00    1.72878   1.70789   38.010
 5296.00    1.72553   1.70359   38.396
 5297.00    1.72909   1.70110   38.888
 5298.00    1.73897   1.70431   39.066
 5299.00    1.74972   1.70985   38.751
 5300.00    1.75483   1.71278   38.210
 5301.00    1.75441   1.71855   38.189
 5302.00    1.75312   1.72798   39.190
 5303.00    1.75413   1.74192   40.245
 5304.00    1.75823   1.75478   39.945
 5305.00    1.76416   1.76301   39.099
 5306.00    1.77066   1.77037   39.125
 5307.00    1.77906   1.77869   39.463
 5308.00    1.79024   1.78701   38.922
 5309.00    1.80010   1.79186   37.941
 5310.00    1.80440   1.79211   37.563
 5311.00    1.80509   1.78887   38.020
 5312.00    1.80534   1.78549   38.930
 5313.00    1.80313   1.78084   39.511
 5314.00    1.79562   1.77358   39.264
 5315.00    1.78430   1.76222   38.762
 5316.00    1.77271   1.74844   38.606
 5317.00    1.76330   1.73618   38.494
 5318.00    1.75593   1.72183   38.112
 5319.00    1.74717   1.70697   37.889
 5320.00    1.73501   1.68995   38.067
 5321.00    1.72229   1.67268   38.023
 5322.00    1.71056   1.65767   37.493
 5323.00    1.69600   1.64390   37.378
 5324.00    1.67679   1.63474   38.175
 5325.00    1.65803   1.62684   39.029
 5326.00    1.64547   1.61934   39.074
 5327.00    1.64100   1.61137   38.564
 5328.00    1.64335   1.61171   38.042
 5329.00    1.64921   1.62046   37.725
 5330.00    1.65677   1.62876   37.606
 5331.00    1.66703   1.63446   37.566
 5332.00    1.67980   1.63584   37.580
 5333.00    1.69196   1.64599   37.750
 5334.00    1.70054   1.65990   37.994
 5335.00    1.70440   1.66896   38.013
 5336.00    1.70479   1.67647   37.931
 5337.00    1.70482   1.67946   38.313
 5338.00    1.70667   1.68522   38.977
 5339.00    1.71056   1.69005   38.876
 5340.00    1.71627   1.69206   38.082
 5341.00    1.72334   1.69952   37.873
 5342.00    1.73038   1.70390   38.417
 5343.00    1.73514   1.70782   38.630
 5344.00    1.73612   1.71256   38.227
 5345.00    1.73358   1.71688   38.025
 5346.00    1.73069   1.73015   38.421
 5347.00    1.73242   1.74010   39.102
 5348.00    1.74117   1.74826   39.380
 5349.00    1.75557   1.76051   38.749
 5350.00    1.77102   1.77089   37.992
 5351.00    1.78223   1.78509   38.342
 5352.00    1.78893   1.79506   39.411
 5353.00    1.79421   1.80188   39.699
 5354.00    1.79786   1.81136   39.317
 5355.00    1.79781   1.81687   39.475
 5356.00    1.79644   1.81992   39.860
 5357.00    1.79854   1.81881   39.362
 5358.00    1.80508   1.81483   38.541
 5359.00    1.81264   1.80956   38.564
 5360.00    1.81494   1.80148   38.934
 5361.00    1.80616   1.79060   -2.000
 5362.00    1.78590   1.77965   -2.000
 5363.00    1.75768   1.76758   -2.000
 5364.00    1.72557   1.75328   -2.000
 5365.00    1.69475   1.74235   -2.000
 5366.00    1.67275   1.73209   -2.000
 5367.00    1.66603   1.72679   -2.000
 5368.00    1.67521   1.72171   -2.000
 5369.00    1.69462   1.71496   -2.000
 5370.00    1.71294   1.71405   -2.000
 5371.00    1.72136   1.71625   -2.000
 5372.00    1.72208   1.72497   -2.000
 5373.00    1.72271   1.73164   -2.000
 5374.00    1.72921   1.73535   -2.000
 5375.00    1.74166   1.74034   37.771
 5376.00    1.75183   1.74653   38.123
 5377.00    1.75298   1.75667   38.119
 5378.00    1.74813   1.76291   38.058
 5379.00    1.74430   1.76529   38.202
 5380.00    1.74674   1.76491   38.217
 5381.00    1.75492   1.76306   37.882
 5382.00    1.76102   1.76178   37.585
 5383.00    1.75898   1.75832   37.647
 5384.00    1.75029   1.75277   37.935
 5385.00    1.73937   1.74439   38.262
 5386.00    1.73002   1.73445   38.617
 5387.00    1.72384   1.72529   38.883
 5388.00    1.71948   1.71473   38.752
 5389.00    1.71334   1.70421   38.378
 5390.00    1.70118   1.69355   38.491
 5391.00    1.68426   1.68080   39.288
 5392.00    1.67055   1.67211   40.056
 5393.00    1.66534   1.66298   40.178
 5394.00    1.66706   1.65290   39.742
 5395.00    1.66972   1.64509   39.226
 5396.00    1.66610   1.63556   39.132
 5397.00    1.65584   1.63081   39.480
 5398.00    1.64589   1.62663   39.802
 5399.00    1.63947   1.61976   39.860
 5400.00    1.63392   1.61560   39.859
 5401.00    1.62743   1.61285   40.061
 5402.00    1.62089   1.61288   40.573
 5403.00    1.61568   1.61274   41.058
 5404.00    1.61269   1.61061   40.957
 5405.00    1.61148   1.61431   40.515
 5406.00    1.61107   1.62363   40.570
 5407.00    1.61251   1.63233   41.296
 5408.00    1.61823   1.63887   42.147
 5409.00    1.62832   1.64499   42.511
 5410.00    1.64092   1.65888   42.088
 5411.00    1.65515   1.67718   41.242
 5412.00    1.67091   1.69072   40.639
 5413.00    1.68691   1.69998   40.548
 5414.00    1.70152   1.70808   40.820
 5415.00    1.71518   1.72094   41.000
 5416.00    1.72891   1.73468   40.719
 5417.00    1.74080   1.74113   40.410
 5418.00    1.74775   1.74114   40.671
 5419.00    1.74939   1.74220   41.111
 5420.00    1.74786   1.74587   40.917
 5421.00    1.74615   1.74770   40.165
 5422.00    1.74636   1.74462   39.491
 5423.00    1.74756   1.73351   39.322
 5424.00    1.74742   1.72739   39.689
 5425.00    1.74466   1.72774   40.083
 5426.00    1.73912   1.72290   40.058
 5427.00    1.73143   1.71702   40.050
 5428.00    1.72283   1.70539   40.502
 5429.00    1.71510   1.69958   40.807
 5430.00    1.71005   1.70571   40.295
 5431.00    1.70895   1.70526   39.452
 5432.00    1.71168   1.70558   39.096
 5433.00    1.71618   1.70447   39.569
 5434.00    1.72047   1.70616   40.518
 5435.00    1.72460   1.71764   40.691
 5436.00    1.72938   1.72330   39.634
 5437.00    1.73511   1.72977   38.863
 5438.00    1.74078   1.73418   39.297
 5439.00    1.74390   1.73646   39.911
 5440.00    1.74397   1.74114   39.729
 5441.00    1.74416   1.74109   39.328
 5442.00    1.74615   1.74400   39.229
 5443.00    1.74707   1.74285   38.991
 5444.00    1.74337   1.73694   38.510
 5445.00    1.73372   1.73137   38.556
 5446.00    1.72025   1.72425   39.297
 5447.00    1.70813   1.72294   39.741
 5448.00    1.69919   1.71939   39.498
 5449.00    1.69037   1.71040   39.517
 5450.00    1.68245   1.70394   40.188
 5451.00    1.68204   1.70024   40.717
 5452.00    1.69053   1.69965   40.690
 5453.00    1.70100   1.69949   40.658
 5454.00    1.70695   1.69420   40.959
 5455.00    1.70617   1.69121   41.338
 5456.00    1.70083   1.69421   41.494
 5457.00    1.69567   1.69490   41.377
 5458.00    1.69177   1.69704   41.365
 5459.00    1.68630   1.69631   42.006
 5460.00    1.67892   1.69431   42.988
 5461.00    1.67273   1.69834   43.129
 5462.00    1.67063   1.69813   41.944
 5463.00    1.67395   1.69861   40.359
 5464.00    1.68184   1.69858   40.567
 5465.00    1.69111   1.69359   43.912
 5466.00    1.69647   1.69292   43.507
 5467.00    1.69401   1.68988   35.010
 5468.00    1.68926   1.68636   35.189
 5469.00    1.69052   1.68393   55.437
 5470.00    1.69075   1.67487   55.437
 5471.00    1.67857   1.66982   -2.000
 5472.00    1.66801   1.66721   -2.000
 5473.00    1.68181   1.66385   -2.000
 5474.00    1.70989   1.66255   -2.000
 5475.00    1.72471   1.65504   -2.000
 5476.00    1.72127   1.65173   -2.000
 5477.00    1.71123   1.65579   -2.000
 5478.00    1.70214   1.65929   -2.000
 5479.00    1.69453   1.66321   -2.000
 5480.00    1.68324   1.66256   -2.000
 5481.00    1.66838   1.66405   -2.000
 5482.00    1.66894   1.67231   -2.000
 5483.00    1.70428   1.68105   -2.000
 5484.00    1.76868   1.68714   -2.000
 5485.00    1.83659   1.69006   -2.000
 5486.00    1.87423   1.69257   -2.000
 5487.00    1.86005   1.69735   -2.000
 5488.00    1.80460   1.70491   -2.000
 5489.00    1.73887   1.70913   -2.000
 5490.00    1.69787   1.70985   -2.000
 5491.00    1.69705   1.70973   -2.000
 5492.00    1.71488   1.70983   -2.000
 5493.00    1.72562   1.71371   -2.000
 5494.00    1.72751   1.71521    5.791
 5495.00    1.72719   1.71118    5.817
 5496.00    1.72563   1.70754    5.785
 5497.00    1.72166   1.70622    5.735
 5498.00    1.71516   1.70655    5.867
 5499.00    1.70654   1.70535    6.079
 5500.00    1.69645   1.69751    5.773
 5501.00    1.68761   1.69155    5.366
 5502.00    1.68493   1.69179    6.465
 5503.00    1.68953   1.68957   13.587
 5504.00    1.69617   1.68715   55.437
 5505.00    1.69929   1.68099   55.437
 5506.00    1.69664   1.67528   35.227
 5507.00    1.69057   1.67897   35.142
 5508.00    1.68713   1.67879   43.394
 5509.00    1.68909   1.67794   42.156
 5510.00    1.69376   1.67889   38.635
 5511.00    1.69797   1.67750   39.393
 5512.00    1.70017   1.68460   40.956
 5513.00    1.70045   1.69044   40.737
 5514.00    1.70019   1.69286   40.520
 5515.00    1.70104   1.69916   41.269
 5516.00    1.70411   1.70233   41.867
 5517.00    1.70849   1.70856   41.773
 5518.00    1.71154   1.71581   41.683
 5519.00    1.71116   1.71805   42.070
 5520.00    1.70731   1.72189   42.798
 5521.00    1.70383   1.72327   43.331
 5522.00    1.70628   1.72276   42.949
 5523.00    1.71499   1.72544   41.369
 5524.00    1.72488   1.72554   39.427
 5525.00    1.72995   1.72501   39.717
 5526.00    1.72667   1.72370   43.954
 5527.00    1.71902   1.72013   43.719
 5528.00    1.71485   1.72165   34.219
 5529.00    1.71622   1.72308   34.697
 5530.00    1.72004   1.72417   55.437
 5531.00    1.72361   1.72556   55.437
 5532.00    1.72613   1.72478   12.658
 5533.00    1.72950   1.72952    6.195
 5534.00    1.73613   1.73412    5.240
 5535.00    1.74534   1.73820    5.645
 5536.00    1.75420   1.74306    5.843
 5537.00    1.75996   1.74454    5.685
 5538.00    1.76150   1.75070    5.788
 5539.00    1.76084   1.75725    5.725
 5540.00    1.76159   1.76064    5.216
 5541.00    1.76652   1.76554    5.552
 5542.00    1.77611   1.76872    9.392
 5543.00    1.78728   1.77286   36.532
 5544.00    1.79565   1.77819   55.437
 5545.00    1.79844   1.77998   39.099
 5546.00    1.79555   1.78184   32.097
 5547.00    1.79026   1.78425   41.137
 5548.00    1.78631   1.78448   44.840
 5549.00    1.78517   1.78530   40.177
 5550.00    1.78700   1.78545   38.867
 5551.00    1.79157   1.78273   40.055
 5552.00    1.79703   1.78034   40.352
 5553.00    1.79929   1.77767   39.948
 5554.00    1.79586   1.77373   40.066
 5555.00    1.78841   1.77069   40.527
 5556.00    1.77930   1.76483   40.786
 5557.00    1.76916   1.75824   40.776
 5558.00    1.75843   1.75494   40.740
 5559.00    1.74836   1.74929   41.005
 5560.00    1.74021   1.74388   41.546
 5561.00    1.73444   1.73843   41.853
 5562.00    1.72950   1.73239   41.789
 5563.00    1.72213   1.72991   41.910
 5564.00    1.71303   1.72582   42.237
 5565.00    1.70794   1.72328   41.926
 5566.00    1.70902   1.72077   40.946
 5567.00    1.71214   1.71687   40.361
 5568.00    1.71400   1.71835   40.350
 5569.00    1.71475   1.71839   39.979
 5570.00    1.71527   1.71847   39.167
 5571.00    1.71612   1.71960   38.900
 5572.00    1.71761   1.71734   39.395
 5573.00    1.71984   1.71953   39.858
 5574.00    1.72237   1.72198   39.817
 5575.00    1.72402   1.71888   39.543
 5576.00    1.72274   1.71735   39.522
 5577.00    1.71657   1.71483   40.082
 5578.00    1.70662   1.71017   40.807
 5579.00    1.69641   1.70789   40.810
 5580.00    1.68759   1.70020   40.298
 5581.00    1.67959   1.69057   40.236
 5582.00    1.67189   1.68567   40.469
 5583.00    1.66501   1.67652   40.068
 5584.00    1.66151   1.66946   39.196
 5585.00    1.66356   1.66408   38.718
 5586.00    1.66762   1.65443   38.654
 5587.00    1.66722   1.65085   38.451
 5588.00    1.66071   1.64642   37.966
 5589.00    1.65098   1.64314   37.464
 5590.00    1.64167   1.64729   37.247
 5591.00    1.63540   1.64595   37.452
 5592.00    1.63176   1.64553   37.813
 5593.00    1.62942   1.64923   37.981
 5594.00    1.62969   1.65258   38.130
 5595.00    1.63473   1.66136   38.571
 5596.00    1.64424   1.66603   39.050
 5597.00    1.65636   1.66720   39.199
 5598.00    1.66972   1.67640   39.347
 5599.00    1.68277   1.68468   39.930
 5600.00    1.69302   1.69184   40.607
 5601.00    1.69918   1.69899   40.852
 5602.00    1.70360   1.70347   40.861
 5603.00    1.70896   1.71326   41.001
 5604.00    1.71476   1.72094   41.111
 5605.00    1.71951   1.72514   41.004
 5606.00    1.72335   1.73060   40.993
 5607.00    1.72656   1.73412   41.279
 5608.00    1.72831   1.73691   41.427
 5609.00    1.72810   1.73406   41.136
 5610.00    1.72687   1.73165   40.866
 5611.00    1.72507   1.73280   40.915
 5612.00    1.72135   1.73019   40.839
 5613.00    1.71509   1.72458   40.442
 5614.00    1.70826   1.71426   40.346
 5615.00    1.70367   1.70904   40.695
 5616.00    1.70331   1.71030   40.565
 5617.00    1.70539   1.70603   39.797
 5618.00    1.70386   1.69911   39.712
 5619.00    1.69634   1.69406   40.648
 5620.00    1.68749   1.69503   41.025
 5621.00    1.68177   1.69858   40.156
 5622.00    1.67977   1.69771   39.483
 5623.00    1.68034   1.69625   39.868
 5624.00    1.68207   1.69818   40.781
 5625.00    1.68470   1.70408   41.508
 5626.00    1.68913   1.70823   41.718
 5627.00    1.69507   1.70883   41.334
 5628.00    1.70076   1.71165   40.540
 5629.00    1.70556   1.71531   40.024
 5630.00    1.71030   1.71776   40.622
 5631.00    1.71460   1.71862   41.936
 5632.00    1.71670   1.71774   42.322
 5633.00    1.71590   1.71888   41.623
 5634.00    1.71348   1.71971   41.319
 5635.00    1.71249   1.71681   41.605
 5636.00    1.71597   1.71510   41.440
 5637.00    1.72206   1.71437   40.912
 5638.00    1.72563   1.71409   41.050
 5639.00    1.72593   1.71447   41.720
 5640.00    1.72630   1.71141   41.843
 5641.00    1.72847   1.71146   41.383
 5642.00    1.73141   1.71430   41.176
 5643.00    1.73197   1.71365   41.349
 5644.00    1.72778   1.71413   41.439
 5645.00    1.72253   1.71492   41.287
 5646.00    1.72248   1.71627   41.114
 5647.00    1.72776   1.71852   41.261
 5648.00    1.73417   1.71585   41.813
 5649.00    1.73921   1.71278   42.017
 5650.00    1.74223   1.71453   41.191
 5651.00    1.74299   1.71437   40.370
 5652.00    1.74085   1.70947   40.790
 5653.00    1.73429   1.70429   41.855
 5654.00    1.72272   1.70151   42.237
 5655.00    1.70905   1.70211   42.104
 5656.00    1.69783   1.70010   42.268
 5657.00    1.69221   1.69240   42.528
 5658.00    1.69266   1.69067   42.346
 5659.00    1.69600   1.69586   41.908
 5660.00    1.69909   1.69740   41.594
 5661.00    1.70264   1.69574   41.329
 5662.00    1.70837   1.69716   40.981
 5663.00    1.71573   1.70370   40.769
 5664.00    1.72246   1.71162   40.872
 5665.00    1.72573   1.71604   41.065
 5666.00    1.72476   1.71946   40.884
 5667.00    1.72279   1.72761   39.919
 5668.00    1.72408   1.73627   38.417
 5669.00    1.73101   1.74133   37.358
 5670.00    1.74168   1.74616   37.261
 5671.00    1.74915   1.75231   37.721
 5672.00    1.74837   1.75876   38.220
 5673.00    1.74081   1.76197   38.638
 5674.00    1.73194   1.76218   38.988
 5675.00    1.72841   1.76463   39.219
 5676.00    1.73186   1.76640   39.394
 5677.00    1.73669   1.76499   39.737
 5678.00    1.73836   1.76304   40.169
 5679.00    1.73724   1.76176   40.206
 5680.00    1.73422   1.76083   39.960
 5681.00    1.72903   1.75692   40.304
 5682.00    1.72337   1.75275   41.271
 5683.00    1.72130   1.75267   41.634
 5684.00    1.72415   1.75291   41.029
 5685.00    1.72919   1.75103   40.552
 5686.00    1.73297   1.74919   40.702
 5687.00    1.73333   1.74855   40.970
 5688.00    1.73111   1.74987   40.924
 5689.00    1.72985   1.75037   40.549
 5690.00    1.73213   1.74935   39.899
 5691.00    1.73843   1.75016   39.048
 5692.00    1.74732   1.74845   38.351
 5693.00    1.75584   1.74586   38.270
 5694.00    1.76060   1.74303   38.810
 5695.00    1.75890   1.73816   39.532
 5696.00    1.75102   1.73522   39.967
 5697.00    1.73980   1.72765   39.967
 5698.00    1.72825   1.72059   40.173
 5699.00    1.71825   1.71679   41.148
 5700.00    1.70923   1.70650   41.081
 5701.00    1.69986   1.69969   37.795
 5702.00    1.69193   1.69443   33.795
 5703.00    1.68847   1.68736   31.816
 5704.00    1.68829   1.68665   31.242
 5705.00    1.68846   1.68119   30.776
 5706.00    1.69034   1.67761   31.412
 5707.00    1.69613   1.68200   34.982
 5708.00    1.70155   1.68141   40.258
 5709.00    1.70131   1.68690   42.135
 5710.00    1.69922   1.69489   40.498
 5711.00    1.70289   1.69847   39.489
 5712.00    1.71409   1.71099   39.790
 5713.00    1.72951   1.72190   40.224
 5714.00    1.74398   1.72988   40.178
 5715.00    1.75455   1.74370   39.801
 5716.00    1.76455   1.75384   39.757
 5717.00    1.77838   1.76350   40.360
 5718.00    1.79508   1.77465   40.748
 5719.00    1.81030   1.78218   40.169
 5720.00    1.81940   1.79034   39.470
 5721.00    1.82166   1.79726   39.531
 5722.00    1.82333   1.80088   39.944
 5723.00    1.83013   1.80501   40.032
 5724.00    1.84049   1.80904   39.843
 5725.00    1.84899   1.80959   39.715
 5726.00    1.85016   1.80859   39.802
 5727.00    1.84207   1.80983   40.006
 5728.00    1.82845   1.81174   40.006
 5729.00    1.81501   1.81228   39.805
 5730.00    1.80655   1.80958   39.959
 5731.00    1.80614   1.80798   40.502
 5732.00    1.81440   1.81094   40.453
 5733.00    1.82730   1.81108   39.616
 5734.00    1.83637   1.80941   39.268
 5735.00    1.83806   1.80971   39.733
 5736.00    1.83708   1.80985   39.645
 5737.00    1.83627   1.81085   38.724
 5738.00    1.83288   1.81002   38.590
 5739.00    1.82765   1.80775   39.695
 5740.00    1.82688   1.80899    0.000
 5741.00    1.83145   1.80891    0.000
 5742.00    1.83457   1.80572    0.000
 5743.00    1.83335   1.80454    0.000
 5744.00    1.83163   1.80364    0.000
 5745.00    1.83177   1.80214    0.000
 5746.00    1.83220   1.80017    0.000
 5747.00    1.83084   1.79525    0.000
 5748.00    1.82650   1.79288    0.000
 5749.00    1.81990   1.79386    0.000
 5750.00    1.81377   1.79169    0.000
 5751.00    1.81234   1.78860    0.000
 5752.00    1.81878   1.78667    0.000
 5753.00    1.82859   1.78401    0.000
 5754.00    1.83262   1.78414    0.000
 5755.00    1.82918   1.78547    0.000
 5756.00    1.82316   1.78442    0.000
 5757.00    1.81666   1.78552    0.000
 5758.00    1.80861   1.78763    0.000
 5759.00    1.79915   1.78818    0.000
 5760.00    1.79044   1.78967    0.000
 5761.00    1.78619   1.79086    0.000
 5762.00    1.78973   1.79259    0.000
 5763.00    1.80060   1.79753    0.000
 5764.00    1.81496   1.80100    0.000
 5765.00    1.82772   1.80125    0.000
 5766.00    1.83565   1.80230    0.000
 5767.00    1.84164   1.80404    0.000
 5768.00    1.84998   1.80299    0.000
 5769.00    1.85866   1.80173    0.000
 5770.00    1.86230   1.80008    0.000
 5771.00    1.85781   1.79531    0.000
 5772.00    1.84546   1.79142    0.000
 5773.00    1.82912   1.78573    0.000
 5774.00    1.81460   1.77765    0.000
 5775.00    1.80718   1.77174    0.000
 5776.00    1.80752   1.76255    0.000
 5777.00    1.80806   1.75426    0.000
 5778.00    1.80108   1.74959    0.000
 5779.00    1.78688   1.74006    0.000
 5780.00    1.77026   1.73257    0.000
 5781.00    1.75637   1.72881    0.000
 5782.00    1.74842   1.72561    0.000
 5783.00    1.74596   1.72663   -2.000
 5784.00    1.74432   1.72386   -2.000
 5785.00    1.73547   1.72479   -2.000
 5786.00    1.71695   1.73372   -2.000
 5787.00    1.69700   1.73715   -2.000
 5788.00    1.68383   1.74287   -2.000
 5789.00    1.67837   1.75074   -2.000
 5790.00    1.67758   1.75713   -2.000
 5791.00    1.67746   1.76900   -2.000
 5792.00    1.67692   1.77623   -2.000
 5793.00    1.67912   1.78321   -2.000
 5794.00    1.68711   1.79472   -2.000
 5795.00    1.70148   1.80108   -2.000
 5796.00    1.72095   1.80668   -2.000
 5797.00    1.74317   1.81138   -2.000
 5798.00    1.76618   1.81653   -2.000
 5799.00    1.78891   1.82345   -2.000
 5800.00    1.81022   1.82520   -2.000
 5801.00    1.82863   1.82815   -2.000
 5802.00    1.84286   1.83160   -2.000
 5803.00    1.85207   1.83054    0.000
 5804.00    1.85592   1.83144    0.000
 5805.00    1.85500   1.83176    0.000
 5806.00    1.85206   1.83188    0.000
 5807.00    1.85117   1.83299    0.000
 5808.00    1.85388   1.83171    0.000
 5809.00    1.85887   1.83275    0.000
 5810.00    1.86430   1.83393    0.000
 5811.00    1.86844   1.83249    0.000
 5812.00    1.86949   1.83384    0.000
 5813.00    1.86641   1.83564    0.000
 5814.00    1.86111   1.83643    0.000
 5815.00    1.85680   1.83745    0.000
 5816.00    1.85324   1.83945    0.000
 5817.00    1.84828   1.84353    0.000
 5818.00    1.84320   1.84620    0.000
 5819.00    1.84122   1.84783    0.000
 5820.00    1.84250   1.85110    0.000
 5821.00    1.84523   1.85383    0.000
 5822.00    1.84915   1.85506    0.000
 5823.00    1.85499   1.85665    0.000
 5824.00    1.86237   1.85933    0.000
 5825.00    1.87018   1.86079    0.000
 5826.00    1.87754   1.86116    0.000
 5827.00    1.88370   1.86202    0.000
 5828.00    1.88782   1.86275    0.000
 5829.00    1.88903   1.86232    0.000
 5830.00    1.88672   1.86093    0.000
 5831.00    1.88168   1.86068    0.000
 5832.00    1.87726   1.86140    0.000
 5833.00    1.87670   1.85973    0.000
 5834.00    1.88010   1.85740    0.000
 5835.00    1.88596   1.85761    0.000
 5836.00    1.89293   1.85738    0.000
 5837.00    1.89834   1.85410    0.000
 5838.00    1.89720   1.85128    0.000
 5839.00    1.88706   1.85038    0.000
 5840.00    1.87203   1.84797    0.000
 5841.00    1.85841   1.84365    0.000
 5842.00    1.85049   1.83960    0.000
 5843.00    1.84787   1.83474    0.000
 5844.00    1.84456   1.82870    0.000
 5845.00    1.83551   1.82195    0.000
 5846.00    1.82097   1.81464    0.000
 5847.00    1.80402   1.80799    0.000
 5848.00    1.78858   1.79983    0.000
 5849.00    1.77821   1.79116    0.000
 5850.00    1.77505   1.78490    0.000
 5851.00    1.77749   1.77731    0.000
 5852.00    1.78006   1.76930    0.000
 5853.00    1.77921   1.76304    0.000
 5854.00    1.77580   1.75848    0.000
 5855.00    1.77251   1.75574    0.000
 5856.00    1.77186   1.75084    0.000
 5857.00    1.77385   1.74747    0.000
 5858.00    1.77589   1.74867    0.000
 5859.00    1.77728   1.74917    0.000
 5860.00    1.77966   1.75074    0.000
 5861.00    1.78181   1.75248    0.000
 5862.00    1.77972   1.75421    0.000
 5863.00    1.77365   1.75886    0.000
 5864.00    1.76866   1.76199    0.000
 5865.00    1.76835   1.76334    0.000
 5866.00    1.77272   1.76660    0.000
 5867.00    1.77833   1.77002    0.000
 5868.00    1.77996   1.77210    0.000
 5869.00    1.77497   1.77250    0.000
 5870.00    1.76431   1.77183    0.000
 5871.00    1.75185   1.76991    0.000
 5872.00    1.74212   1.76572    0.000
 5873.00    1.73565   1.76124    0.000
 5874.00    1.72977   1.75518    0.000
 5875.00    1.72274   1.74550    0.000
 5876.00    1.71394   1.73479    0.000
 5877.00    1.70247   1.72221    0.000
 5878.00    1.68697   1.70687    0.000
 5879.00    1.66576   1.68920    0.000
 5880.00    1.63828   1.66710    0.000
 5881.00    1.60708   1.64524    0.000
 5882.00    1.57569   1.62587    0.000
 5883.00    1.54457   1.60037    0.000
 5884.00    1.51184   1.57481    0.000
 5885.00    1.47533   1.55464    0.000
 5886.00    1.43615   1.52898    0.000
 5887.00    1.40248   1.50570    0.000
 5888.00    1.38214   1.48726    0.000
 5889.00    1.37311   1.46609    0.000
 5890.00    1.36834   1.45888    0.000
 5891.00    1.36300   1.45663    0.000
 5892.00    1.35715   1.44915    0.000
 5893.00    1.35713   1.45665    0.000
 5894.00    1.36842   1.46322    0.000
 5895.00    1.38880   1.46504    0.000
 5896.00    1.41279   1.48571    0.000
 5897.00    1.43645   1.50669    0.000
 5898.00    1.45858   1.52275    0.000
 5899.00    1.48112   1.54799    0.000
 5900.00    1.50679   1.57120    0.000
 5901.00    1.53691   1.59185   42.462
 5902.00    1.56937   1.61404   41.902
 5903.00    1.59831   1.63234   41.693
 5904.00    1.62039   1.65041   41.819
 5905.00    1.63851   1.66798   42.244
 5906.00    1.65750   1.68111   42.780
 5907.00    1.68054   1.69280   43.047
 5908.00    1.70501   1.70440   42.920
 5909.00    1.72215   1.71145   42.714
 5910.00    1.72713   1.71649   42.620
 5911.00    1.72348   1.72412   42.499
 5912.00    1.71789   1.72715   42.310
 5913.00    1.71632   1.72749   42.242
 5914.00    1.71879   1.73232   42.334
 5915.00    1.71923   1.73390   42.363
 5916.00    1.71410   1.73565   42.072
 5917.00    1.70561   1.73949   41.386
 5918.00    1.69950   1.73894   40.742
 5919.00    1.70179   1.74233   40.797
 5920.00    1.71047   1.74539   41.259
 5921.00    1.71659   1.74308   41.030
 5922.00    1.71752   1.74657   40.248
 5923.00    1.71821   1.74907   40.136
 5924.00    1.72138   1.74861   40.744
 5925.00    1.72564   1.75147   40.989
 5926.00    1.72890   1.75082   40.560
 5927.00    1.73028   1.75216   40.132
 5928.00    1.73243   1.75426   40.198
 5929.00    1.73919   1.75114   40.793
 5930.00    1.74896   1.75340   41.439
 5931.00    1.75606   1.75612   41.474
 5932.00    1.75721   1.75496   41.040
 5933.00    1.75251   1.75549   40.827
 5934.00    1.74458   1.75481   41.127
 5935.00    1.73754   1.75727   41.801
 5936.00    1.73561   1.75916   42.476
 5937.00    1.74072   1.75642   42.790
 5938.00    1.74904   1.75948   42.845
 5939.00    1.75403   1.76167   42.957
 5940.00    1.75214   1.75804   43.093
 5941.00    1.74373   1.75888   43.070
 5942.00    1.73276   1.76072   42.982
 5943.00    1.72398   1.75987   43.040
 5944.00    1.71921   1.75946   43.263
 5945.00    1.71846   1.75880   43.504
 5946.00    1.72195   1.75911   43.556
 5947.00    1.72940   1.75866   43.302
 5948.00    1.73893   1.75530   42.877
 5949.00    1.74754   1.75520   42.479
 5950.00    1.75200   1.75836   42.172
 5951.00    1.75136   1.75692   41.883
 5952.00    1.74905   1.75472   41.446
 5953.00    1.74780   1.75794   40.863
 5954.00    1.74524   1.76067   40.458
 5955.00    1.73968   1.76112   40.365
 5956.00    1.73483   1.76253   40.198
 5957.00    1.73460   1.76560   39.823
 5958.00    1.73892   1.77019   39.839
 5959.00    1.74659   1.77304   40.527
 5960.00    1.75737   1.77610   41.179
 5961.00    1.76985   1.78086   41.193
 5962.00    1.78026   1.78346   40.919
 5963.00    1.78556   1.78682   40.837
 5964.00    1.78544   1.78944   41.023
 5965.00    1.78195   1.78983   41.457
 5966.00    1.77877   1.79316   42.147
 5967.00    1.77839   1.79432   42.781
 5968.00    1.78050   1.79328   42.693
 5969.00    1.78215   1.79379   41.968
 5970.00    1.77889   1.79288   41.607
 5971.00    1.76967   1.79072   41.963
 5972.00    1.75828   1.78771   42.422
 5973.00    1.74940   1.78508   42.718
 5974.00    1.74643   1.78260   43.265
 5975.00    1.74971   1.77734   43.825
 5976.00    1.75632   1.77407   43.406
 5977.00    1.76173   1.77184   42.273
 5978.00    1.76171   1.76810   41.838
 5979.00    1.75651   1.76651   42.378
 5980.00    1.75054   1.76364   42.920
 5981.00    1.74676   1.76222   42.684
 5982.00    1.74518   1.76240   41.699
 5983.00    1.74374   1.75853   40.691
 5984.00    1.74000   1.75903   40.463
 5985.00    1.73475   1.76250   40.873
 5986.00    1.73110   1.76171   41.113
 5987.00    1.73005   1.76242   40.969
 5988.00    1.73091   1.76455   40.774
 5989.00    1.73475   1.76689   40.480
 5990.00    1.74304   1.76742   39.918
 5991.00    1.75315   1.76596   39.709
 5992.00    1.76017   1.76903   40.564
 5993.00    1.76234   1.76983   41.688
 5994.00    1.76062   1.76737   41.570
 5995.00    1.75607   1.76790   40.674
 5996.00    1.74978   1.76524   40.452
 5997.00    1.74347   1.76342   41.045
 5998.00    1.73895   1.76298   41.800
 5999.00    1.73712   1.75838   42.389
 6000.00    1.73756   1.75828   42.732
 6001.00    1.73832   1.75557   42.593
 6002.00    1.73733   1.74903   41.971
 6003.00    1.73427   1.75061   41.567
 6004.00    1.72950   1.74743   41.928
 6005.00    1.72258   1.74246   42.521
 6006.00    1.71331   1.74398   42.566
 6007.00    1.70307   1.73881   42.203
 6008.00    1.69488   1.73652   41.882
 6009.00    1.69286   1.73914   41.591
 6010.00    1.69822   1.73609   41.213
 6011.00    1.70602   1.73612   40.891
 6012.00    1.71151   1.73484   40.833
 6013.00    1.71562   1.73308   41.113
 6014.00    1.72113   1.73774   41.549
 6015.00    1.72886   1.73644   41.660
 6016.00    1.73670   1.73555   41.293
 6017.00    1.73967   1.74160   41.009
 6018.00    1.73513   1.74290   41.156
 6019.00    1.72588   1.74449   41.357
 6020.00    1.71590   1.74954   41.237
 6021.00    1.70767   1.75434   40.901
 6022.00    1.70369   1.76024   40.642
 6023.00    1.70716   1.76366   40.674
 6024.00    1.71931   1.76998   40.851
 6025.00    1.73794   1.77879   40.684
 6026.00    1.75763   1.78252   40.314
 6027.00    1.77126   1.78833   40.628
 6028.00    1.77595   1.79676   41.547
 6029.00    1.77498   1.80191   41.634
 6030.00    1.77327   1.80628   40.760
 6031.00    1.77491   1.81202   40.588
 6032.00    1.78206   1.81767   41.492
 6033.00    1.79413   1.82141   42.081
 6034.00    1.80657   1.82479   41.862
 6035.00    1.81267   1.82884   41.863
 6036.00    1.81121   1.83160   42.293
 6037.00    1.80683   1.83434   42.289
 6038.00    1.80261   1.83639   41.874
 6039.00    1.79848   1.83798   41.957
 6040.00    1.79432   1.84081   42.425
 6041.00    1.79086   1.84106   42.259
 6042.00    1.78961   1.84186   41.520
 6043.00    1.79175   1.84458   41.160
 6044.00    1.79545   1.84382   41.218
 6045.00    1.79696   1.84309   40.992
 6046.00    1.79479   1.84430   40.283
 6047.00    1.79017   1.84293   39.509
 6048.00    1.78579   1.84066   39.241
 6049.00    1.78451   1.83995   39.736
 6050.00    1.78720   1.83797   40.174
 6051.00    1.79232   1.83535   39.500
 6052.00    1.79593   1.83258   38.485
 6053.00    1.79494   1.82941   38.430
 6054.00    1.79233   1.82758   38.959
 6055.00    1.79282   1.82509   39.002
 6056.00    1.79497   1.82174   38.876
 6057.00    1.79552   1.82103   39.465
 6058.00    1.79730   1.81989   40.534
 6059.00    1.80332   1.81804   41.293
 6060.00    1.80764   1.81938   41.679
 6061.00    1.80320   1.81860   41.996
 6062.00    1.79259   1.81853   42.088
 6063.00    1.78228   1.82249   41.894
 6064.00    1.77441   1.82164   42.133
 6065.00    1.76921   1.82315   43.089
 6066.00    1.76831   1.82903   43.297
 6067.00    1.77248   1.82953   41.860
 6068.00    1.77923   1.83157   40.682
 6069.00    1.78565   1.83417   41.140
 6070.00    1.79123   1.83364   41.996
 6071.00    1.79659   1.83532   41.909
 6072.00    1.80210   1.83408   41.766
 6073.00    1.80654   1.83221   42.322
 6074.00    1.80661   1.83159   42.429
 6075.00    1.80065   1.82614   41.485
 6076.00    1.79114   1.82395   40.952
 6077.00    1.78170   1.82114   41.387
 6078.00    1.77492   1.81277   41.134
 6079.00    1.77163   1.81139   39.674
 6080.00    1.77080   1.80865   38.997
 6081.00    1.77133   1.79963   39.856
 6082.00    1.77286   1.79810   40.598
 6083.00    1.77394   1.79675   40.238
 6084.00    1.77165   1.79083   40.010
 6085.00    1.76432   1.78959   40.583
 6086.00    1.75306   1.78772   41.091
 6087.00    1.74220   1.78531   41.044
 6088.00    1.73770   1.78605   41.062
 6089.00    1.73978   1.78302   41.521
 6090.00    1.74215   1.78139   42.121
 6091.00    1.74141   1.78449   42.546
 6092.00    1.73954   1.78208   42.741
 6093.00    1.73924   1.77960   42.836
 6094.00    1.74170   1.78368   43.003
 6095.00    1.74514   1.78219   43.134
 6096.00    1.74616   1.77847   42.936
 6097.00    1.74498   1.78208   42.557
 6098.00    1.74515   1.78063   42.466
 6099.00    1.74802   1.77771   42.628
 6100.00    1.75211   1.78317   42.603
 6101.00    1.75564   1.78009   42.373
 6102.00    1.75747   1.77644   42.251
 6103.00    1.75749   1.78445   42.130
 6104.00    1.75686   1.78364   41.671
 6105.00    1.75816   1.78319   41.067
 6106.00    1.76337   1.78956   40.735
 6107.00    1.76981   1.78626   40.499
 6108.00    1.77294   1.78852   39.971
 6109.00    1.77325   1.79443   39.486
 6110.00    1.77385   1.78954   39.589
 6111.00    1.77417   1.79144   39.993
 6112.00    1.77196   1.79343   40.033
 6113.00    1.76817   1.78828   39.758
 6114.00    1.76487   1.79074   39.607
 6115.00    1.76104   1.78737   39.651
 6116.00    1.75459   1.78107   39.773
 6117.00    1.74601   1.78448   40.062
 6118.00    1.73785   1.77810   40.680
 6119.00    1.73318   1.77211   41.604
 6120.00    1.73356   1.77595   42.619
 6121.00    1.73697   1.76775   43.346
 6122.00    1.74017   1.76296   43.520
 6123.00    1.74152   1.76849   43.324
 6124.00    1.74123   1.76259   43.054
 6125.00    1.74109   1.75828   42.742
 6126.00    1.74232   1.76106   42.250
 6127.00    1.74376   1.75635   41.423
 6128.00    1.74461   1.75361   40.371
 6129.00    1.74663   1.75500   39.572
 6130.00    1.75081   1.75091   39.315
 6131.00    1.75480   1.74912   39.408
 6132.00    1.75522   1.74957   39.572
 6133.00    1.74980   1.74532   39.734
 6134.00    1.73980   1.74495   39.937
 6135.00    1.73075   1.74644   40.246
 6136.00    1.72679   1.74298   40.506
 6137.00    1.72732   1.74424   40.295
 6138.00    1.72945   1.74911   39.694
 6139.00    1.73018   1.75084   39.472
 6140.00    1.72946   1.75235   39.931
 6141.00    1.73071   1.75422   40.475
 6142.00    1.73473   1.75756   40.488
 6143.00    1.73779   1.76106   39.938
 6144.00    1.73761   1.76148   39.516
 6145.00    1.73561   1.76195   40.201
 6146.00    1.73354   1.76274   41.565
 6147.00    1.73171   1.76046   41.492
 6148.00    1.72797   1.75676   39.817
 6149.00    1.71861   1.75399   38.763
 6150.00    1.70320   1.74828   39.156
 6151.00    1.68546   1.73978   40.191
 6152.00    1.66996   1.73441   41.105
 6153.00    1.66043   1.72586   41.721
 6154.00    1.65862   1.71242   42.211
 6155.00    1.66309   1.70437   42.830
 6156.00    1.66719   1.69546   43.378
 6157.00    1.66224   1.68127   43.381
 6158.00    1.64759   1.67265   43.153
 6159.00    1.63023   1.66477   43.414
 6160.00    1.61695   1.65331   43.683
 6161.00    1.61083   1.64681   42.889
 6162.00    1.60823   1.64102   41.757
 6163.00    1.60330   1.63680   41.747
 6164.00    1.59866   1.63787   42.431
 6165.00    1.60143   1.63430   42.244
 6166.00    1.61095   1.63384   41.106
 6167.00    1.61965   1.64152   40.098
 6168.00    1.61927   1.64217   39.830
 6169.00    1.60565   1.64303   40.354
 6170.00    1.58440   1.65324   -1.000
 6171.00    1.56573   1.66020   -1.000
 6172.00    1.55495   1.66346   -1.000
 6173.00    1.55200   1.66991   -1.000
 6174.00    1.55324   1.67784   -1.000
 6175.00    1.55532   1.68355   -1.000
 6176.00    1.55984   1.68528   -1.000
 6177.00    1.57050   1.69095   -1.000
 6178.00    1.58868   1.69740   -1.000
 6179.00    1.61159   1.69495   -1.000
 6180.00    1.63121   1.69662   40.271
 6181.00    1.64127   1.70070   41.098
 6182.00    1.64403   1.69590   42.370
 6183.00    1.64369   1.69531   43.098
 6184.00    1.63955   1.69539   43.486
 6185.00    1.63008   1.69000   -1.000
 6186.00    1.61714   1.69036   -1.000
 6187.00    1.60565   1.68683   -2.000
 6188.00    1.60255   1.68237   -2.000
 6189.00    1.61202   1.68661   -2.000
 6190.00    1.63240   1.68237   -2.000
 6191.00    1.65996   1.67912   -2.000
 6192.00    1.69105   1.68602   -2.000
 6193.00    1.71669   1.68519   -2.000
 6194.00    1.72175   1.68524   -2.000
 6195.00    1.70308   1.69050   -2.000
 6196.00    1.67740   1.69109   -2.000
 6197.00    1.66133   1.69451   -2.000
 6198.00    1.65988   1.69767   -2.000
 6199.00    1.66907   1.69762   37.633
 6200.00    1.67930   1.70124   36.952
 6201.00    1.68372   1.70255   37.426
 6202.00    1.68176   1.70213   38.379
 6203.00    1.67630   1.70248   39.324
 6204.00    1.67155   1.69961   40.710
 6205.00    1.66969   1.69810   42.405
 6206.00    1.66960   1.69453   43.219
 6207.00    1.66769   1.68812   43.095
 6208.00    1.65983   1.68559   43.449
 6209.00    1.64671   1.67813   44.367
 6210.00    1.63380   1.66958   44.378
 6211.00    1.62481   1.66687   43.479
 6212.00    1.62041   1.65748   43.165
 6213.00    1.62112   1.64936   43.425
 6214.00    1.62651   1.64719   42.964
 6215.00    1.63051   1.63850   41.967
 6216.00    1.62319   1.63355   41.796
 6217.00    1.59846   1.63227   42.667
 6218.00    1.55811   1.62563   -1.000
 6219.00    1.51586   1.62381   -1.000
 6220.00    1.49125   1.62201   -1.000
 6221.00    1.49402   1.61841   -1.000
 6222.00    1.52070   1.62032   -1.000
 6223.00    1.55523   1.61725   40.019
 6224.00    1.57935   1.61513   40.351
 6225.00    1.59123   1.61929   41.005
 6226.00    1.59850   1.61540   41.152
 6227.00    1.60022   1.61394   41.419
 6228.00    1.59226   1.61908   42.776
 6229.00    1.58053   1.61500   44.130
 6230.00    1.57493   1.61313   43.688
 6231.00    1.57749   1.61835   42.510
 6232.00    1.58504   1.61619   42.463
 6233.00    1.59525   1.61353   43.282
 6234.00    1.60685   1.61726   43.766
 6235.00    1.61866   1.61690   43.644
 6236.00    1.62902   1.61169   43.371
 6237.00    1.63524   1.61358   43.403
 6238.00    1.63490   1.61552   43.861
 6239.00    1.62725   1.60755   44.295
 6240.00    1.61416   1.60822   44.342
 6241.00    1.60042   1.61241   44.406
 6242.00    1.59039   1.60285   44.746
 6243.00    1.58487   1.60213   44.666
 6244.00    1.58231   1.60713   43.744
 6245.00    1.58029   1.59804   42.778
 6246.00    1.57729   1.59643   42.302
 6247.00    1.57387   1.60077   41.770
 6248.00    1.57095   1.59306   40.998
 6249.00    1.56861   1.59093   40.856
 6250.00    1.56675   1.59429   41.346
 6251.00    1.56559   1.58865   40.701
 6252.00    1.56567   1.58691   38.425
 6253.00    1.56768   1.59080   36.392
 6254.00    1.57147   1.58836   35.502
 6255.00    1.57581   1.58807   35.115
 6256.00    1.58053   1.59422   35.014
 6257.00    1.58715   1.59494   35.981
 6258.00    1.59611   1.59607   38.307
 6259.00    1.60600   1.60542   40.954
 6260.00    1.61608   1.61000   42.638
 6261.00    1.62683   1.61170   43.044
 6262.00    1.63667   1.62128   42.823
 6263.00    1.64220   1.62894   42.976
 6264.00    1.64442   1.63097   43.781
 6265.00    1.64866   1.63815   44.626
 6266.00    1.65529   1.64682   44.928
 6267.00    1.65903   1.64936   44.601
 6268.00    1.65869   1.65404   44.115
 6269.00    1.65829   1.66150   44.079
 6270.00    1.66016   1.66313   44.229
 6271.00    1.66318   1.66633   43.723
 6272.00    1.66445   1.67258   42.866
 6273.00    1.66152   1.67274   42.670
 6274.00    1.65681   1.67524   42.765
 6275.00    1.65562   1.68034   41.944
 6276.00    1.65854   1.67957   40.640
 6277.00    1.66171   1.68239   40.188
 6278.00    1.66174   1.68638   40.562
 6279.00    1.65759   1.68566   40.852
 6280.00    1.65179   1.68907    0.000
 6281.00    1.64902   1.69149    0.000
 6282.00    1.65291   1.69171    0.000
 6283.00    1.66403   1.69520    0.000
 6284.00    1.67778   1.69556    0.000
 6285.00    1.68783   1.69632    0.000
 6286.00    1.69241   1.69805    0.000
 6287.00    1.69269   1.69650    0.000
 6288.00    1.68887   1.69744    0.000
 6289.00    1.68054   1.69627    0.000
 6290.00    1.66822   1.69320    0.000
 6291.00    1.65455   1.69382    0.000
 6292.00    1.64524   1.69038    0.000
 6293.00    1.64389   1.68689    0.000
 6294.00    1.64606   1.68723    0.000
 6295.00    1.64546   1.68345    0.000
 6296.00    1.64168   1.68080    0.000
 6297.00    1.63843   1.68104    0.000
 6298.00    1.64055   1.67826    0.000
 6299.00    1.64970   1.67752    0.000
 6300.00    1.66104   1.67892    0.000
 6301.00    1.66952   1.67721    0.000
 6302.00    1.67523   1.67691    0.000
 6303.00    1.68006   1.67995    0.000
 6304.00    1.68452   1.67990    0.000
 6305.00    1.68808   1.67829    0.000
 6306.00    1.68978   1.68140    0.000
 6307.00    1.68901   1.68234    0.000
 6308.00    1.68611   1.67868    0.000
 6309.00    1.68261   1.68121    0.000
 6310.00    1.68092   1.68295    0.000
 6311.00    1.68205   1.67701    0.000
 6312.00    1.68452   1.67909    0.000
 6313.00    1.68650   1.68291    0.000
 6314.00    1.68711   1.67632    0.000
 6315.00    1.68697   1.67766    0.000
 6316.00    1.68766   1.68398    0.000
 6317.00    1.68851   1.67976    0.000
 6318.00    1.68643   1.68084    0.000
 6319.00    1.68234   1.68838    0.000
 6320.00    1.68191   1.68749    0.000
 6321.00    1.68683   1.68910   42.832
 6322.00    1.69273   1.69648   43.044
 6323.00    1.69533   1.69675   42.909
 6324.00    1.69313   1.69866   42.704
 6325.00    1.68863   1.70524   42.698
 6326.00    1.68692   1.70438   42.926
 6327.00    1.69040   1.70575   43.011
 6328.00    1.69753   1.71039   42.457
 6329.00    1.70456   1.70773   41.688
 6330.00    1.70781   1.70878   41.603
 6331.00    1.70831   1.71060   41.958
 6332.00    1.70969   1.70596   41.742
 6333.00    1.70994   1.70753   41.209
 6334.00    1.70463   1.70798   41.383
 6335.00    1.69894   1.70253   41.885
 6336.00    1.70271   1.70454   41.515
 6337.00    1.71399   1.70485   40.707
 6338.00    1.72234   1.70081   40.739
 6339.00    1.72255   1.70298   41.450
 6340.00    1.71616   1.70239   41.812
 6341.00    1.70888   1.70057   41.797
 6342.00    1.70671   1.70317   42.043
 6343.00    1.71027   1.70146   42.536
 6344.00    1.71540   1.70074   42.888
 6345.00    1.71599   1.70262   43.158
 6346.00    1.70785   1.69993   43.543
 6347.00    1.69350   1.69881   43.697
 6348.00    1.67886   1.69815   43.252
 6349.00    1.66789   1.69445   42.638
 6350.00    1.66207   1.69240   42.404
 6351.00    1.66090   1.68831   42.392
 6352.00    1.66383   1.68379   42.109
 6353.00    1.67211   1.68204   41.264
 6354.00    1.68488   1.67592   39.982
 6355.00    1.69521   1.67097   38.814
 6356.00    1.69627   1.67083   38.261
 6357.00    1.68782   1.66609   38.491
 6358.00    1.67525   1.66266   39.219
 6359.00    1.66728   1.66481   39.573
 6360.00    1.66842   1.66379   39.154
 6361.00    1.67360   1.66438   38.883
 6362.00    1.67631   1.66924   39.473
 6363.00    1.67526   1.67201   40.428
 6364.00    1.67257   1.67694   41.044
 6365.00    1.67174   1.68397   41.285
 6366.00    1.67511   1.68918   41.456
 6367.00    1.68255   1.69646   41.828
 6368.00    1.69384   1.70384   42.414
 6369.00    1.70953   1.70999   42.854
 6370.00    1.72709   1.71752   42.585
 6371.00    1.74018   1.72269   41.362
 6372.00    1.74699   1.72785   40.760
 6373.00    1.75265   1.73461   43.350
 6374.00    1.75879   1.73649   45.198
 6375.00    1.76027   1.73922   37.322
 6376.00    1.75448   1.74474   33.189
 6377.00    1.74464   1.74389   55.437
 6378.00    1.73451   1.74432   55.437
 6379.00    1.72683   1.74872   19.434
 6380.00    1.72584   1.74609    7.278
 6381.00    1.73561   1.74456    5.304
 6382.00    1.75078   1.74809    5.447
 6383.00    1.75838   1.74485    5.829
 6384.00    1.75501   1.74194    5.735
 6385.00    1.74868   1.74477    5.766
 6386.00    1.74645   1.74119    5.863
 6387.00    1.75015   1.73741    5.416
 6388.00    1.75526   1.74041    5.277
 6389.00    1.75434   1.73635    7.380
 6390.00    1.74616   1.73132   20.397
 6391.00    1.73568   1.73582   55.437
 6392.00    1.72813   1.73306   53.787
 6393.00    1.72627   1.72679   32.787
 6394.00    1.72792   1.73251   37.854
 6395.00    1.72905   1.73150   43.812
 6396.00    1.73125   1.72425   40.345
 6397.00    1.73828   1.73068   39.031
 6398.00    1.74692   1.73185   41.421
 6399.00    1.75026   1.72590   42.241
 6400.00    1.74647   1.73208   40.776
 6401.00    1.73848   1.73252   40.127
 6402.00    1.73083   1.72868   40.578
 6403.00    1.72774   1.73489   40.835
 6404.00    1.73103   1.73270   40.671
 6405.00    1.73993   1.73058   40.536
 6406.00    1.75130   1.73757   40.378
 6407.00    1.76040   1.73306   40.009
 6408.00    1.76198   1.73101   39.710
 6409.00    1.75453   1.73819   39.801
 6410.00    1.74445   1.73335   40.111
 6411.00    1.73938   1.73117   40.233
 6412.00    1.74031   1.73776   39.916
 6413.00    1.74323   1.73420   39.370
 6414.00    1.74213   1.73194   39.366
 6415.00    1.73502   1.73727   40.323
 6416.00    1.72825   1.73608   41.527
 6417.00    1.72732   1.73396   41.852
 6418.00    1.72919   1.73769   40.882
 6419.00    1.73033   1.73968   39.305
 6420.00    1.73305   1.73827   38.467
 6421.00    1.73883   1.73976   38.604
 6422.00    1.74375   1.74343   38.332
 6423.00    1.74310   1.74265   37.951
 6424.00    1.73539   1.74261   40.657
 6425.00    1.72487   1.74706   44.667
 6426.00    1.72117   1.74619   38.473
 6427.00    1.72813   1.74509   32.409
 6428.00    1.73879   1.74957   49.871
 6429.00    1.74502   1.74881   55.437
 6430.00    1.74345   1.74829   22.671
 6431.00    1.73695   1.75206    7.768
 6432.00    1.73359   1.75067    5.375
 6433.00    1.73851   1.75155    5.419
 6434.00    1.75071   1.75486    5.838
 6435.00    1.76632   1.75287    5.718
 6436.00    1.78029   1.75461    5.646
 6437.00    1.78714   1.75745    5.739
 6438.00    1.78287   1.75585    5.383
 6439.00    1.77031   1.75705    5.182
 6440.00    1.75848   1.75801    6.893
 6441.00    1.75332   1.75744   17.193
 6442.00    1.75472   1.75716   55.437
 6443.00    1.75757   1.75538   53.896
 6444.00    1.75463   1.75651   31.115
 6445.00    1.74380   1.75500   35.329
 6446.00    1.72910   1.75046   42.787
 6447.00    1.71721   1.75357   39.918
 6448.00    1.71370   1.75239   37.541
 6449.00    1.71637   1.74644   39.075
 6450.00    1.71765   1.75099   40.139
 6451.00    1.71408   1.75156   39.449
 6452.00    1.70784   1.74536   39.441
 6453.00    1.70528   1.75034   40.214
 6454.00    1.71213   1.75381   40.097
 6455.00    1.72539   1.74819   39.292
 6456.00    1.73713   1.75185   39.115
 6457.00    1.74437   1.75806   39.432
 6458.00    1.74786   1.75376   39.420
 6459.00    1.74729   1.75496   39.419
 6460.00    1.74272   1.76277   40.100
 6461.00    1.73802   1.76011   40.707
 6462.00    1.73862   1.75865   40.076
 6463.00    1.74755   1.76665   38.778
 6464.00    1.76343   1.76549   37.975
 6465.00    1.77904   1.76170   37.858
 6466.00    1.78645   1.76887   38.115
 6467.00    1.78355   1.76918   38.458
 6468.00    1.77418   1.76355   38.712
 6469.00    1.76678   1.76858   38.866
 6470.00    1.76754   1.77000   38.954
 6471.00    1.77369   1.76342   38.934
 6472.00    1.77866   1.76530   38.828
 6473.00    1.77791   1.76695   38.849
 6474.00    1.77123   1.76008   39.109
 6475.00    1.76366   1.75846   39.382
 6476.00    1.75978   1.75928   39.470
 6477.00    1.75897   1.75263   39.530
 6478.00    1.75762   1.74796   39.849
 6479.00    1.75167   1.74717   40.616
 6480.00    1.74096   1.74043   41.593
 6481.00    1.73127   1.73297   41.941
 6482.00    1.72722   1.73018   41.387
 6483.00    1.72764   1.72307   40.833
 6484.00    1.72723   1.71308   40.825
 6485.00    1.71946   1.70846   40.902
 6486.00    1.70613   1.70106   40.676
 6487.00    1.69935   1.68953   40.350
 6488.00    1.70294   1.68422   40.132
 6489.00    1.70615   1.67733   39.936
 6490.00    1.70187   1.66642   39.468
 6491.00    1.69363   1.66273   38.499
 6492.00    1.68611   1.65799   37.682
 6493.00    1.68094   1.65026   38.213
 6494.00    1.67811   1.65047   39.741
 6495.00    1.67675   1.64955   40.069
 6496.00    1.67573   1.64693   39.083
 6497.00    1.67430   1.65210   39.190
 6498.00    1.67378   1.65538   40.765
 6499.00    1.67664   1.65772   41.669
 6500.00    1.68221   1.66688   41.053
 6501.00    1.68695   1.67331   40.314
 6502.00    1.68976   1.67847   40.201
 6503.00    1.69289   1.68899   40.444
 6504.00    1.69974   1.69661   40.782
 6505.00    1.71224   1.70175   41.102
 6506.00    1.72583   1.71089   41.117
 6507.00    1.73305   1.71810   40.612
 6508.00    1.73479   1.72130   40.146
 6509.00    1.73804   1.72751   40.459
 6510.00    1.74513   1.73358   41.077
 6511.00    1.75342   1.73448   40.840
 6512.00    1.75947   1.73776   39.844
 6513.00    1.76148   1.74274   39.107
 6514.00    1.76219   1.74215   39.254
 6515.00    1.76532   1.74355   40.249
 6516.00    1.76887   1.74768   41.025
 6517.00    1.76863   1.74665   40.354
 6518.00    1.76532   1.74745   38.809
 6519.00    1.76241   1.75084   37.674
 6520.00    1.76128   1.74995   37.296
 6521.00    1.76141   1.75100   37.506
 6522.00    1.76183   1.75362   38.140
 6523.00    1.76336   1.75296   38.932
 6524.00    1.77068   1.75441   39.336
 6525.00    1.78497   1.75629   39.048
 6526.00    1.79596   1.75580   38.638
 6527.00    1.79332   1.75729   38.751
 6528.00    1.77950   1.75853    0.000
 6529.00    1.76468   1.75820    0.000
 6530.00    1.75950   1.75910    0.000
 6531.00    1.76694   1.75964    0.000
 6532.00    1.77680   1.75940    0.000
 6533.00    1.77948   1.75898    0.000
 6534.00    1.77749   1.75854    0.000
 6535.00    1.77725   1.75803    0.000
 6536.00    1.78199   1.75570    0.000
 6537.00    1.79186   1.75381    0.000
 6538.00    1.80452   1.75247    0.000
 6539.00    1.81581   1.74788    0.000
 6540.00    1.82078   1.74422    0.000
 6541.00    1.81742   1.74149    0.000
 6542.00    1.80854   1.73482    0.000
 6543.00    1.79872   1.72920    0.000
 6544.00    1.79174   1.72470    0.000
 6545.00    1.78703   1.71658    0.000
 6546.00    1.77938   1.70890    0.000
 6547.00    1.76714   1.70224    0.000
 6548.00    1.75447   1.69373    0.000
 6549.00    1.74298   1.68396    0.000
 6550.00    1.72826   1.67472    0.000
 6551.00    1.70205   1.66725    0.000
 6552.00    1.65740   1.65590    0.000
 6553.00    1.60403   1.64394    0.000
 6554.00    1.56706   1.63937    0.000
 6555.00    1.56047   1.62814    0.000
 6556.00    1.57982   1.61409    0.000
 6557.00    1.61133   1.61421    0.000
 6558.00    1.63854   1.60605    0.000
 6559.00    1.65259   1.59152    0.000
 6560.00    1.65401   1.59727    0.000
 6561.00    1.64881   1.59509    0.000
 6562.00    1.64423   1.58222    0.000
 6563.00    1.64115   1.59281    0.000
 6564.00    1.63623   1.59784    0.000
 6565.00    1.63188   1.58837    0.000
 6566.00    1.63414   1.60158    0.000
 6567.00    1.64249   1.61240    0.000
 6568.00    1.65137   1.60688    0.000
 6569.00    1.65838   1.62010    0.000
 6570.00    1.66519   1.63355    0.000
 6571.00    1.67591   1.63141    0.000
 6572.00    1.69418   1.64299    0.000
 6573.00    1.71872   1.65584    0.000
 6574.00    1.74405   1.65578    0.000
 6575.00    1.76318   1.66526    0.000
 6576.00    1.77161   1.67538    0.000
 6577.00    1.77220   1.67595    0.000
 6578.00    1.77101   1.68361    0.000
 6579.00    1.77024   1.69013    0.000
 6580.00    1.76959   1.69004    0.000
 6581.00    1.76919   1.69626    0.000
 6582.00    1.76897   1.69928    0.000
 6583.00    1.76753   1.69758    0.000
 6584.00    1.76334   1.70265    0.000
 6585.00    1.75620   1.70307    0.000
 6586.00    1.74820   1.69941    0.000
 6587.00    1.74389   1.70357    0.000
 6588.00    1.74535   1.70286    0.000
 6589.00    1.74803   1.69766    0.000
 6590.00    1.74758   1.70119    0.000
 6591.00    1.74571   1.70095    0.000
 6592.00    1.74481   1.69519    0.000
 6593.00    1.74354   1.69825    0.000
 6594.00    1.74063   1.69949    0.000
 6595.00    1.73760   1.69428    0.000
 6596.00    1.73523   1.69682    0.000
 6597.00    1.73158   1.69952    0.000
 6598.00    1.72603   1.69558    0.000
 6599.00    1.72153   1.69739    0.000
 6600.00    1.72111   1.70084    0.000
 6601.00    1.72573   1.69848    0.000
 6602.00    1.73434   1.69958    0.000
 6603.00    1.74401   1.70296    0.000
 6604.00    1.75000   1.70220    0.000
 6605.00    1.74757   1.70302    0.000
 6606.00    1.74036   1.70591    0.000
 6607.00    1.74010   1.70651    0.000
 6608.00    1.74874   1.70759    0.000
 6609.00    1.75511   1.70988   37.781
 6610.00    1.75433   1.71126   37.217
 6611.00    1.75235   1.71268   36.938
 6612.00    1.75255   1.71424   37.029
 6613.00    1.75248   1.71555   37.155
 6614.00    1.75086   1.71664   37.125
 6615.00    1.74928   1.71710   37.014
 6616.00    1.74981   1.71768   36.874
 6617.00    1.75324   1.71746   36.680
 6618.00    1.75635   1.71633   36.480
 6619.00    1.75348   1.71608   36.423
 6620.00    1.74284   1.71403   36.731
 6621.00    1.72757   1.71108   37.545
 6622.00    1.71394   1.71050   38.485
 6623.00    1.70780   1.70692   38.854
 6624.00    1.70767   1.70243   38.706
 6625.00    1.70688   1.70228   38.679
 6626.00    1.70181   1.69819   38.965
 6627.00    1.69384   1.69285   39.305
 6628.00    1.68951   1.69376   39.394
 6629.00    1.69485   1.69034   39.083
 6630.00    1.70531   1.68485   38.565
 6631.00    1.71151   1.68702   38.182
 6632.00    1.71176   1.68517   38.101
 6633.00    1.71054   1.67998   38.215
 6634.00    1.71252   1.68304   38.056
 6635.00    1.71858   1.68321   37.332
 6636.00    1.72180   1.67848   36.626
 6637.00    1.71651   1.68154   36.563
 6638.00    1.71012   1.68357   36.856
 6639.00    1.71211   1.67948   36.878
 6640.00    1.71891   1.68158   36.517
 6641.00    1.72210   1.68466   36.094
 6642.00    1.71983   1.68155   36.073
 6643.00    1.71577   1.68210   36.685
 6644.00    1.71603   1.68504   37.597
 6645.00    1.72158   1.68321   38.261
 6646.00    1.72256   1.68226   38.413
 6647.00    1.71221   1.68376   38.149
 6648.00    1.69864   1.68320   37.847
 6649.00    1.69112   1.68133   37.843
 6650.00    1.68841   1.68048   38.210
 6651.00    1.68666   1.68075   38.714
 6652.00    1.68588   1.67876   38.831
 6653.00    1.68708   1.67535   38.395
 6654.00    1.68990   1.67591   37.962
 6655.00    1.69223   1.67466   37.947
 6656.00    1.69100   1.66931   38.159
 6657.00    1.68713   1.66963   38.116
 6658.00    1.68707   1.66972   37.389
 6659.00    1.69337   1.66378   36.296
 6660.00    1.70062   1.66379   35.817
 6661.00    1.70319   1.66525   36.178
 6662.00    1.69935   1.65999   36.531
 6663.00    1.69056   1.66010   36.357
 6664.00    1.68067   1.66247   36.083
 6665.00    1.67434   1.65840   36.175
 6666.00    1.67530   1.65902   36.719
 6667.00    1.68239   1.66151   37.299
 6668.00    1.68965   1.65825   37.191
 6669.00    1.69292   1.65963   36.542
 6670.00    1.69204   1.66171   36.341
 6671.00    1.68887   1.65834   36.901
 6672.00    1.68580   1.66050   37.683
 6673.00    1.68352   1.66229   38.177
 6674.00    1.68017   1.65817   38.268
 6675.00    1.67133   1.66078   38.235
 6676.00    1.65434   1.66302   38.426
 6677.00    1.63992   1.65824   38.450
 6678.00    1.64490   1.66071   37.589
 6679.00    1.66553   1.66396   36.425
 6680.00    1.68213   1.65937   36.127
 6681.00    1.68683   1.66110   36.610
 6682.00    1.68430   1.66501   36.914
 6683.00    1.67842   1.66131   36.777
 6684.00    1.67129   1.66197   36.625
 6685.00    1.66732   1.66560   36.668
 6686.00    1.67069   1.66312   36.779
 6687.00    1.67906   1.66277   36.616
 6688.00    1.68660   1.66492   36.029
 6689.00    1.69093   1.66317   35.612
 6690.00    1.69181   1.66249   36.021
 6691.00    1.68705   1.66291   36.931
 6692.00    1.67565   1.66111   37.522
 6693.00    1.66317   1.66068   37.636
 6694.00    1.65677   1.65989   37.594
 6695.00    1.65746   1.65777   37.529
 6696.00    1.66153   1.65790    0.000
 6697.00    1.66416   1.65636    0.000
 6698.00    1.66424   1.65389    0.000
 6699.00    1.66873   1.65456    0.000
 6700.00    1.68153   1.65235    0.000
 6701.00    1.69192   1.64956    0.000
 6702.00    1.68792   1.65044    0.000
 6703.00    1.67071   1.64739    0.000
 6704.00    1.65026   1.64431    0.000
 6705.00    1.63892   1.64522    0.000
 6706.00    1.64199   1.64134    0.000
 6707.00    1.65142   1.63767    0.000
 6708.00    1.65766   1.63838    0.000
 6709.00    1.65923   1.63433    0.000
 6710.00    1.65841   1.63036    0.000
 6711.00    1.65719   1.63111    0.000
 6712.00    1.65519   1.62809    0.000
 6713.00    1.64950   1.62453    0.000
 6714.00    1.64177   1.62538    0.000
 6715.00    1.64044   1.62416    0.000
 6716.00    1.64669   1.62191    0.000
 6717.00    1.64912   1.62321    0.000
 6718.00    1.64183   1.62396    0.000
 6719.00    1.63230   1.62331    0.000
 6720.00    1.62952   1.62516    0.000
 6721.00    1.63706   1.62724    0.000
 6722.00    1.65109   1.62772    0.000
 6723.00    1.66217   1.63004    0.000
 6724.00    1.66699   1.63246    0.000
 6725.00    1.67060   1.63315    0.000
 6726.00    1.67496   1.63549    0.000
 6727.00    1.67637   1.63721    0.000
 6728.00    1.67312   1.63705    0.000
 6729.00    1.66780   1.63871    0.000
 6730.00    1.66509   1.63965    0.000
 6731.00    1.66888   1.63855    0.000
 6732.00    1.67599   1.63878    0.000
 6733.00    1.67767   1.63863    0.000
 6734.00    1.66948   1.63729    0.000
 6735.00    1.65428   1.63636    0.000
 6736.00    1.64181   1.63479    0.000
 6737.00    1.64212   1.63361    0.000
 6738.00    1.64999   1.63251    0.000
 6739.00    1.64998   1.62975    0.000
 6740.00    1.63633   1.62890    0.000
 6741.00    1.61460   1.62880    0.000
 6742.00    1.59520   1.62559    0.000
 6743.00    1.58776   1.62496    0.000
 6744.00    1.59341   1.62668    0.000
 6745.00    1.60759   1.62400    0.000
 6746.00    1.62772   1.62328    0.000
 6747.00    1.65058   1.62730    0.000
 6748.00    1.66608   1.62623    0.000
 6749.00    1.66612   1.62480    0.000
 6750.00    1.65923   1.63055    0.000
 6751.00    1.66486   1.63178    0.000
 6752.00    1.70098   1.62968    0.000
 6753.00    1.76929   1.63592   -1.000
 6754.00    1.83985   1.63890   -1.000
 6755.00    1.87865   1.63646   -1.000
 6756.00    1.88259   1.64207   -1.000
 6757.00    1.86924   1.64551   -1.000
 6758.00    1.85930   1.64310   -1.000
 6759.00    1.86093   1.64740   -1.000
 6760.00    1.85772   1.65016   -1.000
 6761.00    1.83351   1.64789   -1.000
 6762.00    1.79613   1.65096   -1.000
 6763.00    1.76126   1.65270   29.222
 6764.00    1.73598   1.65047   30.053
 6765.00    1.71836   1.65290   30.140
 6766.00    1.70022   1.65404   30.010
 6767.00    1.68249   1.65187   30.165
 6768.00    1.68324   1.65408   30.299
 6769.00    1.70996   1.65515   29.972
 6770.00    1.74303   1.65280   29.188
 6771.00    1.76212   1.65481   28.404
 6772.00    1.76365   1.65628   28.288
 6773.00    1.75537   1.65336   29.002
 6774.00    1.74967   1.65434   29.917
 6775.00    1.74861   1.65618   30.427
 6776.00    1.74031   1.65279   30.556
 6777.00    1.72429   1.65214   30.539
 6778.00    1.71867   1.65384   30.499
 6779.00    1.73027   1.65007   30.381
 6780.00    1.74497   1.64796   30.000
 6781.00    1.75092   1.64961   29.333
 6782.00    1.74820   1.64595   28.600
 6783.00    1.74341   1.64285   28.139
 6784.00    1.74406   1.64483   28.231
 6785.00    1.74659   1.64208   28.642
 6786.00    1.73889   1.63850   28.718
 6787.00    1.72472   1.64114   28.538
 6788.00    1.72225   1.64022   28.869
 6789.00    1.73151   1.63669   29.621
 6790.00    1.73385   1.63966   29.808
 6791.00    1.72213   1.64079   29.366
 6792.00    1.70532   1.63765   29.182
 6793.00    1.69549   1.63997   29.448
 6794.00    1.70022   1.64267   29.688
 6795.00    1.71357   1.64063   29.805
 6796.00    1.72084   1.64158   30.132
 6797.00    1.71526   1.64452   30.843
 6798.00    1.70157   1.64428   31.755
 6799.00    1.69466   1.64422   32.204
 6800.00    1.70676   1.64589   31.564
 6801.00    1.72375   1.64741   30.419
 6802.00    1.72276   1.64703   29.669
 6803.00    1.71233   1.64671   29.106
 6804.00    1.71596   1.64946   28.195
 6805.00    1.73182   1.64947   27.359
 6806.00    1.74319   1.64743   27.293
 6807.00    1.74564   1.65052   28.026
 6808.00    1.74495   1.65140   29.105
 6809.00    1.74743   1.64892   29.889
 6810.00    1.75477   1.65159   30.007
 6811.00    1.75956   1.65304   29.997
 6812.00    1.75395   1.65144   30.474
 6813.00    1.74080   1.65350   31.045
 6814.00    1.72824   1.65487   31.064
 6815.00    1.72152   1.65474   30.808
 6816.00    1.72035   1.65641   30.836
 6817.00    1.71786   1.65708   31.177
 6818.00    1.71106   1.65786   31.551
 6819.00    1.70984   1.65953   31.653
 6820.00    1.72262   1.65982   31.294
 6821.00    1.74334   1.66047   30.519
 6822.00    1.76156   1.66144   29.696
 6823.00    1.77205   1.66137   -1.000
 6824.00    1.77422   1.66165   -1.000
 6825.00    1.77078   1.66197   -1.000
 6826.00    1.76540   1.66125   29.310
 6827.00    1.76104   1.66069   28.168
 6828.00    1.75979   1.66020   27.062
 6829.00    1.76240   1.65874   26.234
 6830.00    1.76589   1.65744   25.784
 6831.00    1.76297   1.65629   25.781
 6832.00    1.74705   1.65402   26.295
 6833.00    1.71686   1.65269   27.370
 6834.00    1.68450   1.65167   28.696
 6835.00    1.67338   1.64850   29.460
 6836.00    1.68721   1.64688   29.572
 6837.00    1.70253   1.64678   30.070
 6838.00    1.70615   1.64379   31.122
 6839.00    1.70727   1.64196   31.428
 6840.00    1.71351   1.64255   30.735
 6841.00    1.72254   1.64027   30.426
 6842.00    1.73035   1.63861   30.898
 6843.00    1.73445   1.63973   31.198
 6844.00    1.73270   1.63820   30.871
 6845.00    1.72369   1.63652   30.415
 6846.00    1.70948   1.63820   30.095
 6847.00    1.69505   1.63736   29.787
 6848.00    1.68381   1.63453   29.579
 6849.00    1.67613   1.63614   29.714
 6850.00    1.66926   1.63585   29.980
 6851.00    1.66073   1.63143   29.808
 6852.00    1.65693   1.63283   29.126
 6853.00    1.66648   1.63349   28.409
 6854.00    1.67964   1.62755   28.230
 6855.00    1.67828   1.62851   28.850
 6856.00    1.66865   1.63097   29.415
 6857.00    1.67212   1.62434   28.639
 6858.00    1.69110   1.62383   27.163
 6859.00    1.71076   1.62840   26.447
 6860.00    1.71631   1.62365   26.803
 6861.00    1.70231   1.62129   27.832
 6862.00    1.68240   1.62639   28.961
 6863.00    1.67554   1.62473   29.671
 6864.00    1.68150   1.62089   30.029
 6865.00    1.68822   1.62518   30.430
 6866.00    1.68930   1.62739   30.895
 6867.00    1.68643   1.62382   31.187
 6868.00    1.68869   1.62579   31.186
 6869.00    1.70408   1.62963   30.889
 6870.00    1.72883   1.62791   30.320
 6871.00    1.75022   1.62845   -1.000
 6872.00    1.75249   1.63249   -1.000
 6873.00    1.72927   1.63364   28.948
 6874.00    1.69520   1.63400   29.167
 6875.00    1.66956   1.63597   29.453
 6876.00    1.65851   1.63888   29.377
 6877.00    1.65884   1.64156   29.011
 6878.00    1.66425   1.64218   29.286
 6879.00    1.67386   1.64433   30.234
 6880.00    1.69612   1.64940   29.658
 6881.00    1.72116   1.65085   27.695
 6882.00    1.70859   1.65103   28.472
 6883.00    1.67253   1.65660   31.964
 6884.00    1.71567   1.66026   27.972
 6885.00    1.80379   1.65888   -1.000
 6886.00    1.67763   1.66334   28.272
 6887.00    1.33269   1.66978   -1.000
 6888.00    1.21757   1.66816   -1.000
 6889.00    1.50970   1.66974    8.263
 6890.00    1.79808   1.67712    5.375
 6891.00    1.80752   1.67693    5.322
 6892.00    1.72382   1.67612    5.878
 6893.00    1.71955   1.68225    5.899
 6894.00    1.74394   1.68366    5.705
 6895.00    1.73913   1.68187    5.723
 6896.00    1.72893   1.68553    5.795
 6897.00    1.73202   1.68790    5.783
 6898.00    1.73206   1.68677    5.769
 6899.00    1.71995   1.68796    5.811
 6900.00    1.70645   1.69006    5.862
 6901.00    1.70274   1.69028    5.874
 6902.00    1.71172   1.69003    5.841
 6903.00    1.72522   1.69050    5.796
 6904.00    1.72893   1.69114    5.784
 6905.00    1.72070   1.69128    5.812
 6906.00    1.71048   1.69072    5.846
 6907.00    1.70287   1.68963    5.872
 6908.00    1.69546   1.69003    5.898
 6909.00    1.68857   1.68995    5.922
 6910.00    1.68556   1.68723    5.933
 6911.00    1.68694   1.68744    5.928
 6912.00    1.69060   1.68791    5.915
 6913.00    1.69580   1.68407    5.897
 6914.00    1.70265   1.68392    5.873
 6915.00    1.70914   1.68499    5.851
 6916.00    1.71255   1.68068    5.839
 6917.00    1.71339   1.68014    5.836
 6918.00    1.71340   1.68198    5.836
 6919.00    1.71078   1.67853    5.845
 6920.00    1.70402   1.67730    5.868
 6921.00    1.69940   1.67888    5.884
 6922.00    1.70266   1.67703    5.873
 6923.00    1.70497   1.67565    5.865
 6924.00    1.69581   1.67688    5.897
 6925.00    1.68366   1.67612    5.939
 6926.00    1.68255   1.67468    5.943
 6927.00    1.69093   1.67575    5.914
 6928.00    1.69987   1.67567    5.883
 6929.00    1.70639   1.67489    5.860
 6930.00    1.71181   1.67677    5.842
 6931.00    1.71787   1.67712    5.821
 6932.00    1.72368   1.67584    5.802
 6933.00    1.72374   1.67777    5.801
 6934.00    1.71584   1.67868    5.828
 6935.00    1.70784   1.67680    5.855
 6936.00    1.70614   1.67834    5.861
 6937.00    1.70575   1.67965    5.863
 6938.00    1.70021   1.67792    5.882
 6939.00    1.69029   1.67908    5.916
 6940.00    1.68018   1.67982    5.952
 6941.00    1.67393   1.67765    5.974
 6942.00    1.67442   1.67920    5.972
 6943.00    1.68219   1.68050    5.945
 6944.00    1.69226   1.67749    5.909
 6945.00    1.69417   1.67888    5.903
 6946.00    1.68565   1.68125    5.932
 6947.00    1.67789   1.67804    5.960
 6948.00    1.67685   1.67947    5.964
 6949.00    1.67540   1.68362    5.969
 6950.00    1.67026   1.68149    5.987
 6951.00    1.66842   1.68252    5.994
 6952.00    1.67326   1.68712    5.976
 6953.00    1.67954   1.68629    5.954
 6954.00    1.68230   1.68702    5.944
 6955.00    1.68081   1.69154    5.950
 6956.00    1.67704   1.69253    5.963
 6957.00    1.67449   1.69328    5.972
 6958.00    1.67669   1.69658    5.964
 6959.00    1.68532   1.69865    5.934
 6960.00    1.69615   1.69974    5.896
 6961.00    1.70132   1.70072    5.878
 6962.00    1.70142   1.70195    5.877
 6963.00    1.70420   1.70383    5.868
 6964.00    1.70904   1.70294    5.851
 6965.00    1.70824   1.70199    5.854
 6966.00    1.70380   1.70435    5.869
 6967.00    1.70555   1.70256    5.863
 6968.00    1.71427   1.69905    5.833
 6969.00    1.72166   1.70123    5.808
 6970.00    1.72097   1.69975    5.811
 6971.00    1.71079   1.69486    5.845
 6972.00    1.69740   1.69659    5.891
 6973.00    1.68999   1.69607    5.917
 6974.00    1.69020   1.69047    5.916
 6975.00    1.69345   1.69193    5.905
 6976.00    1.69549   1.69467    5.898
 6977.00    1.69473   1.68987    5.901
 6978.00    1.69387   1.68941    5.904
 6979.00    1.69668   1.69505    5.894
 6980.00    1.70240   1.69330    5.874
 6981.00    1.70649   1.69138    5.860
 6982.00    1.70327   1.69755    5.871
 6983.00    1.69145   1.69980    5.912
 6984.00    1.68041   1.69876    5.951
 6985.00    1.67831   1.70234    5.958
 6986.00    1.67742   1.70498    5.962
 6987.00    1.67449   1.70508    5.972
 6988.00    1.69251   1.70655    5.908
 6989.00    1.72652   1.70820    5.792
 6990.00    1.69400   1.70860    5.903
 6991.00    1.56882   1.70862    6.374
 6992.00    1.50062   1.70876    6.664
 6993.00    1.59479   1.70837    6.270
 6994.00    1.71999   1.70817    5.814
 6995.00    1.73699   1.70790    5.757
 6996.00    1.69463   1.70597    5.901
 6997.00    1.67924   1.70481    5.955
 6998.00    1.68878   1.70449    5.921
 6999.00    1.69615   1.70222    5.896
 7000.00    1.70012   1.70096    5.882
 7001.00    1.70360   1.70067   -2.000
 7002.00    1.69871   1.69778   -2.000
 7003.00    1.68296   1.69576   -2.000
 7004.00    1.66777   1.69679   -2.000
 7005.00    1.66416   1.69568   -2.000
 7006.00    1.67372   1.69279   -2.000
 7007.00    1.68834   1.69293   -2.000
 7008.00    1.69379   1.69314   -2.000
 7009.00    1.68716   1.69081   -2.000
 7010.00    1.68130   1.69047   -2.000
 7011.00    1.68407   1.69171   -2.000
 7012.00    1.69080   1.69013   -2.000
 7013.00    1.69430   1.68945   -2.000
 7014.00    1.69037   1.69145   -2.000
 7015.00    1.68101   1.69035   -2.000
 7016.00    1.67283   1.68992   -2.000
 7017.00    1.66706   1.69324   -2.000
 7018.00    1.65923   1.69250   -2.000
 7019.00    1.65070   1.69146   -2.000
 7020.00    1.64951   1.69588   -2.000
 7021.00    1.66087   1.69793   -2.000
 7022.00    1.68236   1.69769   -2.000
 7023.00    1.69971   1.70047   -2.000
 7024.00    1.69620   1.70257   -2.000
 7025.00    1.68016   1.70400   -2.000
 7026.00    1.67610   1.70689   -2.000
 7027.00    1.68599   1.70861   -2.000
 7028.00    1.69308   1.71128   -2.000
 7029.00    1.69210   1.71609   -2.000
 7030.00    1.69001   1.71774   -2.000
 7031.00    1.69281   1.71851   -2.000
 7032.00    1.70093   1.72449   -2.000
 7033.00    1.70618   1.72817   -2.000
 7034.00    1.70021   1.72675   -2.000
 7035.00    1.69006   1.73181   -2.000
 7036.00    1.69017   1.73790   -2.000
 7037.00    1.70489   1.73531   -2.000
 7038.00    1.72638   1.73730   -2.000
 7039.00    1.73710   1.74422   -2.000
 7040.00    1.72873   1.74166   -2.000
 7041.00    1.72619   1.73872   -2.000
 7042.00    1.75417   1.74349   -2.000
 7043.00    1.79194   1.74309   -2.000
 7044.00    1.81149   1.73710   -2.000
 7045.00    1.82783   1.73588   -2.000
 7046.00    1.86287   1.73398   -2.000
 7047.00    1.90110   1.72678   -2.000
 7048.00    1.92085   1.72071   -2.000
 7049.00    1.93002   1.71577   -2.000
 7050.00    1.94518   1.70947   -2.000
 7051.00    1.96840   1.70099   -2.000
 7052.00    1.98955   1.69193   -2.000
 7053.00    1.99178   1.68579   -2.000
 7054.00    1.96580   1.67750   -2.000
 7055.00    1.91981   1.66670   -2.000
 7056.00    1.86657   1.66061   -2.000
 7057.00    1.81400   1.65513   -2.000
 7058.00    1.77295   1.64610   -2.000
 7059.00    1.76042   1.64014   -2.000
 7060.00    1.78109   1.63801   -2.000
 7061.00    1.81855   1.63207   -2.000
 7062.00    1.85782   1.62574   -2.000
 7063.00    1.89619   1.62608   -2.000
 7064.00    1.92504   1.62464   -2.000
 7065.00    1.92524   1.61972   -2.000
 7066.00    1.89807   1.62127   -2.000
 7067.00    1.87277   1.62249   -2.000
 7068.00    1.86429   1.61882   -2.000
 7069.00    1.86000   1.62035   -2.000
 7070.00    1.85282   1.62251   -2.000
 7071.00    1.85043   1.61955   -2.000
 7072.00    1.85064   1.62045   -2.000
 7073.00    1.83936   1.62259   -2.000
 7074.00    1.82151   1.61933   -2.000
 7075.00    1.81754   1.61755   -2.000
 7076.00    1.81158   1.61742   -2.000
 7077.00    1.76388   1.61364   -2.000
 7078.00    1.70743   1.60972   -2.000
 7079.00    1.72568   1.60683   -2.000
 7080.00    1.79693   1.60208   -2.000
 7081.00    1.81558   1.59670   -2.000
 7082.00    1.77530   1.59231   -2.000
 7083.00    1.75790   1.58622   -2.000
 7084.00    1.77749   1.57980   -2.000
 7085.00    1.78288   1.57609   -2.000
 7086.00    1.75636   1.56960   -2.000
 7087.00    1.71729   1.56277   -2.000
 7088.00    1.67884   1.56120   -2.000
 7089.00    1.64413   1.55663   -2.000
 7090.00    1.61744   1.55111   -2.000
 7091.00    1.60349   1.55054   -2.000
 7092.00    1.60179   1.54744   -2.000
 7093.00    1.60793   1.54422   -2.000
 7094.00    1.61752   1.54529   -2.000
 7095.00    1.62389   1.54435   -2.000
 7096.00    1.61413   1.54229   -2.000
 7097.00    1.58298   1.54323   -2.000
 7098.00    1.55227   1.54475   -2.000
 7099.00    1.54783   1.54372   -2.000
 7100.00    1.56575   1.54369   -2.000
 7101.00    1.58671   1.54621   -2.000
 7102.00    1.59936   1.54626   -2.000
 7103.00    1.59930   1.54568   -2.000
 7104.00    1.58523   1.54761   -2.000
 7105.00    1.56438   1.54804   -2.000
 7106.00    1.55728   1.54698   -2.000
 7107.00    1.57935   1.54819   -2.000
 7108.00    1.62371   1.54927   -2.000
 7109.00    1.67517   1.54784   -2.000
 7110.00    1.72431   1.54722   -2.000
 7111.00    1.76371   1.54779   -2.000
 7112.00    1.78414   1.54723   -2.000
 7113.00    1.77758   1.54616   -2.000
 7114.00    1.74165   1.54491   -2.000
 7115.00    1.69288   1.54389   -2.000
 7116.00    1.66998   1.54290   -2.000
 7117.00    1.69060   1.54129   -2.000
 7118.00    1.72800   1.53902   -2.000
 7119.00    1.75114   1.53673   -2.000
 7120.00    1.74988   1.53551   -2.000
 7121.00    1.72764   1.53261   -2.000
 7122.00    1.69437   1.52905   -2.000
 7123.00    1.65645   1.52916   -2.000
 7124.00    1.61536   1.52692   -2.000
 7125.00    1.58682   1.52197   -2.000
 7126.00    1.59934   1.52229   -2.000
 7127.00    1.64415   1.52294   -2.000
 7128.00    1.66969   1.51830   -2.000
 7129.00    1.65496   1.51641   -2.000
 7130.00    1.62800   1.51986   -2.000
 7131.00    1.61439   1.51876   -2.000
 7132.00    1.61710   1.51566   -2.000
 7133.00    1.62000   1.51925   -2.000
 7134.00    1.59990   1.52061   -2.000
 7135.00    1.56043   1.51822   -2.000
 7136.00    1.53076   1.52228   -2.000
 7137.00    1.52750   1.52450   -2.000
 7138.00    1.54653   1.52172   -2.000
 7139.00    1.57437   1.52521   -2.000
 7140.00    1.59610   1.52906   -2.000
 7141.00    1.60701   1.52674   -2.000
 7142.00    1.61086   1.52873   -2.000
 7143.00    1.60864   1.53358   -2.000
 7144.00    1.60246   1.53166   -2.000
 7145.00    1.60899   1.53267   -2.000
 7146.00    1.63103   1.53843   -2.000
 7147.00    1.59850   1.53642   -2.000
 7148.00    1.48550   1.53654   -2.000
 7149.00    1.53546   1.54274   -2.000
 7150.00    1.88192   1.54134   -2.000
 7151.00    1.86001   1.54029   -2.000
 7152.00    0.88998   1.54641   -2.000
 7153.00    0.01711   1.54751   -2.000
 7154.00    0.55362   1.54432   -2.000
 7155.00    1.76431   1.54792   -2.000
 7156.00    2.19590   1.55231   -2.000
 7157.00    1.93513   1.54955   -2.000
 7158.00    1.79116   1.54971   -2.000
 7159.00    1.87619   1.55404   -2.000
 7160.00    1.92559   1.55328   -2.000
 7161.00    1.88283   1.55308   -2.000
 7162.00    1.82154   1.55553   -2.000
 7163.00    1.78575   1.55558   -2.000
 7164.00    1.78610   1.55624   -2.000
 7165.00    1.81357   1.55762   -2.000
 7166.00    1.84624   1.55785   -2.000
 7167.00    1.85685   1.55892   -2.000
 7168.00    1.83483   1.56018   -2.000
 7169.00    1.80170   1.56007   -2.000
 7170.00    1.78081   1.56111   -2.000
 7171.00    1.77326   1.56271   -2.000
 7172.00    1.77081   1.56176   -2.000
 7173.00    1.76729   1.56098   -2.000
 7174.00    1.76126   1.56300   -2.000
 7175.00    1.75665   1.56248   -2.000
 7176.00    1.75896   1.55927   -2.000
 7177.00    1.77175   1.55991   -2.000
 7178.00    1.79093   1.55999   -2.000
 7179.00    1.80424   1.55625   -2.000
 7180.00    1.80639   1.55571   -2.000
 7181.00    1.80394   1.55671   -2.000
 7182.00    1.79682   1.55391   -2.000
 7183.00    1.77541   1.55073   -2.000
 7184.00    1.75170   1.55179   -2.000
 7185.00    1.75870   1.55241   -2.000
 7186.00    1.78462   1.54846   -2.000
 7187.00    1.77100   1.54848   -2.000
 7188.00    1.71970   1.55038   -2.000
 7189.00    1.70150   1.54687   -2.000
 7190.00    1.72780   1.54675   -2.000
 7191.00    1.73664   1.54960   -2.000
 7192.00    1.71011   1.54783   -2.000
 7193.00    1.69039   1.54744   -2.000
 7194.00    1.70087   1.55100   -2.000
 7195.00    1.72811   1.55093   -2.000
 7196.00    1.74511   1.54811   -2.000
 7197.00    1.73266   1.55163   -2.000
 7198.00    1.71528   1.55421   -2.000
 7199.00    1.72381   1.55049   -2.000
 7200.00    1.68380   1.55266   -2.000
 7201.00    1.50374   1.55637   -2.000
 7202.00    1.33113   1.55413   -2.000
 7203.00    1.40994   1.55523   -2.000
 7204.00    1.66474   1.55931   -2.000
 7205.00    1.82215   1.55831   -2.000
 7206.00    1.81645   1.55758   -2.000
 7207.00    1.75943   1.56316   -2.000
 7208.00    1.73987   1.56451   -2.000
 7209.00    1.77944   1.56182   -2.000
 7210.00    1.82456   1.56738   -2.000
 7211.00    1.80896   1.57163   -2.000
 7212.00    1.74909   1.56986   -2.000
 7213.00    1.70210   1.57464   -2.000
 7214.00    1.68582   1.58073   -2.000
 7215.00    1.68806   1.57970   -2.000
 7216.00    1.69482   1.58241   -2.000
 7217.00    1.70381   1.59024   -2.000
 7218.00    1.73372   1.59112   -2.000
