###################################################################
## OUTPUT of StarlightChains_v04.for    [Cid@UFSC - 01/Apr/2007] ##
###################################################################

## Some input info
2004ci.txt                               [arq_obs]
Base.CB07.vall.4m                        [arq_base]
Masks.EmLines.NEW.gm                     [arq_masks]
StCv04.C11.config                        [arq_config]
   66                                    [N_base]
    0                                    [N_YAV_components = # of components with extra extinction!]
    0                                    [i_FitPowerLaw (1/0 = Yes/No)]
-9.99                                    [alpha_PowerLaw]
CCM                                      [red_law_option]
 1.458241                                [q_norm = A(l_norm)/A(V)]

## (Re)Sampling Parameters
 3741.00                                 [l_ini (A)]
 7218.00                                 [l_fin (A)]
    1.00                                 [dl    (A)]     (OBS: dl_cushion =    50.00 A)

## Normalization info
 4020.00                                 [l_norm (A) - for base]
 4010.00                                 [llow_norm (A) - window for f_obs]
 4060.00                                 [lupp_norm (A) - window for f_obs]
1.829985E-16                             [fobs_norm (in input units)]

## S/N
 3691.00                                 [llow_SN (A) - window for S/N]
 7268.00                                 [lupp_SN (A) - window for S/N]
  11.020                                 [S/N in S/N window]
  12.229                                 [S/N in norm. window]
  20.807                                 [S/N_err in S/N window]
  23.090                                 [S/N_err in norm. window]
  1.0000                                 [fscale_chi2]

## etc...
    -2007287                             [idum_orig]
  2384                                   [NOl_eff]
  2384                                   [Nl_eff]
     0    NSIGMA                         [Ntot_cliped & clip_method]
  1888320                                [Nglobal_steps]
   7                                     [N_chains]
  33                                     [NEX0s_base = N_base in EX0s-fits]
 0   0   1        4   2.0   3.570E+01    [Clip-Bug, RC-Crash & Burn-In warning-flags, n_censored_weights, wei_nsig_threshold & wei_limit]
    18     17.452     16.956      0.496  [idt_all, wdt_TotTime, wdt_UsrTime & wdt_SysTime (sec)]

## Synthesis Results - Best model ##

 3.35647E-01                             [chi2/Nl_eff]
     2.17378                             [adev (%)]

   105.60596                             [sum-of-x (%)]
 4.50507E-16                             [Flux_tot (units of input spectrum!)]
 2.30719E-12                             [Mini_tot (???)]
 1.28286E-12                             [Mcor_tot (???)]

  33.55                                  [v0_min  (km/s)]
 162.19                                  [vd_min  (km/s)]
 0.6302                                  [AV_min  (mag)]
 0.0000                                  [YAV_min (mag)]

# j     x_j(%)      Mini_j(%)     Mcor_j(%)     age_j(yr)     Z_j      (L/M)_j    YAV?  Mstars   component_j        a/Fe...       SSP_chi2r SSP_adev(%)   SSP_AV   SSP_x(%)
  1      0.0000     0.0000E+00    0.0000E+00    1.000000E+06  0.00400  1.094E-02    0   1.0000   age020_m42            0.0000     1.7146E+00     4.9243   2.7909    91.7540
  2      0.0000     0.0000E+00    0.0000E+00    3.160000E+06  0.00400  4.007E-02    0   0.9999   age045_m42            0.0000     1.0978E+00     3.7251   2.0952    96.7255
  3      0.0111     8.1111E-05    1.3841E-04    5.010000E+06  0.00400  2.539E-02    0   0.9488   age055_m42            0.0000     1.2955E+00     4.0430   2.4013    94.9634
  4      0.0000     0.0000E+00    0.0000E+00    6.610000E+06  0.00400  2.620E-02    0   0.9220   age061_m42            0.0000     9.9978E-01     3.5582   2.0221    96.9498
  5      0.9352     1.3079E-02    2.0846E-02    1.000000E+07  0.00400  1.322E-02    0   0.8862   age070_m42            0.0000     7.3844E-01     2.9756   1.7243    99.8227
  6      0.0000     0.0000E+00    0.0000E+00    1.445000E+07  0.00400  7.883E-03    0   0.8571   age078_m42            0.0000     8.9813E-01     3.2752   2.0459    97.5349
  7      0.0002     6.9540E-06    1.0223E-05    2.512000E+07  0.00400  5.251E-03    0   0.8174   age090_m42            0.0000     7.3008E-01     2.9661   1.5941   100.3983
  8      0.0000     0.0000E+00    0.0000E+00    4.000000E+07  0.00400  3.649E-03    0   0.7851   age104_m42            0.0000     6.3918E-01     2.8284   1.3717   100.9959
  9      0.0439     2.6173E-03    3.5911E-03    5.500000E+07  0.00400  3.098E-03    0   0.7629   age110_m42            0.0000     6.7882E-01     2.9723   1.5380   100.3876
 10      0.0000     0.0000E+00    0.0000E+00    1.015200E+08  0.00400  2.228E-03    0   0.7207   age116_m42            0.0000     7.5163E-01     3.2172   1.5671   100.1551
 11      0.0000     0.0000E+00    0.0000E+00    2.861200E+08  0.00400  1.093E-03    0   0.6648   age125_m42            0.0000     7.0280E-01     3.2636   1.0025   103.0696
 12      0.0000     0.0000E+00    0.0000E+00    5.088000E+08  0.00400  6.597E-04    0   0.6365   age130_m42            0.0000     7.6397E-01     3.5282   1.0047   103.3010
 13      1.7752     1.5395E+00    1.6053E+00    1.434000E+09  0.00400  2.132E-04    0   0.5798   age139_m42            0.0000     6.4765E-01     3.2535   0.0410   104.9101
 14      0.0072     2.2726E-02    2.1977E-02    4.250000E+09  0.00400  5.895E-05    0   0.5377   age158_m42            0.0000     1.0325E+00     3.8390  -0.3999   100.8791
 15      2.0298     1.0692E+01    1.0023E+01    7.500000E+09  0.00400  3.510E-05    0   0.5212   age171_m42            0.0000     1.3748E+00     4.3360  -0.5814    99.9398
 16      0.0000     0.0000E+00    0.0000E+00    1.300000E+10  0.00400  2.005E-05    0   0.5034   age193_m42            0.0000     1.7553E+00     4.8266  -0.7410    99.1855
 17      0.0000     0.0000E+00    0.0000E+00    1.800000E+10  0.00400  1.525E-05    0   0.4967   age213_m42            0.0000     1.7006E+00     4.7377  -0.7659    98.8236
 18      1.6712     2.4960E-02    4.4890E-02    1.000000E+06  0.00800  1.238E-02    0   1.0000   age020_m52            0.0000     1.7216E+00     4.9401   2.7872    91.9324
 19      0.8275     4.9774E-03    8.9213E-03    3.160000E+06  0.00800  3.074E-02    0   0.9966   age045_m52            0.0000     1.6900E+00     4.8649   2.7118    92.6796
 20      0.0000     0.0000E+00    0.0000E+00    5.010000E+06  0.00800  2.668E-02    0   0.9443   age055_m52            0.0000     1.3412E+00     4.1627   2.4789    94.3291
 21     25.0940     2.1722E-01    3.5851E-01    6.610000E+06  0.00800  2.136E-02    0   0.9177   age061_m52            0.0000     5.4690E-01     2.7124   1.2187   101.2046
 22      1.1375     1.7311E-02    2.7481E-02    1.000000E+07  0.00800  1.215E-02    0   0.8827   age070_m52            0.0000     8.0473E-01     3.1468   1.8965    99.9653
 23      0.0000     0.0000E+00    0.0000E+00    1.445000E+07  0.00800  8.717E-03    0   0.8552   age078_m52            0.0000     8.1517E-01     3.1229   2.0125    98.8223
 24      0.5415     1.7906E-02    2.6284E-02    2.512000E+07  0.00800  5.592E-03    0   0.8162   age090_m52            0.0000     6.8836E-01     2.9311   1.6594   101.5272
 25      0.0002     1.1445E-05    1.6140E-05    4.000000E+07  0.00800  3.896E-03    0   0.7841   age104_m52            0.0000     6.3161E-01     2.8753   1.5817   101.8494
 26      0.0000     0.0000E+00    0.0000E+00    1.015200E+08  0.00800  2.148E-03    0   0.7226   age116_m52            0.0000     6.3359E-01     2.9807   1.5315   101.1322
 27      1.4171     2.6400E-01    3.1731E-01    2.861200E+08  0.00800  9.925E-04    0   0.6683   age125_m52            0.0000     6.9503E-01     3.3887   1.0696   104.2452
 28      6.1396     3.6141E+00    3.9896E+00    9.047900E+08  0.00800  3.141E-04    0   0.6138   age135_m52            0.0000     9.3491E-01     3.8933   0.2950   107.3704
 29      0.0000     0.0000E+00    0.0000E+00    1.434000E+09  0.00800  1.719E-04    0   0.5853   age139_m52            0.0000     9.4509E-01     3.8433  -0.2916   105.5150
 30      0.0000     0.0000E+00    0.0000E+00    2.500000E+09  0.00800  7.872E-05    0   0.5600   age150_m52            0.0000     1.4921E+00     4.6620  -0.5530   102.3243
 31      0.0000     0.0000E+00    0.0000E+00    4.250000E+09  0.00800  4.336E-05    0   0.5426   age158_m52            0.0000     1.6042E+00     4.7166  -0.5681   101.3647
 32      0.8856     5.1834E+00    4.9585E+00    6.250000E+09  0.00800  3.159E-05    0   0.5319   age166_m52            0.0000     2.1946E+00     5.5141  -0.7604   100.9247
 33      0.0000     0.0000E+00    0.0000E+00    1.300000E+10  0.00800  1.361E-05    0   0.5073   age193_m52            0.0000     3.9807E+00     7.2385  -1.0000    91.6747
 34      0.0000     0.0000E+00    0.0000E+00    1.800000E+10  0.00800  9.886E-06    0   0.4990   age213_m52            0.0000     5.5851E+00     8.5384  -1.0000    87.3025
 35      2.6017     3.1156E-02    5.6033E-02    1.000000E+06  0.02000  1.544E-02    0   1.0000   age020_m62            0.0000     1.7495E+00     4.9931   2.7813    92.2232
 36      1.8286     8.9872E-03    1.5934E-02    3.160000E+06  0.02000  3.762E-02    0   0.9858   age045_m62            0.0000     1.7557E+00     4.9842   2.7206    93.0325
 37      0.0000     0.0000E+00    0.0000E+00    5.010000E+06  0.02000  3.296E-02    0   0.9342   age055_m62            0.0000     1.2244E+00     3.9244   2.3665    95.9058
 38     15.4884     2.4816E-01    3.9547E-01    8.710000E+06  0.02000  1.154E-02    0   0.8861   age067_m62            0.0000     1.9039E+00     5.6627   1.3096   104.7808
 39      1.3846     3.3408E-02    5.0902E-02    1.445000E+07  0.02000  7.663E-03    0   0.8472   age078_m62            0.0000     8.8562E-01     3.5620   1.5343   102.7493
 40      0.0000     0.0000E+00    0.0000E+00    2.512000E+07  0.02000  4.532E-03    0   0.8099   age090_m62            0.0000     1.0004E+00     3.7526   1.5292   102.3671
 41      0.0000     0.0000E+00    0.0000E+00    5.500000E+07  0.02000  2.733E-03    0   0.7595   age110_m62            0.0000     6.2980E-01     2.8508   1.5603   101.3110
 42      0.0000     0.0000E+00    0.0000E+00    1.609000E+08  0.02000  1.369E-03    0   0.6985   age120_m62            0.0000     6.7594E-01     3.1315   1.4214   103.0176
 43      0.0000     0.0000E+00    0.0000E+00    2.861200E+08  0.02000  9.013E-04    0   0.6714   age125_m62            0.0000     7.9445E-01     3.5394   1.1825   105.3667
 44      0.0000     0.0000E+00    0.0000E+00    5.088000E+08  0.02000  5.028E-04    0   0.6449   age130_m62            0.0000     1.0468E+00     4.1281   0.8263   107.0920
 45      4.0024     3.0479E+00    3.3871E+00    9.047900E+08  0.02000  2.428E-04    0   0.6179   age135_m62            0.0000     1.1056E+00     4.1266   0.2447   106.2595
 46      0.0000     0.0000E+00    0.0000E+00    1.434000E+09  0.02000  1.263E-04    0   0.5908   age139_m62            0.0000     1.3771E+00     4.4522  -0.2013   104.7773
 47      1.5992     4.9406E+00    5.0407E+00    2.500000E+09  0.02000  5.985E-05    0   0.5673   age150_m62            0.0000     2.1103E+00     5.4811  -0.5592   102.9637
 48      3.7630     2.1271E+01    2.0918E+01    4.250000E+09  0.02000  3.271E-05    0   0.5468   age158_m62            0.0000     3.1532E+00     6.7873  -0.8495   101.4139
 49      1.5898     2.1614E+01    2.0085E+01    1.000000E+10  0.02000  1.360E-05    0   0.5167   age181_m62            0.0000     5.2008E+00     8.4443  -1.0000    93.4594
 50      0.0000     0.0000E+00    0.0000E+00    1.800000E+10  0.02000  7.124E-06    0   0.5013   age213_m62            0.0000     8.1282E+00    10.2551  -1.0000    85.1345
 51      0.5443     3.8827E-03    6.9815E-03    1.000000E+06  0.05000  2.592E-02    0   0.9998   age020_m72            0.0000     1.8327E+00     5.1438   2.7694    92.3818
 52      0.0000     0.0000E+00    0.0000E+00    3.160000E+06  0.05000  4.845E-02    0   0.9577   age045_m72            0.0000     1.6047E+00     4.6046   2.6141    93.8169
 53      0.0004     2.6689E-06    4.3905E-06    5.010000E+06  0.05000  3.072E-02    0   0.9147   age055_m72            0.0000     1.0671E+00     3.8668   2.1286    98.5626
 54      0.0000     0.0000E+00    0.0000E+00    6.610000E+06  0.05000  1.455E-02    0   0.8877   age061_m72            0.0000     3.8184E+00     8.1443   1.3607   106.1625
 55      0.0000     0.0000E+00    0.0000E+00    1.000000E+07  0.05000  9.074E-03    0   0.8524   age070_m72            0.0000     1.4913E+00     4.6520   2.3268    97.9750
 56      0.0000     0.0000E+00    0.0000E+00    2.512000E+07  0.05000  4.250E-03    0   0.7902   age090_m72            0.0000     1.0937E+00     3.8421   2.0281    99.4686
 57      0.0000     0.0000E+00    0.0000E+00    4.000000E+07  0.05000  3.087E-03    0   0.7618   age104_m72            0.0000     1.0916E+00     3.8946   1.8011   101.0549
 58      0.0000     0.0000E+00    0.0000E+00    1.015200E+08  0.05000  1.700E-03    0   0.7096   age116_m72            0.0000     7.3635E-01     3.2485   1.5580   102.8976
 59      1.9187     4.8044E-01    5.7312E-01    2.861200E+08  0.05000  7.384E-04    0   0.6633   age125_m72            0.0000     8.9039E-01     3.7829   1.0614   106.2328
 60     25.1048     1.2155E+01    1.3929E+01    5.088000E+08  0.05000  3.819E-04    0   0.6372   age130_m72            0.0000     1.0619E+00     4.1610   0.5809   107.3186
 61      2.3336     2.5744E+00    2.8289E+00    9.047900E+08  0.05000  1.676E-04    0   0.6110   age135_m72            0.0000     1.9200E+00     5.4464  -0.1051   104.9857
 62      0.0000     0.0000E+00    0.0000E+00    1.434000E+09  0.05000  8.837E-05    0   0.5874   age139_m72            0.0000     2.3786E+00     5.7943  -0.5558   104.2558
 63      0.0000     0.0000E+00    0.0000E+00    2.500000E+09  0.05000  4.233E-05    0   0.5598   age150_m72            0.0000     3.5587E+00     7.2256  -0.8464   102.0866
 64      0.9296     1.1977E+01    1.1307E+01    6.250000E+09  0.05000  1.435E-05    0   0.5249   age166_m72            0.0000     6.3232E+00     9.2118  -1.0000    89.5103
 65      0.0000     0.0000E+00    0.0000E+00    1.300000E+10  0.05000  6.513E-06    0   0.5036   age193_m72            0.0000     1.1129E+01    12.0034  -1.0000    80.3963
 66      0.0000     0.0000E+00    0.0000E+00    1.800000E+10  0.05000  4.527E-06    0   0.4945   age213_m72            0.0000     1.4698E+01    13.8414  -1.0000    74.8265


## Synthesis Results - Average & Chains ##

# j      x_j: min, <> & last-chain-values for 1 ...  7 chains
  1      0.0000      0.9793      1.8003      0.0000      0.9010      1.9460      2.9574      0.3474      1.1308
  2      0.0000      0.3277      0.0000      0.0000      0.0000      0.0000      0.0000      0.0000      0.0000
  3      0.0111      0.5373      0.0000      0.6340      1.4747      0.9175      0.4305      0.5194      0.9324
  4      0.0000      0.2705      0.0000      0.0000      0.0906      0.0000      0.0690      1.3303      0.4750
  5      0.9352      3.2595      3.5229      3.6151      3.2938      3.5271      3.3776      3.7196      4.2220
  6      0.0000      0.3550      1.1016      0.0000      1.0310      0.3257      0.5132      0.0000      0.3898
  7      0.0002      0.4376      0.0615      0.5277      0.0000      0.0000      0.2638      0.0000      0.3320
  8      0.0000      1.1545      0.7387      0.2552      0.4968      1.4116      0.0000      1.0836      0.0000
  9      0.0439      0.8579      0.5328      2.2199      0.2464      0.0000      0.9604      0.2167      1.6325
 10      0.0000      0.4480      0.0000      0.1380      0.0000      0.0000      0.1623      0.0000      1.3115
 11      0.0000      0.6750      0.0000      0.2641      1.5787      0.0000      0.0000      0.0000      0.0000
 12      0.0000      0.6207      0.0000      0.0000      0.0000      1.4430      0.0000      0.0000      0.0000
 13      1.7752      2.6007      2.4536      5.1448      2.9073      2.6829      0.0000      2.0518      1.9522
 14      0.0072      0.2321      0.0000      0.8307      0.1235      0.0000      0.0000      0.0000      0.0000
 15      2.0298      1.1322      1.2423      0.8517      0.7287      0.9478      1.1359      0.9872      1.3573
 16      0.0000      0.0955      0.0000      0.0257      0.0000      0.0000      0.1571      0.7940      0.3736
 17      0.0000      0.0785      0.0000      0.0000      0.0000      0.0000      0.0000      0.5132      0.0000
 18      1.6712      0.3111      1.0745      1.5944      0.0509      0.0000      0.7013      0.0000      0.0000
 19      0.8275      1.2737      1.9955      1.0100      1.4626      2.1030      2.1039      1.8299      1.6740
 20      0.0000      1.2510      1.6669      1.1222      1.2617      1.5991      0.9229      2.6083      0.5331
 21     25.0940     20.8830     20.5560     22.2962     23.2426     23.7403     19.7760     20.9460     20.6307
 22      1.1375      0.5645      0.0000      1.9568      0.0000      0.0000      0.0000      1.5598      0.0674
 23      0.0000      0.4533      0.0000      0.2703      1.7579      0.0000      1.4621      0.0000      0.0000
 24      0.5415      0.3952      1.4836      0.7886      0.3135      1.0735      0.8935      1.9412      0.0000
 25      0.0002      0.4720      0.1399      0.8076      1.5232      0.2269      0.0000      0.0000      0.4777
 26      0.0000      0.5326      1.8547      0.0000      0.1497      0.0000      0.0000      0.3306      0.0000
 27      1.4171      0.7764      0.0000      0.3872      2.0784      0.0000      0.8842      0.0000      0.0000
 28      6.1396      3.9302      4.1882      3.9573      4.5482      4.6931      2.3867      4.7808      3.8128
 29      0.0000      0.0956      0.0749      0.1798      0.0000      0.0000      0.0000      0.0000      0.3966
 30      0.0000      0.1485      0.0000      0.0000      0.0000      0.0000      0.0000      0.1504      0.0910
 31      0.0000      0.1040      0.0000      0.0000      0.0000      0.2790      0.0000      0.0000      0.0000
 32      0.8856      0.7597      0.3199      0.8438      0.7903      0.8710      1.6224      0.9398      1.2514
 33      0.0000      0.0603      0.0000      0.2484      0.0000      0.0000      0.2025      0.0000      0.0539
 34      0.0000      0.0317      0.0000      0.0088      0.0000      0.0000      0.0000      0.0000      0.0000
 35      2.6017      1.8328      2.5149      1.2967      2.8948      1.6549      2.2852      2.0567      1.8626
 36      1.8286      0.3474      0.0000      1.9964      0.5965      1.5565      0.0000      0.0000      1.8904
 37      0.0000      0.3514      0.0000      0.0000      0.0881      0.0000      0.0000      0.7615      0.1384
 38     15.4884      9.1453     10.2947      9.0547      9.8093     11.2289      7.6238      9.9285     11.7741
 39      1.3846      1.2849      1.4182      1.3136      0.0070      0.0385      1.9429      1.6732      2.2388
 40      0.0000      1.7431      0.5730      1.0162      1.2295      1.5765      0.0000      1.7222      2.3106
 41      0.0000      0.9333      0.0000      0.9920      0.0000      0.3304      0.8109      0.0000      0.1011
 42      0.0000      0.4812      0.4052      0.0000      0.0000      0.2013      0.0000      0.2113      0.0588
 43      0.0000      0.7345      1.0724      0.3071      1.2452      1.1717      1.1248      0.1695      0.0000
 44      0.0000      1.7997      1.2228      0.0000      1.0985      2.3007      3.3676      4.2744      4.0510
 45      4.0024      6.5798      7.1221      4.6810      3.9848      5.3773      4.9868      6.5713      5.5224
 46      0.0000      1.2883      1.2984      0.0000      2.6243      1.0219      1.8571      1.4182      1.7991
 47      1.5992      1.8348      2.3598      2.0149      2.2731      2.0683      2.6734      1.6975      1.5591
 48      3.7630      1.9081      1.9312      2.7879      2.2362      2.0235      2.3363      1.7453      2.0211
 49      1.5898      0.3781      0.4725      0.4159      0.4377      0.2335      0.3155      0.4168      0.4859
 50      0.0000      0.0375      0.0000      0.0000      0.0000      0.0000      0.0000      0.0000      0.0000
 51      0.5443      0.9311      0.5322      0.9626      0.0258      0.3010      2.6534      0.5604      0.4824
 52      0.0000      0.3125      0.0000      0.0000      0.0000      0.0000      2.2709      0.0000      0.0000
 53      0.0004      0.3251      0.0000      0.4860      0.0000      0.0000      0.0000      0.0000      0.9560
 54      0.0000      0.5463      0.9858      0.0000      0.7522      0.0000      0.0419      0.7484      0.0000
 55      0.0000      0.1862      0.0000      0.0528      0.0000      0.2393      0.0000      0.0000      0.0000
 56      0.0000      0.4863      0.9240      0.0000      0.0000      0.0000      0.0000      0.0000      0.0000
 57      0.0000      0.2917      0.2223      0.0000      0.0000      0.0000      0.9992      0.0000      0.0000
 58      0.0000      0.2884      0.0000      0.0000      0.0000      0.0000      0.0000      0.0000      0.0000
 59      1.9187      1.3939      0.5535      1.0661      1.7959      1.5737      1.6228      1.5121      0.8328
 60     25.1048     17.7190     19.9670     22.1714     17.8909     18.4198     20.3884     17.8445     19.0295
 61      2.3336      4.5086      5.3020      3.7684      4.0403      3.8310      4.9248      4.4283      3.7907
 62      0.0000      0.1491      0.0000      0.0000      0.5580      0.6125      0.0000      0.0000      0.0000
 63      0.0000      0.2897      0.3169      0.0628      0.5926      0.6874      0.7576      0.5144      0.4631
 64      0.9296      0.8932      0.9853      0.7429      0.8439      0.9638      1.2582      0.3357      0.8121
 65      0.0000      0.0577      0.0000      0.0000      0.0000      0.0000      0.0000      0.2042      0.0000
 66      0.0000      0.0103      0.0000      0.0000      0.0062      0.0000      0.0000      0.0000      0.0000

# j      m_j: min, <> & last-chain-values for 1 ...  7 chains
  1  0.0000E+00  3.6330E-02  6.9731E-02  0.0000E+00  3.4671E-02  7.6384E-02  9.7563E-02  1.2253E-02  4.1601E-02
  2  0.0000E+00  3.3186E-03  0.0000E+00  0.0000E+00  0.0000E+00  0.0000E+00  0.0000E+00  0.0000E+00  0.0000E+00
  3  1.3841E-04  8.1478E-03  0.0000E+00  9.6721E-03  2.3199E-02  1.4723E-02  5.8061E-03  7.4901E-03  1.4023E-02
  4  0.0000E+00  3.8636E-03  0.0000E+00  0.0000E+00  1.3417E-03  0.0000E+00  8.7613E-04  1.8067E-02  6.7269E-03
  5  2.0846E-02  8.8673E-02  1.0007E-01  9.8925E-02  9.2953E-02  1.0153E-01  8.1716E-02  9.6226E-02  1.1391E-01
  6  0.0000E+00  1.5665E-02  5.0751E-02  0.0000E+00  4.7189E-02  1.5208E-02  2.0137E-02  0.0000E+00  1.7056E-02
  7  1.0223E-05  2.7642E-02  4.0578E-03  3.3530E-02  0.0000E+00  0.0000E+00  1.4821E-02  0.0000E+00  2.0799E-02
  8  0.0000E+00  1.0081E-01  6.7344E-02  2.2413E-02  4.4996E-02  1.3042E-01  0.0000E+00  8.9974E-02  0.0000E+00
  9  3.5911E-03  8.5734E-02  5.5594E-02  2.2316E-01  2.5545E-02  0.0000E+00  8.5354E-02  2.0591E-02  1.6180E-01
 10  0.0000E+00  5.8812E-02  0.0000E+00  1.8226E-02  0.0000E+00  0.0000E+00  1.8947E-02  0.0000E+00  1.7074E-01
 11  0.0000E+00  1.6662E-01  0.0000E+00  6.5564E-02  4.0422E-01  0.0000E+00  0.0000E+00  0.0000E+00  0.0000E+00
 12  0.0000E+00  2.4305E-01  0.0000E+00  0.0000E+00  0.0000E+00  5.9786E-01  0.0000E+00  0.0000E+00  0.0000E+00
 13  1.6053E+00  2.8703E+00  2.8274E+00  5.7115E+00  3.3285E+00  3.1331E+00  0.0000E+00  2.1534E+00  2.1367E+00
 14  2.1977E-02  8.5910E-01  0.0000E+00  3.0932E+00  4.7436E-01  0.0000E+00  0.0000E+00  0.0000E+00  0.0000E+00
 15  1.0023E+01  6.8230E+00  7.8168E+00  5.1627E+00  4.5553E+00  6.0435E+00  6.0876E+00  5.6572E+00  8.1114E+00
 16  0.0000E+00  9.7310E-01  0.0000E+00  2.6336E-01  0.0000E+00  0.0000E+00  1.4236E+00  7.6937E+00  3.7752E+00
 17  0.0000E+00  1.0372E+00  0.0000E+00  0.0000E+00  0.0000E+00  0.0000E+00  0.0000E+00  6.4503E+00  0.0000E+00
 18  4.4890E-02  1.0200E-02  3.6778E-02  5.2573E-02  1.7318E-03  0.0000E+00  2.0444E-02  0.0000E+00  0.0000E+00
 19  8.9213E-03  1.6758E-02  2.7414E-02  1.3367E-02  1.9963E-02  2.9278E-02  2.4618E-02  2.2896E-02  2.1842E-02
 20  0.0000E+00  1.7969E-02  2.4999E-02  1.6214E-02  1.8799E-02  2.4305E-02  1.1788E-02  3.5627E-02  7.5944E-03
 21  3.5851E-01  3.6411E-01  3.7422E-01  3.9104E-01  4.2039E-01  4.3799E-01  3.0665E-01  3.4730E-01  3.5673E-01
 22  2.7481E-02  1.6644E-02  0.0000E+00  5.8032E-02  0.0000E+00  0.0000E+00  0.0000E+00  4.3733E-02  1.9701E-03
 23  0.0000E+00  1.8050E-02  0.0000E+00  1.0825E-02  7.2604E-02  0.0000E+00  5.1769E-02  0.0000E+00  0.0000E+00
 24  2.6284E-02  2.3412E-02  9.1758E-02  4.6986E-02  1.9263E-02  6.7283E-02  4.7068E-02  1.0934E-01  0.0000E+00
 25  1.6140E-05  3.8555E-02  1.1928E-02  6.6347E-02  1.2905E-01  1.9612E-02  0.0000E+00  0.0000E+00  3.8695E-02
 26  0.0000E+00  7.2708E-02  2.6439E-01  0.0000E+00  2.1194E-02  0.0000E+00  0.0000E+00  4.2917E-02  0.0000E+00
 27  3.1731E-01  2.1217E-01  0.0000E+00  1.0643E-01  5.8916E-01  0.0000E+00  2.1488E-01  0.0000E+00  0.0000E+00
 28  3.9896E+00  3.1169E+00  3.4680E+00  3.1568E+00  3.7417E+00  3.9383E+00  1.6833E+00  3.6055E+00  2.9987E+00
 29  0.0000E+00  1.3204E-01  1.0802E-01  2.4987E-01  0.0000E+00  0.0000E+00  0.0000E+00  0.0000E+00  5.4349E-01
 30  0.0000E+00  4.2864E-01  0.0000E+00  0.0000E+00  0.0000E+00  0.0000E+00  0.0000E+00  4.1291E-01  2.6050E-01
 31  0.0000E+00  5.2796E-01  0.0000E+00  0.0000E+00  0.0000E+00  1.4992E+00  0.0000E+00  0.0000E+00  0.0000E+00
 32  4.9585E+00  5.1910E+00  2.2826E+00  5.7996E+00  5.6016E+00  6.2974E+00  9.8588E+00  6.1070E+00  8.4800E+00
 33  0.0000E+00  9.1212E-01  0.0000E+00  3.7800E+00  0.0000E+00  0.0000E+00  2.7236E+00  0.0000E+00  8.0820E-01
 34  0.0000E+00  6.5011E-01  0.0000E+00  1.8145E-01  0.0000E+00  0.0000E+00  0.0000E+00  0.0000E+00  0.0000E+00
 35  5.6033E-02  4.8173E-02  6.9020E-02  3.4284E-02  7.8928E-02  4.6027E-02  5.3416E-02  5.1407E-02  4.8553E-02
 36  1.5934E-02  3.6939E-03  0.0000E+00  2.1355E-02  6.5808E-03  1.7515E-02  0.0000E+00  0.0000E+00  1.9937E-02
 37  0.0000E+00  4.0424E-03  0.0000E+00  0.0000E+00  1.0511E-03  0.0000E+00  0.0000E+00  8.3297E-03  1.5788E-03
 38  3.9547E-01  2.8498E-01  3.3495E-01  2.8382E-01  3.1709E-01  3.7025E-01  2.1128E-01  2.9421E-01  3.6386E-01
 39  5.0902E-02  5.7648E-02  6.6439E-02  5.9283E-02  3.2566E-04  1.8288E-03  7.7524E-02  7.1388E-02  9.9618E-02
 40  0.0000E+00  1.2642E-01  4.3388E-02  7.4136E-02  9.2499E-02  1.2098E-01  0.0000E+00  1.1877E-01  1.6619E-01
 41  0.0000E+00  1.0526E-01  0.0000E+00  1.1253E-01  0.0000E+00  3.9430E-02  8.1334E-02  0.0000E+00  1.1303E-02
 42  0.0000E+00  9.9635E-02  8.7607E-02  0.0000E+00  0.0000E+00  4.4114E-02  0.0000E+00  4.1612E-02  1.2067E-02
 43  0.0000E+00  2.2205E-01  3.3850E-01  9.3373E-02  3.9050E-01  3.7481E-01  3.0240E-01  4.8742E-02  0.0000E+00
 44  0.0000E+00  9.3677E-01  6.6459E-01  0.0000E+00  5.9314E-01  1.2672E+00  1.5589E+00  2.1158E+00  2.0912E+00
 45  3.3871E+00  6.7956E+00  7.6802E+00  4.8630E+00  4.2692E+00  5.8765E+00  4.5803E+00  6.4539E+00  5.6563E+00
 46  0.0000E+00  2.4457E+00  2.5735E+00  0.0000E+00  5.1680E+00  2.0528E+00  3.1352E+00  2.5602E+00  3.3872E+00
 47  5.0407E+00  7.0579E+00  9.4782E+00  7.7965E+00  9.0706E+00  8.4189E+00  9.1457E+00  6.2095E+00  5.9476E+00
 48  2.0918E+01  1.2945E+01  1.3679E+01  1.9024E+01  1.5737E+01  1.4526E+01  1.4095E+01  1.1260E+01  1.3598E+01
 49  2.0085E+01  5.8304E+00  7.6072E+00  6.4497E+00  7.0012E+00  3.8100E+00  4.3266E+00  6.1108E+00  7.4291E+00
 50  0.0000E+00  1.0709E+00  0.0000E+00  0.0000E+00  0.0000E+00  0.0000E+00  0.0000E+00  0.0000E+00  0.0000E+00
 51  6.9815E-03  1.4576E-02  8.6986E-03  1.5156E-02  4.1941E-04  4.9857E-03  3.6939E-02  8.3424E-03  7.4891E-03
 52  0.0000E+00  2.5065E-03  0.0000E+00  0.0000E+00  0.0000E+00  0.0000E+00  1.6201E-02  0.0000E+00  0.0000E+00
 53  4.3905E-06  3.9284E-03  0.0000E+00  5.9071E-03  0.0000E+00  0.0000E+00  0.0000E+00  0.0000E+00  1.1456E-02
 54  0.0000E+00  1.3527E-02  2.5486E-02  0.0000E+00  1.9320E-02  0.0000E+00  9.2338E-04  1.7621E-02  0.0000E+00
 55  0.0000E+00  7.1004E-03  0.0000E+00  2.0258E-03  0.0000E+00  9.6528E-03  0.0000E+00  0.0000E+00  0.0000E+00
 56  0.0000E+00  3.6695E-02  7.2796E-02  0.0000E+00  0.0000E+00  0.0000E+00  0.0000E+00  0.0000E+00  0.0000E+00
 57  0.0000E+00  2.9211E-02  2.3246E-02  0.0000E+00  0.0000E+00  0.0000E+00  8.8994E-02  0.0000E+00  0.0000E+00
 58  0.0000E+00  4.8855E-02  0.0000E+00  0.0000E+00  0.0000E+00  0.0000E+00  0.0000E+00  0.0000E+00  0.0000E+00
 59  5.7312E-01  5.0814E-01  2.1069E-01  3.9092E-01  6.7914E-01  6.0704E-01  5.2612E-01  5.2420E-01  3.0108E-01
 60  1.3929E+01  1.1998E+01  1.4117E+01  1.5101E+01  1.2567E+01  1.3198E+01  1.2277E+01  1.1490E+01  1.2779E+01
 61  2.8289E+00  6.6705E+00  8.1902E+00  5.6082E+00  6.2008E+00  5.9974E+00  6.4797E+00  6.2302E+00  5.5618E+00
 62  0.0000E+00  4.0234E-01  0.0000E+00  0.0000E+00  1.5614E+00  1.7483E+00  0.0000E+00  0.0000E+00  0.0000E+00
 63  0.0000E+00  1.5547E+00  1.7756E+00  3.3891E-01  3.2990E+00  3.9034E+00  3.6158E+00  2.6254E+00  2.4650E+00
 64  1.1307E+01  1.3259E+01  1.5272E+01  1.1093E+01  1.2995E+01  1.5139E+01  1.6611E+01  4.7387E+00  1.1955E+01
 65  0.0000E+00  1.8091E+00  0.0000E+00  0.0000E+00  0.0000E+00  0.0000E+00  0.0000E+00  6.0944E+00  0.0000E+00
 66  0.0000E+00  4.5685E-01  0.0000E+00  0.0000E+00  2.8448E-01  0.0000E+00  0.0000E+00  0.0000E+00  0.0000E+00

# AV, chi2 & Mass for <> & i_chain = 1 ...  7 solutions
AV       0.6302      0.7102      0.7094      0.6971      0.6984      0.7103      0.7091      0.7000      0.7089
chi2 3.3565E-01  3.4406E-01  3.4247E-01  3.4179E-01  3.4234E-01  3.4197E-01  3.4204E-01  3.4280E-01  3.4213E-01
Mass 1.2829E-12  1.1705E-12  1.1198E-12  1.1433E-12  1.1106E-12  1.1063E-12  1.3143E-12  1.2141E-12  1.1782E-12
  33.55                                  [v0_min (km/s) before EX0s...]
 162.19                                  [vd_min (km/s) before EX0s...]


## Synthetic spectrum (Best Model) ##l_obs f_obs f_syn wei
 3478    [Nl_obs]
 3741.00    0.77619   0.74965    0.000
 3742.00    0.77913   0.75665    0.000
 3743.00    0.77035   0.75028    0.000
 3744.00    0.74659   0.73298    0.000
 3745.00    0.71083   0.70776    9.683
 3746.00    0.67782   0.67666    9.962
 3747.00    0.65855   0.64216   10.271
 3748.00    0.64960   0.60964   10.221
 3749.00    0.64552   0.58654    9.847
 3750.00    0.64769   0.57913    9.806
 3751.00    0.65899   0.59094   10.310
 3752.00    0.67984   0.62087   10.597
 3753.00    0.70888   0.66183   10.221
 3754.00    0.74386   0.70320    9.980
 3755.00    0.78279   0.73598   10.283
 3756.00    0.82382   0.75640   10.579
 3757.00    0.86071   0.76548   10.423
 3758.00    0.88252   0.76719   10.176
 3759.00    0.88618   0.76657   10.172
 3760.00    0.88057   0.76767   10.371
 3761.00    0.87304   0.77117   10.609
 3762.00    0.86346   0.77450   10.720
 3763.00    0.84907   0.77411   10.702
 3764.00    0.82715   0.76706   10.741
 3765.00    0.79595   0.75211   10.929
 3766.00    0.75579   0.72977   11.175
 3767.00    0.71207   0.70130   11.361
 3768.00    0.67489   0.66965   11.431
 3769.00    0.65304   0.64118   11.473
 3770.00    0.65087   0.62323   11.650
 3771.00    0.66611   0.62018   11.904
 3772.00    0.69146   0.63305   11.946
 3773.00    0.72288   0.65977   11.795
 3774.00    0.76022   0.69480   11.776
 3775.00    0.80005   0.73132   11.934
 3776.00    0.83519   0.76524   11.985
 3777.00    0.86034   0.79590   11.772
 3778.00    0.87439   0.82359   11.413
 3779.00    0.88190   0.84792   11.204
 3780.00    0.89012   0.86812   11.406
 3781.00    0.90057   0.88374   11.876
 3782.00    0.90863   0.89398   12.126
 3783.00    0.90850   0.89747   12.026
 3784.00    0.89682   0.89369   11.903
 3785.00    0.87779   0.88362   12.035
 3786.00    0.85912   0.86882   12.490
 3787.00    0.84097   0.85120   12.907
 3788.00    0.81843   0.83342   12.773
 3789.00    0.79164   0.81746   12.417
 3790.00    0.76453   0.80255   12.491
 3791.00    0.73823   0.78577   12.838
 3792.00    0.71143   0.76421   12.855
 3793.00    0.68340   0.73599   12.637
 3794.00    0.65514   0.70065   12.703
 3795.00    0.63040   0.66035   13.157
 3796.00    0.61343   0.62094   13.727
 3797.00    0.60534   0.59082   13.955
 3798.00    0.60499   0.57744   13.611
 3799.00    0.61122   0.58484   13.212
 3800.00    0.62398   0.61259   13.290
 3801.00    0.64518   0.65515   13.639
 3802.00    0.67624   0.70297   13.720
 3803.00    0.71469   0.74670   13.436
 3804.00    0.75599   0.78115   13.123
 3805.00    0.79626   0.80614   13.260
 3806.00    0.83197   0.82469   14.010
 3807.00    0.85923   0.84070   14.589
 3808.00    0.87641   0.85705   14.176
 3809.00    0.88681   0.87386   13.586
 3810.00    0.89536   0.88808   13.658
 3811.00    0.90473   0.89542   14.023
 3812.00    0.91294   0.89394   14.014
 3813.00    0.91241   0.88532   13.709
 3814.00    0.90035   0.87357   13.538
 3815.00    0.88702   0.86267   13.770
 3816.00    0.88271   0.85392   14.381
 3817.00    0.88634   0.84577   14.880
 3818.00    0.89240   0.83683   14.877
 3819.00    0.89734   0.82782   14.727
 3820.00    0.89860   0.82048   14.784
 3821.00    0.89367   0.81619   14.843
 3822.00    0.88107   0.81489   14.682
 3823.00    0.86121   0.81417   14.448
 3824.00    0.83674   0.80993   14.384
 3825.00    0.81214   0.79980   14.636
 3826.00    0.78938   0.78499   15.147
 3827.00    0.76599   0.76823   15.574
 3828.00    0.74043   0.75040   15.622
 3829.00    0.71487   0.72970   15.379
 3830.00    0.69158   0.70356   15.233
 3831.00    0.67087   0.67084   15.643
 3832.00    0.65179   0.63270   16.444
 3833.00    0.63294   0.59326   16.525
 3834.00    0.61451   0.55925   15.769
 3835.00    0.59888   0.53759   15.534
 3836.00    0.58889   0.53262   16.171
 3837.00    0.58682   0.54494   16.581
 3838.00    0.59390   0.57180   16.189
 3839.00    0.61028   0.60840   15.811
 3840.00    0.63563   0.64974   15.844
 3841.00    0.66905   0.69200   15.876
 3842.00    0.70748   0.73231   15.541
 3843.00    0.74630   0.76838   14.878
 3844.00    0.78384   0.79874   14.222
 3845.00    0.82053   0.82291   13.953
 3846.00    0.85056   0.84120   14.234
 3847.00    0.86373   0.85450    0.000
 3848.00    0.86057   0.86425    0.000
 3849.00    0.85237   0.87213    0.000
 3850.00    0.84621   0.87925    0.000
 3851.00    0.84238   0.88593    0.000
 3852.00    0.84035   0.89201    0.000
 3853.00    0.84064   0.89651    0.000
 3854.00    0.84488   0.89812    0.000
 3855.00    0.85456   0.89656    0.000
 3856.00    0.86806   0.89285    0.000
 3857.00    0.88137   0.88875    0.000
 3858.00    0.89184   0.88613    0.000
 3859.00    0.89880   0.88638    0.000
 3860.00    0.90302   0.88989    0.000
 3861.00    0.90566   0.89609    0.000
 3862.00    0.90658   0.90390    0.000
 3863.00    0.90545   0.91132    0.000
 3864.00    0.90466   0.91606    0.000
 3865.00    0.90717   0.91738    0.000
 3866.00    0.91178   0.91634    0.000
 3867.00    0.91500   0.91408    0.000
 3868.00    0.91587   0.91042    0.000
 3869.00    0.91514   0.90430    0.000
 3870.00    0.91270   0.89525    0.000
 3871.00    0.90722   0.88455    0.000
 3872.00    0.89658   0.87465    0.000
 3873.00    0.88012   0.86785    0.000
 3874.00    0.86170   0.86456    0.000
 3875.00    0.84555   0.86260    0.000
 3876.00    0.83029   0.85863    0.000
 3877.00    0.81240   0.85067    0.000
 3878.00    0.79151   0.83902    0.000
 3879.00    0.76859   0.82542    0.000
 3880.00    0.74320   0.81131    0.000
 3881.00    0.71538   0.79657   19.425
 3882.00    0.68802   0.77917   19.169
 3883.00    0.66366   0.75622   19.609
 3884.00    0.64143   0.72620   20.095
 3885.00    0.62162   0.68978   19.746
 3886.00    0.60992   0.64942   18.890
 3887.00    0.61039   0.61026   18.290
 3888.00    0.61917   0.58021   18.344
 3889.00    0.63039   0.56697   18.940
 3890.00    0.64182   0.57420   19.237
 3891.00    0.65400   0.59988   18.679
 3892.00    0.66870   0.63771   17.967
 3893.00    0.68557   0.67957   17.815
 3894.00    0.70051   0.71859   18.277
 3895.00    0.71303   0.75140   18.929
 3896.00    0.73006   0.77782   18.928
 3897.00    0.75422   0.79922   18.156
 3898.00    0.77749   0.81735   17.677
 3899.00    0.79567   0.83343   18.026
 3900.00    0.81576   0.84782   18.645
 3901.00    0.84091   0.86043   18.818
 3902.00    0.86323   0.87084   18.446
 3903.00    0.87769   0.87834   17.999
 3904.00    0.88873   0.88319   18.117
 3905.00    0.90081   0.88733   18.757
 3906.00    0.91399   0.89366   18.918
 3907.00    0.92882   0.90397   18.255
 3908.00    0.94756   0.91766   17.730
 3909.00    0.96733   0.93255   17.952
 3910.00    0.97910   0.94562   18.812
 3911.00    0.97816   0.95416   19.850
 3912.00    0.96784   0.95747   20.377
 3913.00    0.95468   0.95653   20.197
 3914.00    0.94539   0.95278   19.888
 3915.00    0.94368   0.94723   19.948
 3916.00    0.94911   0.94026   20.475
 3917.00    0.95782   0.93207   20.976
 3918.00    0.96405   0.92312   20.560
 3919.00    0.96399   0.91456   19.441
 3920.00    0.95672   0.90810   18.701
 3921.00    0.94289   0.90483   18.737
 3922.00    0.92450   0.90425   19.301
 3923.00    0.90561   0.90421   19.797
 3924.00    0.89117   0.90168   19.574
 3925.00    0.88311   0.89393   18.902
 3926.00    0.87875   0.87971   18.624
 3927.00    0.87018   0.85944   18.903
 3928.00    0.84727   0.83414   19.320
 3929.00    0.80578   0.80478   19.533
 3930.00    0.74907   0.77231   19.506
 3931.00    0.68697   0.73854   19.543
 3932.00    0.63347   0.70754   19.971
 3933.00    0.60197   0.68502   20.463
 3934.00    0.60095   0.67647   20.302
 3935.00    0.62741   0.68474   19.589
 3936.00    0.67053   0.70875   18.998
 3937.00    0.72167   0.74358   18.848
 3938.00    0.77464   0.78195   19.096
 3939.00    0.82271   0.81695   19.406
 3940.00    0.86003   0.84439   19.365
 3941.00    0.88509   0.86303   19.008
 3942.00    0.90014   0.87440   18.690
 3943.00    0.90915   0.88145   18.713
 3944.00    0.91668   0.88705   19.129
 3945.00    0.92663   0.89320   19.467
 3946.00    0.93983   0.90013   19.204
 3947.00    0.95133   0.90679   18.689
 3948.00    0.95520   0.91203   18.571
 3949.00    0.95163   0.91497   19.035
 3950.00    0.94456   0.91571   19.847
 3951.00    0.93755   0.91534   20.309
 3952.00    0.93217   0.91429   19.867
 3953.00    0.92707   0.91187   19.048
 3954.00    0.91986   0.90744   18.612
 3955.00    0.90941   0.90114   18.787
 3956.00    0.89459   0.89349   19.340
 3957.00    0.87301   0.88433   19.512
 3958.00    0.84375   0.87248   18.937
 3959.00    0.80992   0.85664   18.509
 3960.00    0.77512   0.83564    0.000
 3961.00    0.73995   0.80837    0.000
 3962.00    0.70341   0.77485    0.000
 3963.00    0.66456   0.73621    0.000
 3964.00    0.62392   0.69350    0.000
 3965.00    0.58440   0.64733    0.000
 3966.00    0.55043   0.59840    0.000
 3967.00    0.52692   0.54950    0.000
 3968.00    0.51714   0.50667    0.000
 3969.00    0.52133   0.47741    0.000
 3970.00    0.53703   0.46781    0.000
 3971.00    0.55999   0.48051    0.000
 3972.00    0.58737   0.51343    0.000
 3973.00    0.61939   0.56043    0.000
 3974.00    0.65579   0.61396    0.000
 3975.00    0.69411   0.66748    0.000
 3976.00    0.73281   0.71703    0.000
 3977.00    0.77256   0.76100    0.000
 3978.00    0.81305   0.79868    0.000
 3979.00    0.85121   0.82945    0.000
 3980.00    0.88124   0.85325    0.000
 3981.00    0.89630   0.87072   20.374
 3982.00    0.89640   0.88338   19.813
 3983.00    0.89016   0.89351   19.853
 3984.00    0.88601   0.90343   20.574
 3985.00    0.88809   0.91454   20.884
 3986.00    0.89665   0.92669   20.236
 3987.00    0.90920   0.93866   19.362
 3988.00    0.92376   0.94938   18.916
 3989.00    0.93987   0.95844   18.987
 3990.00    0.95712   0.96610   18.781
 3991.00    0.97478   0.97254   17.295
 3992.00    0.99223   0.97732   15.702
 3993.00    1.00842   0.97977   15.759
 3994.00    1.01944   0.97936   17.530
 3995.00    1.02003   0.97644   19.290
 3996.00    1.01058   0.97288   19.713
 3997.00    0.99743   0.97127   19.720
 3998.00    0.98741   0.97356   20.049
 3999.00    0.98528   0.97998   20.436
 4000.00    0.99143   0.98852   20.187
 4001.00    1.00211   0.99575   19.212
 4002.00    1.01158   0.99854   19.516
 4003.00    1.01434   0.99567   23.158
 4004.00    1.00889   0.98849   22.950
 4005.00    0.99790   0.98032   14.173
 4006.00    0.98625   0.97478   10.219
 4007.00    0.97928   0.97410   11.956
 4008.00    0.98012   0.97845   19.294
 4009.00    0.98856   0.98626   17.060
 4010.00    1.00000   0.99515   10.701
 4011.00    1.00930   1.00314    9.304
 4012.00    1.01788   1.00970    9.779
 4013.00    1.02938   1.01511    9.391
 4014.00    1.04013   1.01948    9.298
 4015.00    1.04354   1.02297   12.484
 4016.00    1.04002   1.02606   19.643
 4017.00    1.03398   1.02900   16.180
 4018.00    1.02665   1.03173   10.229
 4019.00    1.01815   1.03360    8.620
 4020.00    1.01179   1.03317    9.592
 4021.00    1.01109   1.02894   13.154
 4022.00    1.01501   1.02028   19.294
 4023.00    1.02051   1.00825   22.045
 4024.00    1.02672   0.99584   20.050
 4025.00    1.03318   0.98663   19.251
 4026.00    1.03737   0.98265   20.078
 4027.00    1.03509   0.98314   20.957
 4028.00    1.02180   0.98512   21.210
 4029.00    0.99761   0.98514   21.002
 4030.00    0.97176   0.98140   20.572
 4031.00    0.95389   0.97515   20.162
 4032.00    0.94525   0.97008   20.039
 4033.00    0.94425   0.97015   20.117
 4034.00    0.95190   0.97746   19.754
 4035.00    0.96697   0.99121   19.281
 4036.00    0.98208   1.00824   20.777
 4037.00    0.99254   1.02451   23.814
 4038.00    1.00284   1.03657   19.526
 4039.00    1.01592   1.04252   12.398
 4040.00    1.02536   1.04200    9.579
 4041.00    1.02484   1.03561    9.476
 4042.00    1.01516   1.02445    9.838
 4043.00    1.00058   1.01013    9.584
 4044.00    0.98578   0.99524   10.495
 4045.00    0.97485   0.98341   14.962
 4046.00    0.97049   0.97832   22.847
 4047.00    0.97258   0.98180   23.608
 4048.00    0.97774   0.99231   20.485
 4049.00    0.98229   1.00548   20.152
 4050.00    0.98412   1.01623   20.992
 4051.00    0.98304   1.02103   21.039
 4052.00    0.98058   1.01932   20.742
 4053.00    0.97854   1.01306   20.828
 4054.00    0.97821   1.00491   21.155
 4055.00    0.98042   0.99724   21.413
 4056.00    0.98535   0.99180   21.485
 4057.00    0.99123   0.98936   21.423
 4058.00    0.99498   0.98944   21.370
 4059.00    0.99720   0.99039   21.305
 4060.00    1.00205   0.99000   21.075
 4061.00    1.00846   0.98660   20.871
 4062.00    1.00943   0.98026   21.176
 4063.00    1.00297   0.97277   21.946
 4064.00    0.99454   0.96697   22.459
 4065.00    0.99062   0.96506   22.297
 4066.00    0.99527   0.96707   21.768
 4067.00    1.00675   0.97102   21.280
 4068.00    1.01818   0.97430   21.086
 4069.00    1.02285   0.97499   21.271
 4070.00    1.01688   0.97277   21.750
 4071.00    1.00176   0.96873   22.173
 4072.00    0.98336   0.96410   22.097
 4073.00    0.96703   0.95897   21.718
 4074.00    0.95578   0.95240   21.639
 4075.00    0.94928   0.94384   21.925
 4076.00    0.94501   0.93447   22.180
 4077.00    0.94184   0.92746   22.256
 4078.00    0.94028   0.92635   22.274
 4079.00    0.94124   0.93269   22.203
 4080.00    0.94528   0.94437   21.943
 4081.00    0.95171   0.95650   21.689
 4082.00    0.95900   0.96434   21.743
 4083.00    0.96581   0.96596   22.044
 4084.00    0.97142   0.96274   22.315
 4085.00    0.97608   0.95799   22.503
 4086.00    0.97996   0.95453   22.688
 4087.00    0.98138   0.95324   22.732
 4088.00    0.97810   0.95292   22.482
 4089.00    0.97004   0.95144   22.219
 4090.00    0.95796   0.94699   22.291
 4091.00    0.94093   0.93855   22.540
 4092.00    0.91839   0.92563    0.000
 4093.00    0.89360   0.90803    0.000
 4094.00    0.87015   0.88550    0.000
 4095.00    0.84681   0.85779    0.000
 4096.00    0.82203   0.82495    0.000
 4097.00    0.80028   0.78753    0.000
 4098.00    0.78725   0.74661    0.000
 4099.00    0.78309   0.70454    0.000
 4100.00    0.78389   0.66582    0.000
 4101.00    0.78448   0.63686    0.000
 4102.00    0.78034   0.62421    0.000
 4103.00    0.76969   0.63151    0.000
 4104.00    0.75609   0.65734    0.000
 4105.00    0.74997   0.69550    0.000
 4106.00    0.75870   0.73778    0.000
 4107.00    0.77751   0.77694    0.000
 4108.00    0.79769   0.80898    0.000
 4109.00    0.81463   0.83374    0.000
 4110.00    0.82783   0.85339    0.000
 4111.00    0.83982   0.87058    0.000
 4112.00    0.85251   0.88723    0.000
 4113.00    0.86468   0.90375   21.707
 4114.00    0.87519   0.91901   21.950
 4115.00    0.88517   0.93124   22.746
 4116.00    0.89554   0.93893   23.433
 4117.00    0.90532   0.94162   23.467
 4118.00    0.91371   0.94033   22.950
 4119.00    0.92120   0.93741   22.664
 4120.00    0.92814   0.93566   22.998
 4121.00    0.93406   0.93707   23.538
 4122.00    0.93986   0.94206   23.796
 4123.00    0.94841   0.94954   23.709
 4124.00    0.95988   0.95733   23.429
 4125.00    0.97000   0.96292   23.120
 4126.00    0.97448   0.96463   22.887
 4127.00    0.97137   0.96217   22.767
 4128.00    0.96101   0.95661   22.824
 4129.00    0.94590   0.94968   23.132
 4130.00    0.93047   0.94314   23.517
 4131.00    0.92015   0.93859   23.545
 4132.00    0.91815   0.93758   23.231
 4133.00    0.92466   0.94130   23.108
 4134.00    0.93957   0.95009   23.296
 4135.00    0.96251   0.96294   23.368
 4136.00    0.98888   0.97756   23.189
 4137.00    1.01048   0.99110   23.066
 4138.00    1.02292   1.00071   23.096
 4139.00    1.02688   1.00401   23.090
 4140.00    1.02304   0.99966   23.057
 4141.00    1.01150   0.98804   23.245
 4142.00    0.99541   0.97202   23.738
 4143.00    0.98040   0.95676   24.343
 4144.00    0.96950   0.94763   24.675
 4145.00    0.96271   0.94742   24.394
 4146.00    0.95996   0.95476   23.783
 4147.00    0.96101   0.96529   23.448
 4148.00    0.96307   0.97438   23.458
 4149.00    0.96244   0.97932   23.474
 4150.00    0.96000   0.97986   23.399
 4151.00    0.95908   0.97741   23.357
 4152.00    0.95781   0.97356   23.290
 4153.00    0.95187   0.96946   23.096
 4154.00    0.94426   0.96612   23.108
 4155.00    0.94213   0.96459   23.741
 4156.00    0.94638   0.96576   24.569
 4157.00    0.95326   0.96996   24.683
 4158.00    0.96139   0.97666   24.258
 4159.00    0.97110   0.98458   24.057
 4160.00    0.98089   0.99226   23.958
 4161.00    0.98864   0.99874   23.500
 4162.00    0.99455   1.00357   23.052
 4163.00    0.99952   1.00653   23.202
 4164.00    1.00169   1.00744   23.761
 4165.00    0.99849   1.00625   24.117
 4166.00    0.99012   1.00319   24.050
 4167.00    0.97847   0.99870   23.855
 4168.00    0.96475   0.99296   24.141
 4169.00    0.95000   0.98568   25.197
 4170.00    0.93605   0.97630   26.071
 4171.00    0.92468   0.96497   25.616
 4172.00    0.91648   0.95330   24.609
 4173.00    0.91155   0.94387   24.169
 4174.00    0.91044   0.93864   24.150
 4175.00    0.91326   0.93787   24.090
 4176.00    0.91875   0.94024   24.138
 4177.00    0.92501   0.94413   24.527
 4178.00    0.93044   0.94860   24.968
 4179.00    0.93443   0.95348   25.121
 4180.00    0.93779   0.95865   25.150
 4181.00    0.94232   0.96369   25.249
 4182.00    0.95020   0.96800   25.186
 4183.00    0.96250   0.97113   24.836
 4184.00    0.97811   0.97286   24.590
 4185.00    0.99450   0.97309   24.676
 4186.00    1.00867   0.97211   24.734
 4187.00    1.01853   0.97095   24.453
 4188.00    1.02382   0.97114   24.048
 4189.00    1.02614   0.97383   23.828
 4190.00    1.02819   0.97910   23.912
 4191.00    1.02960   0.98580   24.278
 4192.00    1.02533   0.99193   24.785
 4193.00    1.01338   0.99520   25.120
 4194.00    0.99873   0.99366   24.881
 4195.00    0.98646   0.98666   24.211
 4196.00    0.97784   0.97543   23.857
 4197.00    0.97254   0.96265   24.113
 4198.00    0.97005   0.95133   24.524
 4199.00    0.96977   0.94366   24.731
 4200.00    0.97109   0.94045   24.895
 4201.00    0.97363   0.94132   25.152
 4202.00    0.97744   0.94532   25.352
 4203.00    0.98323   0.95162   25.300
 4204.00    0.99205   0.95971   24.934
 4205.00    1.00319   0.96900   24.472
 4206.00    1.01379   0.97854   24.307
 4207.00    1.02123   0.98727   24.568
 4208.00    1.02402   0.99426   25.022
 4209.00    1.02143   0.99903   25.242
 4210.00    1.01356   1.00161   24.873
 4211.00    1.00194   1.00217   24.299
 4212.00    0.98929   1.00056   24.338
 4213.00    0.97800   0.99663   24.997
 4214.00    0.96987   0.99107   25.482
 4215.00    0.96703   0.98599   25.624
 4216.00    0.97100   0.98409   25.928
 4217.00    0.97936   0.98695   25.821
 4218.00    0.98666   0.99378   24.150
 4219.00    0.99001   1.00153   21.863
 4220.00    0.98930   1.00624   20.643
 4221.00    0.98395   1.00459   21.019
 4222.00    0.97258   0.99489   22.932
 4223.00    0.95456   0.97761   25.388
 4224.00    0.93121   0.95563   26.174
 4225.00    0.90759   0.93401   25.384
 4226.00    0.89087   0.91883   25.147
 4227.00    0.88622   0.91490   25.776
 4228.00    0.89495   0.92334   26.226
 4229.00    0.91291   0.94058   26.150
 4230.00    0.93271   0.95984   26.006
 4231.00    0.94858   0.97446   26.096
 4232.00    0.95745   0.98101   26.344
 4233.00    0.95918   0.98007   26.252
 4234.00    0.95606   0.97481   25.480
 4235.00    0.95201   0.96894   24.722
 4236.00    0.95096   0.96503   24.784
 4237.00    0.95458   0.96414   25.465
 4238.00    0.96188   0.96632   26.072
 4239.00    0.96914   0.97122   26.437
 4240.00    0.97248   0.97821   26.724
 4241.00    0.97121   0.98639   26.778
 4242.00    0.96735   0.99455   26.479
 4243.00    0.96408   1.00115   26.296
 4244.00    0.96390   1.00457   26.656
 4245.00    0.96654   1.00368   27.184
 4246.00    0.96984   0.99835   27.316
 4247.00    0.97116   0.98979   27.229
 4248.00    0.96943   0.98006   27.277
 4249.00    0.96691   0.97140   27.248
 4250.00    0.96643   0.96534   26.940
 4251.00    0.96847   0.96236   26.749
 4252.00    0.97260   0.96209   26.953
 4253.00    0.97910   0.96378   27.075
 4254.00    0.98728   0.96673   26.697
 4255.00    0.99412   0.97024   26.208
 4256.00    0.99612   0.97329   25.941
 4257.00    0.99134   0.97452   25.570
 4258.00    0.98041   0.97306   24.969
 4259.00    0.96714   0.96973   24.719
 4260.00    0.95669   0.96729   25.124
 4261.00    0.95392   0.96892   25.662
 4262.00    0.96120   0.97608   25.847
 4263.00    0.97707   0.98733   25.955
 4264.00    0.99607   0.99891   26.334
 4265.00    1.00971   1.00664   26.892
 4266.00    1.01248   1.00769   27.267
 4267.00    1.00503   1.00144   27.053
 4268.00    0.99029   0.98901   26.365
 4269.00    0.97109   0.97257   25.904
 4270.00    0.95062   0.95484   26.063
 4271.00    0.93270   0.93878   26.654
 4272.00    0.92090   0.92726   27.235
 4273.00    0.91774   0.92241   27.311
 4274.00    0.92309   0.92494   26.697
 4275.00    0.93383   0.93395   25.704
 4276.00    0.94647   0.94709   24.991
 4277.00    0.95835   0.96115   25.207
 4278.00    0.96750   0.97289   26.061
 4279.00    0.97300   0.98000   26.179
 4280.00    0.97655   0.98195   25.351
 4281.00    0.98160   0.97987   24.865
 4282.00    0.98762   0.97567   24.846
 4283.00    0.98977   0.97084   24.208
 4284.00    0.98576   0.96589   23.180
 4285.00    0.97724   0.96035   23.139
 4286.00    0.96552   0.95339   24.355
 4287.00    0.95105   0.94461   25.828
 4288.00    0.93645   0.93478   26.658
 4289.00    0.92557   0.92602   26.810
 4290.00    0.91820   0.92099   26.639
 4291.00    0.91074   0.92128   26.493
 4292.00    0.90308   0.92606   -2.000
 4293.00    0.89787   0.93235   -2.000
 4294.00    0.89388   0.93644   -2.000
 4295.00    0.88668   0.93560   -2.000
 4296.00    0.87496   0.92885   -2.000
 4297.00    0.86060   0.91677   -2.000
 4298.00    0.84523   0.90110   -2.000
 4299.00    0.83050   0.88445   -2.000
 4300.00    0.82041   0.86978   -2.000
 4301.00    0.81914   0.85947   -2.000
 4302.00    0.82550   0.85442   -2.000
 4303.00    0.83430   0.85368   -2.000
 4304.00    0.84109   0.85509   -2.000
 4305.00    0.84334   0.85629   -2.000
 4306.00    0.84074   0.85594   -2.000
 4307.00    0.83520   0.85442   -2.000
 4308.00    0.83053   0.85364   27.334
 4309.00    0.83078   0.85590   26.748
 4310.00    0.83743   0.86251   26.350
 4311.00    0.84957   0.87312   26.647
 4312.00    0.86479   0.88639   27.292
 4313.00    0.88135   0.90122   27.652
 4314.00    0.90072   0.91733   27.899
 4315.00    0.92440   0.93465   28.335
 4316.00    0.94935   0.95217   28.188
 4317.00    0.97021   0.96755   26.909
 4318.00    0.98282   0.97797   25.726
 4319.00    0.98477   0.98138   25.715
 4320.00    0.97560   0.97718   26.451
 4321.00    0.95701   0.96600   27.131
 4322.00    0.93305   0.94920   27.903
 4323.00    0.90853   0.92884   29.105
 4324.00    0.88724   0.90819   30.064
 4325.00    0.87177   0.89157   29.905
 4326.00    0.86339   0.88274   28.941
 4327.00    0.86144   0.88293   27.994
 4328.00    0.86292   0.88978   27.564
 4329.00    0.86443   0.89850   27.768
 4330.00    0.86397   0.90436    0.000
 4331.00    0.86134   0.90462    0.000
 4332.00    0.85790   0.89858    0.000
 4333.00    0.85386   0.88622    0.000
 4334.00    0.84692   0.86684    0.000
 4335.00    0.83869   0.83905    0.000
 4336.00    0.83837   0.80212    0.000
 4337.00    0.85493   0.75775    0.000
 4338.00    0.89065   0.71106    0.000
 4339.00    0.93506   0.66995    0.000
 4340.00    0.96464   0.64271    0.000
 4341.00    0.96304   0.63497    0.000
 4342.00    0.93226   0.64762    0.000
 4343.00    0.88481   0.67660    0.000
 4344.00    0.83748   0.71503    0.000
 4345.00    0.80440   0.75584    0.000
 4346.00    0.79256   0.79366    0.000
 4347.00    0.79833   0.82521    0.000
 4348.00    0.80882   0.84872    0.000
 4349.00    0.81592   0.86372    0.000
 4350.00    0.82115   0.87138    0.000
 4351.00    0.82730   0.87475   28.289
 4352.00    0.83506   0.87814   27.950
 4353.00    0.84520   0.88529   27.558
 4354.00    0.85892   0.89754   27.204
 4355.00    0.87542   0.91338   26.921
 4356.00    0.89198   0.92963   26.764
 4357.00    0.90774   0.94353   26.930
 4358.00    0.92441   0.95416   27.648
 4359.00    0.94397   0.96249   28.537
 4360.00    0.96694   0.97038   28.631
 4361.00    0.98999   0.97914   27.914
 4362.00    1.00695   0.98868   27.307
 4363.00    1.01433   0.99761   27.041
 4364.00    1.01248   1.00397   26.710
 4365.00    1.00400   1.00621   26.340
 4366.00    0.99251   1.00400   26.339
 4367.00    0.98060   0.99846   26.772
 4368.00    0.96948   0.99172   27.377
 4369.00    0.95940   0.98580   28.070
 4370.00    0.94984   0.98145   28.868
 4371.00    0.93958   0.97801   29.278
 4372.00    0.92785   0.97422   28.717
 4373.00    0.91653   0.96967   27.871
 4374.00    0.90931   0.96561   27.817
 4375.00    0.90882   0.96431   28.320
 4376.00    0.91560   0.96740   28.374
 4377.00    0.92727   0.97416   27.890
 4378.00    0.93938   0.98134   27.533
 4379.00    0.94722   0.98442   27.686
 4380.00    0.94703   0.97974   28.339
 4381.00    0.93767   0.96621   29.059
 4382.00    0.92171   0.94604   29.236
 4383.00    0.90654   0.92423   28.733
 4384.00    0.90042   0.90667   27.949
 4385.00    0.90630   0.89775   27.524
 4386.00    0.92201   0.89854   27.841
 4387.00    0.94214   0.90680   28.533
 4388.00    0.96030   0.91887   28.939
 4389.00    0.97181   0.93157   28.983
 4390.00    0.97449   0.94321   28.933
 4391.00    0.96908   0.95313   28.831
 4392.00    0.95889   0.96120   28.605
 4393.00    0.94922   0.96756   28.285
 4394.00    0.94480   0.97277   28.024
 4395.00    0.94708   0.97761   28.073
 4396.00    0.95507   0.98249   28.523
 4397.00    0.96641   0.98678   29.051
 4398.00    0.97795   0.98914   29.320
 4399.00    0.98641   0.98856   29.461
 4400.00    0.99018   0.98512   29.621
 4401.00    0.99071   0.97982   29.514
 4402.00    0.98959   0.97370   28.979
 4403.00    0.98620   0.96747   28.424
 4404.00    0.98004   0.96183   28.199
 4405.00    0.97267   0.95793   28.205
 4406.00    0.96621   0.95714   28.337
 4407.00    0.96208   0.96036   28.761
 4408.00    0.96145   0.96751   29.475
 4409.00    0.96533   0.97741   29.965
 4410.00    0.97257   0.98797   29.760
 4411.00    0.97899   0.99644   28.962
 4412.00    0.98126   1.00011   28.026
 4413.00    0.97931   0.99759   27.447
 4414.00    0.97503   0.98996   27.450
 4415.00    0.97121   0.98076   27.927
 4416.00    0.96998   0.97448   28.587
 4417.00    0.97214   0.97427   29.046
 4418.00    0.97789   0.98028   29.202
 4419.00    0.98697   0.98980   29.371
 4420.00    0.99696   0.99894   29.682
 4421.00    1.00348   1.00479   29.819
 4422.00    1.00518   1.00672   29.433
 4423.00    1.00501   1.00603   28.498
 4424.00    1.00498   1.00464   27.583
 4425.00    1.00426   1.00377   27.518
 4426.00    1.00120   1.00354   28.288
 4427.00    0.99491   1.00337   28.938
 4428.00    0.98784   1.00264   29.112
 4429.00    0.98453   1.00095   29.429
 4430.00    0.98390   0.99821   29.645
 4431.00    0.98001   0.99443   28.648
 4432.00    0.97450   0.98978   27.088
 4433.00    0.97612   0.98488   26.704
 4434.00    0.98502   0.98113   27.606
 4435.00    0.99233   0.98044   28.415
 4436.00    0.99469   0.98422   28.338
 4437.00    0.99545   0.99201   27.877
 4438.00    0.99509   1.00108   27.736
 4439.00    0.99081   1.00758   28.290
 4440.00    0.98293   1.00858   29.170
 4441.00    0.97515   1.00396   29.436
 4442.00    0.97072   0.99660   28.852
 4443.00    0.97131   0.99079   28.035
 4444.00    0.97672   0.98981   27.617
 4445.00    0.98543   0.99425   27.849
 4446.00    0.99600   1.00208   28.167
 4447.00    1.00698   1.01009   27.762
 4448.00    1.01635   1.01568   27.176
 4449.00    1.02150   1.01767   27.448
 4450.00    1.01971   1.01606   28.208
 4451.00    1.00982   1.01127   28.265
 4452.00    0.99522   1.00371   27.658
 4453.00    0.98180   0.99393   27.230
 4454.00    0.97369   0.98299   27.104
 4455.00    0.97212   0.97248   26.997
 4456.00    0.97502   0.96405   26.963
 4457.00    0.97884   0.95850   27.204
 4458.00    0.98140   0.95563   27.646
 4459.00    0.98232   0.95467   28.008
 4460.00    0.98287   0.95521   28.051
 4461.00    0.98469   0.95735    0.000
 4462.00    0.98807   0.96139    0.000
 4463.00    0.99257   0.96696    0.000
 4464.00    0.99804   0.97275    0.000
 4465.00    1.00487   0.97691    0.000
 4466.00    1.01403   0.97795    0.000
 4467.00    1.02490   0.97556    0.000
 4468.00    1.03328   0.97090    0.000
 4469.00    1.03639   0.96629    0.000
 4470.00    1.03791   0.96448    0.000
 4471.00    1.04226   0.96767    0.000
 4472.00    1.04880   0.97655    0.000
 4473.00    1.05532   0.98991    0.000
 4474.00    1.06172   1.00505    0.000
 4475.00    1.06759   1.01864    0.000
 4476.00    1.07000   1.02768    0.000
 4477.00    1.06635   1.03005    0.000
 4478.00    1.05672   1.02508    0.000
 4479.00    1.04269   1.01403    0.000
 4480.00    1.02633   1.00044    0.000
 4481.00    1.01111   0.98933    0.000
 4482.00    1.00209   0.98511   27.561
 4483.00    1.00253   0.98938   27.343
 4484.00    1.01164   1.00003   27.125
 4485.00    1.02551   1.01227   26.957
 4486.00    1.03853   1.02117   27.178
 4487.00    1.04665   1.02396   27.742
 4488.00    1.04937   1.02104   27.925
 4489.00    1.04885   1.01518   27.566
 4490.00    1.04864   1.00964   27.559
 4491.00    1.04961   1.00641   28.204
 4492.00    1.04877   1.00558   28.606
 4493.00    1.04451   1.00602   28.256
 4494.00    1.03875   1.00686   27.785
 4495.00    1.03424   1.00821   27.596
 4496.00    1.03288   1.01090   27.440
 4497.00    1.03469   1.01540   27.198
 4498.00    1.03803   1.02132   27.103
 4499.00    1.04205   1.02768   27.286
 4500.00    1.04728   1.03393   27.656
 4501.00    1.05369   1.04033   28.116
 4502.00    1.06046   1.04751   28.593
 4503.00    1.06831   1.05545   28.763
 4504.00    1.07884   1.06298   28.199
 4505.00    1.08965   1.06836   27.232
 4506.00    1.09505   1.07048   26.670
 4507.00    1.09381   1.06956   26.614
 4508.00    1.08978   1.06688   26.574
 4509.00    1.08575   1.06370   26.487
 4510.00    1.08226   1.06048   26.747
 4511.00    1.07995   1.05674   27.412
 4512.00    1.07942   1.05184   28.097
 4513.00    1.07878   1.04575   28.385
 4514.00    1.07447   1.03932   28.132
 4515.00    1.06468   1.03383   27.752
 4516.00    1.05067   1.03027   27.783
 4517.00    1.03758   1.02890   27.953
 4518.00    1.03184   1.02914   27.559
 4519.00    1.03507   1.02990   26.840
 4520.00    1.04419   1.02990   26.558
 4521.00    1.05475   1.02804   26.779
 4522.00    1.06221   1.02368   27.109
 4523.00    1.06324   1.01677   27.443
 4524.00    1.05654   1.00774   27.866
 4525.00    1.04405   0.99729   28.125
 4526.00    1.02964   0.98630   27.937
 4527.00    1.01658   0.97597   27.729
 4528.00    1.00701   0.96764   27.976
 4529.00    1.00167   0.96243   28.028
 4530.00    1.00015   0.96061   27.140
 4531.00    1.00128   0.96149   26.259
 4532.00    1.00339   0.96392   26.367
 4533.00    1.00468   0.96727   26.576
 4534.00    1.00487   0.97198   26.025
 4535.00    1.00711   0.97902   26.605
 4536.00    1.01396   0.98873   29.421
 4537.00    1.02223   0.99985   28.415
 4538.00    1.02861   1.00991   21.371
 4539.00    1.03664   1.01669   16.810
 4540.00    1.04849   1.01951   16.019
 4541.00    1.05573   1.01940   16.872
 4542.00    1.05131   1.01800   17.196
 4543.00    1.04246   1.01639   16.841
 4544.00    1.03891   1.01461   16.659
 4545.00    1.04020   1.01202   16.737
 4546.00    1.04336   1.00804   16.854
 4547.00    1.05028   1.00261   16.983
 4548.00    1.05948   0.99637   17.130
 4549.00    1.05956   0.99039   17.176
 4550.00    1.04360   0.98569    0.000
 4551.00    1.02034   0.98270    0.000
 4552.00    1.00238   0.98123    0.000
 4553.00    0.99624   0.98101    0.000
 4554.00    1.00384   0.98231    0.000
 4555.00    1.02363   0.98598    0.000
 4556.00    1.04752   0.99272    0.000
 4557.00    1.06114   1.00227    0.000
 4558.00    1.06140   1.01316    0.000
 4559.00    1.06324   1.02317    0.000
 4560.00    1.06893   1.03024    0.000
 4561.00    1.05618   1.03315    0.000
 4562.00    1.02252   1.03190    0.000
 4563.00    1.00256   1.02785    0.000
 4564.00    1.01602   1.02332    0.000
 4565.00    1.04473   1.02068    0.000
 4566.00    1.06600   1.02125    0.000
 4567.00    1.07067   1.02458    0.000
 4568.00    1.06237   1.02878    0.000
 4569.00    1.05383   1.03174    0.000
 4570.00    1.05348   1.03242    0.000
 4571.00    1.06032   1.03139    0.000
 4572.00    1.06866   1.03018    0.000
 4573.00    1.07273   1.03009    0.000
 4574.00    1.07643   1.03128    0.000
 4575.00    1.09082   1.03267    0.000
 4576.00    1.11079   1.03272    0.000
 4577.00    1.11553   1.03022    0.000
 4578.00    1.10108   1.02484    0.000
 4579.00    1.08334   1.01720    0.000
 4580.00    1.06912   1.00866    0.000
 4581.00    1.05280   1.00084    0.000
 4582.00    1.03613   0.99512    0.000
 4583.00    1.02843   0.99230    0.000
 4584.00    1.02867   0.99255    0.000
 4585.00    1.02722   0.99555    0.000
 4586.00    1.02485   1.00055    0.000
 4587.00    1.03165   1.00639    0.000
 4588.00    1.05062   1.01163    0.000
 4589.00    1.07501   1.01500    0.000
 4590.00    1.09265   1.01577    0.000
 4591.00    1.09213   1.01416    0.000
 4592.00    1.07381   1.01116    0.000
 4593.00    1.04813   1.00808    0.000
 4594.00    1.02658   1.00591    0.000
 4595.00    1.01587   1.00510    0.000
 4596.00    1.01079   1.00555    0.000
 4597.00    1.00288   1.00680    0.000
 4598.00    0.99878   1.00829    0.000
 4599.00    1.01082   1.00952    0.000
 4600.00    1.03494   1.01033    0.000
 4601.00    1.05665   1.01092    0.000
 4602.00    1.06744   1.01175    0.000
 4603.00    1.06693   1.01332    0.000
 4604.00    1.06165   1.01605    0.000
 4605.00    1.06080   1.02025    0.000
 4606.00    1.06988   1.02597    0.000
 4607.00    1.08486   1.03280    0.000
 4608.00    1.08681   1.03971    0.000
 4609.00    1.06478   1.04531    0.000
 4610.00    1.04388   1.04848    0.000
 4611.00    1.05186   1.04895    0.000
 4612.00    1.07599   1.04738    0.000
 4613.00    1.08958   1.04494    0.000
 4614.00    1.08726   1.04257    0.000
 4615.00    1.07475   1.04060    0.000
 4616.00    1.05409   1.03887    0.000
 4617.00    1.03068   1.03718    0.000
 4618.00    1.02015   1.03573    0.000
 4619.00    1.02961   1.03510    0.000
 4620.00    1.04183   1.03585    0.000
 4621.00    1.04218   1.03803    0.000
 4622.00    1.04147   1.04096    0.000
 4623.00    1.04977   1.04361    0.000
 4624.00    1.05525   1.04502    0.000
 4625.00    1.04752   1.04481    0.000
 4626.00    1.03573   1.04320    0.000
 4627.00    1.03237   1.04077    0.000
 4628.00    1.04026   1.03822    0.000
 4629.00    1.05419   1.03607    0.000
 4630.00    1.06416   1.03447    0.000
 4631.00    1.06546   1.03313    0.000
 4632.00    1.06385   1.03149    0.000
 4633.00    1.06654   1.02908    0.000
 4634.00    1.07578   1.02577    0.000
 4635.00    1.08606   1.02187    0.000
 4636.00    1.08554   1.01786    0.000
 4637.00    1.07223   1.01421    0.000
 4638.00    1.05898   1.01141    0.000
 4639.00    1.05227   1.00984    0.000
 4640.00    1.04447   1.00957    0.000
 4641.00    1.03072   1.01008    0.000
 4642.00    1.01578   1.01020    0.000
 4643.00    1.00547   1.00850    0.000
 4644.00    1.00250   1.00401    0.000
 4645.00    1.00595   0.99690    0.000
 4646.00    1.01222   0.98869    0.000
 4647.00    1.01922   0.98172    0.000
 4648.00    1.02716   0.97825    0.000
 4649.00    1.03510   0.97934    0.000
 4650.00    1.04009   0.98441    0.000
 4651.00    1.03903   0.99156    0.000
 4652.00    1.03085   0.99852    0.000
 4653.00    1.02132   1.00369    0.000
 4654.00    1.02105   1.00690    0.000
 4655.00    1.03439   1.00933    0.000
 4656.00    1.05635   1.01273    0.000
 4657.00    1.07454   1.01819    0.000
 4658.00    1.07665   1.02530    0.000
 4659.00    1.06885   1.03219    0.000
 4660.00    1.06942   1.03635    0.000
 4661.00    1.07976   1.03590    0.000
 4662.00    1.08571   1.03025    0.000
 4663.00    1.07943   1.02015    0.000
 4664.00    1.06321   1.00710    0.000
 4665.00    1.04551   0.99295    0.000
 4666.00    1.03415   0.97981    0.000
 4667.00    1.02438   0.96999    0.000
 4668.00    1.00744   0.96544    0.000
 4669.00    0.99221   0.96703    0.000
 4670.00    0.99419   0.97390    0.000
 4671.00    1.00689   0.98382    0.000
 4672.00    1.01233   0.99423    0.000
 4673.00    1.00873   1.00322    0.000
 4674.00    1.00479   1.00997    0.000
 4675.00    1.00205   1.01433    0.000
 4676.00    0.99935   1.01633    0.000
 4677.00    1.00390   1.01599    0.000
 4678.00    1.02153   1.01358    0.000
 4679.00    1.04087   1.00987    0.000
 4680.00    1.04835   1.00610    0.000
 4681.00    1.05127   1.00348    0.000
 4682.00    1.06248   1.00267    0.000
 4683.00    1.07712   1.00351    0.000
 4684.00    1.08491   1.00528    0.000
 4685.00    1.08798   1.00713    0.000
 4686.00    1.09018   1.00853    0.000
 4687.00    1.08337   1.00933    0.000
 4688.00    1.06214   1.00968    0.000
 4689.00    1.03986   1.00985    0.000
 4690.00    1.03202   1.01016    0.000
 4691.00    1.03794   1.01099    0.000
 4692.00    1.04881   1.01259    0.000
 4693.00    1.05725   1.01485    0.000
 4694.00    1.05895   1.01713    0.000
 4695.00    1.05322   1.01830    0.000
 4696.00    1.04255   1.01721    0.000
 4697.00    1.03148   1.01330    0.000
 4698.00    1.02103   1.00693    0.000
 4699.00    1.00582   0.99926    0.000
 4700.00    0.98557   0.99177    0.000
 4701.00    0.97175   0.98569    0.000
 4702.00    0.97087   0.98168    0.000
 4703.00    0.97444   0.97983    0.000
 4704.00    0.97504   0.97974    0.000
 4705.00    0.97589   0.98070    0.000
 4706.00    0.97989   0.98198    0.000
 4707.00    0.98357   0.98319    0.000
 4708.00    0.98530   0.98441    0.000
 4709.00    0.98873   0.98598    0.000
 4710.00    0.99312   0.98803    0.000
 4711.00    0.99086   0.99032    0.000
 4712.00    0.98316   0.99248    0.000
 4713.00    0.98366   0.99458    0.000
 4714.00    0.99513   0.99733    0.000
 4715.00    1.00385   1.00171    0.000
 4716.00    1.00802   1.00826    0.000
 4717.00    1.02346   1.01655    0.000
 4718.00    1.05019   1.02536    0.000
 4719.00    1.06657   1.03323    0.000
 4720.00    1.06590   1.03913    0.000
 4721.00    1.06324   1.04268    0.000
 4722.00    1.06337   1.04400    0.000
 4723.00    1.05624   1.04330    0.000
 4724.00    1.04534   1.04048    0.000
 4725.00    1.04775   1.03520    0.000
 4726.00    1.05969   1.02733    0.000
 4727.00    1.05712   1.01749    0.000
 4728.00    1.03492   1.00722    0.000
 4729.00    1.01136   0.99856    0.000
 4730.00    1.00392   0.99318    0.000
 4731.00    1.01809   0.99176    0.000
 4732.00    1.03781   0.99378    0.000
 4733.00    1.03797   0.99786    0.000
 4734.00    1.02256   1.00248    0.000
 4735.00    1.01757   1.00654    0.000
 4736.00    1.02934   1.00971    0.000
 4737.00    1.04447   1.01223    0.000
 4738.00    1.05393   1.01451    0.000
 4739.00    1.05614   1.01680    0.000
 4740.00    1.05140   1.01908    0.000
 4741.00    1.04203   1.02126    0.000
 4742.00    1.03493   1.02333    0.000
 4743.00    1.03719   1.02537    0.000
 4744.00    1.04679   1.02743    0.000
 4745.00    1.05597   1.02948    0.000
 4746.00    1.06026   1.03136    0.000
 4747.00    1.06009   1.03284    0.000
 4748.00    1.06059   1.03362    0.000
 4749.00    1.06677   1.03335    0.000
 4750.00    1.07650   1.03176    0.000
 4751.00    1.08363   1.02879    0.000
 4752.00    1.08433   1.02465    0.000
 4753.00    1.07716   1.01993    0.000
 4754.00    1.06195   1.01549    0.000
 4755.00    1.04262   1.01216    0.000
 4756.00    1.03050   1.01042    0.000
 4757.00    1.03397   1.01015    0.000
 4758.00    1.04605   1.01053    0.000
 4759.00    1.05472   1.01032    0.000
 4760.00    1.05652   1.00831    0.000
 4761.00    1.05265   1.00392    9.685
 4762.00    1.04311   0.99751    9.587
 4763.00    1.02874   0.99034    9.674
 4764.00    1.01358   0.98411    9.866
 4765.00    1.00225   0.98042    9.934
 4766.00    0.99710   0.98014   10.037
 4767.00    0.99801   0.98321   10.214
 4768.00    1.00245   0.98870    9.936
 4769.00    1.00536   0.99518    9.416
 4770.00    0.99979   1.00140   10.183
 4771.00    0.98344   1.00673   14.103
 4772.00    0.96337   1.01127   21.573
 4773.00    0.95110   1.01551   23.913
 4774.00    0.95739   1.01973   21.285
 4775.00    0.98343   1.02376   20.628
 4776.00    1.01627   1.02702   21.188
 4777.00    1.03917   1.02887   21.207
 4778.00    1.04056   1.02893   20.947
 4779.00    1.02422   1.02718   20.980
 4780.00    1.01136   1.02396   21.061
 4781.00    1.01589   1.01972   20.987
 4782.00    1.03164   1.01500   21.021
 4783.00    1.04620   1.01025   21.238
 4784.00    1.05021   1.00586   21.272
 4785.00    1.04263   1.00213   21.065
 4786.00    1.03136   0.99932   21.108
 4787.00    1.02398   0.99769   21.557
 4788.00    1.02259   0.99755   21.944
 4789.00    1.02231   0.99918   21.987
 4790.00    1.01432   1.00278   21.935
 4791.00    1.00164   1.00828   21.916
 4792.00    1.00023   1.01519   21.759
 4793.00    1.01564   1.02249   21.471
 4794.00    1.03666   1.02877   21.306
 4795.00    1.04934   1.03267   21.297
 4796.00    1.04484   1.03336   21.232
 4797.00    1.02660   1.03101   21.109
 4798.00    1.00894   1.02677   21.164
 4799.00    1.00353   1.02231   21.393
 4800.00    1.01379   1.01903   21.524
 4801.00    1.03248   1.01745   21.481
 4802.00    1.04581   1.01708   21.435
 4803.00    1.04732   1.01680   21.463
 4804.00    1.03972   1.01569   21.496
 4805.00    1.02795   1.01348   21.491
 4806.00    1.01720   1.01067   21.479
 4807.00    1.01300   1.00814   21.552
 4808.00    1.01848   1.00662   21.785
 4809.00    1.02800   1.00642   22.027
 4810.00    1.03171   1.00738   22.014
 4811.00    1.02968   1.00919   21.795
 4812.00    1.02966   1.01153   21.626
 4813.00    1.03491   1.01428   21.534
 4814.00    1.04242   1.01741   21.407
 4815.00    1.04485   1.02086   21.315
 4816.00    1.03606   1.02432   21.409
 4817.00    1.02056   1.02724   21.602
 4818.00    1.00885   1.02885   21.673
 4819.00    1.00585   1.02835   21.596
 4820.00    1.01048   1.02523   21.494
 4821.00    1.01856   1.01960   21.460
 4822.00    1.02531   1.01232   21.517
 4823.00    1.02832   1.00491   21.611
 4824.00    1.02702   0.99891   21.673
 4825.00    1.02118   0.99531   21.705
 4826.00    1.01130   0.99402   21.742
 4827.00    0.99954   0.99409   21.789
 4828.00    0.99003   0.99430   21.783
 4829.00    0.98879   0.99385   21.585
 4830.00    0.99784   0.99264   21.204
 4831.00    1.00865   0.99113   20.998
 4832.00    1.01133   0.98991   21.229
 4833.00    1.00598   0.98927   21.611
 4834.00    0.99713   0.98906   21.753
 4835.00    0.98642   0.98869   21.763
 4836.00    0.97589   0.98748   21.841
 4837.00    0.97160   0.98497   21.791
 4838.00    0.97722   0.98116   21.431
 4839.00    0.98791   0.97654   21.016
 4840.00    0.99460   0.97187   20.861
 4841.00    0.98913   0.96789   21.043
 4842.00    0.97026   0.96496   21.367
 4843.00    0.94742   0.96299   21.370
 4844.00    0.93111   0.96137   20.963
 4845.00    0.92497   0.95929   20.806
 4846.00    0.92734   0.95599   21.236
 4847.00    0.93315   0.95113   21.641
 4848.00    0.93602   0.94484    0.000
 4849.00    0.93055   0.93745    0.000
 4850.00    0.91789   0.92905    0.000
 4851.00    0.90740   0.91923    0.000
 4852.00    0.90287   0.90714    0.000
 4853.00    0.89636   0.89192    0.000
 4854.00    0.88516   0.87315    0.000
 4855.00    0.88101   0.85080    0.000
 4856.00    0.90215   0.82510    0.000
 4857.00    0.96676   0.79637    0.000
 4858.00    1.08380   0.76546    0.000
 4859.00    1.24613   0.73453    0.000
 4860.00    1.42057   0.70740    0.000
 4861.00    1.55127   0.68888    0.000
 4862.00    1.59815   0.68314    0.000
 4863.00    1.55331   0.69171    0.000
 4864.00    1.43159   0.71276    0.000
 4865.00    1.26420   0.74168    0.000
 4866.00    1.09155   0.77283    0.000
 4867.00    0.95444   0.80131    0.000
 4868.00    0.87241   0.82412    0.000
 4869.00    0.83894   0.84048    0.000
 4870.00    0.83550   0.85150    0.000
 4871.00    0.84149   0.85943    0.000
 4872.00    0.84953   0.86678    0.000
 4873.00    0.86416   0.87541    0.000
 4874.00    0.88119   0.88609    0.000
 4875.00    0.88861   0.89849   21.130
 4876.00    0.88920   0.91163   21.052
 4877.00    0.89898   0.92441   21.403
 4878.00    0.92344   0.93582   21.784
 4879.00    0.95365   0.94503   21.588
 4880.00    0.97487   0.95140   21.086
 4881.00    0.97506   0.95459   21.087
 4882.00    0.95954   0.95475   21.652
 4883.00    0.94509   0.95252   22.139
 4884.00    0.93768   0.94888   21.994
 4885.00    0.93284   0.94479   21.189
 4886.00    0.92783   0.94098   20.315
 4887.00    0.92366   0.93787   19.930
 4888.00    0.92321   0.93575   19.795
 4889.00    0.92938   0.93513   19.469
 4890.00    0.94235   0.93693   19.448
 4891.00    0.95892   0.94226   20.492
 4892.00    0.97262   0.95184   22.064
 4893.00    0.97780   0.96527   22.597
 4894.00    0.97648   0.98079   22.089
 4895.00    0.97562   0.99570   21.713
 4896.00    0.98071   1.00738   21.646
 4897.00    0.99259   1.01418   21.510
 4898.00    1.00452   1.01595   21.318
 4899.00    1.00883   1.01380   21.299
 4900.00    1.00661   1.00958   21.510
 4901.00    1.00206   1.00518   21.835
 4902.00    0.99339   1.00202   22.052
 4903.00    0.97818   1.00075   22.014
 4904.00    0.96116   1.00114   21.881
 4905.00    0.94967   1.00224   21.876
 4906.00    0.94713   1.00272   21.997
 4907.00    0.95294   1.00142   22.103
 4908.00    0.96324   0.99801   22.052
 4909.00    0.97194   0.99321   21.842
 4910.00    0.97216   0.98860   21.692
 4911.00    0.96300   0.98588   21.736
 4912.00    0.95484   0.98589   21.754
 4913.00    0.95629   0.98803   21.563
 4914.00    0.96281   0.99030   21.366
 4915.00    0.96727   0.99002   21.377
 4916.00    0.96935   0.98492   21.527
 4917.00    0.96792   0.97418   21.663
 4918.00    0.95588   0.95898   21.727
 4919.00    0.93479   0.94225   21.730
 4920.00    0.92304   0.92770   21.716
 4921.00    0.93001   0.91857   21.756
 4922.00    0.94033   0.91667   21.919
 4923.00    0.94065   0.92209   22.085
 4924.00    0.93674   0.93350   21.894
 4925.00    0.93897   0.94882   21.388
 4926.00    0.95186   0.96578   21.187
 4927.00    0.97268   0.98220   21.498
 4928.00    0.99235   0.99612   21.759
 4929.00    1.00336   1.00593   21.651
 4930.00    1.00418   1.01067   21.617
 4931.00    0.99742   1.01026   21.974
 4932.00    0.98821   1.00556   22.512
 4933.00    0.98096   0.99809   22.852
 4934.00    0.97796   0.98955   22.749
 4935.00    0.98031   0.98137   22.396
 4936.00    0.98751   0.97455   22.322
 4937.00    0.99349   0.96982   22.600
 4938.00    0.98860   0.96783   22.722
 4939.00    0.97480   0.96917   22.505
 4940.00    0.96693   0.97404    0.000
 4941.00    0.97274   0.98188    0.000
 4942.00    0.98753   0.99131    0.000
 4943.00    1.00438   1.00059    0.000
 4944.00    1.01838   1.00833    0.000
 4945.00    1.02733   1.01398    0.000
 4946.00    1.03100   1.01782    0.000
 4947.00    1.02803   1.02051    0.000
 4948.00    1.01688   1.02258    0.000
 4949.00    1.00152   1.02410    0.000
 4950.00    0.98995   1.02462    0.000
 4951.00    0.98510   1.02343    0.000
 4952.00    0.98464   1.01980    0.000
 4953.00    0.98747   1.01329    0.000
 4954.00    0.99440   1.00404    0.000
 4955.00    1.00530   0.99305    0.000
 4956.00    1.01922   0.98227    0.000
 4957.00    1.03664   0.97409    0.000
 4958.00    1.05770   0.97056    0.000
 4959.00    1.07748   0.97246    0.000
 4960.00    1.08729   0.97879    0.000
 4961.00    1.07959   0.98712    0.000
 4962.00    1.05212   0.99451    0.000
 4963.00    1.01362   0.99876    0.000
 4964.00    0.97868   0.99916    0.000
 4965.00    0.95657   0.99642    0.000
 4966.00    0.94958   0.99214    0.000
 4967.00    0.95411   0.98807    0.000
 4968.00    0.96332   0.98565    0.000
 4969.00    0.97116   0.98564    0.000
 4970.00    0.97442   0.98807    0.000
 4971.00    0.97476   0.99236    0.000
 4972.00    0.97514   0.99752    0.000
 4973.00    0.97463   1.00237    0.000
 4974.00    0.97173   1.00570    0.000
 4975.00    0.96957   1.00649    0.000
 4976.00    0.97253   1.00410    0.000
 4977.00    0.98100   0.99834    0.000
 4978.00    0.99014   0.98941    0.000
 4979.00    0.98999   0.97791    0.000
 4980.00    0.97503   0.96487    0.000
 4981.00    0.95420   0.95182    0.000
 4982.00    0.94021   0.94062    0.000
 4983.00    0.93729   0.93319    0.000
 4984.00    0.94324   0.93094    0.000
 4985.00    0.95304   0.93409    0.000
 4986.00    0.96301   0.94157    0.000
 4987.00    0.97395   0.95121    0.000
 4988.00    0.98601   0.96061    0.000
 4989.00    0.99478   0.96801    0.000
 4990.00    0.99739   0.97275    0.000
 4991.00    0.99725   0.97522    0.000
 4992.00    0.99847   0.97641    0.000
 4993.00    1.00148   0.97725    0.000
 4994.00    1.00522   0.97808    0.000
 4995.00    1.00869   0.97857    0.000
 4996.00    1.00881   0.97794    0.000
 4997.00    0.99994   0.97539    0.000
 4998.00    0.98138   0.97054    0.000
 4999.00    0.96129   0.96362    0.000
 5000.00    0.95035   0.95548    0.000
 5001.00    0.95744   0.94721    0.000
 5002.00    0.98841   0.93976    0.000
 5003.00    1.04475   0.93374    0.000
 5004.00    1.11966   0.92955    0.000
 5005.00    1.19752   0.92742    0.000
 5006.00    1.26200   0.92749    0.000
 5007.00    1.29985   0.92951    0.000
 5008.00    1.29929   0.93260    0.000
 5009.00    1.25224   0.93531    0.000
 5010.00    1.16802   0.93602    0.000
 5011.00    1.07430   0.93368    0.000
 5012.00    0.99535   0.92837    0.000
 5013.00    0.94271   0.92130    0.000
 5014.00    0.91564   0.91419    0.000
 5015.00    0.90478   0.90865    0.000
 5016.00    0.90384   0.90570    0.000
 5017.00    0.91141   0.90558    0.000
 5018.00    0.92218   0.90796    0.000
 5019.00    0.92672   0.91225    0.000
 5020.00    0.92127   0.91785    0.000
 5021.00    0.90966   0.92422    0.000
 5022.00    0.89894   0.93080    0.000
 5023.00    0.89663   0.93707    0.000
 5024.00    0.90675   0.94257    0.000
 5025.00    0.92832   0.94711    0.000
 5026.00    0.95422   0.95075    0.000
 5027.00    0.97420   0.95395    0.000
 5028.00    0.98274   0.95737    0.000
 5029.00    0.98040   0.96149   23.601
 5030.00    0.97198   0.96625   23.469
 5031.00    0.96379   0.97095   23.723
 5032.00    0.95877   0.97439   24.152
 5033.00    0.95595   0.97531   24.385
 5034.00    0.95184   0.97287   24.386
 5035.00    0.94325   0.96688   24.374
 5036.00    0.93209   0.95782   24.373
 5037.00    0.92257   0.94681   24.280
 5038.00    0.91452   0.93531   24.167
 5039.00    0.90599   0.92510   24.172
 5040.00    0.89977   0.91810   24.245
 5041.00    0.89963   0.91602   24.235
 5042.00    0.90277   0.91966   24.112
 5043.00    0.90474   0.92836   23.954
 5044.00    0.90859   0.93990   23.867
 5045.00    0.91930   0.95121   23.902
 5046.00    0.93380   0.95941   23.969
 5047.00    0.94464   0.96290   23.955
 5048.00    0.94704   0.96188   23.910
 5049.00    0.94125   0.95804   23.942
 5050.00    0.93406   0.95384   24.067
 5051.00    0.93273   0.95154   24.229
 5052.00    0.93779   0.95226   24.342
 5053.00    0.94616   0.95597   24.326
 5054.00    0.95573   0.96186   24.152
 5055.00    0.96499   0.96881   23.962
 5056.00    0.97244   0.97580   24.122
 5057.00    0.97939   0.98217   24.705
 5058.00    0.99189   0.98752   24.981
 5059.00    1.01075   0.99143   24.476
 5060.00    1.02330   0.99337   24.018
 5061.00    1.01831   0.99278   24.243
 5062.00    0.99910   0.98933   24.575
 5063.00    0.97646   0.98325   24.392
 5064.00    0.96102   0.97543   24.071
 5065.00    0.95738   0.96729   24.051
 5066.00    0.96086   0.96023   24.145
 5067.00    0.96483   0.95524   24.125
 5068.00    0.96620   0.95252   24.127
 5069.00    0.96348   0.95161   24.317
 5070.00    0.95573   0.95171   24.645
 5071.00    0.94629   0.95209   24.858
 5072.00    0.94354   0.95218   24.624
 5073.00    0.95090   0.95168   24.144
 5074.00    0.96187   0.95049   24.200
 5075.00    0.96850   0.94835   24.761
 5076.00    0.96692   0.94484   24.521
 5077.00    0.95927   0.93977   23.245
 5078.00    0.95264   0.93355   22.394
 5079.00    0.94888   0.92707   22.478
 5080.00    0.94166   0.92167   22.695
 5081.00    0.92810   0.91877   22.677
 5082.00    0.91314   0.91924   23.075
 5083.00    0.90329   0.92300   24.145
 5084.00    0.90311   0.92923   25.184
 5085.00    0.91296   0.93679   25.497
 5086.00    0.92859   0.94450   25.131
 5087.00    0.94321   0.95145   24.656
 5088.00    0.95032   0.95737   24.682
 5089.00    0.95089   0.96242   25.123
 5090.00    0.95235   0.96677   25.261
 5091.00    0.95587   0.97022   25.021
 5092.00    0.95556   0.97237   25.071
 5093.00    0.95083   0.97257   25.501
 5094.00    0.94689   0.97012   25.726
 5095.00    0.94360   0.96479   25.602
 5096.00    0.93690   0.95712   25.516
 5097.00    0.93288   0.94848   25.467
 5098.00    0.94291   0.94062   25.143
 5099.00    0.95982   0.93517   24.823
 5100.00    0.96313   0.93311   25.084
 5101.00    0.94900   0.93425   25.633
 5102.00    0.93081   0.93739   25.577
 5103.00    0.92183   0.94083   25.085
 5104.00    0.92809   0.94309   25.019
 5105.00    0.94258   0.94336   25.269
 5106.00    0.95168   0.94174   25.132
 5107.00    0.95121   0.93909   24.780
 5108.00    0.94574   0.93669   24.876
 5109.00    0.94050   0.93574   25.278
 5110.00    0.93927   0.93689   25.352
 5111.00    0.94361   0.94019   25.084
 5112.00    0.95202   0.94528   24.922
 5113.00    0.95883   0.95152   25.064
 5114.00    0.95872   0.95804   25.405
 5115.00    0.95410   0.96396   25.598
 5116.00    0.95078   0.96860   25.379
 5117.00    0.94966   0.97122   25.059
 5118.00    0.94834   0.97116   25.045
 5119.00    0.94553   0.96814   25.144
 5120.00    0.94226   0.96219   25.012
 5121.00    0.94233   0.95381   24.844
 5122.00    0.94713   0.94399   24.919
 5123.00    0.94953   0.93399   24.937
 5124.00    0.94321   0.92510   24.552
 5125.00    0.93415   0.91830   24.068
 5126.00    0.93088   0.91409   23.798
 5127.00    0.93220   0.91243   23.437
 5128.00    0.93150   0.91296   22.822
 5129.00    0.92350   0.91529   22.576
 5130.00    0.90931   0.91899   23.134
 5131.00    0.89987   0.92343   23.902
 5132.00    0.90388   0.92805   24.134
 5133.00    0.91695   0.93219   24.127
 5134.00    0.93096   0.93506   24.439
 5135.00    0.94301   0.93610   25.037
 5136.00    0.95180   0.93506   25.515
 5137.00    0.95435   0.93207   25.426
 5138.00    0.94912   0.92790   24.867
 5139.00    0.93878   0.92355   24.659
 5140.00    0.92970   0.91972   25.120
 5141.00    0.93025   0.91685   25.445
 5142.00    0.94111   0.91517   25.172
 5143.00    0.95061   0.91448   25.165
 5144.00    0.94882   0.91435   25.856
 5145.00    0.93639   0.91442   26.319
 5146.00    0.91887   0.91440   25.989
 5147.00    0.90243   0.91432   25.747
 5148.00    0.89150   0.91431   26.106
 5149.00    0.88781   0.91416   26.430
 5150.00    0.89217   0.91378   26.220
 5151.00    0.90475   0.91355   25.796
 5152.00    0.92106   0.91393   25.480
 5153.00    0.93173   0.91541   25.250
 5154.00    0.93156   0.91839   25.127
 5155.00    0.92352   0.92311   25.292
 5156.00    0.91615   0.92933   25.790
 5157.00    0.91956   0.93612   26.428
 5158.00    0.93427   0.94213   26.921
 5159.00    0.94970   0.94603   27.022
 5160.00    0.95729   0.94657   26.706
 5161.00    0.95525   0.94275   26.208
 5162.00    0.94547   0.93400   25.880
 5163.00    0.93089   0.92034   26.022
 5164.00    0.91081   0.90256   26.522
 5165.00    0.88194   0.88217   26.874
 5166.00    0.84738   0.86108   26.839
 5167.00    0.81642   0.84149   26.616
 5168.00    0.79465   0.82544   26.426
 5169.00    0.78249   0.81441   26.360
 5170.00    0.78019   0.80919   26.359
 5171.00    0.78805   0.80993   26.292
 5172.00    0.80303   0.81634   26.177
 5173.00    0.82031   0.82765   26.152
 5174.00    0.83960   0.84261   26.248
 5175.00    0.86348   0.85956   26.361
 5176.00    0.88958   0.87657   26.326
 5177.00    0.91085   0.89124   26.042
 5178.00    0.92060   0.90055   25.689
 5179.00    0.91557   0.90205   25.563
 5180.00    0.89982   0.89576   25.726
 5181.00    0.88163   0.88417   26.005
 5182.00    0.86581   0.87091   26.093
 5183.00    0.85405   0.85966   25.797
 5184.00    0.84844   0.85359   25.440
 5185.00    0.85087   0.85447   25.420
 5186.00    0.86076   0.86177   25.459
 5187.00    0.87485   0.87308   25.072
 5188.00    0.88756   0.88533   24.502
 5189.00    0.89385   0.89546   24.289
 5190.00    0.89344   0.90114    0.000
 5191.00    0.89019   0.90232    0.000
 5192.00    0.88984   0.90087    0.000
 5193.00    0.89645   0.89913    0.000
 5194.00    0.90815   0.89875    0.000
 5195.00    0.92123   0.90044    0.000
 5196.00    0.93606   0.90450    0.000
 5197.00    0.95333   0.91055    0.000
 5198.00    0.96902   0.91708    0.000
 5199.00    0.97739   0.92237    0.000
 5200.00    0.97545   0.92526    0.000
 5201.00    0.96443   0.92489    0.000
 5202.00    0.95052   0.92075    0.000
 5203.00    0.93894   0.91311    0.000
 5204.00    0.92850   0.90300    0.000
 5205.00    0.91766   0.89225    0.000
 5206.00    0.91022   0.88306    0.000
 5207.00    0.90898   0.87735    0.000
 5208.00    0.91022   0.87631    0.000
 5209.00    0.90990   0.88030    0.000
 5210.00    0.90909   0.88859    0.000
 5211.00    0.91086   0.89923   26.749
 5212.00    0.91726   0.90994   27.132
 5213.00    0.92784   0.91929   26.849
 5214.00    0.93904   0.92648   26.415
 5215.00    0.94773   0.93133   26.310
 5216.00    0.95356   0.93465   26.427
 5217.00    0.95782   0.93759   26.488
 5218.00    0.96220   0.94089   26.343
 5219.00    0.96598   0.94447   26.073
 5220.00    0.96528   0.94737   25.956
 5221.00    0.95896   0.94785   26.113
 5222.00    0.95081   0.94416   26.367
 5223.00    0.94202   0.93588   26.519
 5224.00    0.92864   0.92439   26.523
 5225.00    0.91030   0.91217   26.477
 5226.00    0.89319   0.90192   26.558
 5227.00    0.88160   0.89586   26.794
 5228.00    0.87491   0.89487   27.012
 5229.00    0.87347   0.89835   27.102
 5230.00    0.88001   0.90466   27.118
 5231.00    0.89371   0.91189   27.084
 5232.00    0.90888   0.91846   26.932
 5233.00    0.92076   0.92331   26.633
 5234.00    0.92793   0.92687   26.255
 5235.00    0.93209   0.93071   25.999
 5236.00    0.93659   0.93578   26.083
 5237.00    0.94154   0.94226   26.320
 5238.00    0.94404   0.94959   26.195
 5239.00    0.94458   0.95650   25.706
 5240.00    0.94714   0.96203   25.363
 5241.00    0.95241   0.96563   25.362
 5242.00    0.95697   0.96707   25.524
 5243.00    0.95760   0.96654   25.675
 5244.00    0.95323   0.96433   25.750
 5245.00    0.94683   0.96051   25.760
 5246.00    0.94326   0.95515   25.753
 5247.00    0.94253   0.94895   25.721
 5248.00    0.94075   0.94287   25.632
 5249.00    0.93666   0.93752   25.540
 5250.00    0.93215   0.93339   25.537
 5251.00    0.92982   0.93127   25.589
 5252.00    0.93127   0.93164   25.595
 5253.00    0.93494   0.93396   25.582
 5254.00    0.93804   0.93769   25.652
 5255.00    0.94136   0.94269   25.777
 5256.00    0.94777   0.94803   25.844
 5257.00    0.95766   0.95212   25.814
 5258.00    0.96796   0.95352   25.708
 5259.00    0.97223   0.95112   25.515
 5260.00    0.96463   0.94409   25.310
 5261.00    0.94634   0.93197   25.439
 5262.00    0.92364   0.91572   26.138
 5263.00    0.90304   0.89783   26.839
 5264.00    0.88804   0.88065   26.767
 5265.00    0.87597   0.86567   26.334
 5266.00    0.86335   0.85417   26.309
 5267.00    0.85359   0.84711   26.495
 5268.00    0.85165   0.84444   26.400
 5269.00    0.85586   0.84554   26.278
 5270.00    0.86219   0.84993   26.510
 5271.00    0.87064   0.85692   26.734
 5272.00    0.88226   0.86565   26.438
 5273.00    0.89506   0.87611   25.813
 5274.00    0.90647   0.88857   25.336
 5275.00    0.91648   0.90174   25.244
 5276.00    0.92666   0.91350   25.407
 5277.00    0.93858   0.92309   25.261
 5278.00    0.95120   0.93061   24.562
 5279.00    0.95917   0.93572   23.977
 5280.00    0.95861   0.93837   23.985
 5281.00    0.95206   0.93910   24.174
 5282.00    0.94308   0.93878   24.078
 5283.00    0.93176   0.93910   23.890
 5284.00    0.91998   0.94180   23.948
 5285.00    0.91509   0.94761   24.300
 5286.00    0.92364   0.95596   24.746
 5287.00    0.94602   0.96548   24.908
 5288.00    0.97510   0.97462   24.695
 5289.00    0.99719   0.98186   24.536
 5290.00    1.00473   0.98593   24.676
 5291.00    1.00304   0.98650   24.827
 5292.00    0.99842   0.98392   24.798
 5293.00    0.99081   0.97846   24.840
 5294.00    0.97706   0.97045   25.080
 5295.00    0.95426   0.96076   25.256
 5296.00    0.92587   0.95069   25.232
 5297.00    0.90305   0.94159   25.247
 5298.00    0.89407   0.93479   25.419
 5299.00    0.89908   0.93126   25.551
 5300.00    0.91299   0.93161   25.463
 5301.00    0.92796   0.93587   25.182
 5302.00    0.93801   0.94321   24.892
 5303.00    0.94136   0.95184   24.821
 5304.00    0.94090   0.96005   24.982
 5305.00    0.94242   0.96724   25.144
 5306.00    0.94640   0.97347   25.183
 5307.00    0.94787   0.97847   25.168
 5308.00    0.94866   0.98187   25.069
 5309.00    0.95762   0.98362   24.754
 5310.00    0.97449   0.98411   24.394
 5311.00    0.98827   0.98358   24.382
 5312.00    0.99170   0.98177   24.737
 5313.00    0.98520   0.97849   25.084
 5314.00    0.97320   0.97412   25.241
 5315.00    0.96186   0.96937   25.333
 5316.00    0.95609   0.96503   25.447
 5317.00    0.95776   0.96164   25.552
 5318.00    0.96348   0.95927   25.643
 5319.00    0.96711   0.95734   25.766
 5320.00    0.96805   0.95513   25.995
 5321.00    0.97003   0.95216   26.351
 5322.00    0.97312   0.94752   26.636
 5323.00    0.97315   0.94011   26.578
 5324.00    0.96527   0.92981   26.313
 5325.00    0.94677   0.91797   26.216
 5326.00    0.92124   0.90653   26.323
 5327.00    0.89658   0.89736   26.446
 5328.00    0.87908   0.89210   26.601
 5329.00    0.87286   0.89167   26.920
 5330.00    0.88080   0.89586   27.302
 5331.00    0.90238   0.90419   27.478
 5332.00    0.92940   0.91588   27.336
 5333.00    0.95066   0.92869   27.011
 5334.00    0.96078   0.93936   26.876
 5335.00    0.96031   0.94583   27.189
 5336.00    0.95337   0.94807   27.598
 5337.00    0.94565   0.94722   27.602
 5338.00    0.94197   0.94448   27.455
 5339.00    0.94479   0.94088   27.619
 5340.00    0.95270   0.93767   27.834
 5341.00    0.96097   0.93584   27.666
 5342.00    0.96312   0.93561   27.405
 5343.00    0.95621   0.93685   27.463
 5344.00    0.94676   0.93922   27.589
 5345.00    0.94331   0.94186   27.434
 5346.00    0.94709   0.94376   27.290
 5347.00    0.95419   0.94486   27.462
 5348.00    0.95936   0.94596   27.575
 5349.00    0.95953   0.94807   27.226
 5350.00    0.95663   0.95193   26.726
 5351.00    0.95363   0.95753   26.486
 5352.00    0.95067   0.96446   26.470
 5353.00    0.94853   0.97239   26.492
 5354.00    0.95150   0.98051   26.478
 5355.00    0.96316   0.98757   26.410
 5356.00    0.98239   0.99281   26.261
 5357.00    1.00332   0.99599   26.092
 5358.00    1.01641   0.99677   26.095
 5359.00    1.01550   0.99482   26.360
 5360.00    1.00273   0.99032   26.710
 5361.00    0.98557   0.98384   26.895
 5362.00    0.97332   0.97611   26.780
 5363.00    0.96983   0.96785   26.466
 5364.00    0.97002   0.95960   26.263
 5365.00    0.96835   0.95172   26.284
 5366.00    0.96392   0.94420   26.282
 5367.00    0.95760   0.93681   26.157
 5368.00    0.95009   0.92982   26.169
 5369.00    0.94219   0.92431   26.440
 5370.00    0.93528   0.92118   26.748
 5371.00    0.93286   0.92102   26.933
 5372.00    0.93994   0.92416   27.096
 5373.00    0.95625   0.93042   27.238
 5374.00    0.97452   0.93934   27.168
 5375.00    0.98864   0.94969   26.961
 5376.00    0.99707   0.95917   26.996
 5377.00    1.00081   0.96564   27.221
 5378.00    1.00162   0.96857   27.090
 5379.00    0.99874   0.96862   26.673
 5380.00    0.98967   0.96693   -2.000
 5381.00    0.97815   0.96480   -2.000
 5382.00    0.97314   0.96287   -2.000
 5383.00    0.97395   0.96133   -2.000
 5384.00    0.96949   0.96046   -2.000
 5385.00    0.95421   0.96008   -2.000
 5386.00    0.93206   0.95954   -2.000
 5387.00    0.91103   0.95839   -2.000
 5388.00    0.89990   0.95616   -2.000
 5389.00    0.90423   0.95241   -2.000
 5390.00    0.92380   0.94745   -2.000
 5391.00    0.94924   0.94197   -2.000
 5392.00    0.96594   0.93627   -2.000
 5393.00    0.96639   0.93047   -2.000
 5394.00    0.95243   0.92516   -2.000
 5395.00    0.93198   0.92096   27.054
 5396.00    0.91494   0.91798   27.419
 5397.00    0.90586   0.91623   27.750
 5398.00    0.90391   0.91572   28.057
 5399.00    0.90666   0.91591   28.060
 5400.00    0.91039   0.91613   27.538
 5401.00    0.90911   0.91582   27.082
 5402.00    0.89853   0.91386   27.400
 5403.00    0.88400   0.90974   28.051
 5404.00    0.87572   0.90454   28.000
 5405.00    0.87747   0.89943   27.403
 5406.00    0.88574   0.89489   27.105
 5407.00    0.89238   0.89210   27.253
 5408.00    0.89239   0.89262   27.485
 5409.00    0.89508   0.89674   27.447
 5410.00    0.91200   0.90323   27.075
 5411.00    0.93667   0.91044   26.818
 5412.00    0.95523   0.91772   27.036
 5413.00    0.96531   0.92559   27.249
 5414.00    0.97155   0.93410   26.871
 5415.00    0.97606   0.94196   26.378
 5416.00    0.97856   0.94787   26.431
 5417.00    0.97823   0.95164   26.843
 5418.00    0.97590   0.95399   27.045
 5419.00    0.97588   0.95520   26.801
 5420.00    0.97925   0.95463   26.365
 5421.00    0.97714   0.95233   26.381
 5422.00    0.96280   0.94957   27.148
 5423.00    0.94394   0.94743   27.925
 5424.00    0.93123   0.94601   27.907
 5425.00    0.92616   0.94444   27.574
 5426.00    0.92674   0.94176   27.587
 5427.00    0.93321   0.93859   27.743
 5428.00    0.94393   0.93581   27.714
 5429.00    0.95198   0.93264   27.702
 5430.00    0.95236   0.92817   27.926
 5431.00    0.94760   0.92284   28.189
 5432.00    0.94377   0.91833   28.233
 5433.00    0.94624   0.91678   28.057
 5434.00    0.95381   0.91852   27.851
 5435.00    0.95651   0.92227   27.877
 5436.00    0.94920   0.92782   28.234
 5437.00    0.93933   0.93555   28.736
 5438.00    0.93549   0.94485   29.137
 5439.00    0.93979   0.95432   29.304
 5440.00    0.94971   0.96214   29.228
 5441.00    0.96012   0.96659   29.005
 5442.00    0.96761   0.96655   28.812
 5443.00    0.97219   0.96214   28.841
 5444.00    0.97300   0.95497   29.085
 5445.00    0.96699   0.94722   29.277
 5446.00    0.95391   0.94038   29.219
 5447.00    0.93837   0.93534   28.949
 5448.00    0.92678   0.93278   28.601
 5449.00    0.92472   0.93293   28.302
 5450.00    0.93157   0.93522   28.095
 5451.00    0.93976   0.93777   27.939
 5452.00    0.94184   0.93818   27.843
 5453.00    0.93451   0.93623   27.866
 5454.00    0.92252   0.93348   27.933
 5455.00    0.91638   0.93121   27.839
 5456.00    0.91873   0.93009   27.552
 5457.00    0.92263   0.93029   27.260
 5458.00    0.92288   0.93182   27.197
 5459.00    0.91992   0.93449   27.506
 5460.00    0.91894   0.93711   27.964
 5461.00    0.92656   0.93825   28.078
 5462.00    0.94177   0.93765   27.825
 5463.00    0.95651   0.93615   27.629
 5464.00    0.96512   0.93506   27.603
 5465.00    0.96659   0.93505   27.524
 5466.00    0.96302   0.93620   27.307
 5467.00    0.95821   0.93832   27.073
 5468.00    0.95530   0.94016   26.998
 5469.00    0.95598   0.94045   27.198
 5470.00    0.96012   0.93915   27.521
 5471.00    0.96505   0.93645   27.669
 5472.00    0.96450   0.93190   27.622
 5473.00    0.95276   0.92551   27.595
 5474.00    0.93364   0.91869   27.728
 5475.00    0.91686   0.91286   28.041
 5476.00    0.90754   0.90841   28.466
 5477.00    0.90465   0.90564   28.853
 5478.00    0.90212   0.90451   28.981
 5479.00    0.89428   0.90507   28.755
 5480.00    0.88441   0.90832   28.513
 5481.00    0.88106   0.91405   28.659
 5482.00    0.88960   0.91998   29.108
 5483.00    0.90919   0.92448   29.501
 5484.00    0.93071   0.92794   29.698
 5485.00    0.94272   0.93140   29.716
 5486.00    0.94070   0.93460   29.500
 5487.00    0.92960   0.93668   29.113
 5488.00    0.92445   0.93760   28.951
 5489.00    0.93318   0.93755   29.088
 5490.00    0.93720   0.93713   28.579
 5491.00    0.92453   0.93746   -2.000
 5492.00    0.92726   0.93848   -2.000
 5493.00    0.95972   0.93898   -2.000
 5494.00    0.95438   0.93878   -2.000
 5495.00    0.88108   0.93836   -2.000
 5496.00    0.86465   0.93793   -2.000
 5497.00    1.01438   0.93748   -2.000
 5498.00    1.25160   0.93662   -2.000
 5499.00    1.40311   0.93496   -2.000
 5500.00    1.31781   0.93297   -2.000
 5501.00    0.99802   0.93144   -2.000
 5502.00    0.67721   0.92970   -2.000
 5503.00    0.55665   0.92670   -2.000
 5504.00    0.60014   0.92349   -2.000
 5505.00    0.69424   0.92166   -2.000
 5506.00    0.78368   0.92098   -2.000
 5507.00    0.85236   0.92054   -2.000
 5508.00    0.90082   0.91965   -2.000
 5509.00    0.93288   0.91837   -2.000
 5510.00    0.94840   0.91761   -2.000
 5511.00    0.95035   0.91736   -2.000
 5512.00    0.94801   0.91696   -2.000
 5513.00    0.94653   0.91700   -2.000
 5514.00    0.94267   0.91833   10.847
 5515.00    0.93759   0.92140   11.208
 5516.00    0.94131   0.92628   10.333
 5517.00    0.95533   0.93217    9.638
 5518.00    0.96676   0.93796   11.274
 5519.00    0.96732   0.94292   18.831
 5520.00    0.96110   0.94660   35.114
 5521.00    0.95433   0.94858   33.943
 5522.00    0.95025   0.94825   26.035
 5523.00    0.94954   0.94565   25.730
 5524.00    0.95101   0.94127   32.647
 5525.00    0.95367   0.93577   35.703
 5526.00    0.95717   0.93034   21.655
 5527.00    0.96045   0.92590   12.296
 5528.00    0.96188   0.92270    9.777
 5529.00    0.96161   0.92103    9.988
 5530.00    0.96170   0.92095   10.651
 5531.00    0.96337   0.92231   10.554
 5532.00    0.96602   0.92494   10.219
 5533.00    0.96737   0.92787   10.210
 5534.00    0.96443   0.92994   10.550
 5535.00    0.95652   0.93127   10.700
 5536.00    0.94580   0.93277   10.130
 5537.00    0.93621   0.93484   10.052
 5538.00    0.93172   0.93754   12.861
 5539.00    0.93254   0.94047   22.798
 5540.00    0.93588   0.94263   35.703
 5541.00    0.94031   0.94380   31.385
 5542.00    0.94550   0.94439   27.014
 5543.00    0.94903   0.94440   28.012
 5544.00    0.94757   0.94404   29.220
 5545.00    0.94127   0.94394   28.409
 5546.00    0.93443   0.94468   27.527
 5547.00    0.93479   0.94658   27.657
 5548.00    0.94754   0.94907   28.395
 5549.00    0.96444   0.95135   28.051
 5550.00    0.97209   0.95303   26.168
 5551.00    0.97068   0.95366   26.761
 5552.00    0.96847   0.95300   33.164
 5553.00    0.96662   0.95146   31.140
 5554.00    0.96238   0.94934   17.043
 5555.00    0.95851   0.94695   10.889
 5556.00    0.96075   0.94484    9.664
 5557.00    0.97157   0.94327   10.183
 5558.00    0.98872   0.94215   10.389
 5559.00    1.00466   0.94081    9.985
 5560.00    1.01104   0.93882    9.792
 5561.00    1.00450   0.93654    9.944
 5562.00    0.98541   0.93398   10.210
 5563.00    0.95504   0.93095   10.479
 5564.00    0.91528   0.92786   10.824
 5565.00    0.86894   0.92502   11.496
 5566.00    0.82300   0.92266   12.475
 5567.00    0.79159   0.92115   12.647
 5568.00    0.78809   0.92035   11.786
 5569.00    0.81589   0.91971   12.286
 5570.00    0.86382   0.91947   16.967
 5571.00    0.90471   0.92007   27.682
 5572.00    0.91887   0.92121   31.865
 5573.00    0.91436   0.92281   27.639
 5574.00    0.90739   0.92479   27.269
 5575.00    0.90379   0.92663   29.532
 5576.00    0.90306   0.92897   30.281
 5577.00    0.90337   0.93194   29.498
 5578.00    0.90417   0.93399   29.125
 5579.00    0.90746   0.93479   29.653
 5580.00    0.91303   0.93494   30.181
 5581.00    0.91577   0.93394   28.915
 5582.00    0.91132   0.93119   27.299
 5583.00    0.90000   0.92636   29.946
 5584.00    0.88557   0.91938   35.165
 5585.00    0.87358   0.91132   25.451
 5586.00    0.86780   0.90335   14.657
 5587.00    0.86834   0.89610   11.059
 5588.00    0.87372   0.89027   10.876
 5589.00    0.88211   0.88657   11.502
 5590.00    0.89146   0.88560   11.407
 5591.00    0.89963   0.88737   11.065
 5592.00    0.90465   0.89141   11.022
 5593.00    0.90549   0.89687   11.033
 5594.00    0.90455   0.90186   10.982
 5595.00    0.90724   0.90510   11.116
 5596.00    0.91480   0.90697   11.189
 5597.00    0.92220   0.90800   10.559
 5598.00    0.92320   0.90808   10.154
 5599.00    0.91393   0.90678   12.181
 5600.00    0.89766   0.90451   20.102
 5601.00    0.88434   0.90349   33.165
 5602.00    0.88175   0.90527   30.822
 5603.00    0.89192   0.90936   25.630
 5604.00    0.91032   0.91510   25.368
 5605.00    0.92814   0.92237   26.376
 5606.00    0.93996   0.93068   26.337
 5607.00    0.94525   0.93867   25.963
 5608.00    0.94456   0.94476   25.792
 5609.00    0.93893   0.94829   25.516
 5610.00    0.93131   0.94914   25.198
 5611.00    0.92576   0.94690   25.241
 5612.00    0.92420   0.94159   25.503
 5613.00    0.92549   0.93476   25.481
 5614.00    0.92549   0.92807   25.400
 5615.00    0.92037   0.92177   25.935
 5616.00    0.91391   0.91588   26.865
 5617.00    0.91382   0.91126   27.269
 5618.00    0.91976   0.90961   27.185
 5619.00    0.92469   0.91136   27.420
 5620.00    0.92354   0.91397   28.002
 5621.00    0.91634   0.91492   28.349
 5622.00    0.91040   0.91459   28.360
 5623.00    0.91435   0.91444   28.356
 5624.00    0.92664   0.91465   28.409
 5625.00    0.93862   0.91483   28.411
 5626.00    0.94379   0.91541   28.410
 5627.00    0.94093   0.91753   28.505
 5628.00    0.93627   0.92172   28.597
 5629.00    0.93697   0.92682   28.526
 5630.00    0.94096   0.93110   28.362
 5631.00    0.94172   0.93399   28.242
 5632.00    0.93745   0.93538   28.088
 5633.00    0.93046   0.93490   27.800
 5634.00    0.92436   0.93258   27.527
 5635.00    0.92194   0.92917   27.472
 5636.00    0.92303   0.92556   27.635
 5637.00    0.92503   0.92212   27.896
 5638.00    0.92411   0.91892   28.149
 5639.00    0.91859   0.91642   28.365
 5640.00    0.91222   0.91518   28.633
 5641.00    0.91011   0.91516   28.939
 5642.00    0.91398   0.91588   28.949
 5643.00    0.92222   0.91693   28.513
 5644.00    0.93079   0.91860   28.119
 5645.00    0.93655   0.92094   28.180
 5646.00    0.94010   0.92318   28.480
 5647.00    0.94273   0.92493   28.650
 5648.00    0.94371   0.92650   28.643
 5649.00    0.94269   0.92787   28.661
 5650.00    0.94164   0.92856   28.999
 5651.00    0.94248   0.92800   29.659
 5652.00    0.94510   0.92635   30.073
 5653.00    0.94708   0.92429   29.878
 5654.00    0.94415   0.92130   29.521
 5655.00    0.93470   0.91629   29.464
 5656.00    0.92228   0.91004   29.686
 5657.00    0.91155   0.90453   29.980
 5658.00    0.90514   0.90052   30.147
 5659.00    0.90221   0.89724   30.053
 5660.00    0.89858   0.89460   29.698
 5661.00    0.89277   0.89438   29.344
 5662.00    0.88852   0.89737   29.431
 5663.00    0.88904   0.90144   29.933
 5664.00    0.89396   0.90459   30.143
 5665.00    0.90048   0.90744   29.713
 5666.00    0.90469   0.91098   29.102
 5667.00    0.90483   0.91462   28.616
 5668.00    0.90252   0.91746   28.159
 5669.00    0.90122   0.91982   27.897
 5670.00    0.90477   0.92265   28.295
 5671.00    0.91455   0.92616   29.165
 5672.00    0.92845   0.92967   29.481
 5673.00    0.94172   0.93286   28.987
 5674.00    0.94899   0.93575   28.568
 5675.00    0.95037   0.93786   28.569
 5676.00    0.95128   0.93847   28.561
 5677.00    0.95387   0.93762   28.375
 5678.00    0.95571   0.93585   28.273
 5679.00    0.95549   0.93317   28.322
 5680.00    0.95398   0.92943   28.343
 5681.00    0.95101   0.92526   28.367
 5682.00    0.94505   0.92148   28.621
 5683.00    0.93478   0.91804   29.051
 5684.00    0.92090   0.91460   29.284
 5685.00    0.90914   0.91182   29.014
 5686.00    0.90684   0.91077   28.254
 5687.00    0.91197   0.91137   27.475
 5688.00    0.91548   0.91277   27.164
 5689.00    0.91364   0.91484   27.045
 5690.00    0.90918   0.91786   26.515
 5691.00    0.90686   0.92165   25.851
 5692.00    0.91036   0.92547   25.760
 5693.00    0.91785   0.92854   26.227
 5694.00    0.92417   0.93035   26.752
 5695.00    0.92697   0.93054   27.196
 5696.00    0.92666   0.92912   27.736
 5697.00    0.92408   0.92656   28.321
 5698.00    0.92015   0.92319   28.701
 5699.00    0.91624   0.91923   28.761
 5700.00    0.91303   0.91518   28.581
 5701.00    0.90884   0.91169   28.381
 5702.00    0.90171   0.90864   28.377
 5703.00    0.89286   0.90537   28.611
 5704.00    0.88522   0.90196   28.918
 5705.00    0.88037   0.89870   28.919
 5706.00    0.87734   0.89522   28.401
 5707.00    0.87203   0.89136   27.774
 5708.00    0.86247   0.88757   27.406
 5709.00    0.85528   0.88483   26.925
 5710.00    0.85762   0.88422   26.026
 5711.00    0.86676   0.88600   25.289
 5712.00    0.87536   0.89005   25.194
 5713.00    0.87900   0.89584   25.287
 5714.00    0.87813   0.90259   25.137
 5715.00    0.87861   0.90991   25.336
 5716.00    0.88466   0.91713   26.378
 5717.00    0.89235   0.92336   27.435
 5718.00    0.89654   0.92856   27.554
 5719.00    0.89810   0.93295   27.445
 5720.00    0.90227   0.93657   27.920
 5721.00    0.91587   0.93953   28.401
 5722.00    0.94014   0.94172   28.249
 5723.00    0.96590   0.94278   28.044
 5724.00    0.98255   0.94263   28.339
 5725.00    0.98563   0.94163   28.747
 5726.00    0.97614   0.94029   28.858
 5727.00    0.95936   0.93867   28.952
 5728.00    0.94217   0.93649   29.266
 5729.00    0.93094   0.93425   29.484
 5730.00    0.92988   0.93319   29.405
 5731.00    0.93980   0.93351   29.342
 5732.00    0.95658   0.93415   29.489
 5733.00    0.97165   0.93450   29.585
 5734.00    0.97962   0.93509   29.335
 5735.00    0.98187   0.93631   28.734
 5736.00    0.98057   0.93746   28.141
 5737.00    0.97599   0.93789   28.105
 5738.00    0.96956   0.93765   28.633
 5739.00    0.96488   0.93705   28.991
 5740.00    0.96433   0.93634    0.000
 5741.00    0.96743   0.93580    0.000
 5742.00    0.97146   0.93571    0.000
 5743.00    0.97266   0.93587    0.000
 5744.00    0.97030   0.93567    0.000
 5745.00    0.96717   0.93487    0.000
 5746.00    0.96483   0.93406    0.000
 5747.00    0.96220   0.93355    0.000
 5748.00    0.95773   0.93256    0.000
 5749.00    0.95070   0.93027    0.000
 5750.00    0.94241   0.92707    0.000
 5751.00    0.93592   0.92430    0.000
 5752.00    0.93364   0.92263    0.000
 5753.00    0.93603   0.92167    0.000
 5754.00    0.94007   0.92095    0.000
 5755.00    0.94083   0.92077    0.000
 5756.00    0.93705   0.92165    0.000
 5757.00    0.93159   0.92337    0.000
 5758.00    0.92795   0.92483    0.000
 5759.00    0.92852   0.92494    0.000
 5760.00    0.93268   0.92385    0.000
 5761.00    0.93776   0.92264    0.000
 5762.00    0.94220   0.92211    0.000
 5763.00    0.94589   0.92238    0.000
 5764.00    0.94904   0.92366    0.000
 5765.00    0.95104   0.92630    0.000
 5766.00    0.94895   0.93016    0.000
 5767.00    0.94064   0.93393    0.000
 5768.00    0.93158   0.93638    0.000
 5769.00    0.93026   0.93737    0.000
 5770.00    0.93720   0.93730    0.000
 5771.00    0.94584   0.93639    0.000
 5772.00    0.94813   0.93480    0.000
 5773.00    0.93979   0.93291    0.000
 5774.00    0.92708   0.93104    0.000
 5775.00    0.92046   0.92922    0.000
 5776.00    0.92311   0.92699    0.000
 5777.00    0.93135   0.92379    0.000
 5778.00    0.93815   0.91945    0.000
 5779.00    0.93715   0.91421    0.000
 5780.00    0.92740   0.90857    0.000
 5781.00    0.91268   0.90276    0.000
 5782.00    0.89947   0.89690    0.000
 5783.00    0.89355   0.89221    0.000
 5784.00    0.89618   0.89034    0.000
 5785.00    0.90547   0.89129    0.000
 5786.00    0.91857   0.89367    0.000
 5787.00    0.93292   0.89675    0.000
 5788.00    0.94726   0.90068    0.000
 5789.00    0.95940   0.90538    0.000
 5790.00    0.96448   0.90998    0.000
 5791.00    0.96063   0.91386    0.000
 5792.00    0.95393   0.91701    0.000
 5793.00    0.95117   0.91965    0.000
 5794.00    0.95315   0.92205    0.000
 5795.00    0.95637   0.92405    0.000
 5796.00    0.95552   0.92590    0.000
 5797.00    0.94810   0.92795    0.000
 5798.00    0.93740   0.92979    0.000
 5799.00    0.92861   0.93110    0.000
 5800.00    0.92537   0.93239    0.000
 5801.00    0.92821   0.93386    0.000
 5802.00    0.93385   0.93479    0.000
 5803.00    0.93662   0.93470    0.000
 5804.00    0.93041   0.93390   -2.000
 5805.00    0.91421   0.93270   -2.000
 5806.00    0.89455   0.93129   -2.000
 5807.00    0.87888   0.93036   -2.000
 5808.00    0.87163   0.93039   -2.000
 5809.00    0.87458   0.93105   -2.000
 5810.00    0.88713   0.93177   -2.000
 5811.00    0.90609   0.93224   -2.000
 5812.00    0.92611   0.93233   -2.000
 5813.00    0.94206   0.93187   -2.000
 5814.00    0.95056   0.93110   -2.000
 5815.00    0.95131   0.93069   -2.000
 5816.00    0.94718   0.93087   -2.000
 5817.00    0.94229   0.93144   -2.000
 5818.00    0.94040   0.93260   -2.000
 5819.00    0.94205   0.93473   -2.000
 5820.00    0.94432   0.93736   -2.000
 5821.00    0.94431   0.93957   -2.000
 5822.00    0.94095   0.94109   -2.000
 5823.00    0.93651   0.94211   -2.000
 5824.00    0.93558   0.94262    0.000
 5825.00    0.94016   0.94275    0.000
 5826.00    0.94818   0.94289    0.000
 5827.00    0.95448   0.94315    0.000
 5828.00    0.95351   0.94319    0.000
 5829.00    0.94607   0.94293    0.000
 5830.00    0.93872   0.94262    0.000
 5831.00    0.93656   0.94213    0.000
 5832.00    0.94101   0.94118    0.000
 5833.00    0.94994   0.94003    0.000
 5834.00    0.95893   0.93914    0.000
 5835.00    0.96438   0.93833    0.000
 5836.00    0.96428   0.93745    0.000
 5837.00    0.95808   0.93715    0.000
 5838.00    0.94651   0.93783    0.000
 5839.00    0.93147   0.93881    0.000
 5840.00    0.91624   0.93948    0.000
 5841.00    0.90604   0.94011    0.000
 5842.00    0.90533   0.94068    0.000
 5843.00    0.91273   0.94058    0.000
 5844.00    0.92240   0.93942    0.000
 5845.00    0.92831   0.93738    0.000
 5846.00    0.92701   0.93483    0.000
 5847.00    0.92068   0.93203    0.000
 5848.00    0.91384   0.92897    0.000
 5849.00    0.90762   0.92553    0.000
 5850.00    0.90219   0.92169    0.000
 5851.00    0.90152   0.91778    0.000
 5852.00    0.90929   0.91409    0.000
 5853.00    0.92228   0.91030    0.000
 5854.00    0.93396   0.90576    0.000
 5855.00    0.94022   0.90100    0.000
 5856.00    0.93960   0.89775    0.000
 5857.00    0.93260   0.89647    0.000
 5858.00    0.92149   0.89598    0.000
 5859.00    0.91002   0.89575    0.000
 5860.00    0.90135   0.89675    0.000
 5861.00    0.89574   0.89967    0.000
 5862.00    0.89121   0.90349    0.000
 5863.00    0.88470   0.90673    0.000
 5864.00    0.87628   0.90889    0.000
 5865.00    0.87239   0.91101    0.000
 5866.00    0.87916   0.91369    0.000
 5867.00    0.89619   0.91612    0.000
 5868.00    0.91915   0.91766    0.000
 5869.00    0.94273   0.91877    0.000
 5870.00    0.96319   0.91994    0.000
 5871.00    0.97997   0.92066    0.000
 5872.00    0.99343   0.92022    0.000
 5873.00    1.00307   0.91859    0.000
 5874.00    1.00884   0.91633    0.000
 5875.00    1.01188   0.91407    0.000
 5876.00    1.01235   0.91179    0.000
 5877.00    1.00828   0.90924    0.000
 5878.00    0.99767   0.90693    0.000
 5879.00    0.98014   0.90542    0.000
 5880.00    0.95886   0.90431    0.000
 5881.00    0.94052   0.90219    0.000
 5882.00    0.92927   0.89886    0.000
 5883.00    0.92381   0.89468    0.000
 5884.00    0.92034   0.88908    0.000
 5885.00    0.91424   0.88042    0.000
 5886.00    0.90039   0.86758    0.000
 5887.00    0.87463   0.85126    0.000
 5888.00    0.83977   0.83427    0.000
 5889.00    0.80624   0.81926    0.000
 5890.00    0.78218   0.80604    0.000
 5891.00    0.76955   0.79427    0.000
 5892.00    0.76593   0.78635    0.000
 5893.00    0.76642   0.78414    0.000
 5894.00    0.76734   0.78654    0.000
 5895.00    0.76738   0.79201    0.000
 5896.00    0.76634   0.79909    0.000
 5897.00    0.76527   0.80654    0.000
 5898.00    0.76818   0.81643    0.000
 5899.00    0.78061   0.83065    0.000
 5900.00    0.80282   0.84611    0.000
 5901.00    0.82972   0.85953   28.914
 5902.00    0.85703   0.87091   29.091
 5903.00    0.88234   0.88072   29.064
 5904.00    0.90278   0.88857   28.792
 5905.00    0.91509   0.89437   28.591
 5906.00    0.91746   0.89842   28.597
 5907.00    0.91071   0.90091   28.718
 5908.00    0.89974   0.90258   28.812
 5909.00    0.89145   0.90397   28.785
 5910.00    0.88919   0.90459   28.728
 5911.00    0.89256   0.90371   28.796
 5912.00    0.89983   0.90193   28.891
 5913.00    0.90900   0.90032   28.789
 5914.00    0.91877   0.89887   28.558
 5915.00    0.92847   0.89730   28.413
 5916.00    0.93770   0.89620   28.315
 5917.00    0.94574   0.89652   28.092
 5918.00    0.95079   0.89810   27.790
 5919.00    0.95092   0.90013   27.594
 5920.00    0.94590   0.90206   27.637
 5921.00    0.93746   0.90388   27.933
 5922.00    0.92907   0.90564   28.314
 5923.00    0.92375   0.90687   28.553
 5924.00    0.92094   0.90740   28.604
 5925.00    0.91844   0.90748   28.582
 5926.00    0.91573   0.90709   28.657
 5927.00    0.91310   0.90603   28.891
 5928.00    0.91000   0.90468   29.051
 5929.00    0.90501   0.90363   28.955
 5930.00    0.89640   0.90280   28.915
 5931.00    0.88536   0.90179   29.254
 5932.00    0.87922   0.90098   29.723
 5933.00    0.88407   0.90150   29.883
 5934.00    0.89678   0.90294   29.689
 5935.00    0.90932   0.90392   29.394
 5936.00    0.91469   0.90436   29.313
 5937.00    0.91097   0.90514   29.570
 5938.00    0.90418   0.90611   29.909
 5939.00    0.90101   0.90635   29.988
 5940.00    0.90219   0.90612   29.725
 5941.00    0.90546   0.90595   29.297
 5942.00    0.90857   0.90557   29.026
 5943.00    0.90982   0.90503   29.064
 5944.00    0.90837   0.90492   29.202
 5945.00    0.90498   0.90490   29.171
 5946.00    0.90232   0.90429   28.903
 5947.00    0.90272   0.90343   28.585
 5948.00    0.90642   0.90281   28.578
 5949.00    0.91138   0.90177   28.918
 5950.00    0.91382   0.89974   29.084
 5951.00    0.91229   0.89802   28.789
 5952.00    0.90947   0.89787   28.438
 5953.00    0.90729   0.89808   28.385
 5954.00    0.90447   0.89725   28.571
 5955.00    0.90046   0.89661   28.802
 5956.00    0.89723   0.89756   28.920
 5957.00    0.89705   0.89924   28.946
 5958.00    0.90089   0.90056   29.067
 5959.00    0.90718   0.90207   29.268
 5960.00    0.91175   0.90440   29.243
 5961.00    0.91028   0.90707   28.969
 5962.00    0.90046   0.90936   28.837
 5963.00    0.88600   0.91087   29.029
 5964.00    0.87594   0.91191   29.353
 5965.00    0.87460   0.91286   29.572
 5966.00    0.87923   0.91364   29.566
 5967.00    0.88735   0.91412   29.364
 5968.00    0.89864   0.91471   29.120
 5969.00    0.91077   0.91570   29.025
 5970.00    0.91899   0.91648   29.212
 5971.00    0.92023   0.91662   29.564
 5972.00    0.91465   0.91604   29.760
 5973.00    0.90627   0.91447   29.729
 5974.00    0.90128   0.91199   29.676
 5975.00    0.90274   0.90910   29.655
 5976.00    0.90937   0.90610   29.536
 5977.00    0.91671   0.90318   29.274
 5978.00    0.91907   0.90084   28.991
 5979.00    0.91365   0.89928   28.946
 5980.00    0.90188   0.89809   29.329
 5981.00    0.88986   0.89677   29.726
 5982.00    0.88507   0.89542   29.459
 5983.00    0.88860   0.89440   28.844
 5984.00    0.89558   0.89354   28.723
 5985.00    0.90020   0.89240   29.056
 5986.00    0.89883   0.89178   29.214
 5987.00    0.89394   0.89292   29.111
 5988.00    0.89138   0.89502   29.112
 5989.00    0.89378   0.89669   29.307
 5990.00    0.90000   0.89844   29.514
 5991.00    0.90671   0.90088   29.530
 5992.00    0.91001   0.90293   29.334
 5993.00    0.90777   0.90377   29.307
 5994.00    0.89991   0.90403   29.777
 5995.00    0.88823   0.90417   30.281
 5996.00    0.87642   0.90370   30.191
 5997.00    0.87003   0.90255   29.996
 5998.00    0.87252   0.90115   30.346
 5999.00    0.88002   0.89962   30.526
 6000.00    0.88543   0.89798   29.703
 6001.00    0.88499   0.89668   28.860
 6002.00    0.87908   0.89592   29.126
 6003.00    0.87183   0.89502   30.096
 6004.00    0.86771   0.89332   30.683
 6005.00    0.86762   0.89131   30.512
 6006.00    0.87082   0.88990   29.905
 6007.00    0.87742   0.88928   29.372
 6008.00    0.88707   0.88900   29.210
 6009.00    0.89731   0.88848   29.298
 6010.00    0.90477   0.88784   29.327
 6011.00    0.90669   0.88820   29.065
 6012.00    0.90246   0.88947   28.605
 6013.00    0.89476   0.88985   28.451
 6014.00    0.88777   0.88869   28.858
 6015.00    0.88528   0.88740   29.364
 6016.00    0.88878   0.88706   29.490
 6017.00    0.89618   0.88642   29.410
 6018.00    0.90372   0.88467   29.407
 6019.00    0.90774   0.88340   29.415
 6020.00    0.90607   0.88338   29.263
 6021.00    0.89904   0.88333   28.905
 6022.00    0.88994   0.88326   28.551
 6023.00    0.88441   0.88462   28.620
 6024.00    0.88500   0.88706   29.128
 6025.00    0.88828   0.88946   29.407
 6026.00    0.88912   0.89222   29.075
 6027.00    0.88404   0.89589   28.594
 6028.00    0.87490   0.89934   28.375
 6029.00    0.86927   0.90201   28.364
 6030.00    0.87189   0.90487   28.370
 6031.00    0.88077   0.90779   28.259
 6032.00    0.89163   0.90982   28.114
 6033.00    0.90074   0.91113   28.199
 6034.00    0.90747   0.91236   28.500
 6035.00    0.91429   0.91333   28.636
 6036.00    0.92192   0.91360   28.517
 6037.00    0.92798   0.91330   28.510
 6038.00    0.93066   0.91281   28.779
 6039.00    0.92981   0.91226   29.101
 6040.00    0.92490   0.91166   29.254
 6041.00    0.91511   0.91128   29.180
 6042.00    0.90233   0.91128   28.943
 6043.00    0.89113   0.91160   28.703
 6044.00    0.88459   0.91224   28.723
 6045.00    0.88309   0.91342   29.229
 6046.00    0.88515   0.91456   29.925
 6047.00    0.88850   0.91514   30.063
 6048.00    0.89255   0.91550   29.554
 6049.00    0.89818   0.91556   29.030
 6050.00    0.90540   0.91473   28.879
 6051.00    0.91268   0.91312   29.087
 6052.00    0.91755   0.91142   29.361
 6053.00    0.91742   0.90948   29.329
 6054.00    0.91158   0.90706   29.034
 6055.00    0.90237   0.90492   28.829
 6056.00    0.89680   0.90369   28.844
 6057.00    0.90202   0.90305   28.961
 6058.00    0.91509   0.90253   29.010
 6059.00    0.92665   0.90234   28.889
 6060.00    0.93320   0.90231   28.717
 6061.00    0.93648   0.90204   28.680
 6062.00    0.93706   0.90104   28.702
 6063.00    0.93393   0.89942   28.629
 6064.00    0.92590   0.89834   28.662
 6065.00    0.91397   0.89855   29.045
 6066.00    0.90458   0.89931   29.415
 6067.00    0.90474   0.90044   29.190
 6068.00    0.91343   0.90323   28.520
 6069.00    0.92426   0.90742   27.960
 6070.00    0.93181   0.91111   27.782
 6071.00    0.93421   0.91367   27.997
 6072.00    0.93520   0.91547   28.428
 6073.00    0.93927   0.91642   28.783
 6074.00    0.94488   0.91615   28.768
 6075.00    0.94681   0.91444   28.367
 6076.00    0.94028   0.91142   28.058
 6077.00    0.92427   0.90800   28.242
 6078.00    0.90435   0.90473   28.663
 6079.00    0.88756   0.90101   28.904
 6080.00    0.87634   0.89691   29.044
 6081.00    0.86996   0.89409   29.322
 6082.00    0.86684   0.89276   29.660
 6083.00    0.86655   0.89121   29.815
 6084.00    0.87128   0.88967   29.616
 6085.00    0.88175   0.88950   29.217
 6086.00    0.89385   0.89006   29.157
 6087.00    0.90295   0.88979   29.618
 6088.00    0.90781   0.88922   29.877
 6089.00    0.90824   0.88946   29.470
 6090.00    0.90330   0.88993   29.138
 6091.00    0.89420   0.88973   29.426
 6092.00    0.88598   0.88975   29.789
 6093.00    0.88189   0.89102   29.635
 6094.00    0.87984   0.89246   29.171
 6095.00    0.87759   0.89321   28.889
 6096.00    0.87630   0.89392   29.127
 6097.00    0.87884   0.89459   29.762
 6098.00    0.88759   0.89408   30.078
 6099.00    0.89900   0.89179   29.725
 6100.00    0.90250   0.88798   29.266
 6101.00    0.89335   0.88424   29.169
 6102.00    0.87822   0.88206   29.349
 6103.00    0.86471   0.88030   29.472
 6104.00    0.85563   0.87817   29.215
 6105.00    0.85057   0.87800   28.775
 6106.00    0.84774   0.88124   28.821
 6107.00    0.84814   0.88544   29.381
 6108.00    0.85590   0.88852   29.611
 6109.00    0.87062   0.89076   29.291
 6110.00    0.88579   0.89320   29.234
 6111.00    0.89692   0.89596   29.725
 6112.00    0.90444   0.89773   30.163
 6113.00    0.91129   0.89780   30.194
 6114.00    0.92060   0.89722   30.074
 6115.00    0.93127   0.89695   29.935
 6116.00    0.93848   0.89605   29.622
 6117.00    0.94090   0.89347   29.113
 6118.00    0.94111   0.88977   28.613
 6119.00    0.93842   0.88590   28.397
 6120.00    0.92925   0.88182   28.670
 6121.00    0.91529   0.87825   29.245
 6122.00    0.90351   0.87590   29.598
 6123.00    0.89920   0.87410   29.498
 6124.00    0.90347   0.87313   29.142
 6125.00    0.91254   0.87452   28.788
 6126.00    0.91969   0.87724   28.613
 6127.00    0.92031   0.87936   28.650
 6128.00    0.91384   0.88130   28.822
 6129.00    0.90477   0.88337   29.019
 6130.00    0.89907   0.88446   29.148
 6131.00    0.89582   0.88431   29.196
 6132.00    0.88959   0.88314   29.241
 6133.00    0.87920   0.88028   29.430
 6134.00    0.86741   0.87505   29.821
 6135.00    0.85677   0.86873   30.087
 6136.00    0.84886   0.86370   29.832
 6137.00    0.84454   0.86051   29.343
 6138.00    0.84425   0.85772   29.196
 6139.00    0.84832   0.85595   29.476
 6140.00    0.85677   0.85823   29.896
 6141.00    0.86888   0.86409   30.120
 6142.00    0.88233   0.86935   29.986
 6143.00    0.89231   0.87269   29.746
 6144.00    0.89516   0.87648   29.717
 6145.00    0.89363   0.88099   29.793
 6146.00    0.89258   0.88360   29.679
 6147.00    0.89231   0.88393   29.315
 6148.00    0.89079   0.88361   28.756
 6149.00    0.88755   0.88329   27.983
 6150.00    0.88353   0.88266   27.064
 6151.00    0.88023   0.88183   26.306
 6152.00    0.87837   0.88071   26.002
 6153.00    0.87660   0.87965   26.249
 6154.00    0.87259   0.87873   26.965
 6155.00    0.86454   0.87683   27.852
 6156.00    0.85324   0.87318   28.546
 6157.00    0.84359   0.86883   28.900
 6158.00    0.83940   0.86372   28.952
 6159.00    0.83877   0.85636   28.830
 6160.00    0.83857   0.84801   28.786
 6161.00    0.83848   0.84133   29.183
 6162.00    0.83947   0.83608   29.965
 6163.00    0.84196   0.83104   30.240
 6164.00    0.84425   0.82807   29.666
 6165.00    0.84205   0.82914   29.424
 6166.00    0.83440   0.83198   30.255
 6167.00    0.82699   0.83356   31.337
 6168.00    0.82510   0.83528   31.583
 6169.00    0.82879   0.83916   30.953
 6170.00    0.83532   0.84273   29.898
 6171.00    0.84121   0.84416   28.759
 6172.00    0.84444   0.84661   27.909
 6173.00    0.84539   0.85141   27.712
 6174.00    0.84508   0.85552   27.737
 6175.00    0.84402   0.85813   26.878
 6176.00    0.84225   0.86153   26.448
 6177.00    0.83982   0.86523   30.087
 6178.00    0.83912   0.86758   34.263
 6179.00    0.84470   0.86965   23.583
 6180.00    0.85674   0.87218   13.990
 6181.00    0.86911   0.87373   10.972
 6182.00    0.87533   0.87413   10.994
 6183.00    0.87203   0.87442   11.633
 6184.00    0.86209   0.87371   11.676
 6185.00    0.85350   0.87122   11.756
 6186.00    0.85024   0.86806   11.965
 6187.00    0.84968   0.86493   11.450
 6188.00    0.84679   0.86079   11.126
 6189.00    0.83703   0.85578   13.480
 6190.00    0.82037   0.85241   22.208
 6191.00    0.80169   0.85172   35.442
 6192.00    0.78719   0.85153   33.048
 6193.00    0.78185   0.85136   28.705
 6194.00    0.78562   0.85368   29.712
 6195.00    0.79397   0.85821   31.874
 6196.00    0.80300   0.86164   32.019
 6197.00    0.81114   0.86327   31.049
 6198.00    0.81920   0.86493   30.226
 6199.00    0.82906   0.86708   29.821
 6200.00    0.84041   0.86851   29.505
 6201.00    0.85110   0.86897   28.832
 6202.00    0.86009   0.86987   28.031
 6203.00    0.86785   0.87196   27.677
 6204.00    0.87565   0.87421   27.851
 6205.00    0.88360   0.87564   28.255
 6206.00    0.88717   0.87643   28.629
 6207.00    0.87936   0.87671   28.897
 6208.00    0.85661   0.87592   29.253
 6209.00    0.81806   0.87377   29.574
 6210.00    0.76237   0.87050   -2.000
 6211.00    0.69438   0.86600   -2.000
 6212.00    0.63703   0.86068   -2.000
 6213.00    0.61696   0.85538   -2.000
 6214.00    0.63799   0.85053   -2.000
 6215.00    0.68947   0.84636   -2.000
 6216.00    0.76529   0.84327   -2.000
 6217.00    0.85224   0.84114   -2.000
 6218.00    0.91077   0.84016   -2.000
 6219.00    0.90776   0.84071   -2.000
 6220.00    0.86309   0.84193   -2.000
 6221.00    0.82002   0.84284   -2.000
 6222.00    0.79917   0.84386   27.121
 6223.00    0.80054   0.84559   27.421
 6224.00    0.81368   0.84705   28.055
 6225.00    0.82702   0.84732   27.585
 6226.00    0.83686   0.84681   29.989
 6227.00    0.84383   0.84561   35.703
 6228.00    0.84807   0.84310   30.643
 6229.00    0.84972   0.84029   16.857
 6230.00    0.84993   0.83847   11.689
 6231.00    0.85021   0.83695   11.000
 6232.00    0.85159   0.83614   11.789
 6233.00    0.85400   0.83730   12.027
 6234.00    0.85585   0.83965   11.654
 6235.00    0.85569   0.84162   11.501
 6236.00    0.85346   0.84332   11.755
 6237.00    0.84875   0.84419   12.082
 6238.00    0.83972   0.84334   11.806
 6239.00    0.82562   0.84167   11.369
 6240.00    0.80873   0.83939   12.797
 6241.00    0.79470   0.83598   19.025
 6242.00    0.79154   0.83309   31.016
 6243.00    0.80236   0.83174   32.534
 6244.00    0.82147   0.83040   27.357
 6245.00    0.84048   0.82941   26.609
 6246.00    0.85276   0.83038   28.336
 6247.00    0.85650   0.83206   29.652
 6248.00    0.85522   0.83305   30.257
 6249.00    0.85154   0.83391   30.729
 6250.00    0.84444   0.83411   30.987
 6251.00    0.83379   0.83298   30.930
 6252.00    0.82222   0.83095   30.797
 6253.00    0.81268   0.82819   30.822
 6254.00    0.80707   0.82466   31.040
 6255.00    0.80596   0.82148   31.211
 6256.00    0.80863   0.81935   30.934
 6257.00    0.81340   0.81864   30.329
 6258.00    0.81826   0.81951   30.002
 6259.00    0.82261   0.82122   30.039
 6260.00    0.82721   0.82416   29.935
 6261.00    0.83166   0.82897   29.632
 6262.00    0.83446   0.83399   29.590
 6263.00    0.83672   0.83753   29.766
 6264.00    0.84155   0.84117   29.599
 6265.00    0.84773   0.84519   29.153
 6266.00    0.84990   0.84739   29.079
 6267.00    0.84579   0.84806   29.422
 6268.00    0.83816   0.84930   29.593
 6269.00    0.83362   0.85088   29.309
 6270.00    0.83821   0.85170   28.825
 6271.00    0.84676   0.85231   28.628
 6272.00    0.84694   0.85321   28.946
 6273.00    0.83705   0.85421   28.767
 6274.00    0.82604   0.85490   26.683
 6275.00    0.82211   0.85504   23.494
 6276.00    0.82916   0.85469   20.814
 6277.00    0.84550   0.85406   19.222
 6278.00    0.86518   0.85292   18.773
 6279.00    0.88144   0.85173   19.436
 6280.00    0.88791   0.85111    0.000
 6281.00    0.87974   0.85099    0.000
 6282.00    0.85665   0.85140    0.000
 6283.00    0.82811   0.85262    0.000
 6284.00    0.80757   0.85464    0.000
 6285.00    0.80079   0.85711    0.000
 6286.00    0.80665   0.85956    0.000
 6287.00    0.82201   0.86142    0.000
 6288.00    0.84261   0.86256    0.000
 6289.00    0.86324   0.86308    0.000
 6290.00    0.87864   0.86281    0.000
 6291.00    0.88476   0.86152    0.000
 6292.00    0.88087   0.85961    0.000
 6293.00    0.87191   0.85745    0.000
 6294.00    0.86554   0.85475    0.000
 6295.00    0.86763   0.85167    0.000
 6296.00    0.87994   0.84902    0.000
 6297.00    0.89835   0.84682    0.000
 6298.00    0.91667   0.84435    0.000
 6299.00    0.93131   0.84188    0.000
 6300.00    0.94051   0.84044    0.000
 6301.00    0.94306   0.84050    0.000
 6302.00    0.93810   0.84121    0.000
 6303.00    0.92533   0.84197    0.000
 6304.00    0.90670   0.84378    0.000
 6305.00    0.88774   0.84716    0.000
 6306.00    0.87309   0.85050    0.000
 6307.00    0.86278   0.85279    0.000
 6308.00    0.85531   0.85457    0.000
 6309.00    0.85042   0.85577    0.000
 6310.00    0.84791   0.85576    0.000
 6311.00    0.84664   0.85464    0.000
 6312.00    0.84529   0.85216    0.000
 6313.00    0.84305   0.84865    0.000
 6314.00    0.83930   0.84581    0.000
 6315.00    0.83352   0.84332    0.000
 6316.00    0.82593   0.83981    0.000
 6317.00    0.81792   0.83733    0.000
 6318.00    0.81191   0.83757    0.000
 6319.00    0.81075   0.83841    0.000
 6320.00    0.81507   0.83905    0.000
 6321.00    0.82218   0.84166   30.479
 6322.00    0.82854   0.84594   30.356
 6323.00    0.83160   0.84963   30.153
 6324.00    0.83130   0.85269   30.055
 6325.00    0.83017   0.85580   30.289
 6326.00    0.82985   0.85872   30.800
 6327.00    0.83016   0.86077   31.174
 6328.00    0.83224   0.86158   31.243
 6329.00    0.83882   0.86163   31.273
 6330.00    0.84905   0.86153   31.269
 6331.00    0.85778   0.86093   30.884
 6332.00    0.86212   0.85905   30.286
 6333.00    0.86325   0.85619   30.114
 6334.00    0.86318   0.85341   30.300
 6335.00    0.86286   0.85125   30.083
 6336.00    0.86054   0.84900   29.486
 6337.00    0.85289   0.84644   29.334
 6338.00    0.84076   0.84530   29.750
 6339.00    0.82938   0.84584   30.092
 6340.00    0.82270   0.84622   30.178
 6341.00    0.82195   0.84591   30.386
 6342.00    0.82659   0.84613   30.602
 6343.00    0.83485   0.84683   30.304
 6344.00    0.84436   0.84675   29.783
 6345.00    0.85285   0.84622   29.815
 6346.00    0.85921   0.84674   30.242
 6347.00    0.86303   0.84841   30.250
 6348.00    0.86245   0.84982   29.994
 6349.00    0.85577   0.85112   30.297
 6350.00    0.84608   0.85305   31.047
 6351.00    0.83927   0.85449   31.414
 6352.00    0.83743   0.85422   31.328
 6353.00    0.83896   0.85287   31.354
 6354.00    0.84163   0.85128   31.544
 6355.00    0.84322   0.84865   31.560
 6356.00    0.84155   0.84435   31.325
 6357.00    0.83568   0.83986   31.016
 6358.00    0.82776   0.83640   30.777
 6359.00    0.82108   0.83280   30.631
 6360.00    0.81620   0.82885   30.425
 6361.00    0.81250   0.82650   30.093
 6362.00    0.81142   0.82615   30.013
 6363.00    0.81525   0.82657   30.432
 6364.00    0.82454   0.82786   30.603
 6365.00    0.83741   0.83080   29.786
 6366.00    0.84935   0.83490   28.835
 6367.00    0.85600   0.83896   28.749
 6368.00    0.85687   0.84264   29.171
 6369.00    0.85441   0.84633   29.338
 6370.00    0.85219   0.85008   29.380
 6371.00    0.85262   0.85319   29.690
 6372.00    0.85471   0.85537   29.995
 6373.00    0.85590   0.85724   29.952
 6374.00    0.85443   0.85920   29.935
 6375.00    0.85012   0.86042   30.261
 6376.00    0.84478   0.86039   30.390
 6377.00    0.84140   0.85995   29.857
 6378.00    0.84298   0.85948   29.207
 6379.00    0.85044   0.85835   29.031
 6380.00    0.86088   0.85703   29.237
 6381.00    0.86922   0.85629   29.441
 6382.00    0.87018   0.85572   29.323
 6383.00    0.86236   0.85533   28.956
 6384.00    0.85070   0.85580   28.899
 6385.00    0.84113   0.85650   29.329
 6386.00    0.83640   0.85671   29.549
 6387.00    0.83661   0.85685   29.235
 6388.00    0.83996   0.85689   29.201
 6389.00    0.84331   0.85626   29.789
 6390.00    0.84304   0.85467   30.027
 6391.00    0.83822   0.85223   29.446
 6392.00    0.83193   0.85004   29.083
 6393.00    0.82732   0.84855   29.533
 6394.00    0.82526   0.84669   30.177
 6395.00    0.82556   0.84489   30.440
 6396.00    0.82770   0.84473   30.536
 6397.00    0.83067   0.84482   30.736
 6398.00    0.83298   0.84383   30.977
 6399.00    0.83283   0.84412   31.112
 6400.00    0.82875   0.84567   31.077
 6401.00    0.82175   0.84606   30.976
 6402.00    0.81563   0.84646   31.040
 6403.00    0.81364   0.84867   31.313
 6404.00    0.81683   0.85074   31.567
 6405.00    0.82328   0.85100   31.487
 6406.00    0.82879   0.85081   30.869
 6407.00    0.83055   0.85110   29.887
 6408.00    0.82865   0.85059   28.965
 6409.00    0.82617   0.84849   28.266
 6410.00    0.82734   0.84688   27.711
 6411.00    0.83144   0.84697   27.323
 6412.00    0.83311   0.84658   27.255
 6413.00    0.82996   0.84551   27.567
 6414.00    0.82438   0.84576   28.179
 6415.00    0.82154   0.84637   28.851
 6416.00    0.82624   0.84600   29.253
 6417.00    0.83631   0.84563   29.268
 6418.00    0.84388   0.84540   29.065
 6419.00    0.84377   0.84488   28.944
 6420.00    0.83583   0.84514   29.170
 6421.00    0.82497   0.84642   29.734
 6422.00    0.81854   0.84777   30.374
 6423.00    0.82040   0.84969   30.803
 6424.00    0.82919   0.85272   30.886
 6425.00    0.83782   0.85547   30.889
 6426.00    0.83803   0.85690   31.167
 6427.00    0.82954   0.85757   31.464
 6428.00    0.81808   0.85720   31.262
 6429.00    0.80799   0.85552   30.810
 6430.00    0.80121   0.85370   30.702
 6431.00    0.79819   0.85206   30.899
 6432.00    0.79910   0.85027   30.961
 6433.00    0.80549   0.84908   30.680
 6434.00    0.81823   0.84911   30.140
 6435.00    0.83389   0.84952   29.567
 6436.00    0.84647   0.84938   29.198
 6437.00    0.85100   0.84921   29.164
 6438.00    0.84608   0.85013   29.458
 6439.00    0.83658   0.85147   29.870
 6440.00    0.82976   0.85222   30.077
 6441.00    0.82949   0.85370   29.820
 6442.00    0.83440   0.85663   29.073
 6443.00    0.83690   0.85901   28.129
 6444.00    0.83181   0.85990   27.466
 6445.00    0.82565   0.86025   27.617
 6446.00    0.82704   0.85954   28.691
 6447.00    0.83529   0.85644   29.704
 6448.00    0.84374   0.85212   29.717
 6449.00    0.84505   0.84862   29.599
 6450.00    0.83606   0.84526   30.281
 6451.00    0.82158   0.84175   31.000
 6452.00    0.80945   0.84015   30.772
 6453.00    0.80539   0.84041   30.137
 6454.00    0.80997   0.84077   29.862
 6455.00    0.81710   0.84200   29.840
 6456.00    0.82078   0.84417   29.725
 6457.00    0.82029   0.84535   29.452
 6458.00    0.81752   0.84618   29.210
 6459.00    0.81447   0.84735   29.306
 6460.00    0.81330   0.84699   29.618
 6461.00    0.81607   0.84579   29.348
 6462.00    0.82251   0.84585   28.337
 6463.00    0.82916   0.84579   27.578
 6464.00    0.83394   0.84496   27.455
 6465.00    0.83840   0.84574   27.233
 6466.00    0.84358   0.84784   26.750
 6467.00    0.84779   0.84905   27.023
 6468.00    0.84891   0.85022   28.431
 6469.00    0.84641   0.85162   29.820
 6470.00    0.84397   0.85206   29.964
 6471.00    0.84868   0.85222   29.022
 6472.00    0.85989   0.85237   27.759
 6473.00    0.86657   0.85181   26.776
 6474.00    0.86129   0.85160   26.395
 6475.00    0.84622   0.85223   26.732
 6476.00    0.82965   0.85199   27.616
 6477.00    0.82188   0.85108   28.547
 6478.00    0.82534   0.85078   29.137
 6479.00    0.83329   0.84986   29.379
 6480.00    0.84058   0.84761   29.389
 6481.00    0.84676   0.84571   29.287
 6482.00    0.85159   0.84461   29.231
 6483.00    0.85396   0.84325   29.342
 6484.00    0.85370   0.84212   29.407
 6485.00    0.85203   0.84202   29.011
 6486.00    0.85072   0.84211   28.319
 6487.00    0.85097   0.84135   27.889
 6488.00    0.85125   0.83941   27.666
 6489.00    0.84844   0.83605   27.217
 6490.00    0.84275   0.83113   26.914
 6491.00    0.83717   0.82420   27.558
 6492.00    0.83220   0.81532   28.797
 6493.00    0.82541   0.80639   29.283
 6494.00    0.81380   0.79845   29.114
 6495.00    0.79624   0.79160   29.607
 6496.00    0.77755   0.78713   30.714
 6497.00    0.76631   0.78605   31.200
 6498.00    0.76803   0.78814   30.879
 6499.00    0.78319   0.79287   30.568
 6500.00    0.80664   0.79961   30.442
 6501.00    0.83018   0.80726   30.218
 6502.00    0.84786   0.81532   30.032
 6503.00    0.85677   0.82299   30.161
 6504.00    0.85659   0.82935   30.284
 6505.00    0.84911   0.83459   29.946
 6506.00    0.83777   0.83854   29.568
 6507.00    0.82700   0.84118   29.748
 6508.00    0.82125   0.84308   30.056
 6509.00    0.82248   0.84407   29.741
 6510.00    0.82680   0.84404   29.151
 6511.00    0.82906   0.84369   28.949
 6512.00    0.82986   0.84306   28.928
 6513.00    0.83160   0.84148   28.649
 6514.00    0.83240   0.83940   28.388
 6515.00    0.82997   0.83774   28.616
 6516.00    0.82724   0.83600   29.293
 6517.00    0.82813   0.83417   30.035
 6518.00    0.83195   0.83349   30.412
 6519.00    0.83615   0.83386   30.299
 6520.00    0.84002   0.83440   30.172
 6521.00    0.84382   0.83536   30.429
 6522.00    0.84728   0.83699   30.754
 6523.00    0.84775   0.83839   30.726
 6524.00    0.83940   0.83894   30.508
 6525.00    0.82130   0.83905   30.438
 6526.00    0.80388   0.83903   30.588
 6527.00    0.79666   0.83855   30.774
 6528.00    0.79784   0.83749    0.000
 6529.00    0.80162   0.83654    0.000
 6530.00    0.80503   0.83593    0.000
 6531.00    0.80929   0.83522    0.000
 6532.00    0.81939   0.83460    0.000
 6533.00    0.83563   0.83445    0.000
 6534.00    0.84908   0.83456    0.000
 6535.00    0.85283   0.83465    0.000
 6536.00    0.84908   0.83488    0.000
 6537.00    0.84357   0.83525    0.000
 6538.00    0.84105   0.83523    0.000
 6539.00    0.84243   0.83454    0.000
 6540.00    0.84413   0.83325    0.000
 6541.00    0.84341   0.83118    0.000
 6542.00    0.84220   0.82828    0.000
 6543.00    0.85028   0.82461    0.000
 6544.00    0.88449   0.82026    0.000
 6545.00    0.95641   0.81599    0.000
 6546.00    1.06436   0.81207    0.000
 6547.00    1.18565   0.80804    0.000
 6548.00    1.27969   0.80413    0.000
 6549.00    1.31664   0.80073    0.000
 6550.00    1.28930   0.79710    0.000
 6551.00    1.20801   0.79266    0.000
 6552.00    1.09612   0.78748    0.000
 6553.00    0.98175   0.78112    0.000
 6554.00    0.89136   0.77336    0.000
 6555.00    0.83915   0.76429    0.000
 6556.00    0.83106   0.75320    0.000
 6557.00    0.89164   0.73945    0.000
 6558.00    1.07002   0.72436    0.000
 6559.00    1.42845   0.70885    0.000
 6560.00    2.00831   0.69152    0.000
 6561.00    2.74268   0.67474    0.000
 6562.00    3.46048   0.66403    0.000
 6563.00    3.97446   0.65841    0.000
 6564.00    4.13433   0.65622    0.000
 6565.00    3.89632   0.66209    0.000
 6566.00    3.33275   0.67565    0.000
 6567.00    2.60710   0.69017    0.000
 6568.00    1.91904   0.70535    0.000
 6569.00    1.39348   0.72255    0.000
 6570.00    1.06408   0.73733    0.000
 6571.00    0.89729   0.74824    0.000
 6572.00    0.82466   0.75762    0.000
 6573.00    0.79740   0.76538    0.000
 6574.00    0.79104   0.77148    0.000
 6575.00    0.79216   0.77721    0.000
 6576.00    0.79703   0.78273    0.000
 6577.00    0.81404   0.78792    0.000
 6578.00    0.86358   0.79295    0.000
 6579.00    0.97640   0.79734    0.000
 6580.00    1.17675   0.80118    0.000
 6581.00    1.45608   0.80464    0.000
 6582.00    1.77140   0.80740    0.000
 6583.00    2.05084   0.80966    0.000
 6584.00    2.21891   0.81161    0.000
 6585.00    2.23196   0.81329    0.000
 6586.00    2.08776   0.81471    0.000
 6587.00    1.83055   0.81547    0.000
 6588.00    1.53164   0.81541    0.000
 6589.00    1.26256   0.81512    0.000
 6590.00    1.07008   0.81398    0.000
 6591.00    0.95239   0.81152    0.000
 6592.00    0.88312   0.80947    0.000
 6593.00    0.84148   0.80817    0.000
 6594.00    0.81530   0.80674    0.000
 6595.00    0.80040   0.80630    0.000
 6596.00    0.79498   0.80769    0.000
 6597.00    0.79453   0.80974    0.000
 6598.00    0.79594   0.81205    0.000
 6599.00    0.80124   0.81504    0.000
 6600.00    0.81226   0.81791    0.000
 6601.00    0.82578   0.82011    0.000
 6602.00    0.83609   0.82163    0.000
 6603.00    0.83778   0.82210    0.000
 6604.00    0.82950   0.82171    0.000
 6605.00    0.81601   0.82099    0.000
 6606.00    0.80302   0.81982    0.000
 6607.00    0.79333   0.81835    0.000
 6608.00    0.78730   0.81747    0.000
 6609.00    0.78399   0.81750   30.966
 6610.00    0.78467   0.81805   31.040
 6611.00    0.79394   0.81913   30.772
 6612.00    0.81236   0.82114   30.302
 6613.00    0.83302   0.82368   29.842
 6614.00    0.84801   0.82594   29.464
 6615.00    0.85273   0.82798   29.058
 6616.00    0.84784   0.83007   28.605
 6617.00    0.83936   0.83180   28.268
 6618.00    0.83401   0.83269   28.231
 6619.00    0.83606   0.83294   28.572
 6620.00    0.84380   0.83291   28.958
 6621.00    0.84976   0.83239   28.737
 6622.00    0.84900   0.83105   28.273
 6623.00    0.84229   0.82929   28.781
 6624.00    0.83342   0.82772   29.640
 6625.00    0.82697   0.82600   28.518
 6626.00    0.82459   0.82405   27.620
 6627.00    0.82456   0.82250   32.017
 6628.00    0.82551   0.82111   35.703
 6629.00    0.82700   0.81939   23.268
 6630.00    0.82669   0.81782   13.924
 6631.00    0.82123   0.81636   11.437
 6632.00    0.81265   0.81474   11.909
 6633.00    0.80765   0.81370   12.619
 6634.00    0.80950   0.81324   12.415
 6635.00    0.81620   0.81305   12.317
 6636.00    0.82299   0.81380   12.334
 6637.00    0.82522   0.81514   11.681
 6638.00    0.82402   0.81606   11.534
 6639.00    0.82449   0.81711   14.355
 6640.00    0.82731   0.81832   23.295
 6641.00    0.82900   0.81847   33.316
 6642.00    0.82770   0.81818   30.279
 6643.00    0.82405   0.81849   27.417
 6644.00    0.82020   0.81848   28.480
 6645.00    0.81878   0.81807   29.525
 6646.00    0.82113   0.81853   28.973
 6647.00    0.82617   0.81953   28.470
 6648.00    0.82899   0.82006   28.849
 6649.00    0.82477   0.82060   29.830
 6650.00    0.81610   0.82153   30.515
 6651.00    0.80996   0.82212   30.161
 6652.00    0.81010   0.82218   29.663
 6653.00    0.81631   0.82225   30.182
 6654.00    0.82553   0.82218   30.981
 6655.00    0.83266   0.82165   30.605
 6656.00    0.83172   0.82103   29.708
 6657.00    0.82029   0.82022   29.641
 6658.00    0.80514   0.81872   30.243
 6659.00    0.79584   0.81706   30.595
 6660.00    0.79504   0.81541   30.329
 6661.00    0.79922   0.81306   29.694
 6662.00    0.80159   0.81073   29.187
 6663.00    0.79815   0.80928   29.116
 6664.00    0.79397   0.80799   29.288
 6665.00    0.79645   0.80704   29.367
 6666.00    0.80697   0.80743   29.308
 6667.00    0.82119   0.80859   29.243
 6668.00    0.83102   0.80985   29.295
 6669.00    0.83238   0.81159   29.430
 6670.00    0.83194   0.81349   29.371
 6671.00    0.83693   0.81485   29.020
 6672.00    0.84559   0.81528   28.788
 6673.00    0.85194   0.81476   29.026
 6674.00    0.85123   0.81360   29.604
 6675.00    0.84413   0.81141   30.207
 6676.00    0.83875   0.80821   30.622
 6677.00    0.84105   0.80554   30.729
 6678.00    0.84796   0.80370   30.494
 6679.00    0.85309   0.80203   30.027
 6680.00    0.85168   0.80168   29.578
 6681.00    0.84308   0.80331   29.404
 6682.00    0.83162   0.80539   29.668
 6683.00    0.82240   0.80756   30.165
 6684.00    0.81834   0.81048   30.227
 6685.00    0.81947   0.81323   29.670
 6686.00    0.82304   0.81505   29.195
 6687.00    0.82623   0.81651   29.140
 6688.00    0.82783   0.81763   29.062
 6689.00    0.82830   0.81807   28.773
 6690.00    0.82960   0.81803   28.711
 6691.00    0.83381   0.81765   28.992
 6692.00    0.84159   0.81695   29.126
 6693.00    0.84846   0.81590   28.940
 6694.00    0.84585   0.81448   28.879
 6695.00    0.83384   0.81314   29.143
 6696.00    0.82339   0.81202    0.000
 6697.00    0.82174   0.81090    0.000
 6698.00    0.82730   0.81020    0.000
 6699.00    0.83540   0.81010    0.000
 6700.00    0.84144   0.81013    0.000
 6701.00    0.84395   0.81027    0.000
 6702.00    0.84472   0.81051    0.000
 6703.00    0.84570   0.81065    0.000
 6704.00    0.84760   0.81072    0.000
 6705.00    0.84969   0.81057    0.000
 6706.00    0.84980   0.81030    0.000
 6707.00    0.84508   0.81018    0.000
 6708.00    0.83425   0.80971    0.000
 6709.00    0.82340   0.80885    0.000
 6710.00    0.82481   0.80797    0.000
 6711.00    0.84933   0.80652    0.000
 6712.00    0.90398   0.80437    0.000
 6713.00    0.99150   0.80215    0.000
 6714.00    1.10764   0.79986    0.000
 6715.00    1.23541   0.79729    0.000
 6716.00    1.34717   0.79516    0.000
 6717.00    1.41282   0.79403    0.000
 6718.00    1.40902   0.79358    0.000
 6719.00    1.33443   0.79377    0.000
 6720.00    1.21022   0.79500    0.000
 6721.00    1.07419   0.79695    0.000
 6722.00    0.96541   0.79895    0.000
 6723.00    0.89864   0.80087    0.000
 6724.00    0.86864   0.80274    0.000
 6725.00    0.86644   0.80438    0.000
 6726.00    0.88616   0.80564    0.000
 6727.00    0.93096   0.80655    0.000
 6728.00    1.00438   0.80736    0.000
 6729.00    1.09572   0.80816    0.000
 6730.00    1.18297   0.80867    0.000
 6731.00    1.24087   0.80895    0.000
 6732.00    1.24972   0.80917    0.000
 6733.00    1.20580   0.80912    0.000
 6734.00    1.12103   0.80867    0.000
 6735.00    1.02000   0.80803    0.000
 6736.00    0.92896   0.80720    0.000
 6737.00    0.86294   0.80609    0.000
 6738.00    0.82578   0.80488    0.000
 6739.00    0.81221   0.80377    0.000
 6740.00    0.81262   0.80260    0.000
 6741.00    0.81791   0.80139    0.000
 6742.00    0.82093   0.80052    0.000
 6743.00    0.81751   0.79983    0.000
 6744.00    0.80745   0.79887    0.000
 6745.00    0.79517   0.79804    0.000
 6746.00    0.78721   0.79753    0.000
 6747.00    0.78949   0.79676    0.000
 6748.00    0.80265   0.79581    0.000
 6749.00    0.81895   0.79542    0.000
 6750.00    0.82872   0.79528    0.000
 6751.00    0.82616   0.79502    0.000
 6752.00    0.81405   0.79553    0.000
 6753.00    0.80494   0.79681   27.737
 6754.00    0.80639   0.79804   28.180
 6755.00    0.81214   0.79974   28.687
 6756.00    0.81284   0.80209   29.162
 6757.00    0.80424   0.80413   29.451
 6758.00    0.79075   0.80599   29.543
 6759.00    0.78490   0.80785   29.648
 6760.00    0.79271   0.80905   29.855
 6761.00    0.80723   0.80961   29.965
 6762.00    0.82051   0.80970   29.747
 6763.00    0.82938   0.80907   29.170
 6764.00    0.83030   0.80793   28.667
 6765.00    0.81881   0.80645   28.902
 6766.00    0.80032   0.80467   29.413
 6767.00    0.79078   0.80309   28.426
 6768.00    0.79572   0.80185   25.892
 6769.00    0.80482   0.80082   23.593
 6770.00    0.81027   0.80061   22.293
 6771.00    0.81272   0.80128   21.826
 6772.00    0.81289   0.80226   21.840
 6773.00    0.80956   0.80372   21.948
 6774.00    0.80550   0.80579   21.945
 6775.00    0.80781   0.80770   21.833
 6776.00    0.82136   0.80921   21.501
 6777.00    0.84602   0.81048   20.809
 6778.00    0.87592   0.81102   20.108
 6779.00    0.90082   0.81055   19.995
 6780.00    0.91099   0.80950   20.568
 6781.00    0.90123   0.80775   21.449
 6782.00    0.87753   0.80535   22.288
 6783.00    0.85395   0.80303   22.934
 6784.00    0.83894   0.80090   23.371
 6785.00    0.83297   0.79902   23.683
 6786.00    0.83233   0.79802   23.988
 6787.00    0.83207   0.79778   24.397
 6788.00    0.83037   0.79777   24.961
 6789.00    0.82739   0.79832   25.631
 6790.00    0.82039   0.79919   26.200
 6791.00    0.80706   0.79962   26.396
 6792.00    0.79447   0.79991   26.187
 6793.00    0.79358   0.80034   25.723
 6794.00    0.80473   0.80035   25.049
 6795.00    0.82005   0.80025   24.229
 6796.00    0.83360   0.80054   23.604
 6797.00    0.84267   0.80084   23.524
 6798.00    0.84664   0.80116   23.954
 6799.00    0.84665   0.80174   24.595
 6800.00    0.84526   0.80235   25.108
 6801.00    0.84493   0.80279   25.293
 6802.00    0.84575   0.80301   25.322
 6803.00    0.84718   0.80321   25.408
 6804.00    0.85077   0.80323   25.277
 6805.00    0.85575   0.80276   24.695
 6806.00    0.85336   0.80244   24.200
 6807.00    0.84033   0.80224   24.290
 6808.00    0.83556   0.80159   24.548
 6809.00    0.85458   0.80115   24.391
 6810.00    0.87822   0.80105   24.126
 6811.00    0.88276   0.80065   24.293
 6812.00    0.87673   0.80042   24.857
 6813.00    0.87546   0.80043   25.458
 6814.00    0.87105   0.80043   25.774
 6815.00    0.85392   0.80062   25.722
 6816.00    0.83608   0.80091   25.576
 6817.00    0.83241   0.80131   25.503
 6818.00    0.84130   0.80191   25.219
 6819.00    0.85237   0.80252   24.700
 6820.00    0.85552   0.80319   24.644
 6821.00    0.84668   0.80390   25.458
 6822.00    0.83128   0.80451   26.513
 6823.00    0.81900   0.80500   27.027
 6824.00    0.81825   0.80528   27.118
 6825.00    0.82916   0.80531   27.010
 6826.00    0.84059   0.80502   26.355
 6827.00    0.84551   0.80452   25.122
 6828.00    0.84966   0.80407   23.960
 6829.00    0.85526   0.80356   23.361
 6830.00    0.85245   0.80312   23.405
 6831.00    0.83736   0.80292   23.956
 6832.00    0.82117   0.80279   24.703
 6833.00    0.81459   0.80254   25.357
 6834.00    0.81859   0.80200   25.826
 6835.00    0.82600   0.80105   26.189
 6836.00    0.82509   0.79967   26.606
 6837.00    0.81211   0.79766   27.057
 6838.00    0.79518   0.79524   27.278
 6839.00    0.78177   0.79280   27.295
 6840.00    0.77363   0.79049   27.514
 6841.00    0.77277   0.78868   27.840
 6842.00    0.78210   0.78776   27.549
 6843.00    0.79618   0.78775   26.714
 6844.00    0.80140   0.78861   26.274
 6845.00    0.79248   0.79019   26.334
 6846.00    0.77719   0.79220   26.105
 6847.00    0.76792   0.79421   25.560
 6848.00    0.77495   0.79592   25.521
 6849.00    0.79513   0.79717   26.046
 6850.00    0.81376   0.79767   26.265
 6851.00    0.82414   0.79754   25.759
 6852.00    0.83031   0.79685   24.912
 6853.00    0.83484   0.79536   24.050
 6854.00    0.83691   0.79374   23.296
 6855.00    0.83818   0.79224   22.872
 6856.00    0.84188   0.79035   23.036
 6857.00    0.84549   0.78891   23.767
 6858.00    0.84262   0.78832   24.774
 6859.00    0.83315   0.78771   25.841
 6860.00    0.82220   0.78750   26.859
 6861.00    0.81140   0.78817   27.608
 6862.00    0.80000   0.78884   27.842
 6863.00    0.79215   0.78936   27.713
 6864.00    0.79444   0.79018   27.605
 6865.00    0.80742   0.79086   27.558
 6866.00    0.82509   0.79095   27.399
 6867.00    0.83816   0.79083   27.188
 6868.00    0.83989   0.79073   27.099
 6869.00    0.83553   0.79035   27.050
 6870.00    0.83534   0.78984   26.844
 6871.00    0.83926   0.78974   26.517
 6872.00    0.84052   0.78992   26.224
 6873.00    0.83620   0.79011   25.980
 6874.00    0.82807   0.79058   25.741
 6875.00    0.82101   0.79143   25.578
 6876.00    0.81908   0.79219   25.633
 6877.00    0.82037   0.79268   26.022
 6878.00    0.82066   0.79312   26.679
 6879.00    0.81935   0.79337   27.104
 6880.00    0.81770   0.79316   26.855
 6881.00    0.81551   0.79272   26.307
 6882.00    0.81270   0.79249   25.965
 6883.00    0.81130   0.79245   25.657
 6884.00    0.81187   0.79250   25.222
 6885.00    0.80944   0.79317   25.205
 6886.00    0.80043   0.79455   26.029
 6887.00    0.79008   0.79594   27.094
 6888.00    0.78515   0.79749   27.440
 6889.00    0.78609   0.79942   27.007
 6890.00    0.79001   0.80092   26.386
 6891.00    0.79459   0.80191   26.159
 6892.00    0.79919   0.80284   26.464
 6893.00    0.80537   0.80332   26.747
 6894.00    0.81404   0.80324   26.504
 6895.00    0.82327   0.80315   25.985
 6896.00    0.82935   0.80304   25.665
 6897.00    0.82848   0.80278   25.787
 6898.00    0.82054   0.80265   26.331
 6899.00    0.81129   0.80277   26.974
 6900.00    0.80681   0.80302   27.374
 6901.00    0.80920   0.80333   27.454
 6902.00    0.81510   0.80378   27.401
 6903.00    0.81624   0.80439   27.538
 6904.00    0.80915   0.80490   27.860
 6905.00    0.79970   0.80540   27.859
 6906.00    0.79397   0.80582   27.417
 6907.00    0.79291   0.80594   27.135
 6908.00    0.79450   0.80590   27.224
 6909.00    0.79578   0.80542   27.144
 6910.00    0.79660   0.80447   26.616
 6911.00    0.79989   0.80343   26.027
 6912.00    0.80383   0.80191   25.730
 6913.00    0.80068   0.80026   25.773
 6914.00    0.78929   0.79911   25.956
 6915.00    0.77814   0.79792   25.936
 6916.00    0.77306   0.79716   25.717
 6917.00    0.77307   0.79727   25.685
 6918.00    0.77615   0.79745   25.910
 6919.00    0.78119   0.79784   26.054
 6920.00    0.78611   0.79855   26.096
 6921.00    0.78786   0.79889   26.431
 6922.00    0.78526   0.79890   27.154
 6923.00    0.77940   0.79873   27.887
 6924.00    0.77199   0.79829   28.207
 6925.00    0.76419   0.79776   27.972
 6926.00    0.75523   0.79737   27.566
 6927.00    0.74416   0.79722   27.554
 6928.00    0.73612   0.79728   27.775
 6929.00    0.73939   0.79760   27.551
 6930.00    0.75217   0.79808   27.024
 6931.00    0.76375   0.79850   26.925
 6932.00    0.76707   0.79889   27.218
 6933.00    0.76239   0.79942   27.226
 6934.00    0.75741   0.79978   26.765
 6935.00    0.76213   0.80009   26.207
 6936.00    0.77695   0.80068   25.886
 6937.00    0.79384   0.80109   25.944
 6938.00    0.80456   0.80131   26.271
 6939.00    0.80446   0.80152   26.625
 6940.00    0.79614   0.80132   26.944
 6941.00    0.78705   0.80069   27.261
 6942.00    0.78355   0.79995   27.373
 6943.00    0.78826   0.79883   27.065
 6944.00    0.79783   0.79761   26.623
 6945.00    0.80503   0.79678   26.472
 6946.00    0.80341   0.79591   26.576
 6947.00    0.79110   0.79528   26.650
 6948.00    0.77537   0.79529   26.615
 6949.00    0.76502   0.79511   26.504
 6950.00    0.75855   0.79496   26.233
 6951.00    0.75003   0.79524   25.760
 6952.00    0.73967   0.79525   25.319
 6953.00    0.73284   0.79526   25.155
 6954.00    0.73658   0.79581   25.213
 6955.00    0.75481   0.79641   25.190
 6956.00    0.78304   0.79714   24.707
 6957.00    0.81127   0.79832   24.250
 6958.00    0.82860   0.79952   25.837
 6959.00    0.82865   0.80060   29.440
 6960.00    0.81483   0.80178   25.783
 6961.00    0.79672   0.80271   16.946
 6962.00    0.78505   0.80343   12.686
 6963.00    0.78392   0.80414   12.050
 6964.00    0.78492   0.80451   12.775
 6965.00    0.78105   0.80484   13.070
 6966.00    0.77853   0.80523   12.825
 6967.00    0.78343   0.80524   12.673
 6968.00    0.79048   0.80522   12.660
 6969.00    0.79293   0.80510   12.643
 6970.00    0.79098   0.80434   12.639
 6971.00    0.78846   0.80328   12.672
 6972.00    0.78942   0.80172   12.669
 6973.00    0.79472   0.79931   12.587
 6974.00    0.80031   0.79647   12.494
 6975.00    0.80152   0.79338   12.475
 6976.00    0.79621   0.79007   12.560
 6977.00    0.78627   0.78704   12.719
 6978.00    0.77742   0.78507   12.863
 6979.00    0.77341   0.78415   12.929
 6980.00    0.77310   0.78423   12.935
 6981.00    0.77347   0.78592   12.929
 6982.00    0.77215   0.78861   12.951
 6983.00    0.77015   0.79147   12.984
 6984.00    0.77186   0.79470   12.956
 6985.00    0.77770   0.79766   12.858
 6986.00    0.78209   0.79984   12.786
 6987.00    0.78127   0.80147   12.800
 6988.00    0.77620   0.80253   12.883
 6989.00    0.76909   0.80312   13.002
 6990.00    0.76181   0.80341   13.127
 6991.00    0.75640   0.80356   13.221
 6992.00    0.75474   0.80365   13.250
 6993.00    0.75666   0.80356   13.216
 6994.00    0.75966   0.80336   13.164
 6995.00    0.76057   0.80288   13.148
 6996.00    0.75808   0.80210   13.191
 6997.00    0.75895   0.80113   13.176
 6998.00    0.77360   0.79982   12.927
 6999.00    0.79626   0.79839   12.559
 7000.00    0.80752   0.79705   12.384
 7001.00    0.80110   0.79567   -2.000
 7002.00    0.78671   0.79450   -2.000
 7003.00    0.77537   0.79368   -2.000
 7004.00    0.77357   0.79310   -2.000
 7005.00    0.77947   0.79278   -2.000
 7006.00    0.78563   0.79283   -2.000
 7007.00    0.78778   0.79310   -2.000
 7008.00    0.78600   0.79344   -2.000
 7009.00    0.78234   0.79375   -2.000
 7010.00    0.77949   0.79393   -2.000
 7011.00    0.77929   0.79375   -2.000
 7012.00    0.78174   0.79310   -2.000
 7013.00    0.78384   0.79222   -2.000
 7014.00    0.78278   0.79110   -2.000
 7015.00    0.78243   0.78984   -2.000
 7016.00    0.78856   0.78907   -2.000
 7017.00    0.79836   0.78863   -2.000
 7018.00    0.80432   0.78851   -2.000
 7019.00    0.80383   0.78911   -2.000
 7020.00    0.79912   0.78981   -2.000
 7021.00    0.79434   0.79035   -2.000
 7022.00    0.79225   0.79098   -2.000
 7023.00    0.79017   0.79138   -2.000
 7024.00    0.78435   0.79153   -2.000
 7025.00    0.77665   0.79179   -2.000
 7026.00    0.77124   0.79225   -2.000
 7027.00    0.76917   0.79295   -2.000
 7028.00    0.76990   0.79384   -2.000
 7029.00    0.77407   0.79494   -2.000
 7030.00    0.78059   0.79607   -2.000
 7031.00    0.78367   0.79695   -2.000
 7032.00    0.78039   0.79774   -2.000
 7033.00    0.77853   0.79819   -2.000
 7034.00    0.78398   0.79835   -2.000
 7035.00    0.78836   0.79873   -2.000
 7036.00    0.78453   0.79897   -2.000
 7037.00    0.78139   0.79945   -2.000
 7038.00    0.78625   0.80076   -2.000
 7039.00    0.78948   0.80225   -2.000
 7040.00    0.78439   0.80414   -2.000
 7041.00    0.78327   0.80678   -2.000
 7042.00    0.79549   0.80929   -2.000
 7043.00    0.81072   0.81150   -2.000
 7044.00    0.81743   0.81374   -2.000
 7045.00    0.81681   0.81535   -2.000
 7046.00    0.81379   0.81610   -2.000
 7047.00    0.80976   0.81639   -2.000
 7048.00    0.80336   0.81585   -2.000
 7049.00    0.79220   0.81434   -2.000
 7050.00    0.77834   0.81218   -2.000
 7051.00    0.77003   0.80921   -2.000
 7052.00    0.77090   0.80572   -2.000
 7053.00    0.77489   0.80202   -2.000
 7054.00    0.77572   0.79823   -2.000
 7055.00    0.77203   0.79483   -2.000
 7056.00    0.76526   0.79185   -2.000
 7057.00    0.75834   0.78938   -2.000
 7058.00    0.75541   0.78745   -2.000
 7059.00    0.76025   0.78590   -2.000
 7060.00    0.76964   0.78482   -2.000
 7061.00    0.77304   0.78382   -2.000
 7062.00    0.76486   0.78299   -2.000
 7063.00    0.74891   0.78251   -2.000
 7064.00    0.73377   0.78173   -2.000
 7065.00    0.72809   0.78110   -2.000
 7066.00    0.73026   0.78085   -2.000
 7067.00    0.72917   0.78033   -2.000
 7068.00    0.72120   0.78033   -2.000
 7069.00    0.71371   0.78095   -2.000
 7070.00    0.71525   0.78168   -2.000
 7071.00    0.72945   0.78310   -2.000
 7072.00    0.74712   0.78490   -2.000
 7073.00    0.75201   0.78657   -2.000
 7074.00    0.74522   0.78835   -2.000
 7075.00    0.74302   0.78984   -2.000
 7076.00    0.75007   0.79076   -2.000
 7077.00    0.75810   0.79119   -2.000
 7078.00    0.76311   0.79096   -2.000
 7079.00    0.76681   0.79000   -2.000
 7080.00    0.76864   0.78813   -2.000
 7081.00    0.76540   0.78552   -2.000
 7082.00    0.75528   0.78231   -2.000
 7083.00    0.73948   0.77823   -2.000
 7084.00    0.72347   0.77399   -2.000
 7085.00    0.71466   0.76979   -2.000
 7086.00    0.71698   0.76542   -2.000
 7087.00    0.72893   0.76187   -2.000
 7088.00    0.74250   0.75884   -2.000
 7089.00    0.74900   0.75608   -2.000
 7090.00    0.74970   0.75452   -2.000
 7091.00    0.75092   0.75332   -2.000
 7092.00    0.75263   0.75247   -2.000
 7093.00    0.75089   0.75261   -2.000
 7094.00    0.74511   0.75289   -2.000
 7095.00    0.73838   0.75367   -2.000
 7096.00    0.73605   0.75500   -2.000
 7097.00    0.73976   0.75644   -2.000
 7098.00    0.74014   0.75828   -2.000
 7099.00    0.72821   0.76005   -2.000
 7100.00    0.71117   0.76190   -2.000
 7101.00    0.70064   0.76360   -2.000
 7102.00    0.69599   0.76485   -2.000
 7103.00    0.69328   0.76599   -2.000
 7104.00    0.69754   0.76664   -2.000
 7105.00    0.71283   0.76684   -2.000
 7106.00    0.73053   0.76680   -2.000
 7107.00    0.73928   0.76636   -2.000
 7108.00    0.73685   0.76567   -2.000
 7109.00    0.72984   0.76494   -2.000
 7110.00    0.73087   0.76420   -2.000
 7111.00    0.74407   0.76356   -2.000
 7112.00    0.75416   0.76324   -2.000
 7113.00    0.74837   0.76326   -2.000
 7114.00    0.73473   0.76357   -2.000
 7115.00    0.72494   0.76406   -2.000
 7116.00    0.71985   0.76465   -2.000
 7117.00    0.71655   0.76532   -2.000
 7118.00    0.71449   0.76564   -2.000
 7119.00    0.71396   0.76576   -2.000
 7120.00    0.71478   0.76572   -2.000
 7121.00    0.71747   0.76519   -2.000
 7122.00    0.72352   0.76458   -2.000
 7123.00    0.73087   0.76364   -2.000
 7124.00    0.73284   0.76241   -2.000
 7125.00    0.72896   0.76132   -2.000
 7126.00    0.72870   0.75975   -2.000
 7127.00    0.73443   0.75821   -2.000
 7128.00    0.73513   0.75704   -2.000
 7129.00    0.72598   0.75573   -2.000
 7130.00    0.71641   0.75499   -2.000
 7131.00    0.71512   0.75485   -2.000
 7132.00    0.72242   0.75508   -2.000
 7133.00    0.73123   0.75620   -2.000
 7134.00    0.73123   0.75759   -2.000
 7135.00    0.72415   0.75912   -2.000
 7136.00    0.72487   0.76110   -2.000
 7137.00    0.73782   0.76266   -2.000
 7138.00    0.75172   0.76385   -2.000
 7139.00    0.75834   0.76500   -2.000
 7140.00    0.75807   0.76547   -2.000
 7141.00    0.75203   0.76548   -2.000
 7142.00    0.74135   0.76548   -2.000
 7143.00    0.73500   0.76480   -2.000
 7144.00    0.74563   0.76368   -2.000
 7145.00    0.76769   0.76293   -2.000
 7146.00    0.77992   0.76172   -2.000
 7147.00    0.77423   0.76049   -2.000
 7148.00    0.75980   0.76015   -2.000
 7149.00    0.74896   0.75988   -2.000
 7150.00    0.74910   0.76031   -2.000
 7151.00    0.75296   0.76169   -2.000
 7152.00    0.74591   0.76309   -2.000
 7153.00    0.73010   0.76504   -2.000
 7154.00    0.72041   0.76719   -2.000
 7155.00    0.72090   0.76882   -2.000
 7156.00    0.72531   0.77015   -2.000
 7157.00    0.73071   0.77099   -2.000
 7158.00    0.73655   0.77128   -2.000
 7159.00    0.73652   0.77077   -2.000
 7160.00    0.72405   0.76967   -2.000
 7161.00    0.70590   0.76845   -2.000
 7162.00    0.69501   0.76682   -2.000
 7163.00    0.69274   0.76517   -2.000
 7164.00    0.69186   0.76412   -2.000
 7165.00    0.68742   0.76349   -2.000
 7166.00    0.67906   0.76354   -2.000
 7167.00    0.67146   0.76460   -2.000
 7168.00    0.67067   0.76619   -2.000
 7169.00    0.67849   0.76813   -2.000
 7170.00    0.69211   0.77049   -2.000
 7171.00    0.70502   0.77261   -2.000
 7172.00    0.71192   0.77413   -2.000
 7173.00    0.71461   0.77528   -2.000
 7174.00    0.71702   0.77571   -2.000
 7175.00    0.71811   0.77533   -2.000
 7176.00    0.71766   0.77457   -2.000
 7177.00    0.72324   0.77316   -2.000
 7178.00    0.73961   0.77150   -2.000
 7179.00    0.75716   0.77004   -2.000
 7180.00    0.76860   0.76823   -2.000
 7181.00    0.78572   0.76670   -2.000
 7182.00    0.81482   0.76566   -2.000
 7183.00    0.83360   0.76432   -2.000
 7184.00    0.82326   0.76338   -2.000
 7185.00    0.79791   0.76244   -2.000
 7186.00    0.77711   0.76117   -2.000
 7187.00    0.76068   0.76048   -2.000
 7188.00    0.74018   0.75952   -2.000
 7189.00    0.71108   0.75867   -2.000
 7190.00    0.68032   0.75876   -2.000
 7191.00    0.66816   0.75884   -2.000
 7192.00    0.68297   0.75943   -2.000
 7193.00    0.70646   0.76056   -2.000
 7194.00    0.72284   0.76168   -2.000
 7195.00    0.73646   0.76301   -2.000
 7196.00    0.74906   0.76438   -2.000
 7197.00    0.74787   0.76551   -2.000
 7198.00    0.72859   0.76634   -2.000
 7199.00    0.70595   0.76724   -2.000
 7200.00    0.68979   0.76773   -2.000
 7201.00    0.67464   0.76771   -2.000
 7202.00    0.66078   0.76769   -2.000
 7203.00    0.66159   0.76712   -2.000
 7204.00    0.68051   0.76639   -2.000
 7205.00    0.70288   0.76547   -2.000
 7206.00    0.71413   0.76423   -2.000
 7207.00    0.70951   0.76357   -2.000
 7208.00    0.69619   0.76295   -2.000
 7209.00    0.68905   0.76280   -2.000
 7210.00    0.69032   0.76349   -2.000
 7211.00    0.68775   0.76413   -2.000
 7212.00    0.68185   0.76542   -2.000
 7213.00    0.68961   0.76704   -2.000
 7214.00    0.71784   0.76828   -2.000
 7215.00    0.75815   0.76968   -2.000
 7216.00    0.80471   0.77095   -2.000
 7217.00    0.85393   0.77184   -2.000
 7218.00    0.88344   0.77271   -2.000
