###################################################################
## OUTPUT of StarlightChains_v04.for    [Cid@UFSC - 01/Apr/2007] ##
###################################################################

## Some input info
2004di.txt                               [arq_obs]
Base.CB07.vall.4m                        [arq_base]
Masks.EmLines.NEW.gm                     [arq_masks]
StCv04.C11.config                        [arq_config]
   66                                    [N_base]
    0                                    [N_YAV_components = # of components with extra extinction!]
    0                                    [i_FitPowerLaw (1/0 = Yes/No)]
-9.99                                    [alpha_PowerLaw]
CCM                                      [red_law_option]
 1.458241                                [q_norm = A(l_norm)/A(V)]

## (Re)Sampling Parameters
 3741.00                                 [l_ini (A)]
 7218.00                                 [l_fin (A)]
    1.00                                 [dl    (A)]     (OBS: dl_cushion =    50.00 A)

## Normalization info
 4020.00                                 [l_norm (A) - for base]
 4010.00                                 [llow_norm (A) - window for f_obs]
 4060.00                                 [lupp_norm (A) - window for f_obs]
1.376901E-17                             [fobs_norm (in input units)]

## S/N
 3691.00                                 [llow_SN (A) - window for S/N]
 7268.00                                 [lupp_SN (A) - window for S/N]
   5.209                                 [S/N in S/N window]
   4.685                                 [S/N in norm. window]
   0.000                                 [S/N_err in S/N window]
   0.000                                 [S/N_err in norm. window]
  1.0000                                 [fscale_chi2]

## etc...
    -2007288                             [idum_orig]
  2124                                   [NOl_eff]
  1992                                   [Nl_eff]
   132    NSIGMA                         [Ntot_cliped & clip_method]
  1277010                                [Nglobal_steps]
   7                                     [N_chains]
  18                                     [NEX0s_base = N_base in EX0s-fits]
 0   0   1        9   2.0   2.299E+01    [Clip-Bug, RC-Crash & Burn-In warning-flags, n_censored_weights, wei_nsig_threshold & wei_limit]
    11     11.557     11.063      0.493  [idt_all, wdt_TotTime, wdt_UsrTime & wdt_SysTime (sec)]

## Synthesis Results - Best model ##

 1.54279E+00                             [chi2/Nl_eff]
    11.35100                             [adev (%)]

   108.37333                             [sum-of-x (%)]
 1.24348E-17                             [Flux_tot (units of input spectrum!)]
 1.01833E-12                             [Mini_tot (???)]
 5.11581E-13                             [Mcor_tot (???)]

 -93.61                                  [v0_min  (km/s)]
 187.07                                  [vd_min  (km/s)]
-0.1358                                  [AV_min  (mag)]
 0.0000                                  [YAV_min (mag)]

# j     x_j(%)      Mini_j(%)     Mcor_j(%)     age_j(yr)     Z_j      (L/M)_j    YAV?  Mstars   component_j        a/Fe...       SSP_chi2r SSP_adev(%)   SSP_AV   SSP_x(%)
  1      9.9798     1.0279E-02    2.0460E-02    1.000000E+06  0.00400  1.094E-02    0   1.0000   age020_m42            0.0000     2.2953E+00    13.2933   3.3459    92.9426
  2      0.0000     0.0000E+00    0.0000E+00    3.160000E+06  0.00400  4.007E-02    0   0.9999   age045_m42            0.0000     2.2465E+00    13.0482   2.6393    98.1626
  3      0.0000     0.0000E+00    0.0000E+00    5.010000E+06  0.00400  2.539E-02    0   0.9488   age055_m42            0.0000     2.2515E+00    13.1277   2.9476    96.3768
  4      0.0000     0.0000E+00    0.0000E+00    6.610000E+06  0.00400  2.620E-02    0   0.9220   age061_m42            0.0000     2.2183E+00    13.0508   2.5565    98.7234
  5      0.0000     0.0000E+00    0.0000E+00    1.000000E+07  0.00400  1.322E-02    0   0.8862   age070_m42            0.0000     2.1374E+00    13.2196   2.2107   103.4703
  6      0.0000     0.0000E+00    0.0000E+00    1.445000E+07  0.00400  7.883E-03    0   0.8571   age078_m42            0.0000     2.1710E+00    13.2665   2.5419   100.7446
  7      0.0000     0.0000E+00    0.0000E+00    2.512000E+07  0.00400  5.251E-03    0   0.8174   age090_m42            0.0000     2.1369E+00    13.2848   2.0724   104.3564
  8      0.0000     0.0000E+00    0.0000E+00    4.000000E+07  0.00400  3.649E-03    0   0.7851   age104_m42            0.0000     2.1063E+00    13.1673   1.8522   104.8803
  9      0.0000     0.0000E+00    0.0000E+00    5.500000E+07  0.00400  3.098E-03    0   0.7629   age110_m42            0.0000     2.1384E+00    13.0758   2.0363   103.5220
 10      0.0000     0.0000E+00    0.0000E+00    1.015200E+08  0.00400  2.228E-03    0   0.7207   age116_m42            0.0000     2.1551E+00    13.0364   2.0760   102.8870
 11      0.0000     0.0000E+00    0.0000E+00    2.861200E+08  0.00400  1.093E-03    0   0.6648   age125_m42            0.0000     2.1631E+00    13.0357   1.4818   107.0978
 12      0.0000     0.0000E+00    0.0000E+00    5.088000E+08  0.00400  6.597E-04    0   0.6365   age130_m42            0.0000     2.1159E+00    12.7847   1.5041   106.5676
 13      0.0000     0.0000E+00    0.0000E+00    1.434000E+09  0.00400  2.132E-04    0   0.5798   age139_m42            0.0000     1.8105E+00    11.9130   0.5524   107.9660
 14      0.0000     0.0000E+00    0.0000E+00    4.250000E+09  0.00400  5.895E-05    0   0.5377   age158_m42            0.0000     1.7123E+00    11.3944   0.1473   102.5505
 15      0.0000     0.0000E+00    0.0000E+00    7.500000E+09  0.00400  3.510E-05    0   0.5212   age171_m42            0.0000     1.6975E+00    11.3177  -0.0261   101.3299
 16      0.0011     6.4318E-04    6.4450E-04    1.300000E+10  0.00400  2.005E-05    0   0.5034   age193_m42            0.0000     1.7058E+00    11.3220  -0.1811   100.4546
 17      0.0000     0.0000E+00    0.0000E+00    1.800000E+10  0.00400  1.525E-05    0   0.4967   age213_m42            0.0000     1.6923E+00    11.2925  -0.2065   100.1418
 18      7.2367     6.5863E-03    1.3110E-02    1.000000E+06  0.00800  1.238E-02    0   1.0000   age020_m52            0.0000     2.2976E+00    13.3077   3.3422    93.1265
 19      0.0000     0.0000E+00    0.0000E+00    3.160000E+06  0.00800  3.074E-02    0   0.9966   age045_m52            0.0000     2.2944E+00    13.2884   3.2705    93.7289
 20      0.0000     0.0000E+00    0.0000E+00    5.010000E+06  0.00800  2.668E-02    0   0.9443   age055_m52            0.0000     2.2380E+00    13.1599   3.0250    95.7535
 21      0.0000     0.0000E+00    0.0000E+00    6.610000E+06  0.00800  2.136E-02    0   0.9177   age061_m52            0.0000     1.9667E+00    12.7449   1.7124   104.7010
 22      0.0000     0.0000E+00    0.0000E+00    1.000000E+07  0.00800  1.215E-02    0   0.8827   age070_m52            0.0000     2.1492E+00    13.3439   2.3702   104.1409
 23      0.0000     0.0000E+00    0.0000E+00    1.445000E+07  0.00800  8.717E-03    0   0.8552   age078_m52            0.0000     2.1403E+00    13.2252   2.5063   102.1829
 24      0.0000     0.0000E+00    0.0000E+00    2.512000E+07  0.00800  5.592E-03    0   0.8162   age090_m52            0.0000     2.1154E+00    13.2714   2.1345   105.6717
 25      0.0000     0.0000E+00    0.0000E+00    4.000000E+07  0.00800  3.896E-03    0   0.7841   age104_m52            0.0000     2.1189E+00    13.1733   2.0605   105.8102
 26      0.0000     0.0000E+00    0.0000E+00    1.015200E+08  0.00800  2.148E-03    0   0.7226   age116_m52            0.0000     2.1227E+00    13.0073   2.0295   104.2771
 27      0.0000     0.0000E+00    0.0000E+00    2.861200E+08  0.00800  9.925E-04    0   0.6683   age125_m52            0.0000     2.0899E+00    12.8220   1.5671   107.5164
 28      0.0000     0.0000E+00    0.0000E+00    9.047900E+08  0.00800  3.141E-04    0   0.6138   age135_m52            0.0000     1.9152E+00    11.9729   0.8158   109.8517
 29      0.0000     0.0000E+00    0.0000E+00    1.434000E+09  0.00800  1.719E-04    0   0.5853   age139_m52            0.0000     1.7415E+00    11.4970   0.2334   108.1521
 30      0.0000     0.0000E+00    0.0000E+00    2.500000E+09  0.00800  7.872E-05    0   0.5600   age150_m52            0.0000     1.6959E+00    11.3179   0.0054   103.6172
 31      0.0000     0.0000E+00    0.0000E+00    4.250000E+09  0.00800  4.336E-05    0   0.5426   age158_m52            0.0000     1.7046E+00    11.3194  -0.0079   102.5703
 32      0.0000     0.0000E+00    0.0000E+00    6.250000E+09  0.00800  3.159E-05    0   0.5319   age166_m52            0.0000     1.7252E+00    11.3548  -0.1868   101.6719
 33      0.0000     0.0000E+00    0.0000E+00    1.300000E+10  0.00800  1.361E-05    0   0.5073   age193_m52            0.0000     1.7642E+00    11.4990  -0.6254    99.8654
 34      0.0000     0.0000E+00    0.0000E+00    1.800000E+10  0.00800  9.886E-06    0   0.4990   age213_m52            0.0000     1.8414E+00    11.7619  -0.7063    98.3440
 35      9.3269     6.8064E-03    1.3549E-02    1.000000E+06  0.02000  1.544E-02    0   1.0000   age020_m62            0.0000     2.3046E+00    13.3327   3.3386    93.3405
 36      2.7335     8.1870E-04    1.6065E-03    3.160000E+06  0.02000  3.762E-02    0   0.9858   age045_m62            0.0000     2.3137E+00    13.3472   3.2787    94.0985
 37      0.0000     0.0000E+00    0.0000E+00    5.010000E+06  0.02000  3.296E-02    0   0.9342   age055_m62            0.0000     2.2496E+00    13.1395   2.9156    97.1910
 38      0.0000     0.0000E+00    0.0000E+00    8.710000E+06  0.02000  1.154E-02    0   0.8861   age067_m62            0.0000     2.4086E+00    14.7055   1.7042   112.5153
 39      0.0000     0.0000E+00    0.0000E+00    1.445000E+07  0.02000  7.663E-03    0   0.8472   age078_m62            0.0000     2.1763E+00    13.5703   1.9815   108.1054
 40      0.0000     0.0000E+00    0.0000E+00    2.512000E+07  0.02000  4.532E-03    0   0.8099   age090_m62            0.0000     2.2245E+00    13.6957   1.9682   108.0473
 41      0.0000     0.0000E+00    0.0000E+00    5.500000E+07  0.02000  2.733E-03    0   0.7595   age110_m62            0.0000     2.0806E+00    13.1210   2.0413   105.2322
 42      0.0000     0.0000E+00    0.0000E+00    1.609000E+08  0.02000  1.369E-03    0   0.6985   age120_m62            0.0000     2.1119E+00    13.0334   1.9166   106.3684
 43      0.0000     0.0000E+00    0.0000E+00    2.861200E+08  0.02000  9.013E-04    0   0.6714   age125_m62            0.0000     2.0946E+00    12.9207   1.6864   108.4307
 44      0.0000     0.0000E+00    0.0000E+00    5.088000E+08  0.02000  5.028E-04    0   0.6449   age130_m62            0.0000     2.0580E+00    12.4785   1.3561   109.1169
 45      0.0000     0.0000E+00    0.0000E+00    9.047900E+08  0.02000  2.428E-04    0   0.6179   age135_m62            0.0000     1.8462E+00    11.7884   0.7879   107.9098
 46      0.0000     0.0000E+00    0.0000E+00    1.434000E+09  0.02000  1.263E-04    0   0.5908   age139_m62            0.0000     1.7316E+00    11.4833   0.3517   106.1788
 47      0.0000     0.0000E+00    0.0000E+00    2.500000E+09  0.02000  5.985E-05    0   0.5673   age150_m62            0.0000     1.7370E+00    11.4203   0.0172   103.5439
 48      0.0000     0.0000E+00    0.0000E+00    4.250000E+09  0.02000  3.271E-05    0   0.5468   age158_m62            0.0000     1.7838E+00    11.5417  -0.2509   101.2529
 49      4.0090     3.3214E+00    3.4162E+00    1.000000E+10  0.02000  1.360E-05    0   0.5167   age181_m62            0.0000     1.9035E+00    11.9864  -0.5585    99.2603
 50     18.9829     3.0024E+01    2.9960E+01    1.800000E+10  0.02000  7.124E-06    0   0.5013   age213_m62            0.0000     2.0469E+00    12.4834  -0.7330    97.1360
 51     15.8406     6.8860E-03    1.3704E-02    1.000000E+06  0.05000  2.592E-02    0   0.9998   age020_m72            0.0000     2.3153E+00    13.4072   3.3244    93.6171
 52      0.0000     0.0000E+00    0.0000E+00    3.160000E+06  0.05000  4.845E-02    0   0.9577   age045_m72            0.0000     2.3022E+00    13.2558   3.1734    94.8080
 53      0.0000     0.0000E+00    0.0000E+00    5.010000E+06  0.05000  3.072E-02    0   0.9147   age055_m72            0.0000     2.2704E+00    13.4582   2.6045   102.5946
 54      0.0000     0.0000E+00    0.0000E+00    6.610000E+06  0.05000  1.455E-02    0   0.8877   age061_m72            0.0000     3.5766E+00    16.7982   1.7000   116.1345
 55      0.0000     0.0000E+00    0.0000E+00    1.000000E+07  0.05000  9.074E-03    0   0.8524   age070_m72            0.0000     2.6846E+00    14.0082   2.7813   102.6117
 56      0.0000     0.0000E+00    0.0000E+00    2.512000E+07  0.05000  4.250E-03    0   0.7902   age090_m72            0.0000     2.4158E+00    13.6733   2.4885   104.0368
 57      0.0000     0.0000E+00    0.0000E+00    4.000000E+07  0.05000  3.087E-03    0   0.7618   age104_m72            0.0000     2.4242E+00    13.7670   2.2542   106.0363
 58      0.0000     0.0000E+00    0.0000E+00    1.015200E+08  0.05000  1.700E-03    0   0.7096   age116_m72            0.0000     2.1733E+00    13.2387   2.0413   106.7331
 59      0.0000     0.0000E+00    0.0000E+00    2.861200E+08  0.05000  7.384E-04    0   0.6633   age125_m72            0.0000     2.0550E+00    12.6815   1.5803   108.6952
 60      0.0000     0.0000E+00    0.0000E+00    5.088000E+08  0.05000  3.819E-04    0   0.6372   age130_m72            0.0000     1.9068E+00    12.0494   1.1281   108.7420
 61      0.0000     0.0000E+00    0.0000E+00    9.047900E+08  0.05000  1.676E-04    0   0.6110   age135_m72            0.0000     1.8107E+00    11.6582   0.4776   105.1530
 62      0.0000     0.0000E+00    0.0000E+00    1.434000E+09  0.05000  8.837E-05    0   0.5874   age139_m72            0.0000     1.7314E+00    11.4643   0.0245   104.7211
 63      1.2524     3.3338E-01    3.7149E-01    2.500000E+09  0.05000  4.233E-05    0   0.5598   age150_m72            0.0000     1.8209E+00    11.6664  -0.2377   101.5681
 64     14.5908     1.1457E+01    1.1970E+01    6.250000E+09  0.05000  1.435E-05    0   0.5249   age166_m72            0.0000     1.9456E+00    12.1201  -0.6405    98.3183
 65      7.8345     1.3554E+01    1.3587E+01    1.300000E+10  0.05000  6.513E-06    0   0.5036   age193_m72            0.0000     2.1536E+00    12.8199  -0.8780    97.6635
 66     16.5850     4.1279E+01    4.0632E+01    1.800000E+10  0.05000  4.527E-06    0   0.4945   age213_m72            0.0000     2.2969E+00    13.3015  -1.0000    95.9551


## Synthesis Results - Average & Chains ##

# j      x_j: min, <> & last-chain-values for 1 ...  7 chains
  1      9.9798      6.3926      8.4471      8.1997      7.0142     10.1968      6.7438      5.9478      7.1304
  2      0.0000      0.1644      0.0000      0.0000      0.0000      0.0000      0.0000      0.0000      0.0000
  3      0.0000      0.1577      0.0000      0.0000      0.0000      0.5063      0.0000      1.1131      0.0000
  4      0.0000      0.2909      0.0000      0.0000      0.0000      0.3869      0.0000      0.0000      0.0000
  5      0.0000      0.1863      0.0000      0.0000      0.0000      0.0000      0.0000      0.1473      0.0000
  6      0.0000      0.9903      2.9072      1.8028      1.2409      0.3162      0.0000      0.0000      0.0000
  7      0.0000      0.2334      0.0000      0.2535      0.0000      0.6365      0.0000      0.0000      0.0000
  8      0.0000      0.2131      0.0027      0.0000      0.0000      1.2654      0.1662      0.0000      0.0367
  9      0.0000      0.1154      0.4813      0.0000      0.0000      0.0000      0.0000      0.0000      0.0000
 10      0.0000      0.1326      0.0000      0.0000      0.0000      0.0000      0.0000      0.0000      0.0000
 11      0.0000      0.1509      0.2597      0.0000      0.9030      0.0000      0.0000      0.0000      0.0000
 12      0.0000      0.1298      0.0000      0.0000      0.0000      0.0000      0.0000      0.0000      0.0000
 13      0.0000      0.4949      0.0000      0.0000      0.0000      0.0000      0.0000      0.0000      0.0000
 14      0.0000      0.7557      0.0000      0.0000      0.0000      0.2313      0.1500      0.0000      0.0000
 15      0.0000      0.5449      0.0000      0.0000      0.9191      0.0000      0.1949      0.0000      0.0000
 16      0.0011      0.5532      0.6099      0.6148      0.0000      0.4754      0.5090      1.6293      0.0280
 17      0.0000      0.5116      0.0000      0.0000      0.0000      0.0000      0.0000      0.0000      0.0000
 18      7.2367      6.0955      6.5981      5.1440      6.7989      7.5926      6.6559      5.9230      6.5086
 19      0.0000      0.5476      0.3901      0.6356      1.5369      1.2634      0.8167      0.7842      0.2287
 20      0.0000      0.3364      1.1837      0.0000      1.1133      0.5179      0.8043      0.8738      0.3681
 21      0.0000      0.4231      1.0182      0.0000      0.0000      0.0000      1.0671      0.0000      0.0000
 22      0.0000      0.3290      0.0000      0.0000      0.8589      0.0000      0.0000      0.0000      0.0000
 23      0.0000      0.4698      0.0000      0.0000      0.0000      0.0000      0.1726      0.0000      0.0000
 24      0.0000      0.5731      0.0000      0.0000      1.6875      2.2823      0.0000      1.0762      0.0000
 25      0.0000      0.1725      0.0000      0.0000      0.0000      0.0000      0.0000      0.0000      0.0000
 26      0.0000      0.1379      0.0000      0.0000      0.2524      0.0000      0.0000      0.0000      0.0000
 27      0.0000      0.1009      0.0000      0.0000      0.0000      0.5922      0.0000      0.0000      0.0000
 28      0.0000      0.2797      0.0000      0.0000      0.2940      0.0000      0.0000      0.0000      0.0000
 29      0.0000      0.4632      0.1904      0.0000      0.0000      0.0000      0.0000      0.4230      0.0000
 30      0.0000      0.6430      0.0000      0.0000      0.0000      0.0000      0.0000      0.1858      0.0000
 31      0.0000      0.5749      0.0000      0.6460      0.9276      0.0454      0.0000      0.0000      0.5258
 32      0.0000      0.5208      0.9224      0.0000      0.0000      1.0412      1.1635      0.0000      0.0000
 33      0.0000      0.2287      0.0000      1.0460      0.0000      0.0000      0.0000      0.1647      0.0000
 34      0.0000      0.4403      0.0000      1.4222      0.8844      0.0000      0.0000      0.0000      0.2883
 35      9.3269      5.2190      5.3407     10.5817      5.1776      6.5058      6.0101      5.5632      6.5046
 36      2.7335      2.1107      2.2048      2.7094      3.1774      1.1425      3.4588      1.8846      3.6409
 37      0.0000      0.1286      0.1246      0.0000      0.0000      0.0000      0.0000      0.0000      0.0000
 38      0.0000      0.4666      0.0000      0.0000      3.8655      0.0000      0.0000      1.0630      0.0000
 39      0.0000      0.3167      0.0000      0.0000      0.0000      0.0000      0.0000      0.0596      1.0078
 40      0.0000      0.3751      0.2879      0.0000      0.0000      0.0000      0.3349      1.9395      0.0000
 41      0.0000      0.1376      0.0000      0.0000      0.0000      0.0000      0.0000      0.0000      0.0000
 42      0.0000      0.0997      0.0335      0.0000      0.0000      0.0000      0.0000      0.0000      0.0000
 43      0.0000      0.1271      0.0000      0.0000      0.6220      0.0000      0.0000      0.0000      0.0000
 44      0.0000      0.1003      0.0000      0.0000      0.0000      0.1879      0.0000      0.3783      0.0000
 45      0.0000      0.2824      0.0000      1.2062      0.0000      0.0000      0.0000      0.0000      0.0000
 46      0.0000      0.6143      0.0000      0.0000      0.0000      0.0000      0.0000      0.0000      0.0000
 47      0.0000      0.7995      0.0000      0.0000      0.0000      0.0000      0.0000      0.7311      2.1419
 48      0.0000      5.3995      2.7406      0.1576      3.0949      0.0000      8.6008     10.7361      5.4395
 49      4.0090      4.0013      4.2929      5.2532      4.6312      2.9136      3.6374      3.8518      1.4218
 50     18.9829     12.2986     14.7504     16.6583     14.3115     15.5001     11.4624     11.8280     13.6265
 51     15.8406     10.8896     11.7288     11.5818      9.5195     11.8488     11.8149     13.5979     15.6599
 52      0.0000      0.9570      2.7027      1.4162      0.2086      0.0000      2.4643      0.0000      0.0000
 53      0.0000      0.1146      0.2081      0.0000      0.0000      0.0000      0.0000      0.0000      0.0000
 54      0.0000      0.3314      0.0000      0.0000      0.0827      0.0000      1.1044      0.4078      1.2412
 55      0.0000      0.1573      0.0000      0.0000      0.0000      0.0000      0.0000      0.0000      0.0000
 56      0.0000      0.1317      0.0000      0.0000      0.0000      0.0000      0.0000      0.0000      0.0000
 57      0.0000      0.1937      0.0000      0.0000      0.0000      0.0000      0.0000      0.0000      0.0000
 58      0.0000      0.0877      0.0388      0.5169      0.0000      0.0000      0.0000      0.2560      0.0000
 59      0.0000      0.1309      0.0000      0.0000      0.0000      0.0000      0.0000      0.0000      0.0000
 60      0.0000      0.2594      0.0000      0.0000      0.0000      0.0000      0.1207      0.0000      0.0000
 61      0.0000      0.6018      0.0000      0.0000      0.0000      1.0492      0.0000      0.0000      0.0000
 62      0.0000      1.0520      0.0000      1.8951      0.0000      0.0000      0.8297      1.3761      0.8891
 63      1.2524     16.4472     16.0848     15.6746     18.7479     17.1353     17.1406     15.4918     19.9603
 64     14.5908      8.5475     10.8824      9.6928      7.3431      9.9194      9.0535      8.8068      9.8479
 65      7.8345      5.3519      6.7293      4.2171      5.6980      5.9404      5.4095      5.7498      5.9510
 66     16.5850      5.6493      6.6136      6.2717      6.7216      8.3560      7.8026      5.7586      5.7417

# j      m_j: min, <> & last-chain-values for 1 ...  7 chains
  1  2.0460E-02  2.0919E-02  2.4630E-02  2.4176E-02  2.1368E-02  2.9101E-02  2.0813E-02  1.9225E-02  2.2742E-02
  2  0.0000E+00  1.4682E-04  0.0000E+00  0.0000E+00  0.0000E+00  0.0000E+00  0.0000E+00  0.0000E+00  0.0000E+00
  3  0.0000E+00  2.1100E-04  0.0000E+00  0.0000E+00  0.0000E+00  5.9069E-04  0.0000E+00  1.4709E-03  0.0000E+00
  4  0.0000E+00  3.6654E-04  0.0000E+00  0.0000E+00  0.0000E+00  4.2512E-04  0.0000E+00  0.0000E+00  0.0000E+00
  5  0.0000E+00  4.4707E-04  0.0000E+00  0.0000E+00  0.0000E+00  0.0000E+00  0.0000E+00  3.4921E-04  0.0000E+00
  6  0.0000E+00  3.8546E-03  1.0083E-02  6.3225E-03  4.4967E-03  1.0735E-03  0.0000E+00  0.0000E+00  0.0000E+00
  7  0.0000E+00  1.3009E-03  0.0000E+00  1.2728E-03  0.0000E+00  3.0933E-03  0.0000E+00  0.0000E+00  0.0000E+00
  8  0.0000E+00  1.6411E-03  1.8340E-05  0.0000E+00  0.0000E+00  8.5007E-03  1.2074E-03  0.0000E+00  2.7587E-04
  9  0.0000E+00  1.0176E-03  3.7808E-03  0.0000E+00  0.0000E+00  0.0000E+00  0.0000E+00  0.0000E+00  0.0000E+00
 10  0.0000E+00  1.5352E-03  0.0000E+00  0.0000E+00  0.0000E+00  0.0000E+00  0.0000E+00  0.0000E+00  0.0000E+00
 11  0.0000E+00  3.2847E-03  5.0395E-03  0.0000E+00  1.8305E-02  0.0000E+00  0.0000E+00  0.0000E+00  0.0000E+00
 12  0.0000E+00  4.4816E-03  0.0000E+00  0.0000E+00  0.0000E+00  0.0000E+00  0.0000E+00  0.0000E+00  0.0000E+00
 13  0.0000E+00  4.8186E-02  0.0000E+00  0.0000E+00  0.0000E+00  0.0000E+00  0.0000E+00  0.0000E+00  0.0000E+00
 14  0.0000E+00  2.4675E-01  0.0000E+00  0.0000E+00  0.0000E+00  6.5872E-02  4.6196E-02  0.0000E+00  0.0000E+00
 15  0.0000E+00  2.8964E-01  0.0000E+00  0.0000E+00  4.5485E-01  0.0000E+00  9.7695E-02  0.0000E+00  0.0000E+00
 16  6.4450E-04  4.9724E-01  4.8849E-01  4.9788E-01  0.0000E+00  3.7266E-01  4.3147E-01  1.4465E+00  2.4525E-02
 17  0.0000E+00  5.9648E-01  0.0000E+00  0.0000E+00  0.0000E+00  0.0000E+00  0.0000E+00  0.0000E+00  0.0000E+00
 18  1.3110E-02  1.7626E-02  1.7001E-02  1.3403E-02  1.8303E-02  1.9149E-02  1.8153E-02  1.6918E-02  1.8345E-02
 19  0.0000E+00  6.3560E-04  4.0340E-04  6.6468E-04  1.6606E-03  1.2789E-03  8.9394E-04  8.9908E-04  2.5869E-04
 20  0.0000E+00  4.2624E-04  1.3364E-03  0.0000E+00  1.3133E-03  5.7229E-04  9.6118E-04  1.0936E-03  4.5465E-04
 21  0.0000E+00  6.5068E-04  1.3955E-03  0.0000E+00  0.0000E+00  0.0000E+00  1.5479E-03  0.0000E+00  0.0000E+00
 22  0.0000E+00  8.5557E-04  0.0000E+00  0.0000E+00  2.0796E-03  0.0000E+00  0.0000E+00  0.0000E+00  0.0000E+00
 23  0.0000E+00  1.6501E-03  0.0000E+00  0.0000E+00  0.0000E+00  0.0000E+00  5.7186E-04  0.0000E+00  0.0000E+00
 24  0.0000E+00  2.9947E-03  0.0000E+00  0.0000E+00  8.2090E-03  1.0401E-02  0.0000E+00  5.5544E-03  0.0000E+00
 25  0.0000E+00  1.2429E-03  0.0000E+00  0.0000E+00  0.0000E+00  0.0000E+00  0.0000E+00  0.0000E+00  0.0000E+00
 26  0.0000E+00  1.6609E-03  0.0000E+00  0.0000E+00  2.8301E-03  0.0000E+00  0.0000E+00  0.0000E+00  0.0000E+00
 27  0.0000E+00  2.4333E-03  0.0000E+00  0.0000E+00  0.0000E+00  1.2451E-02  0.0000E+00  0.0000E+00  0.0000E+00
 28  0.0000E+00  1.9566E-02  0.0000E+00  0.0000E+00  1.9150E-02  0.0000E+00  0.0000E+00  0.0000E+00  0.0000E+00
 29  0.0000E+00  5.6458E-02  2.0679E-02  0.0000E+00  0.0000E+00  0.0000E+00  0.0000E+00  5.0927E-02  0.0000E+00
 30  0.0000E+00  1.6375E-01  0.0000E+00  0.0000E+00  0.0000E+00  0.0000E+00  0.0000E+00  4.6743E-02  0.0000E+00
 31  0.0000E+00  2.5756E-01  0.0000E+00  2.6077E-01  3.8686E-01  1.7737E-02  0.0000E+00  0.0000E+00  2.2958E-01
 32  0.0000E+00  3.1393E-01  4.9545E-01  0.0000E+00  0.0000E+00  5.4735E-01  6.6146E-01  0.0000E+00  0.0000E+00
 33  0.0000E+00  3.0523E-01  0.0000E+00  1.2576E+00  0.0000E+00  0.0000E+00  0.0000E+00  2.1713E-01  0.0000E+00
 34  0.0000E+00  7.9562E-01  0.0000E+00  2.3155E+00  1.4878E+00  0.0000E+00  0.0000E+00  0.0000E+00  5.0785E-01
 35  1.3549E-02  1.2101E-02  1.1034E-02  2.2106E-02  1.1176E-02  1.3156E-02  1.3143E-02  1.2741E-02  1.4700E-02
 36  1.6065E-03  1.9801E-03  1.8430E-03  2.2900E-03  2.7749E-03  9.3474E-04  3.0602E-03  1.7464E-03  3.3290E-03
 37  0.0000E+00  1.3046E-04  1.1269E-04  0.0000E+00  0.0000E+00  0.0000E+00  0.0000E+00  0.0000E+00  0.0000E+00
 38  0.0000E+00  1.2827E-03  0.0000E+00  0.0000E+00  9.8923E-03  0.0000E+00  0.0000E+00  2.8862E-03  0.0000E+00
 39  0.0000E+00  1.2533E-03  0.0000E+00  0.0000E+00  0.0000E+00  0.0000E+00  0.0000E+00  2.3308E-04  3.8877E-03
 40  0.0000E+00  2.3998E-03  1.6414E-03  0.0000E+00  0.0000E+00  0.0000E+00  2.0205E-03  1.2257E-02  0.0000E+00
 41  0.0000E+00  1.3693E-03  0.0000E+00  0.0000E+00  0.0000E+00  0.0000E+00  0.0000E+00  0.0000E+00  0.0000E+00
 42  0.0000E+00  1.8206E-03  5.4551E-04  0.0000E+00  0.0000E+00  0.0000E+00  0.0000E+00  0.0000E+00  0.0000E+00
 43  0.0000E+00  3.3891E-03  0.0000E+00  0.0000E+00  1.5443E-02  0.0000E+00  0.0000E+00  0.0000E+00  0.0000E+00
 44  0.0000E+00  4.6063E-03  0.0000E+00  0.0000E+00  0.0000E+00  7.5249E-03  0.0000E+00  1.7160E-02  0.0000E+00
 45  0.0000E+00  2.5730E-02  0.0000E+00  9.9013E-02  0.0000E+00  0.0000E+00  0.0000E+00  0.0000E+00  0.0000E+00
 46  0.0000E+00  1.0287E-01  0.0000E+00  0.0000E+00  0.0000E+00  0.0000E+00  0.0000E+00  0.0000E+00  0.0000E+00
 47  0.0000E+00  2.7131E-01  0.0000E+00  0.0000E+00  0.0000E+00  0.0000E+00  0.0000E+00  2.4505E-01  7.0843E-01
 48  0.0000E+00  3.2313E+00  1.4614E+00  8.4961E-02  1.7243E+00  0.0000E+00  4.8544E+00  6.3464E+00  3.1728E+00
 49  3.4162E+00  5.4422E+00  5.2027E+00  6.4377E+00  5.8642E+00  3.4562E+00  4.6659E+00  5.1748E+00  1.8849E+00
 50  2.9960E+01  3.0982E+01  3.3110E+01  3.7810E+01  3.3564E+01  3.4055E+01  2.7233E+01  2.9432E+01  3.3458E+01
 51  1.3704E-02  1.5037E-02  1.4431E-02  1.4410E-02  1.2238E-02  1.4270E-02  1.5387E-02  1.8547E-02  2.1077E-02
 52  0.0000E+00  6.7721E-04  1.7041E-03  9.0296E-04  1.3744E-04  0.0000E+00  1.6447E-03  0.0000E+00  0.0000E+00
 53  0.0000E+00  1.2215E-04  1.9768E-04  0.0000E+00  0.0000E+00  0.0000E+00  0.0000E+00  0.0000E+00  0.0000E+00
 54  0.0000E+00  7.2378E-04  0.0000E+00  0.0000E+00  1.6818E-04  0.0000E+00  2.2749E-03  8.7985E-04  2.6422E-03
 55  0.0000E+00  5.2889E-04  0.0000E+00  0.0000E+00  0.0000E+00  0.0000E+00  0.0000E+00  0.0000E+00  0.0000E+00
 56  0.0000E+00  8.7640E-04  0.0000E+00  0.0000E+00  0.0000E+00  0.0000E+00  0.0000E+00  0.0000E+00  0.0000E+00
 57  0.0000E+00  1.7113E-03  0.0000E+00  0.0000E+00  0.0000E+00  0.0000E+00  0.0000E+00  0.0000E+00  0.0000E+00
 58  0.0000E+00  1.3104E-03  5.1626E-04  6.9591E-03  0.0000E+00  0.0000E+00  0.0000E+00  3.7792E-03  0.0000E+00
 59  0.0000E+00  4.2092E-03  0.0000E+00  0.0000E+00  0.0000E+00  0.0000E+00  0.0000E+00  0.0000E+00  0.0000E+00
 60  0.0000E+00  1.5493E-02  0.0000E+00  0.0000E+00  0.0000E+00  0.0000E+00  6.7981E-03  0.0000E+00  0.0000E+00
 61  0.0000E+00  7.8536E-02  0.0000E+00  0.0000E+00  0.0000E+00  1.1943E-01  0.0000E+00  0.0000E+00  0.0000E+00
 62  0.0000E+00  2.5033E-01  0.0000E+00  4.0632E-01  0.0000E+00  0.0000E+00  1.8620E-01  3.2345E-01  2.0621E-01
 63  3.7149E-01  7.7866E+00  6.7854E+00  6.6863E+00  8.2632E+00  7.0753E+00  7.6536E+00  7.2447E+00  9.2107E+00
 64  1.1970E+01  1.1193E+01  1.2698E+01  1.1436E+01  8.9518E+00  1.1329E+01  1.1181E+01  1.1391E+01  1.2569E+01
 65  1.3587E+01  1.4814E+01  1.6598E+01  1.0518E+01  1.4684E+01  1.4341E+01  1.4123E+01  1.5721E+01  1.6056E+01
 66  4.0632E+01  2.2091E+01  2.3045E+01  2.2097E+01  2.4470E+01  2.8499E+01  2.8777E+01  2.2244E+01  2.1884E+01

# AV, chi2 & Mass for <> & i_chain = 1 ...  7 solutions
AV      -0.1358      0.0515      0.0274      0.0397      0.0485      0.0467      0.0305      0.0360      0.0485
chi2 1.5428E+00  1.5650E+00  1.5569E+00  1.5589E+00  1.5608E+00  1.5585E+00  1.5579E+00  1.5604E+00  1.5583E+00
Mass 5.1158E-13  4.1214E-13  4.4782E-13  4.5027E-13  4.4096E-13  4.6953E-13  4.2485E-13  4.0868E-13  4.2119E-13
 -93.61                                  [v0_min (km/s) before EX0s...]
 187.07                                  [vd_min (km/s) before EX0s...]


## Synthetic spectrum (Best Model) ##l_obs f_obs f_syn wei
 3478    [Nl_obs]
 3741.00    0.68762   0.78131    0.000
 3742.00    0.94940   0.76381    0.000
 3743.00    1.11293   0.74051    0.000
 3744.00    1.09791   0.71581    0.000
 3745.00    0.96088   0.69338    4.161
 3746.00    0.80125   0.67688    4.203
 3747.00    0.70379   0.67007    4.083
 3748.00    0.67013   0.67573    3.996
 3749.00    0.64488   0.69430    4.039
 3750.00    0.65519   0.72306    4.169
 3751.00    0.78366   0.75618    4.232
 3752.00    0.98597   0.78603    4.149
 3753.00    1.13258   0.80567    3.980
 3754.00    1.23058   0.81174    3.831
 3755.00    1.37026   0.80582    3.769
 3756.00    1.48532   0.79339    3.744
 3757.00    1.42272   0.78121    3.687
 3758.00    1.19444   0.77397    3.702
 3759.00    0.94085   0.77258    3.924
 3760.00    0.76329   0.77489    4.163
 3761.00    0.69831   0.77766    4.066
 3762.00    0.73022   0.77830    3.884
 3763.00    0.81820   0.77616    4.022
 3764.00    0.93499   0.77253    4.405
 3765.00    1.06826   0.76917    4.603
 3766.00    1.21216   0.76765    4.419
 3767.00    1.34290   0.76958    4.096
 3768.00    1.39297   0.77594    3.969
 3769.00    1.31733   0.78660    4.164
 3770.00    1.17107   0.80056    4.412
 3771.00    1.03483   0.81635    4.357
 3772.00    0.92655   0.83237    4.232
 3773.00    0.84432   0.84737    4.342
 3774.00    0.81483   0.86103    4.574
 3775.00    0.84943   0.87390    4.675
 3776.00    0.90486   0.88662    4.621
 3777.00    0.93372   0.89918    4.556
 3778.00    0.92688   0.91094    4.606
 3779.00    0.88564   0.92065    4.791
 3780.00    0.80223   0.92648    4.956
 3781.00    0.69529   0.92634    4.976
 3782.00    0.62654   0.91858    4.957
 3783.00    0.63784   0.90295    5.015
 3784.00    0.71614   0.88092    5.132
 3785.00    0.83732   0.85583    5.194
 3786.00    0.98914   0.83198    5.070
 3787.00    1.14566   0.81277    4.853
 3788.00    1.26241   0.79910    4.820
 3789.00    1.32439   0.78926    5.021
 3790.00    1.36102   0.77996   -1.000
 3791.00    1.40368   0.76800   -1.000
 3792.00    1.46061   0.75166   -1.000
 3793.00    1.49807   0.73148   -1.000
 3794.00    1.45620   0.71029   -1.000
 3795.00    1.33484   0.69260   -1.000
 3796.00    1.20203   0.68325   -1.000
 3797.00    1.10995   0.68594    5.202
 3798.00    1.07221   0.70179    5.098
 3799.00    1.08733   0.72840    5.361
 3800.00    1.14391   0.76033    5.618
 3801.00    1.21357   0.79099    5.612
 3802.00    1.26461   0.81512    5.465
 3803.00    1.30145   0.83051    5.382
 3804.00    1.34354   0.83826    5.490
 3805.00    1.35259   0.84158    5.717
 3806.00    1.26440   0.84380    5.851
 3807.00    1.09418   0.84632    5.842
 3808.00    0.91375   0.84792    5.824
 3809.00    0.76096   0.84582    5.898
 3810.00    0.64502   0.83763    6.070
 3811.00    0.58831   0.82310    6.177
 3812.00    0.60099   0.80432    6.059
 3813.00    0.62967   0.78435    5.891
 3814.00    0.61431   0.76560    5.921
 3815.00    0.58251   0.74904    6.097
 3816.00    0.57256   0.73462    6.197
 3817.00    0.51489   0.72222    6.087
 3818.00    0.34712   0.71241    5.858
 3819.00    0.16968   0.70600   -1.000
 3820.00    0.09567   0.70285   -1.000
 3821.00    0.06576   0.70134   -1.000
 3822.00   -0.00480   0.69933    0.000
 3823.00   -0.05907   0.69563    0.000
 3824.00   -0.03054   0.69063    0.000
 3825.00    0.02228   0.68551   -1.000
 3826.00    0.02727   0.68074   -1.000
 3827.00    0.00288   0.67538   -1.000
 3828.00   -0.00415   0.66756    0.000
 3829.00    0.02399   0.65569   -1.000
 3830.00    0.08617   0.63980    5.514
 3831.00    0.17327   0.62196    5.643
 3832.00    0.27023   0.60567    5.506
 3833.00    0.35946   0.59443    5.344
 3834.00    0.43615   0.59039    5.405
 3835.00    0.51155   0.59388    5.685
 3836.00    0.57684   0.60403    5.982
 3837.00    0.59173   0.61972    5.926
 3838.00    0.53572   0.64007    5.616
 3839.00    0.43486   0.66418    5.614
 3840.00    0.35531   0.69040    6.047
 3841.00    0.37443   0.71624    6.397
 3842.00    0.47398   0.73887    6.300
 3843.00    0.53913   0.75610    6.133
 3844.00    0.54048   0.76706    6.151
 3845.00    0.56279   0.77220    6.281
 3846.00    0.63884   0.77287    6.452
 3847.00    0.71989   0.77087    0.000
 3848.00    0.78518   0.76801    0.000
 3849.00    0.85816   0.76546    0.000
 3850.00    0.94131   0.76330    0.000
 3851.00    1.01168   0.76055    0.000
 3852.00    1.06475   0.75596    0.000
 3853.00    1.11637   0.74883    0.000
 3854.00    1.17597   0.73953    0.000
 3855.00    1.23841   0.72939    0.000
 3856.00    1.28219   0.72039    0.000
 3857.00    1.28113   0.71480    0.000
 3858.00    1.22943   0.71452    0.000
 3859.00    1.14113   0.72020    0.000
 3860.00    1.03861   0.73047    0.000
 3861.00    0.94561   0.74230    0.000
 3862.00    0.87903   0.75224    0.000
 3863.00    0.84762   0.75785    0.000
 3864.00    0.85199   0.75851    0.000
 3865.00    0.88087   0.75498    0.000
 3866.00    0.90686   0.74862    0.000
 3867.00    0.90882   0.74096    0.000
 3868.00    0.90043   0.73372    0.000
 3869.00    0.89961   0.72890    0.000
 3870.00    0.88789   0.72833    0.000
 3871.00    0.83241   0.73255    0.000
 3872.00    0.71752   0.74004    0.000
 3873.00    0.55918   0.74753    0.000
 3874.00    0.41224   0.75158    0.000
 3875.00    0.32653   0.75045    0.000
 3876.00    0.30695   0.74486    0.000
 3877.00    0.33572   0.73721    0.000
 3878.00    0.39607   0.72999    0.000
 3879.00    0.48164   0.72450    0.000
 3880.00    0.59923   0.72032    0.000
 3881.00    0.74388   0.71568    7.060
 3882.00    0.88577   0.70827    6.985
 3883.00    1.00675   0.69666    7.038
 3884.00    1.11867   0.68179   -1.000
 3885.00    1.22084   0.66752   -1.000
 3886.00    1.28178   0.65946   -1.000
 3887.00    1.28770   0.66252   -1.000
 3888.00    1.26186   0.67846   -1.000
 3889.00    1.22052   0.70487   -1.000
 3890.00    1.15482   0.73617   -1.000
 3891.00    1.05530   0.76609    7.890
 3892.00    0.92516   0.79015    7.699
 3893.00    0.78490   0.80687    7.526
 3894.00    0.66739   0.81725    7.510
 3895.00    0.59255   0.82337    7.574
 3896.00    0.56007   0.82709    7.468
 3897.00    0.55974   0.82960    7.148
 3898.00    0.57857   0.83141    6.821
 3899.00    0.61091   0.83248    6.710
 3900.00    0.65642   0.83240    6.946
 3901.00    0.70469   0.83105    7.323
 3902.00    0.74047   0.82915    7.334
 3903.00    0.76909   0.82859    7.035
 3904.00    0.80718   0.83164    6.923
 3905.00    0.84400   0.83978    7.063
 3906.00    0.85232   0.85276    7.205
 3907.00    0.83355   0.86853    7.277
 3908.00    0.80842   0.88425    7.377
 3909.00    0.77769   0.89740    7.418
 3910.00    0.73279   0.90640    7.275
 3911.00    0.68971   0.91061    7.189
 3912.00    0.67564   0.90983    7.415
 3913.00    0.69589   0.90406    7.598
 3914.00    0.74154   0.89337    7.260
 3915.00    0.80953   0.87811    6.896
 3916.00    0.89391   0.85908    7.092
 3917.00    0.97008   0.83785    7.664
 3918.00    1.00985   0.81666    7.965
 3919.00    1.00399   0.79800    7.734
 3920.00    0.96175   0.78360    7.296
 3921.00    0.90597   0.77351    7.099
 3922.00    0.86138   0.76588    7.325
 3923.00    0.84136   0.75779    7.708
 3924.00    0.83634   0.74656    7.811
 3925.00    0.80876   0.73090    7.572
 3926.00    0.74486   0.71132    7.235
 3927.00    0.69263   0.68963    7.033
 3928.00    0.66859   0.66807    7.032
 3929.00    0.59247   0.64875    7.086
 3930.00    0.41877   0.63329    7.058
 3931.00    0.22717   0.62302    6.980
 3932.00    0.10794   0.61903   -1.000
 3933.00    0.08165   0.62212   -1.000
 3934.00    0.13772   0.63242   -1.000
 3935.00    0.26020   0.64899    7.297
 3936.00    0.41201   0.66968    7.396
 3937.00    0.53626   0.69153    7.057
 3938.00    0.61725   0.71157    6.852
 3939.00    0.69898   0.72791    8.049
 3940.00    0.81188   0.74049    9.455
 3941.00    0.94125   0.75098    6.205
 3942.00    1.05397   0.76191    4.819
 3943.00    1.11528   0.77526   -1.000
 3944.00    1.10401   0.79151   -2.000
 3945.00    1.02194   0.80963    2.537
 3946.00    0.90486   0.82792    1.585
 3947.00    0.81370   0.84483   -2.000
 3948.00    0.79147   0.85932   -2.000
 3949.00    0.84455   0.87073    0.403
 3950.00    0.93287   0.87872    0.277
 3951.00    0.98948   0.88319   -2.000
 3952.00    0.98270   0.88420   -2.000
 3953.00    0.92304   0.88178    0.048
 3954.00    0.83370   0.87577    0.043
 3955.00    0.74266   0.86575   -2.000
 3956.00    0.68231   0.85101   -2.000
 3957.00    0.67225   0.83070    0.006
 3958.00    0.68398   0.80441    0.007
 3959.00    0.67130   0.77290   -2.000
 3960.00    0.64329   0.73814   -2.000
 3961.00    0.64078   0.70246    0.000
 3962.00    0.66831   0.66731    0.000
 3963.00    0.70383   0.63296   -2.000
 3964.00    0.73443   0.59934   -2.000
 3965.00    0.74895   0.56749    0.000
 3966.00    0.72044   0.54030    0.000
 3967.00    0.64887   0.52207   -2.000
 3968.00    0.61338   0.51700   -2.000
 3969.00    0.62014   0.52757    0.000
 3970.00    0.43275   0.55348    0.000
 3971.00   -0.00925   0.59173   -2.000
 3972.00   -0.14990   0.63775   -2.000
 3973.00    0.36705   0.68681    0.000
 3974.00    0.87695   0.73510   -2.000
 3975.00    0.74517   0.78001   -2.000
 3976.00    0.37893   0.81985    0.000
 3977.00    0.33159   0.85340    0.000
 3978.00    0.47810   0.87980   -2.000
 3979.00    0.52065   0.89899   -2.000
 3980.00    0.43844   0.91210    0.000
 3981.00    0.33244   0.92136    0.000
 3982.00    0.28193   0.92935   -2.000
 3983.00    0.32871   0.93800   -2.000
 3984.00    0.47006   0.94785    0.000
 3985.00    0.64430   0.95819    0.000
 3986.00    0.74392   0.96774   -2.000
 3987.00    0.74024   0.97552   -2.000
 3988.00    0.72522   0.98128    0.000
 3989.00    0.75401   0.98532    0.000
 3990.00    0.78258   0.98787   -2.000
 3991.00    0.77570   0.98875   -2.000
 3992.00    0.75001   0.98764    0.000
 3993.00    0.72636   0.98486    0.000
 3994.00    0.71177   0.98193    0.000
 3995.00    0.71537   0.98123    0.000
 3996.00    0.74881   0.98488    0.000
 3997.00    0.80395   0.99330    0.000
 3998.00    0.85644   1.00453    0.000
 3999.00    0.90382   1.01481    0.000
 4000.00    0.96001   1.02007    0.000
 4001.00    1.00096   1.01792    0.000
 4002.00    0.97432   1.00897    0.000
 4003.00    0.87093   0.99686    0.000
 4004.00    0.72940   0.98674    0.000
 4005.00    0.59680   0.98284    0.000
 4006.00    0.51582   0.98663    0.000
 4007.00    0.51875   0.99654    0.000
 4008.00    0.61238   1.00942   -2.000
 4009.00    0.75108   1.02238   -2.000
 4010.00    0.87017   1.03377    0.000
 4011.00    0.95829   1.04314    0.000
 4012.00    1.03337   1.05051    0.000
 4013.00    1.07779   1.05597    0.000
 4014.00    1.06217   1.05956    0.000
 4015.00    1.00000   1.06147    0.000
 4016.00    0.92522   1.06197   -2.000
 4017.00    0.84833   1.06104   -2.000
 4018.00    0.77991   1.05823    0.000
 4019.00    0.76725   1.05286    0.000
 4020.00    0.84809   1.04472   -2.000
 4021.00    0.99054   1.03472   -2.000
 4022.00    1.12493   1.02486    0.000
 4023.00    1.19042   1.01740   -2.000
 4024.00    1.16650   1.01342   -2.000
 4025.00    1.09574   1.01167    0.000
 4026.00    1.03436   1.00871    0.000
 4027.00    1.00510   1.00067   -2.000
 4028.00    1.01307   0.98583   -2.000
 4029.00    1.06079   0.96636    0.000
 4030.00    1.12938   0.94783    0.000
 4031.00    1.16865   0.93689   -2.000
 4032.00    1.14162   0.93835   -2.000
 4033.00    1.05517   0.95317    0.000
 4034.00    0.94279   0.97808    0.000
 4035.00    0.84788   1.00681   -2.000
 4036.00    0.80092   1.03226   -2.000
 4037.00    0.80667   1.04882    0.000
 4038.00    0.84881   1.05356    0.000
 4039.00    0.89674   1.04604   -2.000
 4040.00    0.92417   1.02767   -2.000
 4041.00    0.91833   1.00132    0.000
 4042.00    0.87795   0.97181    0.000
 4043.00    0.80926   0.94595   -2.000
 4044.00    0.71437   0.93103   -2.000
 4045.00    0.59468   0.93181    0.001
 4046.00    0.48224   0.94790    0.001
 4047.00    0.43737   0.97372   -2.000
 4048.00    0.49810   1.00087   -2.000
 4049.00    0.66315   1.02177    0.005
 4050.00    0.89689   1.03211    0.009
 4051.00    1.13543   1.03151   -2.000
 4052.00    1.29952   1.02249   -2.000
 4053.00    1.32967   1.00898    0.034
 4054.00    1.26538   0.99484    0.084
 4055.00    1.20876   0.98290   -2.000
 4056.00    1.18702   0.97431   -2.000
 4057.00    1.16433   0.96830    0.245
 4058.00    1.14266   0.96258    0.764
 4059.00    1.15094   0.95469   -2.000
 4060.00    1.17817   0.94385   -2.000
 4061.00    1.19387   0.93197    1.555
 4062.00    1.20973   0.92294    4.513
 4063.00    1.24748   0.92032   -2.000
 4064.00    1.26818   0.92505   -1.000
 4065.00    1.21857   0.93490    5.332
 4066.00    1.11862   0.94578    7.932
 4067.00    1.02132   0.95397   11.185
 4068.00    0.93864   0.95775    9.211
 4069.00    0.86821   0.95784    8.598
 4070.00    0.83834   0.95628    9.429
 4071.00    0.87101   0.95470    9.597
 4072.00    0.93419   0.95329    8.784
 4073.00    0.98085   0.95133    8.072
 4074.00    0.99702   0.94904    7.929
 4075.00    0.99845   0.94865    8.353
 4076.00    1.01808   0.95353    8.848
 4077.00    1.06452   0.96575    8.812
 4078.00    1.09200   0.98412    8.401
 4079.00    1.06394   1.00446    8.085
 4080.00    1.00328   1.02197    8.115
 4081.00    0.95162   1.03399    8.443
 4082.00    0.93512   1.04125    8.629
 4083.00    0.96800   1.04678    8.422
 4084.00    1.05432   1.05367    8.214
 4085.00    1.17328   1.06295    8.191
 4086.00    1.27734   1.07310    8.028
 4087.00    1.33715   1.08120    7.687
 4088.00    1.36065   1.08448    7.618
 4089.00    1.35157   1.08150    7.918
 4090.00    1.29440   1.07211    8.098
 4091.00    1.19407   1.05683    7.934
 4092.00    1.08675   1.03627    0.000
 4093.00    0.99895   1.01107    0.000
 4094.00    0.93391   0.98222    0.000
 4095.00    0.89380   0.95111    0.000
 4096.00    0.88364   0.91944    0.000
 4097.00    0.89140   0.88923    0.000
 4098.00    0.89112   0.86311    0.000
 4099.00    0.87884   0.84470    0.000
 4100.00    0.87389   0.83777    0.000
 4101.00    0.88474   0.84478    0.000
 4102.00    0.90472   0.86496    0.000
 4103.00    0.93048   0.89410    0.000
 4104.00    0.96415   0.92575    0.000
 4105.00    1.00456   0.95365    0.000
 4106.00    1.04497   0.97384    0.000
 4107.00    1.07312   0.98564    0.000
 4108.00    1.07532   0.99124    0.000
 4109.00    1.04503   0.99417    0.000
 4110.00    0.98808   0.99756    0.000
 4111.00    0.92851   1.00279    0.000
 4112.00    0.89426   1.00923    0.000
 4113.00    0.89034   1.01484    9.021
 4114.00    0.90673   1.01751    9.063
 4115.00    0.93880   1.01612    9.237
 4116.00    0.97698   1.01123    9.517
 4117.00    0.98849   1.00475    9.658
 4118.00    0.95363   0.99912    9.460
 4119.00    0.91555   0.99630    9.207
 4120.00    0.92772   0.99702    9.204
 4121.00    0.98208   1.00063    9.311
 4122.00    1.04104   1.00540    9.298
 4123.00    1.08417   1.00907    9.273
 4124.00    1.10643   1.00954    9.372
 4125.00    1.11087   1.00548    9.409
 4126.00    1.10674   0.99669    9.237
 4127.00    1.10743   0.98404    9.094
 4128.00    1.12005   0.96932    9.164
 4129.00    1.13777   0.95507    9.262
 4130.00    1.15212   0.94422    9.239
 4131.00    1.16171   0.93961    9.289
 4132.00    1.15884   0.94290    9.472
 4133.00    1.12239   0.95370    9.414
 4134.00    1.04164   0.96924    9.065
 4135.00    0.93170   0.98513    9.008
 4136.00    0.82611   0.99663    9.468
 4137.00    0.76600   0.99995    9.894
 4138.00    0.76927   0.99330    9.833
 4139.00    0.81658   0.97750    9.639
 4140.00    0.87031   0.95623    9.590
 4141.00    0.89387   0.93518    9.543
 4142.00    0.89194   0.92023    9.450
 4143.00    0.91144   0.91493    9.507
 4144.00    0.96422   0.91890    9.763
 4145.00    1.01149   0.92829   10.012
 4146.00    1.03690   0.93798   10.081
 4147.00    1.06102   0.94413    9.980
 4148.00    1.08676   0.94545    9.791
 4149.00    1.09297   0.94292    9.601
 4150.00    1.07983   0.93855    9.486
 4151.00    1.07218   0.93431    9.505
 4152.00    1.08385   0.93172    9.699
 4153.00    1.10676   0.93198   10.043
 4154.00    1.11228   0.93597   10.284
 4155.00    1.06670   0.94416   10.097
 4156.00    0.96731   0.95621    9.748
 4157.00    0.84234   0.97083    9.751
 4158.00    0.72943   0.98593   10.100
 4159.00    0.66598   0.99913   -1.000
 4160.00    0.67943   1.00834   -1.000
 4161.00    0.77445   1.01223   10.179
 4162.00    0.91380   1.01054    9.757
 4163.00    1.03625   1.00420    9.252
 4164.00    1.09466   0.99508    8.937
 4165.00    1.07497   0.98527    9.017
 4166.00    1.01365   0.97611    9.394
 4167.00    0.96273   0.96764    9.763
 4168.00    0.93648   0.95883    9.852
 4169.00    0.92903   0.94866    9.645
 4170.00    0.94717   0.93723    9.495
 4171.00    0.99962   0.92612    9.642
 4172.00    1.07906   0.91756    9.785
 4173.00    1.16596   0.91319    9.591
 4174.00    1.23585   0.91329    9.367
 4175.00    1.26844   0.91682   -1.000
 4176.00    1.25659   0.92228   -1.000
 4177.00    1.21224   0.92841    9.877
 4178.00    1.16776   0.93458    9.721
 4179.00    1.14441   0.94068    9.394
 4180.00    1.12876   0.94676    9.218
 4181.00    1.10344   0.95261    9.353
 4182.00    1.07140   0.95752    9.648
 4183.00    1.04429   0.96060    9.851
 4184.00    1.03184   0.96138    9.822
 4185.00    1.03521   0.96051    9.629
 4186.00    1.04344   0.95967    9.515
 4187.00    1.03612   0.96065    9.605
 4188.00    0.99157   0.96415    9.815
 4189.00    0.92182   0.96917   10.029
 4190.00    0.87719   0.97323   10.188
 4191.00    0.87322   0.97339   10.216
 4192.00    0.86911   0.96743   10.033
 4193.00    0.84033   0.95478    9.765
 4194.00    0.80283   0.93692    9.691
 4195.00    0.77002   0.91703    9.823
 4196.00    0.73937   0.89894    9.897
 4197.00    0.71335   0.88597    9.897
 4198.00    0.70596   0.88016   10.099
 4199.00    0.73576   0.88215   10.407
 4200.00    0.81378   0.89153   10.318
 4201.00    0.91474   0.90718    9.884
 4202.00    0.98845   0.92731    9.647
 4203.00    1.01861   0.94951    9.718
 4204.00    1.02378   0.97104    9.872
 4205.00    1.01427   0.98931   10.079
 4206.00    0.99033   1.00241   10.448
 4207.00    0.96585   1.00956   10.646
 4208.00    0.96204   1.01096   10.175
 4209.00    0.98106   1.00752    9.503
 4210.00    1.00772   1.00065    9.334
 4211.00    1.02518   0.99224    9.648
 4212.00    1.02288   0.98496   10.022
 4213.00    1.00452   0.98192   10.195
 4214.00    0.97941   0.98580   10.177
 4215.00    0.94595   0.99714   10.110
 4216.00    0.89967   1.01343   10.107
 4217.00    0.84911   1.02913   10.103
 4218.00    0.80631   1.03756   10.024
 4219.00    0.77062   1.03308   10.035
 4220.00    0.73832   1.01313   10.293
 4221.00    0.71725   0.97915   10.604
 4222.00    0.71737   0.93667   10.638
 4223.00    0.73808   0.89423   10.380
 4224.00    0.77607   0.86148   10.032
 4225.00    0.83430   0.84616    9.779
 4226.00    0.91087   0.85136    9.690
 4227.00    0.98774   0.87421    9.693
 4228.00    1.03945   0.90687    9.711
 4229.00    1.04401   0.93958    9.776
 4230.00    1.00187   0.96446    9.871
 4231.00    0.94552   0.97802    9.823
 4232.00    0.89572   0.98144    9.613
 4233.00    0.83526   0.97887    9.528
 4234.00    0.76576   0.97528    9.722
 4235.00    0.73733   0.97468    9.994
 4236.00    0.77393   0.97928   10.146
 4237.00    0.83576   0.98961   10.241
 4238.00    0.88852   1.00487   10.390
 4239.00    0.93655   1.02337   10.584
 4240.00    0.97475   1.04272   10.688
 4241.00    0.97113   1.06000   10.511
 4242.00    0.91291   1.07195   10.188
 4243.00    0.82162   1.07564   10.126
 4244.00    0.71730   1.06944   -1.000
 4245.00    0.60679   1.05381   -1.000
 4246.00    0.50331   1.03153   -1.000
 4247.00    0.42881   1.00694   -1.000
 4248.00    0.39246   0.98458   -1.000
 4249.00    0.38941   0.96769   -1.000
 4250.00    0.42358   0.95762   -1.000
 4251.00    0.50197   0.95408   -1.000
 4252.00    0.59408   0.95572   -1.000
 4253.00    0.64978   0.96060   -1.000
 4254.00    0.68244   0.96661   -1.000
 4255.00    0.74372   0.97171   10.508
 4256.00    0.80123   0.97470   10.081
 4257.00    0.77056   0.97611    9.570
 4258.00    0.66215   0.97869    9.263
 4259.00    0.56845   0.98614   -1.000
 4260.00    0.56134   1.00070   -1.000
 4261.00    0.65643   1.02128   -1.000
 4262.00    0.79100   1.04322    9.430
 4263.00    0.88481   1.06007    9.588
 4264.00    0.95183   1.06594    9.880
 4265.00    1.04716   1.05751   10.143
 4266.00    1.15090   1.03499   -2.000
 4267.00    1.20758   1.00176   -2.000
 4268.00    1.21189   0.96359   -2.000
 4269.00    1.19336   0.92734   -2.000
 4270.00    1.17792   0.89957   -2.000
 4271.00    1.18253   0.88516   -2.000
 4272.00    1.21454   0.88629   -2.000
 4273.00    1.26513   0.90176   -2.000
 4274.00    1.30488   0.92726   -2.000
 4275.00    1.31901   0.95666   -2.000
 4276.00    1.33988   0.98371   -2.000
 4277.00    1.39565   1.00371   -2.000
 4278.00    1.46204   1.01466   -2.000
 4279.00    1.50243   1.01756   -2.000
 4280.00    1.50576   1.01498   -2.000
 4281.00    1.47484   1.00930   -1.000
 4282.00    1.41456   1.00179   -1.000
 4283.00    1.33363   0.99246   -1.000
 4284.00    1.24446   0.98077   10.010
 4285.00    1.15079   0.96672   10.126
 4286.00    1.04472   0.95149   10.425
 4287.00    0.94167   0.93755   10.771
 4288.00    0.89104   0.92787   10.709
 4289.00    0.91312   0.92444   10.274
 4290.00    0.97195   0.92723   10.130
 4291.00    1.02406   0.93365   10.382
 4292.00    1.04552   0.93930   10.363
 4293.00    1.03420   0.93977    9.966
 4294.00    1.00461   0.93218    9.932
 4295.00    0.96346   0.91607   10.405
 4296.00    0.90596   0.89352   10.687
 4297.00    0.84278   0.86841   10.554
 4298.00    0.80185   0.84513   10.644
 4299.00    0.79646   0.82689   11.099
 4300.00    0.81840   0.81465   11.341
 4301.00    0.85415   0.80709   11.206
 4302.00    0.89054   0.80162   11.137
 4303.00    0.91497   0.79588   11.160
 4304.00    0.91752   0.78913   10.921
 4305.00    0.89641   0.78282   10.560
 4306.00    0.85817   0.78032   10.523
 4307.00    0.81433   0.78558   10.845
 4308.00    0.78174   0.80156   11.205
 4309.00    0.78461   0.82936   11.364
 4310.00    0.83994   0.86814   11.274
 4311.00    0.92782   0.91557   10.984
 4312.00    1.00879   0.96823   10.628
 4313.00    1.06751   1.02193   10.441
 4314.00    1.10645   1.07185   10.566
 4315.00    1.12108   1.11285   10.759
 4316.00    1.11133   1.14031   10.684
 4317.00    1.10450   1.15102   10.557
 4318.00    1.12581   1.14400   10.690
 4319.00    1.15291   1.12089   10.771
 4320.00    1.14887   1.08574   10.397
 4321.00    1.11283   1.04511    9.912
 4322.00    1.06420   1.00729    9.758
 4323.00    1.01594   0.98062    9.892
 4324.00    0.97955   0.97127   10.080
 4325.00    0.97246   0.98129   10.175
 4326.00    0.99897   1.00759   10.173
 4327.00    1.03281   1.04312   10.217
 4328.00    1.04357   1.07956   10.357
 4329.00    1.02261   1.11008   10.369
 4330.00    0.97976   1.13042    0.000
 4331.00    0.93541   1.13854    0.000
 4332.00    0.89559   1.13350    0.000
 4333.00    0.83847   1.11494    0.000
 4334.00    0.75632   1.08356    0.000
 4335.00    0.68028   1.04233    0.000
 4336.00    0.63862   0.99724    0.000
 4337.00    0.63210   0.95684    0.000
 4338.00    0.65818   0.92956    0.000
 4339.00    0.72296   0.92079    0.000
 4340.00    0.82145   0.93132    0.000
 4341.00    0.92992   0.95766    0.000
 4342.00    1.02369   0.99321    0.000
 4343.00    1.08764   1.03068    0.000
 4344.00    1.12114   1.06425    0.000
 4345.00    1.13655   1.08967    0.000
 4346.00    1.14404   1.10426    0.000
 4347.00    1.14550   1.10754    0.000
 4348.00    1.13620   1.10123    0.000
 4349.00    1.10973   1.08876    0.000
 4350.00    1.07245   1.07534    0.000
 4351.00    1.04353   1.06648   10.647
 4352.00    1.03971   1.06552   10.442
 4353.00    1.06566   1.07251   10.327
 4354.00    1.10217   1.08504   10.483
 4355.00    1.12058   1.09984   11.086
 4356.00    1.12850   1.11400   11.738
 4357.00    1.15418   1.12627   11.583
 4358.00    1.18151   1.13749   10.913
 4359.00    1.17033   1.14921   10.659
 4360.00    1.13373   1.16155   10.938
 4361.00    1.11993   1.17295   11.325
 4362.00    1.14250   1.18111   11.437
 4363.00    1.18503   1.18394   11.204
 4364.00    1.23550   1.18020   11.017
 4365.00    1.28386   1.17038   11.264
 4366.00    1.30822   1.15665   11.750
 4367.00    1.28731   1.14153   11.942
 4368.00    1.22290   1.12639   11.741
 4369.00    1.13597   1.11158   11.452
 4370.00    1.05587   1.09730   11.352
 4371.00    1.00702   1.08416   11.492
 4372.00    0.99392   1.07330   11.558
 4373.00    1.00312   1.06623   11.300
 4374.00    1.00945   1.06383   11.073
 4375.00    0.99899   1.06472   11.257
 4376.00    0.99055   1.06474   11.757
 4377.00    1.00958   1.05861   12.191
 4378.00    1.06024   1.04223   12.171
 4379.00    1.12555   1.01493   11.704
 4380.00    1.17234   0.98053   11.316
 4381.00    1.17233   0.94645   11.304
 4382.00    1.11934   0.92106   11.435
 4383.00    1.02824   0.91017   11.478
 4384.00    0.93079   0.91492   11.564
 4385.00    0.85871   0.93182   11.827
 4386.00    0.83136   0.95514   12.140
 4387.00    0.85187   0.97956   12.301
 4388.00    0.90650   1.00136   12.217
 4389.00    0.97319   1.01936   11.958
 4390.00    1.02849   1.03478   11.712
 4391.00    1.05737   1.04976   11.595
 4392.00    1.05786   1.06539   11.601
 4393.00    1.03849   1.08122   11.687
 4394.00    1.01559   1.09588   11.807
 4395.00    1.00743   1.10719   11.901
 4396.00    1.02641   1.11274   11.917
 4397.00    1.05924   1.11087   11.890
 4398.00    1.07042   1.10098   11.932
 4399.00    1.04384   1.08353   12.066
 4400.00    0.99222   1.06025   12.192
 4401.00    0.93596   1.03454   12.158
 4402.00    0.89642   1.01091   11.874
 4403.00    0.89815   0.99383   11.483
 4404.00    0.95687   0.98709   11.253
 4405.00    1.04557   0.99264   11.291
 4406.00    1.11203   1.00987   11.552
 4407.00    1.14601   1.03590   11.888
 4408.00    1.17172   1.06536   12.093
 4409.00    1.19069   1.09119   12.094
 4410.00    1.18863   1.10794   11.982
 4411.00    1.17778   1.11434   11.899
 4412.00    1.17995   1.11263   11.922
 4413.00    1.17769   1.10717   11.904
 4414.00    1.13935   1.10325   11.687
 4415.00    1.07860   1.10478   11.490
 4416.00    1.03024   1.11221   11.594
 4417.00    0.99531   1.12276   11.833
 4418.00    0.96115   1.13241   11.793
 4419.00    0.94269   1.13756   11.345
 4420.00    0.96211   1.13683   10.750
 4421.00    1.01428   1.13194   10.475
 4422.00    1.08580   1.12596   10.724
 4423.00    1.18194   1.12141   11.028
 4424.00    1.29851   1.11945   10.812
 4425.00    1.39009   1.11964   10.325
 4426.00    1.41675   1.12036   -1.000
 4427.00    1.39261   1.11961    9.768
 4428.00    1.34725   1.11627    9.612
 4429.00    1.28717   1.11038    9.734
 4430.00    1.22358   1.10271   10.259
 4431.00    1.19429   1.09483   10.865
 4432.00    1.21858   1.08912   11.110
 4433.00    1.26609   1.08832   10.993
 4434.00    1.30815   1.09379   10.755
 4435.00    1.35141   1.10433   10.559
 4436.00    1.39722   1.11724   10.470
 4437.00    1.41904   1.12917   -1.000
 4438.00    1.40285   1.13722   10.593
 4439.00    1.36655   1.14026   10.813
 4440.00    1.32400   1.13995   11.069
 4441.00    1.26884   1.14006   11.175
 4442.00    1.19976   1.14413   11.091
 4443.00    1.13124   1.15341   11.016
 4444.00    1.08048   1.16660   11.061
 4445.00    1.05878   1.18020   11.144
 4446.00    1.06290   1.19016   11.134
 4447.00    1.07544   1.19344   10.955
 4448.00    1.07997   1.18863   10.717
 4449.00    1.06847   1.17619   10.647
 4450.00    1.04582   1.15779   10.827
 4451.00    1.02460   1.13519   11.164
 4452.00    1.00426   1.11037   11.487
 4453.00    0.97367   1.08613   11.626
 4454.00    0.93839   1.06486   11.595
 4455.00    0.91877   1.04798   11.561
 4456.00    0.92291   1.03665   11.561
 4457.00    0.94415   1.03139   11.526
 4458.00    0.97343   1.03206   11.501
 4459.00    1.00431   1.03804   11.593
 4460.00    1.03694   1.04852   11.719
 4461.00    1.07193   1.06257    0.000
 4462.00    1.09688   1.07847    0.000
 4463.00    1.09569   1.09365    0.000
 4464.00    1.07101   1.10599    0.000
 4465.00    1.04178   1.11475    0.000
 4466.00    1.03129   1.12033    0.000
 4467.00    1.05844   1.12473    0.000
 4468.00    1.12733   1.13112    0.000
 4469.00    1.22719   1.14174    0.000
 4470.00    1.33522   1.15700    0.000
 4471.00    1.42689   1.17575    0.000
 4472.00    1.48870   1.19573    0.000
 4473.00    1.51550   1.21364    0.000
 4474.00    1.50590   1.22597    0.000
 4475.00    1.46738   1.23031    0.000
 4476.00    1.42119   1.22614    0.000
 4477.00    1.38752   1.21540    0.000
 4478.00    1.37094   1.20211    0.000
 4479.00    1.37127   1.19094    0.000
 4480.00    1.39314   1.18538    0.000
 4481.00    1.43059   1.18711    0.000
 4482.00    1.45717   1.19535   -1.000
 4483.00    1.45773   1.20656   -1.000
 4484.00    1.44892   1.21585   -1.000
 4485.00    1.44217   1.21939   11.955
 4486.00    1.42128   1.21578   11.886
 4487.00    1.37510   1.20633   12.130
 4488.00    1.31682   1.19412   12.352
 4489.00    1.26429   1.18203   12.310
 4490.00    1.22670   1.17191   12.212
 4491.00    1.19994   1.16480   12.272
 4492.00    1.17017   1.16115   12.469
 4493.00    1.14137   1.16118   12.598
 4494.00    1.13958   1.16497   12.388
 4495.00    1.16974   1.17297   11.961
 4496.00    1.20530   1.18577   11.765
 4497.00    1.22773   1.20318   11.876
 4498.00    1.24064   1.22338   11.971
 4499.00    1.25887   1.24404   11.979
 4500.00    1.29790   1.26348   12.170
 4501.00    1.35364   1.28067   12.508
 4502.00    1.40382   1.29492   12.609
 4503.00    1.43392   1.30558   12.566
 4504.00    1.44151   1.31234   12.862
 4505.00    1.42447   1.31460   13.269
 4506.00    1.37745   1.31177   13.020
 4507.00    1.29248   1.30477   12.549
 4508.00    1.18016   1.29528   12.725
 4509.00    1.11627   1.28439   12.590
 4510.00    1.16632   1.27263   10.820
 4511.00    1.20595   1.26045    9.116
 4512.00    1.05584   1.24897    8.725
 4513.00    0.81804   1.23986   -1.000
 4514.00    0.74591   1.23468   -1.000
 4515.00    0.89021   1.23415    9.042
 4516.00    1.12760   1.23732    8.882
 4517.00    1.31938   1.24207    8.924
 4518.00    1.38966   1.24567    8.969
 4519.00    1.39641   1.24509    8.926
 4520.00    1.42569   1.23837    8.852
 4521.00    1.43756   1.22465    8.886
 4522.00    1.36998   1.20368    9.087
 4523.00    1.28981   1.17708    9.231
 4524.00    1.29143   1.14824    9.105
 4525.00    1.36069   1.12156    8.927
 4526.00    1.41843   1.10077   -1.000
 4527.00    1.38932   1.08704    9.243
 4528.00    1.26846   1.08046    9.510
 4529.00    1.16571   1.08059    9.480
 4530.00    1.16879   1.08637    9.137
 4531.00    1.22910   1.09656    8.904
 4532.00    1.27290   1.10967    9.007
 4533.00    1.29427   1.12445    9.174
 4534.00    1.30495   1.14011    9.171
 4535.00    1.29426   1.15525    9.216
 4536.00    1.25090   1.16887    9.437
 4537.00    1.18253   1.18007    9.538
 4538.00    1.13150   1.18757    9.360
 4539.00    1.16469   1.19057    9.198
 4540.00    1.26274   1.18949    9.228
 4541.00    1.29364   1.18680    9.299
 4542.00    1.21143   1.18468    9.335
 4543.00    1.12379   1.18344    9.481
 4544.00    1.10346   1.18273    9.714
 4545.00    1.11581   1.18164    9.738
 4546.00    1.11372   1.17949    9.564
 4547.00    1.08867   1.17716    9.577
 4548.00    1.09699   1.17544    9.767
 4549.00    1.22423   1.17403    9.670
 4550.00    1.42403   1.17344    0.000
 4551.00    1.52360   1.17531    0.000
 4552.00    1.43747   1.18124    0.000
 4553.00    1.21962   1.19137    0.000
 4554.00    0.99675   1.20475    0.000
 4555.00    0.90113   1.22091    0.000
 4556.00    0.94947   1.23806    0.000
 4557.00    1.05578   1.25272    0.000
 4558.00    1.14939   1.26193    0.000
 4559.00    1.19851   1.26404    0.000
 4560.00    1.19301   1.25966    0.000
 4561.00    1.14289   1.25189    0.000
 4562.00    1.08297   1.24420    0.000
 4563.00    1.05589   1.23931    0.000
 4564.00    1.07803   1.23822    0.000
 4565.00    1.14024   1.23987    0.000
 4566.00    1.22097   1.24370    0.000
 4567.00    1.29174   1.24911    0.000
 4568.00    1.32290   1.25402    0.000
 4569.00    1.30231   1.25691    0.000
 4570.00    1.25922   1.25790    0.000
 4571.00    1.23035   1.25823    0.000
 4572.00    1.21176   1.25838    0.000
 4573.00    1.18684   1.25705    0.000
 4574.00    1.16686   1.25321    0.000
 4575.00    1.16785   1.24574    0.000
 4576.00    1.17998   1.23386    0.000
 4577.00    1.17831   1.21978    0.000
 4578.00    1.14145   1.20663    0.000
 4579.00    1.09442   1.19597    0.000
 4580.00    1.13275   1.18876    0.000
 4581.00    1.28333   1.18625    0.000
 4582.00    1.40433   1.18910    0.000
 4583.00    1.38005   1.19660    0.000
 4584.00    1.26613   1.20657    0.000
 4585.00    1.16055   1.21640    0.000
 4586.00    1.10181   1.22464    0.000
 4587.00    1.07379   1.23048    0.000
 4588.00    1.02712   1.23255    0.000
 4589.00    0.96307   1.22995    0.000
 4590.00    0.96248   1.22264    0.000
 4591.00    1.06160   1.21194    0.000
 4592.00    1.19792   1.20063    0.000
 4593.00    1.29676   1.19157    0.000
 4594.00    1.32166   1.18606    0.000
 4595.00    1.29068   1.18384    0.000
 4596.00    1.26434   1.18394    0.000
 4597.00    1.26722   1.18558    0.000
 4598.00    1.27478   1.18821    0.000
 4599.00    1.29230   1.19103    0.000
 4600.00    1.35725   1.19410    0.000
 4601.00    1.43843   1.19852    0.000
 4602.00    1.44501   1.20558    0.000
 4603.00    1.36942   1.21678    0.000
 4604.00    1.28871   1.23167    0.000
 4605.00    1.23149   1.24795    0.000
 4606.00    1.17298   1.26386    0.000
 4607.00    1.12835   1.27760    0.000
 4608.00    1.14317   1.28784    0.000
 4609.00    1.20884   1.29399    0.000
 4610.00    1.27448   1.29604    0.000
 4611.00    1.31931   1.29522    0.000
 4612.00    1.34478   1.29379    0.000
 4613.00    1.32627   1.29356    0.000
 4614.00    1.24325   1.29500    0.000
 4615.00    1.15112   1.29767    0.000
 4616.00    1.13363   1.30062    0.000
 4617.00    1.20061   1.30257    0.000
 4618.00    1.30300   1.30311    0.000
 4619.00    1.38457   1.30294    0.000
 4620.00    1.40645   1.30181    0.000
 4621.00    1.36922   1.30000    0.000
 4622.00    1.29504   1.29844    0.000
 4623.00    1.20129   1.29633    0.000
 4624.00    1.11352   1.29304    0.000
 4625.00    1.08063   1.29017    0.000
 4626.00    1.12186   1.28820    0.000
 4627.00    1.17395   1.28589    0.000
 4628.00    1.17092   1.28284    0.000
 4629.00    1.12496   1.27892    0.000
 4630.00    1.07869   1.27317    0.000
 4631.00    1.05500   1.26516    0.000
 4632.00    1.06333   1.25534    0.000
 4633.00    1.10581   1.24377    0.000
 4634.00    1.15448   1.23062    0.000
 4635.00    1.14614   1.21796    0.000
 4636.00    1.07532   1.20823    0.000
 4637.00    1.03809   1.20130    0.000
 4638.00    1.08357   1.19590    0.000
 4639.00    1.13994   1.19119    0.000
 4640.00    1.16149   1.18596    0.000
 4641.00    1.19207   1.17850    0.000
 4642.00    1.21936   1.16848    0.000
 4643.00    1.13932   1.15727    0.000
 4644.00    0.98037   1.14637    0.000
 4645.00    0.94481   1.13846    0.000
 4646.00    1.09054   1.13660    0.000
 4647.00    1.24862   1.14175    0.000
 4648.00    1.28760   1.15254    0.000
 4649.00    1.20771   1.16638    0.000
 4650.00    1.06968   1.18024    0.000
 4651.00    0.95120   1.19186   -2.000
 4652.00    0.89821   1.20132   -2.000
 4653.00    0.90966   1.21044    0.000
 4654.00    0.94351   1.22074    0.000
 4655.00    0.94443   1.23227   -2.000
 4656.00    0.91382   1.24388   -2.000
 4657.00    0.90171   1.25392    0.000
 4658.00    0.93398   1.25970    0.000
 4659.00    0.99506   1.25859   -2.000
 4660.00    1.03495   1.24864   -2.000
 4661.00    1.01487   1.22887    0.000
 4662.00    0.99705   1.20172    0.000
 4663.00    1.07035   1.17302   -2.000
 4664.00    1.17155   1.14884   -2.000
 4665.00    1.18536   1.13300    0.000
 4666.00    1.18071   1.12678    0.000
 4667.00    1.28339   1.12910   -2.000
 4668.00    1.40507   1.13839   -2.000
 4669.00    1.38305   1.15350    0.000
 4670.00    1.25091   1.17207    0.000
 4671.00    1.13860   1.18999   -2.000
 4672.00    1.08136   1.20322   -2.000
 4673.00    1.05233   1.21017    0.000
 4674.00    1.03643   1.21166    0.000
 4675.00    1.03144   1.20925   -2.000
 4676.00    1.03863   1.20415   -2.000
 4677.00    1.06148   1.19757    0.000
 4678.00    1.10342   1.19067   -2.000
 4679.00    1.14866   1.18405   -2.000
 4680.00    1.15053   1.17898    0.000
 4681.00    1.09789   1.17691    0.000
 4682.00    1.06318   1.17730   -2.000
 4683.00    1.09755   1.17904   -2.000
 4684.00    1.15434   1.18157    0.000
 4685.00    1.18957   1.18370    0.000
 4686.00    1.23099   1.18461   -2.000
 4687.00    1.30253   1.18558   -2.000
 4688.00    1.37687   1.18783    0.000
 4689.00    1.42444   1.19148    0.000
 4690.00    1.44151   1.19673   -2.000
 4691.00    1.42217   1.20276   -2.000
 4692.00    1.35026   1.20727    0.000
 4693.00    1.24485   1.20856    0.000
 4694.00    1.16893   1.20655   -2.000
 4695.00    1.15510   1.20145   -2.000
 4696.00    1.17931   1.19308    0.000
 4697.00    1.20527   1.18196    0.000
 4698.00    1.20729   1.16975   -2.000
 4699.00    1.17922   1.15938   -2.000
 4700.00    1.13394   1.15317    0.000
 4701.00    1.08912   1.15108    0.000
 4702.00    1.06168   1.15117    0.000
 4703.00    1.06732   1.15200    0.000
 4704.00    1.11348   1.15355    0.000
 4705.00    1.17974   1.15670    0.000
 4706.00    1.22536   1.16163    0.000
 4707.00    1.22604   1.16652    0.000
 4708.00    1.18613   1.17056    0.000
 4709.00    1.14191   1.17448    0.000
 4710.00    1.13318   1.17974    0.000
 4711.00    1.13934   1.18751    0.000
 4712.00    1.11962   1.19750    0.000
 4713.00    1.12416   1.20891    0.000
 4714.00    1.23121   1.22211    0.000
 4715.00    1.38706   1.23764    0.000
 4716.00    1.47077   1.25466   -2.000
 4717.00    1.45886   1.27084   -2.000
 4718.00    1.40857   1.28360    0.000
 4719.00    1.38321   1.29177    0.000
 4720.00    1.41950   1.29523   -2.000
 4721.00    1.49893   1.29305   -2.000
 4722.00    1.56830   1.28366    0.000
 4723.00    1.57469   1.26785    0.000
 4724.00    1.49831   1.24859   -2.000
 4725.00    1.38293   1.22855   -2.000
 4726.00    1.28521   1.20949    0.000
 4727.00    1.21594   1.19331   -2.000
 4728.00    1.16472   1.18218   -2.000
 4729.00    1.13084   1.17815    0.000
 4730.00    1.11303   1.18190    0.000
 4731.00    1.09811   1.19019   -2.000
 4732.00    1.07107   1.19977   -2.000
 4733.00    1.02555   1.21024    0.000
 4734.00    0.97038   1.22052    0.000
 4735.00    0.93226   1.22879   -2.000
 4736.00    0.94083   1.23516   -2.000
 4737.00    1.01378   1.24063    0.000
 4738.00    1.13135   1.24614    0.000
 4739.00    1.23099   1.25218   -2.000
 4740.00    1.27522   1.25759   -2.000
 4741.00    1.28413   1.26192    0.000
 4742.00    1.28344   1.26652    0.000
 4743.00    1.27694   1.27193   -2.000
 4744.00    1.26065   1.27731   -2.000
 4745.00    1.23570   1.28149    0.000
 4746.00    1.23025   1.28358    0.000
 4747.00    1.28822   1.28322   -2.000
 4748.00    1.38164   1.28006   -2.000
 4749.00    1.41063   1.27362    0.000
 4750.00    1.34464   1.26505    0.000
 4751.00    1.25107   1.25617   -2.000
 4752.00    1.20016   1.24793   -2.000
 4753.00    1.22137   1.24105    0.000
 4754.00    1.27808   1.23653    0.000
 4755.00    1.29369   1.23443   -2.000
 4756.00    1.24830   1.23290   -2.000
 4757.00    1.18522   1.22980    0.000
 4758.00    1.15107   1.22434    0.000
 4759.00    1.17287   1.21639   -2.000
 4760.00    1.24383   1.20577   -2.000
 4761.00    1.33698   1.19344    1.099
 4762.00    1.44180   1.18183    2.960
 4763.00    1.55347   1.17396   -2.000
 4764.00    1.63550   1.17231   -1.000
 4765.00    1.63760   1.17688    4.882
 4766.00    1.54288   1.18520   -1.000
 4767.00    1.37416   1.19577   -1.000
 4768.00    1.18850   1.20872   11.614
 4769.00    1.05624   1.22330    9.617
 4770.00    1.02823   1.23742   11.081
 4771.00    1.10012   1.24917   11.504
 4772.00    1.17570   1.25858   10.514
 4773.00    1.16588   1.26696   10.526
 4774.00    1.11620   1.27442   11.214
 4775.00    1.11246   1.27944   11.255
 4776.00    1.15332   1.28037   10.889
 4777.00    1.19487   1.27646   10.905
 4778.00    1.21463   1.26855   11.128
 4779.00    1.20852   1.25832   11.118
 4780.00    1.18198   1.24715   10.977
 4781.00    1.15628   1.23570   10.919
 4782.00    1.17006   1.22508   10.848
 4783.00    1.23473   1.21683   10.679
 4784.00    1.30443   1.21152   10.569
 4785.00    1.33531   1.20972   10.599
 4786.00    1.32878   1.21176   10.592
 4787.00    1.29966   1.21694   10.459
 4788.00    1.25441   1.22583   10.390
 4789.00    1.20963   1.23911   10.456
 4790.00    1.19799   1.25453   10.443
 4791.00    1.22796   1.26931   10.297
 4792.00    1.26616   1.28164   10.297
 4793.00    1.27296   1.28970   10.526
 4794.00    1.22813   1.29241   10.696
 4795.00    1.15780   1.29035   10.637
 4796.00    1.12928   1.28537   10.527
 4797.00    1.17192   1.27998   10.490
 4798.00    1.25222   1.27609   10.466
 4799.00    1.32001   1.27381   10.418
 4800.00    1.33675   1.27222   10.392
 4801.00    1.30566   1.27099   10.434
 4802.00    1.26936   1.26951   10.558
 4803.00    1.26492   1.26600   10.741
 4804.00    1.30206   1.26016   10.918
 4805.00    1.34633   1.25394   10.970
 4806.00    1.34499   1.24947   10.820
 4807.00    1.31156   1.24793   10.646
 4808.00    1.30381   1.24914   10.716
 4809.00    1.30760   1.25263   10.938
 4810.00    1.26775   1.25853   10.980
 4811.00    1.22892   1.26616   10.903
 4812.00    1.28705   1.27428   10.994
 4813.00    1.41707   1.28235   11.051
 4814.00    1.51419   1.29025   10.789
 4815.00    1.54681   1.29749   10.869
 4816.00    1.54677   1.30265   -1.000
 4817.00    1.53709   1.30425   11.505
 4818.00    1.52129   1.30089    9.298
 4819.00    1.48855   1.29262   10.027
 4820.00    1.43014   1.28258   -1.000
 4821.00    1.36168   1.27334   13.217
 4822.00    1.30812   1.26502    4.432
 4823.00    1.27876   1.25748    8.339
 4824.00    1.26608   1.25133   -2.000
 4825.00    1.24985   1.24829   22.990
 4826.00    1.21362   1.24796    0.843
 4827.00    1.16250   1.24668    9.750
 4828.00    1.11540   1.24342   -2.000
 4829.00    1.09288   1.24112    2.720
 4830.00    1.09706   1.24131    0.113
 4831.00    1.09843   1.24297   -2.000
 4832.00    1.08408   1.24453   -2.000
 4833.00    1.09339   1.24576    0.135
 4834.00    1.14693   1.24656    0.015
 4835.00    1.19622   1.24551   -2.000
 4836.00    1.20139   1.24202   -2.000
 4837.00    1.18515   1.23742    0.010
 4838.00    1.18552   1.23273    0.002
 4839.00    1.22056   1.22847   -2.000
 4840.00    1.28668   1.22672   -2.000
 4841.00    1.36075   1.22900    0.001
 4842.00    1.41188   1.23377    0.000
 4843.00    1.41279   1.23778   -2.000
 4844.00    1.36354   1.23937   -2.000
 4845.00    1.29543   1.24045    0.000
 4846.00    1.23194   1.24183    0.000
 4847.00    1.18005   1.24061   -2.000
 4848.00    1.17406   1.23552   -2.000
 4849.00    1.26665   1.22754    0.000
 4850.00    1.42016   1.21652    0.000
 4851.00    1.50689   1.20241   -2.000
 4852.00    1.46491   1.18597   -2.000
 4853.00    1.33340   1.16732    0.000
 4854.00    1.17856   1.14524    0.000
 4855.00    1.05860   1.11851   -2.000
 4856.00    0.99704   1.08871   -2.000
 4857.00    0.98237   1.06150    0.000
 4858.00    0.98902   1.04251    0.000
 4859.00    0.99226   1.03198   -2.000
 4860.00    0.98916   1.02829   -2.000
 4861.00    0.99384   1.03327    0.000
 4862.00    1.01456   1.04782    0.000
 4863.00    1.05006   1.06939   -2.000
 4864.00    1.09309   1.09238   -2.000
 4865.00    1.13244   1.11068    0.000
 4866.00    1.15565   1.12067    0.000
 4867.00    1.15640   1.12274   -2.000
 4868.00    1.14597   1.12157   -2.000
 4869.00    1.14647   1.12170    0.000
 4870.00    1.17601   1.12400    0.000
 4871.00    1.22789   1.12807   -2.000
 4872.00    1.24851   1.13601   -2.000
 4873.00    1.20888   1.15007    0.000
 4874.00    1.19491   1.16882    0.000
 4875.00    1.28576   1.18806    0.000
 4876.00    1.40199   1.20266    0.000
 4877.00    1.43593   1.21092    0.000
 4878.00    1.40964   1.21516    0.000
 4879.00    1.39471   1.21619    0.000
 4880.00    1.41369   1.21220    0.000
 4881.00    1.44721   1.20158    0.000
 4882.00    1.45434   1.18678    0.000
 4883.00    1.41848   1.17338    0.000
 4884.00    1.37966   1.16307    0.000
 4885.00    1.38636   1.15325    0.000
 4886.00    1.45336   1.14313   -2.000
 4887.00    1.54679   1.13697   -2.000
 4888.00    1.58833   1.14141    0.000
 4889.00    1.54164   1.15636    0.000
 4890.00    1.45503   1.17734   -2.000
 4891.00    1.37189   1.20177   -2.000
 4892.00    1.28581   1.22825    0.000
 4893.00    1.20257   1.25588    0.000
 4894.00    1.16325   1.28013   -2.000
 4895.00    1.18058   1.29468   -2.000
 4896.00    1.21883   1.29932    0.000
 4897.00    1.25304   1.29803    0.000
 4898.00    1.28722   1.29254   -2.000
 4899.00    1.31313   1.28403   -2.000
 4900.00    1.30511   1.27580    0.000
 4901.00    1.26807   1.27125    0.000
 4902.00    1.23976   1.27035   -2.000
 4903.00    1.23402   1.26877   -2.000
 4904.00    1.23017   1.26402    0.000
 4905.00    1.20401   1.25745    0.000
 4906.00    1.14402   1.25046   -2.000
 4907.00    1.06724   1.24370   -2.000
 4908.00    1.01475   1.23742    0.000
 4909.00    1.02708   1.23236    0.000
 4910.00    1.11893   1.22983   -2.000
 4911.00    1.23670   1.23007   -2.000
 4912.00    1.29573   1.23038    0.000
 4913.00    1.28255   1.22583    0.000
 4914.00    1.24463   1.21236   -2.000
 4915.00    1.22313   1.19073   -2.000
 4916.00    1.23032   1.16602    0.000
 4917.00    1.23575   1.14383    0.001
 4918.00    1.20162   1.12803   -2.000
 4919.00    1.14439   1.11937   -2.000
 4920.00    1.10762   1.11890    0.002
 4921.00    1.10489   1.12969    0.015
 4922.00    1.12460   1.15227   -2.000
 4923.00    1.14978   1.18070   -2.000
 4924.00    1.17338   1.20835    0.015
 4925.00    1.21142   1.23316    0.275
 4926.00    1.26472   1.25448   -2.000
 4927.00    1.27801   1.27159   -2.000
 4928.00    1.21579   1.28110    0.116
 4929.00    1.14081   1.28005   -2.000
 4930.00    1.12182   1.27232   -2.000
 4931.00    1.14040   1.26221    3.836
 4932.00    1.15368   1.24905    0.875
 4933.00    1.15720   1.23173   -2.000
 4934.00    1.16755   1.21261   -2.000
 4935.00    1.19915   1.19890    7.596
 4936.00    1.22909   1.19576    4.700
 4937.00    1.18788   1.20000   16.061
 4938.00    1.07534   1.20742   22.990
 4939.00    1.01577   1.21955   10.983
 4940.00    1.08456   1.23741    0.000
 4941.00    1.21488   1.25714    0.000
 4942.00    1.31966   1.27458    0.000
 4943.00    1.36421   1.28872    0.000
 4944.00    1.35072   1.29999    0.000
 4945.00    1.30190   1.30810    0.000
 4946.00    1.23151   1.31299    0.000
 4947.00    1.14140   1.31595    0.000
 4948.00    1.07111   1.31617    0.000
 4949.00    1.09269   1.31114    0.000
 4950.00    1.20089   1.30081    0.000
 4951.00    1.29994   1.28621    0.000
 4952.00    1.32101   1.26619    0.000
 4953.00    1.26344   1.23987    0.000
 4954.00    1.18080   1.21536    0.000
 4955.00    1.14805   1.20176    0.000
 4956.00    1.17993   1.19753    0.000
 4957.00    1.22676   1.19725    0.000
 4958.00    1.23467   1.20026    0.000
 4959.00    1.17879   1.21004    0.000
 4960.00    1.10041   1.22313    0.000
 4961.00    1.06976   1.22992    0.000
 4962.00    1.07969   1.22861    0.000
 4963.00    1.07005   1.22416    0.000
 4964.00    1.03201   1.21967    0.000
 4965.00    1.00190   1.21586    0.000
 4966.00    1.00526   1.21363    0.000
 4967.00    1.05354   1.21589    0.000
 4968.00    1.15709   1.22351    0.000
 4969.00    1.30220   1.23332    0.000
 4970.00    1.41347   1.24308    0.000
 4971.00    1.41171   1.25075    0.000
 4972.00    1.30668   1.25452    0.000
 4973.00    1.16844   1.25312    0.000
 4974.00    1.06774   1.24476    0.000
 4975.00    1.04435   1.23072    0.000
 4976.00    1.07990   1.21322    0.000
 4977.00    1.12714   1.19234    0.000
 4978.00    1.14783   1.16849    0.000
 4979.00    1.12016   1.14553    0.000
 4980.00    1.04210   1.12922    0.000
 4981.00    0.92879   1.12111    0.000
 4982.00    0.81031   1.11949    0.000
 4983.00    0.73748   1.12459    0.000
 4984.00    0.77785   1.13642    0.000
 4985.00    0.93767   1.15222    0.000
 4986.00    1.11409   1.16772    0.000
 4987.00    1.21155   1.18087    0.000
 4988.00    1.22372   1.19244    0.000
 4989.00    1.18248   1.20050    0.000
 4990.00    1.11742   1.20371    0.000
 4991.00    1.04223   1.20499    0.000
 4992.00    0.95371   1.20573    0.000
 4993.00    0.86632   1.20521    0.000
 4994.00    0.82330   1.20139    0.000
 4995.00    0.85241   1.19299    0.000
 4996.00    0.94456   1.18191    0.000
 4997.00    1.06443   1.16924    0.000
 4998.00    1.16330   1.15530    0.000
 4999.00    1.20942   1.14140    0.000
 5000.00    1.20098   1.12796    0.000
 5001.00    1.16481   1.11548    0.000
 5002.00    1.14210   1.10552    0.000
 5003.00    1.14172   1.10054    0.000
 5004.00    1.13725   1.10145    0.000
 5005.00    1.11237   1.10464    0.000
 5006.00    1.07227   1.10647    0.000
 5007.00    1.03169   1.10699    0.000
 5008.00    1.00611   1.10642    0.000
 5009.00    0.99847   1.10308    0.000
 5010.00    1.00044   1.09553    0.000
 5011.00    1.00439   1.08656    0.000
 5012.00    1.00322   1.07986    0.000
 5013.00    0.98343   1.07516    0.000
 5014.00    0.93536   1.07298    0.000
 5015.00    0.87648   1.07555    0.000
 5016.00    0.83864   1.08290    0.000
 5017.00    0.83535   1.09145    0.000
 5018.00    0.86187   1.09767    0.000
 5019.00    0.90661   1.10358    0.000
 5020.00    0.95852   1.11210    0.000
 5021.00    1.01509   1.12124    0.000
 5022.00    1.07580   1.12843    0.000
 5023.00    1.13093   1.13375    0.000
 5024.00    1.16177   1.14060    0.000
 5025.00    1.14510   1.15117    0.000
 5026.00    1.08248   1.16271    0.000
 5027.00    1.03012   1.17306    0.000
 5028.00    1.03723   1.18281    0.000
 5029.00    1.07806   1.19344   12.662
 5030.00    1.09842   1.20231   12.543
 5031.00    1.07093   1.20282   12.498
 5032.00    1.00064   1.19427   12.473
 5033.00    0.92296   1.18174   -1.000
 5034.00    0.88107   1.16683   -1.000
 5035.00    0.90362   1.14700   12.439
 5036.00    0.98080   1.12307   12.119
 5037.00    1.05442   1.10220   12.103
 5038.00    1.07275   1.09279   12.508
 5039.00    1.02914   1.09504   12.642
 5040.00    0.95051   1.10385   12.204
 5041.00    0.88285   1.11758   11.952
 5042.00    0.85829   1.13642   -1.000
 5043.00    0.87835   1.15726   -1.000
 5044.00    0.92871   1.17230   12.053
 5045.00    0.98797   1.17768   11.827
 5046.00    1.02793   1.17748   11.902
 5047.00    1.02191   1.17470   11.939
 5048.00    0.98171   1.16970   11.785
 5049.00    0.96143   1.16581   11.696
 5050.00    1.00296   1.16802   11.740
 5051.00    1.11014   1.17693   11.702
 5052.00    1.24048   1.18890   11.567
 5053.00    1.32356   1.20195   11.565
 5054.00    1.33209   1.21620   11.671
 5055.00    1.29406   1.22961   11.627
 5056.00    1.25126   1.23930   11.519
 5057.00    1.23375   1.24495   11.706
 5058.00    1.22785   1.24722   12.121
 5059.00    1.19884   1.24469   12.288
 5060.00    1.17224   1.23496   12.151
 5061.00    1.20671   1.22019   12.073
 5062.00    1.27947   1.20594   12.085
 5063.00    1.30933   1.19308   11.995
 5064.00    1.26693   1.17943   11.939
 5065.00    1.18508   1.16706   12.186
 5066.00    1.12773   1.16133   12.550
 5067.00    1.14244   1.16173   12.602
 5068.00    1.18914   1.16166   12.459
 5069.00    1.19512   1.16075   12.503
 5070.00    1.16550   1.16256   12.630
 5071.00    1.14512   1.16419   12.555
 5072.00    1.13362   1.16100   12.442
 5073.00    1.10457   1.15491   12.583
 5074.00    1.05034   1.14882   12.857
 5075.00    0.98774   1.13882   12.983
 5076.00    0.95474   1.12359   12.987
 5077.00    0.97865   1.11045   13.016
 5078.00    1.04175   1.10365   13.037
 5079.00    1.11021   1.09960   12.982
 5080.00    1.16908   1.09722   12.937
 5081.00    1.21812   1.10218   12.964
 5082.00    1.26232   1.11536   12.939
 5083.00    1.29284   1.13049   12.800
 5084.00    1.27697   1.14426   12.738
 5085.00    1.21505   1.15849   12.835
 5086.00    1.17741   1.17309   12.835
 5087.00    1.21793   1.18501   12.634
 5088.00    1.31203   1.19374   12.580
 5089.00    1.39952   1.20081   12.854
 5090.00    1.42342   1.20515   13.141
 5091.00    1.36756   1.20396   13.150
 5092.00    1.27140   1.19757   13.003
 5093.00    1.18416   1.18833   12.811
 5094.00    1.13427   1.17634   12.480
 5095.00    1.11391   1.16155   12.046
 5096.00    1.08421   1.14824   11.731
 5097.00    1.03543   1.14106   11.600
 5098.00    1.00232   1.13867   11.534
 5099.00    1.00180   1.13733   11.543
 5100.00    1.01415   1.13689   11.802
 5101.00    1.02122   1.13906   12.276
 5102.00    1.01836   1.14108   12.627
 5103.00    0.99944   1.13905   12.734
 5104.00    0.95945   1.13366   12.839
 5105.00    0.92164   1.12867   12.986
 5106.00    0.92558   1.12578   12.981
 5107.00    0.96439   1.12516   12.932
 5108.00    0.99419   1.12824   13.152
 5109.00    1.01349   1.13577   13.429
 5110.00    1.05732   1.14633   13.200
 5111.00    1.12619   1.15849   12.758
 5112.00    1.19143   1.17196   12.818
 5113.00    1.24956   1.18495   13.262
 5114.00    1.30965   1.19482   13.366
 5115.00    1.34083   1.19992   13.028
 5116.00    1.29919   1.19894   12.705
 5117.00    1.19986   1.19208   12.574
 5118.00    1.09841   1.18064   12.561
 5119.00    1.03286   1.16439   12.582
 5120.00    1.01286   1.14428   12.569
 5121.00    1.02009   1.12466   12.479
 5122.00    1.02819   1.10900   12.364
 5123.00    1.03138   1.09734   12.441
 5124.00    1.03774   1.08888   12.829
 5125.00    1.05340   1.08535   13.151
 5126.00    1.06669   1.08799   13.015
 5127.00    1.03565   1.09524   12.810
 5128.00    0.94471   1.10477   12.979
 5129.00    0.86313   1.11464   -1.000
 5130.00    0.85348   1.12399   -1.000
 5131.00    0.87797   1.13306   -1.000
 5132.00    0.88366   1.14080   -1.000
 5133.00    0.88709   1.14337   -1.000
 5134.00    0.92155   1.13989   12.900
 5135.00    0.98647   1.13356   12.603
 5136.00    1.06509   1.12741   12.434
 5137.00    1.14123   1.12153   12.473
 5138.00    1.19430   1.11381   12.662
 5139.00    1.19906   1.10476   12.831
 5140.00    1.15429   1.09912   12.937
 5141.00    1.09713   1.09860   13.186
 5142.00    1.07064   1.09703   13.568
 5143.00    1.09834   1.09163   13.617
 5144.00    1.15828   1.08825   13.199
 5145.00    1.18644   1.08894   12.819
 5146.00    1.16471   1.08913   12.743
 5147.00    1.14636   1.08721   12.807
 5148.00    1.16138   1.08622   12.901
 5149.00    1.18290   1.08848   13.108
 5150.00    1.17936   1.09342   13.333
 5151.00    1.13995   1.09970   13.256
 5152.00    1.08152   1.10858   12.925
 5153.00    1.03649   1.12094   12.762
 5154.00    1.00300   1.13444   12.897
 5155.00    0.94889   1.14602   13.130
 5156.00    0.88166   1.15451   -1.000
 5157.00    0.84878   1.15862   -1.000
 5158.00    0.87082   1.15466   -1.000
 5159.00    0.93105   1.13998   13.989
 5160.00    1.00277   1.11679   13.906
 5161.00    1.06137   1.08740   13.795
 5162.00    1.09460   1.05080   13.702
 5163.00    1.09979   1.00806   13.617
 5164.00    1.07216   0.96588   13.678
 5165.00    1.00736   0.93101   14.027
 5166.00    0.91199   0.90563   14.382
 5167.00    0.80417   0.88767   14.284
 5168.00    0.71017   0.87417   13.929
 5169.00    0.65766   0.86935   -1.000
 5170.00    0.66520   0.88003   -1.000
 5171.00    0.73536   0.90315   13.805
 5172.00    0.84738   0.92739   13.531
 5173.00    0.96444   0.94951   13.183
 5174.00    1.04740   0.97448   13.038
 5175.00    1.08156   0.99917   13.230
 5176.00    1.10488   1.01299   13.459
 5177.00    1.14703   1.01303   13.384
 5178.00    1.15815   1.00406   13.223
 5179.00    1.08425   0.98840   13.326
 5180.00    0.95554   0.96952   13.691
 5181.00    0.84500   0.95833   14.051
 5182.00    0.81303   0.96149   14.020
 5183.00    0.86597   0.97353   13.560
 5184.00    0.93211   0.98900   13.214
 5185.00    0.94991   1.01077   13.295
 5186.00    0.93817   1.03928   13.469
 5187.00    0.94230   1.06341   13.404
 5188.00    0.98517   1.07341   13.271
 5189.00    1.04572   1.07505   13.271
 5190.00    1.06015   1.07924    0.000
 5191.00    1.01549   1.08450    0.000
 5192.00    0.99046   1.08534    0.000
 5193.00    1.03228   1.08822    0.000
 5194.00    1.09728   1.09948    0.000
 5195.00    1.13892   1.11341    0.000
 5196.00    1.15228   1.12366    0.000
 5197.00    1.14497   1.13001    0.000
 5198.00    1.12209   1.13181    0.000
 5199.00    1.08935   1.12722    0.000
 5200.00    1.05716   1.11573    0.000
 5201.00    1.04987   1.09640    0.000
 5202.00    1.09670   1.07259    0.000
 5203.00    1.18496   1.05174    0.000
 5204.00    1.25961   1.03613    0.000
 5205.00    1.28265   1.02397    0.000
 5206.00    1.25179   1.02009    0.000
 5207.00    1.19164   1.02909    0.000
 5208.00    1.14117   1.04664    0.000
 5209.00    1.12699   1.06697    0.000
 5210.00    1.15216   1.08923    0.000
 5211.00    1.18857   1.11112   13.073
 5212.00    1.19672   1.12858   14.052
 5213.00    1.17579   1.14241   14.276
 5214.00    1.15366   1.15450   11.963
 5215.00    1.13926   1.16426   11.963
 5216.00    1.12591   1.17024   20.994
 5217.00    1.11829   1.17324   17.472
 5218.00    1.12522   1.17403    6.135
 5219.00    1.13732   1.16998    7.893
 5220.00    1.13968   1.15887   -2.000
 5221.00    1.13862   1.14245   -2.000
 5222.00    1.15090   1.12414    1.275
 5223.00    1.18066   1.10601    3.089
 5224.00    1.21941   1.09278   -2.000
 5225.00    1.25123   1.08956   -2.000
 5226.00    1.25922   1.09382    0.170
 5227.00    1.23341   1.10169    1.171
 5228.00    1.18140   1.11415   -2.000
 5229.00    1.13727   1.12971   -2.000
 5230.00    1.13485   1.14353    0.021
 5231.00    1.17821   1.15552   -2.000
 5232.00    1.24493   1.16788   -2.000
 5233.00    1.29579   1.18027    0.042
 5234.00    1.31040   1.19248    0.003
 5235.00    1.31347   1.20483   -2.000
 5236.00    1.33185   1.21620   -2.000
 5237.00    1.35822   1.22660    0.002
 5238.00    1.35948   1.23467    0.000
 5239.00    1.29337   1.23706   -2.000
 5240.00    1.16622   1.23484   -2.000
 5241.00    1.05699   1.23210    0.000
 5242.00    1.01867   1.22664    0.000
 5243.00    1.02593   1.21317   -2.000
 5244.00    1.04128   1.19642   -2.000
 5245.00    1.05413   1.18490    0.000
 5246.00    1.07374   1.17491    0.000
 5247.00    1.11885   1.16074   -2.000
 5248.00    1.19114   1.15035   -2.000
 5249.00    1.26436   1.15122    0.000
 5250.00    1.29358   1.15678    0.000
 5251.00    1.23708   1.16047   -2.000
 5252.00    1.12324   1.16683   -2.000
 5253.00    1.04666   1.18003    0.000
 5254.00    1.05707   1.19350    0.000
 5255.00    1.12828   1.19975   -2.000
 5256.00    1.19488   1.19890   -2.000
 5257.00    1.19207   1.19290    0.000
 5258.00    1.13379   1.17851    0.000
 5259.00    1.09576   1.15359   -2.000
 5260.00    1.10419   1.12284   -2.000
 5261.00    1.12916   1.09008    0.000
 5262.00    1.14755   1.05593    0.000
 5263.00    1.15510   1.02557   -2.000
 5264.00    1.15569   1.00694   -2.000
 5265.00    1.15534   0.99542    0.000
 5266.00    1.15518   0.98410    0.000
 5267.00    1.15058   0.98254   -2.000
 5268.00    1.13279   0.99889   -2.000
 5269.00    1.09544   1.02083    0.000
 5270.00    1.04522   1.03961    0.000
 5271.00    0.99944   1.06348    0.000
 5272.00    0.97859   1.09406    0.000
 5273.00    0.99495   1.12341    0.000
 5274.00    1.03820   1.14866    0.000
 5275.00    1.08219   1.16923    0.000
 5276.00    1.09864   1.18268    0.000
 5277.00    1.08452   1.19053    0.000
 5278.00    1.08933   1.19656    0.000
 5279.00    1.16227   1.20002    0.000
 5280.00    1.29076   1.20030    0.000
 5281.00    1.42058   1.20208    0.000
 5282.00    1.48792   1.21149    0.000
 5283.00    1.46427   1.22659    0.000
 5284.00    1.39010   1.24117   -2.000
 5285.00    1.31806   1.25465   -2.000
 5286.00    1.26372   1.26976    0.000
 5287.00    1.22954   1.28332    0.000
 5288.00    1.22528   1.28924   -2.000
 5289.00    1.25482   1.28631   -2.000
 5290.00    1.30637   1.27768    0.000
 5291.00    1.35898   1.26622    0.000
 5292.00    1.38926   1.25133   -2.000
 5293.00    1.38305   1.23103   -2.000
 5294.00    1.34193   1.20788    0.000
 5295.00    1.28060   1.19040    0.000
 5296.00    1.22147   1.18339   -2.000
 5297.00    1.17673   1.18169   -2.000
 5298.00    1.14505   1.18238    0.000
 5299.00    1.13865   1.19143    0.000
 5300.00    1.18286   1.21087   -2.000
 5301.00    1.26117   1.23278   -2.000
 5302.00    1.30994   1.25148    0.000
 5303.00    1.28916   1.26795    0.000
 5304.00    1.20596   1.28287   -2.000
 5305.00    1.09708   1.29548   -2.000
 5306.00    1.01247   1.30467    0.000
 5307.00    0.98511   1.30908    0.000
 5308.00    1.02083   1.30947   -2.000
 5309.00    1.09844   1.30795   -2.000
 5310.00    1.18184   1.30502    0.000
 5311.00    1.25115   1.30030    0.000
 5312.00    1.30388   1.29360   -2.000
 5313.00    1.33714   1.28519   -2.000
 5314.00    1.34627   1.27716    0.000
 5315.00    1.33205   1.27067    0.001
 5316.00    1.30301   1.26278   -2.000
 5317.00    1.27626   1.25226   -2.000
 5318.00    1.26737   1.24190    0.003
 5319.00    1.27182   1.23107    0.012
 5320.00    1.27179   1.21416   -2.000
 5321.00    1.25387   1.19141   -2.000
 5322.00    1.21851   1.17153    0.020
 5323.00    1.18876   1.15496    0.151
 5324.00    1.19294   1.13385   -2.000
 5325.00    1.23827   1.11205   -2.000
 5326.00    1.31140   1.10572    0.158
 5327.00    1.38504   1.11483    2.292
 5328.00    1.43172   1.12611   -2.000
 5329.00    1.43904   1.13810   -1.000
 5330.00    1.40768   1.15949    1.154
 5331.00    1.34746   1.18798   15.872
 5332.00    1.28043   1.21044   -2.000
 5333.00    1.24121   1.22152   11.020
 5334.00    1.24630   1.22755    5.752
 5335.00    1.26879   1.23278   14.980
 5336.00    1.26631   1.23131   22.990
 5337.00    1.20967   1.22146   12.461
 5338.00    1.10859   1.21308   11.494
 5339.00    1.02190   1.21159   13.706
 5340.00    0.99828   1.21081   13.871
 5341.00    1.03644   1.20802   12.826
 5342.00    1.10460   1.20745   12.825
 5343.00    1.16115   1.21134   13.215
 5344.00    1.19252   1.21690   13.163
 5345.00    1.22721   1.21986   13.012
 5346.00    1.29275   1.22170   13.114
 5347.00    1.39099   1.22924   -2.000
 5348.00    1.49563   1.24336   -2.000
 5349.00    1.56207   1.25716   -2.000
 5350.00    1.57356   1.27007   -2.000
 5351.00    1.55099   1.28720   -2.000
 5352.00    1.50774   1.30621   -2.000
 5353.00    1.44282   1.32008   -2.000
 5354.00    1.38622   1.32843   -2.000
 5355.00    1.38746   1.33404   -2.000
 5356.00    1.42016   1.33622   -2.000
 5357.00    1.39779   1.33244   -2.000
 5358.00    1.32274   1.32292   -2.000
 5359.00    1.28351   1.31046   -2.000
 5360.00    1.31341   1.29740   -2.000
 5361.00    1.37206   1.28241   -2.000
 5362.00    1.40550   1.26463   11.700
 5363.00    1.37907   1.24701   12.009
 5364.00    1.31449   1.23069   12.436
 5365.00    1.26643   1.21534   12.662
 5366.00    1.25406   1.20130   12.597
 5367.00    1.26163   1.18908   12.477
 5368.00    1.26981   1.18128   12.627
 5369.00    1.26614   1.18262   13.211
 5370.00    1.25203   1.19215   13.756
 5371.00    1.23392   1.20434   13.571
 5372.00    1.20730   1.21951   13.095
 5373.00    1.16834   1.23756   13.074
 5374.00    1.13385   1.25441   13.336
 5375.00    1.12034   1.26731   13.365
 5376.00    1.11283   1.27576   13.273
 5377.00    1.09172   1.27883   13.410
 5378.00    1.07034   1.27869   13.706
 5379.00    1.07629   1.27766   13.897
 5380.00    1.12325   1.27447   13.909
 5381.00    1.19745   1.27045   13.818
 5382.00    1.25144   1.26734   13.712
 5383.00    1.25618   1.26283   13.650
 5384.00    1.24620   1.25630   13.640
 5385.00    1.26109   1.24970   13.662
 5386.00    1.29281   1.24144   13.685
 5387.00    1.31465   1.23008   13.673
 5388.00    1.30891   1.21848   13.608
 5389.00    1.27102   1.20722   13.551
 5390.00    1.21112   1.19456   13.653
 5391.00    1.15415   1.18311   13.874
 5392.00    1.13460   1.17579   13.855
 5393.00    1.16470   1.16854   13.497
 5394.00    1.21914   1.16039   13.209
 5395.00    1.26204   1.15911   13.218
 5396.00    1.26765   1.16320   13.340
 5397.00    1.24308   1.16270   13.377
 5398.00    1.22816   1.15916   13.303
 5399.00    1.24008   1.15977   13.194
 5400.00    1.25508   1.15846   13.155
 5401.00    1.24585   1.14864   13.193
 5402.00    1.20106   1.13594   13.224
 5403.00    1.13416   1.12711   13.273
 5404.00    1.07780   1.12283   13.461
 5405.00    1.05195   1.12115   13.681
 5406.00    1.05439   1.12173   13.617
 5407.00    1.06829   1.12786   13.372
 5408.00    1.07320   1.14302   13.368
 5409.00    1.06866   1.16255   13.554
 5410.00    1.07239   1.18025   13.493
 5411.00    1.09541   1.19686   13.267
 5412.00    1.13778   1.21531   13.325
 5413.00    1.19530   1.23320   13.572
 5414.00    1.25693   1.24630   13.528
 5415.00    1.29555   1.25420   13.291
 5416.00    1.28980   1.25852   13.337
 5417.00    1.27155   1.25939   13.701
 5418.00    1.29128   1.25802   14.059
 5419.00    1.33480   1.25645   14.189
 5420.00    1.34984   1.25292   14.073
 5421.00    1.31981   1.24645   13.821
 5422.00    1.26613   1.24161   13.691
 5423.00    1.22930   1.23935   14.144
 5424.00    1.23649   1.23559   15.020
 5425.00    1.26145   1.22731   14.037
 5426.00    1.26551   1.21514   11.802
 5427.00    1.25770   1.20467   13.594
 5428.00    1.26702   1.19846   22.990
 5429.00    1.29885   1.18961   14.563
 5430.00    1.33370   1.17824    5.811
 5431.00    1.33534   1.17462   14.418
 5432.00    1.29182   1.18027   -2.000
 5433.00    1.25084   1.18818    9.362
 5434.00    1.25685   1.19899    1.144
 5435.00    1.29345   1.21584   -2.000
 5436.00    1.32898   1.23531   -2.000
 5437.00    1.35853   1.25287    1.229
 5438.00    1.38941   1.26627    0.158
 5439.00    1.42511   1.27419   -2.000
 5440.00    1.45092   1.27504   -2.000
 5441.00    1.43255   1.26924    0.105
 5442.00    1.37132   1.25829    0.021
 5443.00    1.32522   1.24345   -2.000
 5444.00    1.31134   1.22911   -2.000
 5445.00    1.26748   1.22049    0.010
 5446.00    1.17424   1.21573    0.003
 5447.00    1.10193   1.21144   -2.000
 5448.00    1.09568   1.20880   -2.000
 5449.00    1.12804   1.20921    0.001
 5450.00    1.15874   1.20930    0.000
 5451.00    1.16436   1.20646   -2.000
 5452.00    1.13957   1.20107   -2.000
 5453.00    1.09821   1.19778    0.000
 5454.00    1.07624   1.19961    0.000
 5455.00    1.11125   1.20281   -2.000
 5456.00    1.17012   1.20418   -2.000
 5457.00    1.16912   1.20677   -2.000
 5458.00    1.11670   1.21214   -2.000
 5459.00    1.10559   1.21508   -2.000
 5460.00    1.15618   1.21362   -2.000
 5461.00    1.22127   1.21353   -2.000
 5462.00    1.31730   1.21631   -2.000
 5463.00    1.34814   1.21666   -2.000
 5464.00    0.62114   1.21570   -2.000
 5465.00   -1.54142   1.21834   -2.000
 5466.00   -4.24265   1.21958   -2.000
 5467.00   -5.71520   1.21481   -2.000
 5468.00   -5.42171   1.20970   -2.000
 5469.00   -3.95917   1.20506   -2.000
 5470.00   -2.07382   1.19468   -2.000
 5471.00   -0.39068   1.18281   -2.000
 5472.00    0.72523   1.17584   -2.000
 5473.00    1.19038   1.16790   -2.000
 5474.00    1.19008   1.15775   -2.000
 5475.00    1.01967   1.15528   -2.000
 5476.00    0.86479   1.15940   -2.000
 5477.00    0.80615   1.16065   -2.000
 5478.00    0.86589   1.16226   -2.000
 5479.00    1.01012   1.17136   -2.000
 5480.00    1.15064   1.18208   -2.000
 5481.00    1.21266   1.18903    0.000
 5482.00    1.20383   1.19601    0.000
 5483.00    1.16532   1.20387    0.000
 5484.00    1.11711   1.20832    0.000
 5485.00    1.07025   1.21146    0.000
 5486.00    1.04167   1.21569    0.000
 5487.00    1.04535   1.21669    0.000
 5488.00    1.08462   1.21608    0.000
 5489.00    1.15761   1.21843    0.000
 5490.00    1.25956   1.21994   -2.000
 5491.00    1.36705   1.21864   -2.000
 5492.00    1.43391   1.22021    0.000
 5493.00    1.43789   1.22273    0.000
 5494.00    1.40528   1.22034   -2.000
 5495.00    1.37545   1.21805   -2.000
 5496.00    1.37516   1.21992    0.000
 5497.00    1.39883   1.21923    0.000
 5498.00    1.40781   1.21355    0.000
 5499.00    1.37517   1.20901    0.000
 5500.00    1.30795   1.20647   -2.000
 5501.00    1.24512   1.20245   -2.000
 5502.00    1.23908   1.19721    0.000
 5503.00    1.28794   1.19216    0.000
 5504.00    1.32767   1.18934   -2.000
 5505.00    1.30603   1.18884   -2.000
 5506.00    1.21306   1.18671    0.000
 5507.00    1.08661   1.18265    0.000
 5508.00    0.99514   1.18041    0.000
 5509.00    0.98116   1.17874    0.000
 5510.00    1.04213   1.17627    0.000
 5511.00    1.12890   1.17645    0.000
 5512.00    1.17475   1.18038    0.000
 5513.00    1.16840   1.18618    0.000
 5514.00    1.14707   1.19478    0.000
 5515.00    1.13535   1.20689    0.000
 5516.00    1.13581   1.21940    0.000
 5517.00    1.14108   1.22922    0.000
 5518.00    1.14272   1.23643    0.000
 5519.00    1.14298   1.24168    0.000
 5520.00    1.15199   1.24297    0.000
 5521.00    1.17838   1.23924    0.000
 5522.00    1.22286   1.23259    0.000
 5523.00    1.27093   1.22570    0.000
 5524.00    1.29676   1.21840    0.000
 5525.00    1.27264   1.21016    0.000
 5526.00    1.20159   1.20482   -2.000
 5527.00    1.15500   1.20451   -2.000
 5528.00    1.19968   1.20503    0.000
 5529.00    1.30442   1.20517    0.000
 5530.00    1.39523   1.20899   -2.000
 5531.00    1.43183   1.21443   -2.000
 5532.00    1.40851   1.21694    0.000
 5533.00    1.34525   1.21954   -2.000
 5534.00    1.27831   1.22428   -2.000
 5535.00    1.24878   1.22819    0.000
 5536.00    1.27198   1.23125    0.000
 5537.00    1.31593   1.23603   -2.000
 5538.00    1.34102   1.24123   -2.000
 5539.00    1.33389   1.24412    0.000
 5540.00    1.30719   1.24558    0.000
 5541.00    1.29265   1.24817   -2.000
 5542.00    1.30641   1.25159   -2.000
 5543.00    1.33065   1.25318    0.000
 5544.00    1.34506   1.25484    0.000
 5545.00    1.34697   1.25980   -2.000
 5546.00    1.34827   1.26465   -2.000
 5547.00    1.36646   1.26649    0.000
 5548.00    1.39102   1.26799    0.000
 5549.00    1.37949   1.26943   -2.000
 5550.00    1.32098   1.26770   -2.000
 5551.00    1.25446   1.26332    0.000
 5552.00    1.21519   1.25924    0.000
 5553.00    1.21370   1.25570   -2.000
 5554.00    1.24818   1.25102   -2.000
 5555.00    1.30839   1.24599    0.001
 5556.00    1.37078   1.24226    0.001
 5557.00    1.40468   1.23880   -2.000
 5558.00    1.39763   1.23434   -2.000
 5559.00    1.35997   1.22877    0.004
 5560.00    1.31269   1.22299    0.008
 5561.00    1.27618   1.21831   -2.000
 5562.00    1.25097   1.21361   -2.000
 5563.00    1.22362   1.20731    0.027
 5564.00    1.19421   1.20312    0.073
 5565.00    1.17600   1.20264   -2.000
 5566.00    1.17850   1.20028   -2.000
 5567.00    1.19800   1.19782    0.196
 5568.00    1.20738   1.20115    0.702
 5569.00    1.17734   1.20427   -2.000
 5570.00    1.11928   1.20405   -2.000
 5571.00    1.06739   1.20857    1.326
 5572.00    1.03404   1.21589    4.731
 5573.00    1.01237   1.21843   -2.000
 5574.00    0.99299   1.22151   -1.000
 5575.00    0.97048   1.22743    5.489
 5576.00    0.94866   1.22931    9.379
 5577.00    0.93880   1.22841   -1.000
 5578.00    0.95523   1.22718   10.266
 5579.00    1.00014   1.22162    9.156
 5580.00    1.04774   1.21213   10.369
 5581.00    1.06912   1.20124   11.143
 5582.00    1.06228   1.18756   11.084
 5583.00    1.05725   1.17169   11.477
 5584.00    1.11124   1.15711   12.136
 5585.00    1.23988   1.14513   12.283
 5586.00    1.36408   1.13635   12.088
 5587.00    1.40994   1.13198   -1.000
 5588.00    1.39191   1.13212   -1.000
 5589.00    1.35629   1.13686   12.891
 5590.00    1.33096   1.14529   13.274
 5591.00    1.32142   1.15400   13.315
 5592.00    1.31307   1.16178   13.138
 5593.00    1.29043   1.17019   12.997
 5594.00    1.24988   1.17621   13.081
 5595.00    1.20031   1.17639   13.408
 5596.00    1.16038   1.17561   13.781
 5597.00    1.14416   1.17662   13.960
 5598.00    1.15410   1.17609   13.847
 5599.00    1.18600   1.17573   13.646
 5600.00    1.23431   1.18054   13.722
 5601.00    1.30383   1.19011   13.934
 5602.00    1.40545   1.20175   13.617
 5603.00    1.51690   1.21496   -1.000
 5604.00    1.58285   1.22881   -1.000
 5605.00    1.57753   1.24147   -1.000
 5606.00    1.51925   1.25072   -1.000
 5607.00    1.43571   1.25561   13.262
 5608.00    1.35328   1.25506   13.076
 5609.00    1.30328   1.24862   13.252
 5610.00    1.31053   1.23977   13.318
 5611.00    1.35574   1.22912   13.162
 5612.00    1.38420   1.21450   13.119
 5613.00    1.35779   1.20072   13.329
 5614.00    1.27119   1.19271   13.666
 5615.00    1.15584   1.18678   13.885
 5616.00    1.06301   1.18113   13.803
 5617.00    1.02522   1.18001   13.612
 5618.00    1.04501   1.18177   13.636
 5619.00    1.09134   1.18254   13.776
 5620.00    1.12214   1.18316   13.738
 5621.00    1.12627   1.18299   13.628
 5622.00    1.12156   1.18286   13.726
 5623.00    1.13725   1.18624   13.933
 5624.00    1.19263   1.19137   13.968
 5625.00    1.27017   1.19595   13.830
 5626.00    1.33476   1.20335   13.708
 5627.00    1.36654   1.21334   13.713
 5628.00    1.36287   1.22054   13.840
 5629.00    1.33456   1.22466   13.965
 5630.00    1.29965   1.22719   14.009
 5631.00    1.27597   1.22615   14.142
 5632.00    1.27146   1.22188   14.443
 5633.00    1.27560   1.21669   14.526
 5634.00    1.26976   1.21027   14.143
 5635.00    1.23966   1.20314   13.775
 5636.00    1.18951   1.19835   13.828
 5637.00    1.14974   1.19537   14.120
 5638.00    1.14224   1.19221   14.308
 5639.00    1.15370   1.19124   14.277
 5640.00    1.15978   1.19330   14.102
 5641.00    1.14725   1.19566   13.927
 5642.00    1.12868   1.19801   13.818
 5643.00    1.14294   1.20184   13.701
 5644.00    1.19755   1.20627   13.537
 5645.00    1.24400   1.21013   13.402
 5646.00    1.24980   1.21359   13.363
 5647.00    1.23376   1.21622   13.404
 5648.00    1.22216   1.21727   13.425
 5649.00    1.22275   1.21682   13.269
 5650.00    1.21942   1.21569   12.939
 5651.00    1.18306   1.21182   12.595
 5652.00    1.12735   1.20346   12.216
 5653.00    1.11032   1.19584   11.629
 5654.00    1.14098   1.19016   10.920
 5655.00    1.16628   1.18030   10.374
 5656.00    1.16449   1.17024   10.124
 5657.00    1.16453   1.16813   10.150
 5658.00    1.19115   1.16857   10.345
 5659.00    1.24610   1.16693   10.600
 5660.00    1.30983   1.17008   11.125
 5661.00    1.35084   1.17815   12.274
 5662.00    1.34884   1.18470   13.066
 5663.00    1.30392   1.19024   12.023
 5664.00    1.24187   1.19680   12.079
 5665.00    1.20051   1.20297   17.862
 5666.00    1.19530   1.20890   17.957
 5667.00    1.21808   1.21537    7.833
 5668.00    1.25197   1.22128    8.545
 5669.00    1.28310   1.22750   -2.000
 5670.00    1.31599   1.23550   -2.000
 5671.00    1.36334   1.24304    1.851
 5672.00    1.42283   1.24762    2.976
 5673.00    1.48252   1.25089   -2.000
 5674.00    1.53573   1.25389   -2.000
 5675.00    1.57154   1.25339    0.253
 5676.00    1.55877   1.24848    0.739
 5677.00    1.47454   1.24318   -2.000
 5678.00    1.34468   1.23829   -2.000
 5679.00    1.22268   1.23087    0.032
 5680.00    1.15542   1.22237    0.280
 5681.00    1.16536   1.21650   -2.000
 5682.00    1.23590   1.21248   -2.000
 5683.00    1.32183   1.20852    0.004
 5684.00    1.36609   1.20669   -2.000
 5685.00    1.34381   1.20805   -2.000
 5686.00    1.29477   1.21162    0.007
 5687.00    1.24543   1.21653    0.001
 5688.00    1.14303   1.22209   -2.000
 5689.00    0.90217   1.22821   -2.000
 5690.00    0.46451   1.23458    0.000
 5691.00   -0.06700   1.23872    0.000
 5692.00   -0.38041   1.23887   -2.000
 5693.00   -0.28960   1.23749   -2.000
 5694.00    0.07342   1.23437    0.000
 5695.00    0.49887   1.22679    0.000
 5696.00    0.85795   1.21749   -2.000
 5697.00    1.10858   1.20975   -2.000
 5698.00    1.28054   1.20146    0.000
 5699.00    1.40519   1.19167    0.000
 5700.00    1.48528   1.18369   -2.000
 5701.00    1.52525   1.17773   -2.000
 5702.00    1.53963   1.17048    0.000
 5703.00    1.52470   1.16230    0.000
 5704.00    1.45800   1.15634   -2.000
 5705.00    1.34485   1.15140   -2.000
 5706.00    1.22729   1.14588    0.000
 5707.00    1.14933   1.14418    0.000
 5708.00    1.13487   1.14762   -2.000
 5709.00    1.15972   1.15246   -2.000
 5710.00    1.16629   1.16122    0.000
 5711.00    1.13276   1.17537    0.000
 5712.00    1.08289   1.18923   -2.000
 5713.00    1.05469   1.20310   -2.000
 5714.00    1.07616   1.21887    0.000
 5715.00    1.12898   1.23215    0.000
 5716.00    1.16903   1.24317   -2.000
 5717.00    1.19161   1.25377   -2.000
 5718.00    1.22426   1.26135    0.000
 5719.00    1.28111   1.26686    0.000
 5720.00    1.35435   1.27141    0.000
 5721.00    1.41735   1.27237    0.000
 5722.00    1.44310   1.27125    0.000
 5723.00    1.43325   1.27030    0.000
 5724.00    1.39824   1.26695    0.000
 5725.00    1.32006   1.26169    0.000
 5726.00    1.18597   1.25880    0.000
 5727.00    1.04228   1.25723    0.000
 5728.00    0.94990   1.25437    0.000
 5729.00    0.91762   1.25327    0.000
 5730.00    0.92606   1.25533    0.000
 5731.00    0.96684   1.25700    0.000
 5732.00    1.04141   1.25765   -2.000
 5733.00    1.15275   1.25950    0.000
 5734.00    1.28401   1.26136    0.000
 5735.00    1.38202   1.26172   -2.000
 5736.00    1.40077   1.26165   -2.000
 5737.00    1.34278   1.26132    0.000
 5738.00    1.25130   1.26069    0.000
 5739.00    1.19339   1.26041   -2.000
 5740.00    1.20029   1.26013   -2.000
 5741.00    1.23047   1.25959    0.000
 5742.00    1.23539   1.25903    0.000
 5743.00    1.20605   1.25836   -2.000
 5744.00    1.15539   1.25695   -2.000
 5745.00    1.10249   1.25412    0.000
 5746.00    1.05919   1.25075    0.000
 5747.00    1.02545   1.24759   -2.000
 5748.00    1.00507   1.24333   -2.000
 5749.00    1.01197   1.23880    0.000
 5750.00    1.05714   1.23614    0.000
 5751.00    1.13755   1.23430   -2.000
 5752.00    1.21791   1.23327   -2.000
 5753.00    1.23962   1.23413    0.000
 5754.00    1.19074   1.23522    0.000
 5755.00    1.12222   1.23597   -2.000
 5756.00    1.09709   1.23681   -2.000
 5757.00    1.15636   1.23634    0.000
 5758.00    1.27318   1.23547    0.000
 5759.00    1.36790   1.23560   -2.000
 5760.00    1.40326   1.23606   -2.000
 5761.00    1.39757   1.23881    0.000
 5762.00    1.37361   1.24469    0.000
 5763.00    1.34214   1.25055   -2.000
 5764.00    1.29968   1.25662   -2.000
 5765.00    1.23751   1.26359    0.000
 5766.00    1.16382   1.26784    0.000
 5767.00    1.09815   1.26931   -2.000
 5768.00    1.04780   1.26984   -2.000
 5769.00    1.00732   1.26804   -2.000
 5770.00    0.96897   1.26469   -2.000
 5771.00    0.94096   1.26123   -2.000
 5772.00    0.97402   1.25618   -2.000
 5773.00    1.10515   1.25020   -2.000
 5774.00    1.26110   1.24390   -2.000
 5775.00    1.33862   1.23449   -2.000
 5776.00    1.34711   1.22300   -2.000
 5777.00    1.35210   1.21169   -2.000
 5778.00    1.36705   1.19856   -2.000
 5779.00    1.36189   1.18476   -2.000
 5780.00    1.29643   1.17508   -2.000
 5781.00    1.16823   1.16900   -2.000
 5782.00    1.05740   1.16469   -2.000
 5783.00    1.04865   1.16567   -2.000
 5784.00    1.14452   1.17251   -2.000
 5785.00    1.28952   1.18028   -2.000
 5786.00    1.40571   1.18926   -2.000
 5787.00    1.42482   1.20125   -2.000
 5788.00    1.31789   1.21188    0.000
 5789.00    1.12549   1.22071    0.000
 5790.00    0.96706   1.23068    0.000
 5791.00    0.93429   1.23835    0.000
 5792.00    1.01431   1.24349    0.000
 5793.00    1.12725   1.25012    0.000
 5794.00    1.17063   1.25554    0.000
 5795.00    1.11233   1.25819    0.000
 5796.00    1.03079   1.26221    0.000
 5797.00    1.01115   1.26699    0.000
 5798.00    1.08168   1.26879    0.000
 5799.00    1.20827   1.26962    0.000
 5800.00    1.30861   1.27144    0.000
 5801.00    1.32527   1.27081    0.000
 5802.00    1.26161   1.26797    0.000
 5803.00    1.18002   1.26636    0.000
 5804.00    1.17470   1.26492    0.000
 5805.00    1.27157   1.26301    0.000
 5806.00    1.40775   1.26227    0.000
 5807.00    1.50650   1.26237    0.000
 5808.00    1.51696   1.26268    0.000
 5809.00    1.44898   1.26271    0.000
 5810.00    1.36639   1.26201    0.000
 5811.00    1.33187   1.26165    0.000
 5812.00    1.37495   1.26171    0.000
 5813.00    1.45396   1.26148    0.000
 5814.00    1.48421   1.26245    0.000
 5815.00    1.43419   1.26565    0.000
 5816.00    1.33738   1.26959    0.000
 5817.00    1.25960   1.27350    0.000
 5818.00    1.25411   1.27829    0.000
 5819.00    1.28680   1.28306    0.000
 5820.00    1.27799   1.28623    0.000
 5821.00    1.21285   1.28848    0.000
 5822.00    1.14263   1.29041    0.000
 5823.00    1.14566   1.29156    0.000
 5824.00    1.26173   1.29202    0.000
 5825.00    1.40348   1.29200    0.000
 5826.00    1.44091   1.29173    0.000
 5827.00    1.34531   1.29136    0.000
 5828.00    1.16986   1.29003    0.000
 5829.00    0.99261   1.28763    0.000
 5830.00    0.88049   1.28580    0.000
 5831.00    0.85504   1.28399    0.000
 5832.00    0.90207   1.28093    0.000
 5833.00    0.98830   1.27903    0.000
 5834.00    1.07456   1.27934    0.000
 5835.00    1.12963   1.27924    0.000
 5836.00    1.15130   1.27944    0.000
 5837.00    1.17867   1.28200    0.000
 5838.00    1.23170   1.28431    0.000
 5839.00    1.26575   1.28483    0.000
 5840.00    1.24365   1.28529    0.000
 5841.00    1.19038   1.28460    0.000
 5842.00    1.14600   1.28126    0.000
 5843.00    1.12868   1.27662    0.000
 5844.00    1.13945   1.27096    0.000
 5845.00    1.16778   1.26395    0.000
 5846.00    1.19700   1.25665    0.000
 5847.00    1.20853   1.24898    0.000
 5848.00    1.18729   1.24072    0.000
 5849.00    1.12793   1.23294    0.000
 5850.00    1.05083   1.22508    0.000
 5851.00    0.99912   1.21655    0.000
 5852.00    0.98758   1.20921    0.000
 5853.00    0.99107   1.20343    0.000
 5854.00    0.99819   1.19798    0.000
 5855.00    1.02946   1.19446    0.000
 5856.00    1.11558   1.19426    0.000
 5857.00    1.27297   1.19540    0.000
 5858.00    1.45105   1.19773    0.000
 5859.00    1.54974   1.20254    0.000
 5860.00    1.53425   1.20754    0.000
 5861.00    1.44796   1.21191    0.000
 5862.00    1.33814   1.21734    0.000
 5863.00    1.23631   1.22226    0.000
 5864.00    1.16690   1.22583    0.000
 5865.00    1.14367   1.23019    0.000
 5866.00    1.15524   1.23471    0.000
 5867.00    1.17500   1.23750    0.000
 5868.00    1.19094   1.23977    0.000
 5869.00    1.20362   1.24196    0.000
 5870.00    1.20838   1.24206    0.000
 5871.00    1.19580   1.24018    0.000
 5872.00    1.15999   1.23790    0.000
 5873.00    1.10508   1.23440    0.000
 5874.00    1.05287   1.22893    0.000
 5875.00    1.02910   1.22318    0.000
 5876.00    1.04001   1.21770    0.000
 5877.00    1.07108   1.21080    0.000
 5878.00    1.09225   1.20260    0.000
 5879.00    1.08433   1.19429    0.000
 5880.00    1.07026   1.18369    0.000
 5881.00    1.08038   1.16823    0.000
 5882.00    1.10774   1.14943    0.000
 5883.00    1.12740   1.12664    0.000
 5884.00    1.12399   1.09708    0.000
 5885.00    1.09894   1.06534    0.000
 5886.00    1.07299   1.03492    0.000
 5887.00    1.06809   1.00317    0.000
 5888.00    1.09005   0.97697    0.000
 5889.00    1.12610   0.96169    0.000
 5890.00    1.14756   0.94985    0.000
 5891.00    1.13840   0.94546    0.000
 5892.00    1.11362   0.95442    0.000
 5893.00    1.09160   0.96555    0.000
 5894.00    1.07525   0.98031    0.000
 5895.00    1.06503   1.00648    0.000
 5896.00    1.06659   1.03321    0.000
 5897.00    1.08160   1.05838    0.000
 5898.00    1.10347   1.08893    0.000
 5899.00    1.12480   1.11717    0.000
 5900.00    1.14005   1.13873    0.000
 5901.00    1.13700   1.15898   13.841
 5902.00    1.10033   1.17596   14.080
 5903.00    1.04595   1.18687   13.960
 5904.00    1.02091   1.19514   13.869
 5905.00    1.03908   1.20182   13.933
 5906.00    1.06855   1.20566   13.871
 5907.00    1.08573   1.20742   13.653
 5908.00    1.09323   1.20781   13.575
 5909.00    1.10757   1.20704   13.707
 5910.00    1.14389   1.20513   13.832
 5911.00    1.18356   1.20211   13.795
 5912.00    1.18538   1.19979   13.630
 5913.00    1.14564   1.19856   13.515
 5914.00    1.09952   1.19773   13.608
 5915.00    1.07904   1.19900   13.710
 5916.00    1.09748   1.20166   13.474
 5917.00    1.14070   1.20443   13.140
 5918.00    1.18614   1.20853   13.179
 5919.00    1.24658   1.21219   13.401
 5920.00    1.34240   1.21460   13.273
 5921.00    1.42994   1.21735   13.003
 5922.00    1.43863   1.21874   13.136
 5923.00    1.36297   1.21870   13.609
 5924.00    1.25534   1.21865   13.944
 5925.00    1.18426   1.21745   13.920
 5926.00    1.19429   1.21587   13.691
 5927.00    1.25872   1.21464   13.566
 5928.00    1.31724   1.21299   13.713
 5929.00    1.33797   1.21202   13.879
 5930.00    1.31945   1.21206   13.771
 5931.00    1.28149   1.21231   13.627
 5932.00    1.25127   1.21260   13.772
 5933.00    1.24774   1.21377   14.095
 5934.00    1.27295   1.21578   14.290
 5935.00    1.30632   1.21648   14.214
 5936.00    1.32458   1.21701   13.960
 5937.00    1.32067   1.21891   13.782
 5938.00    1.29359   1.21934   13.836
 5939.00    1.23901   1.21894   14.015
 5940.00    1.15978   1.22007   14.152
 5941.00    1.07526   1.22065   14.185
 5942.00    1.02100   1.22038   14.099
 5943.00    1.04192   1.22050   13.866
 5944.00    1.14948   1.21989   13.551
 5945.00    1.29810   1.21861   13.330
 5946.00    1.42164   1.21680   13.323
 5947.00    1.46448   1.21382   -1.000
 5948.00    1.41934   1.21129   13.804
 5949.00    1.33734   1.20950   13.919
 5950.00    1.26958   1.20680   13.827
 5951.00    1.23674   1.20490   13.767
 5952.00    1.23560   1.20533   13.814
 5953.00    1.24559   1.20577   13.784
 5954.00    1.24070   1.20649   13.714
 5955.00    1.20179   1.20964   13.908
 5956.00    1.14328   1.21382   14.279
 5957.00    1.10920   1.21766   14.265
 5958.00    1.12088   1.22236   13.817
 5959.00    1.16457   1.22769   13.489
 5960.00    1.21571   1.23168   13.527
 5961.00    1.24942   1.23495   13.798
 5962.00    1.24623   1.23868   14.074
 5963.00    1.19910   1.24101   14.180
 5964.00    1.12699   1.24265   14.254
 5965.00    1.06795   1.24546   14.561
 5966.00    1.05217   1.24727   14.820
 5967.00    1.08777   1.24795   14.469
 5968.00    1.14579   1.24894   13.873
 5969.00    1.18064   1.24840   13.782
 5970.00    1.17946   1.24563   14.167
 5971.00    1.15946   1.24207   14.505
 5972.00    1.14202   1.23764   14.591
 5973.00    1.14036   1.23184   14.549
 5974.00    1.14771   1.22622   14.413
 5975.00    1.15184   1.22162   14.175
 5976.00    1.16070   1.21700   13.989
 5977.00    1.18834   1.21330   13.983
 5978.00    1.22866   1.21070   13.989
 5979.00    1.26337   1.20756   13.794
 5980.00    1.27801   1.20546   13.504
 5981.00    1.26835   1.20432   13.351
 5982.00    1.24464   1.20267   13.446
 5983.00    1.21898   1.20311   13.727
 5984.00    1.19162   1.20548   13.894
 5985.00    1.16449   1.20780   13.697
 5986.00    1.15437   1.21140   13.280
 5987.00    1.16849   1.21624   12.950
 5988.00    1.18407   1.22051   12.932
 5989.00    1.18432   1.22360   13.202
 5990.00    1.18761   1.22626   13.373
 5991.00    1.21677   1.22811   13.225
 5992.00    1.27259   1.22772   13.127
 5993.00    1.33420   1.22642   13.279
 5994.00    1.36521   1.22466   13.292
 5995.00    1.34454   1.22157   13.003
 5996.00    1.28563   1.21869   12.895
 5997.00    1.22758   1.21568   13.212
 5998.00    1.22014   1.21240   13.601
 5999.00    1.27479   1.21025   13.743
 6000.00    1.34739   1.20726   13.775
 6001.00    1.38841   1.20406   13.879
 6002.00    1.37360   1.20221   14.055
 6003.00    1.32183   1.19905   14.243
 6004.00    1.28766   1.19642   14.371
 6005.00    1.29777   1.19552   14.337
 6006.00    1.33266   1.19381   14.063
 6007.00    1.36231   1.19332   13.712
 6008.00    1.36524   1.19375   13.582
 6009.00    1.34364   1.19343   13.685
 6010.00    1.31756   1.19364   13.762
 6011.00    1.28999   1.19289   13.713
 6012.00    1.24554   1.19170   13.667
 6013.00    1.18002   1.19118   13.734
 6014.00    1.10748   1.18916   13.897
 6015.00    1.05472   1.18748   13.936
 6016.00    1.04536   1.18756   13.622
 6017.00    1.06629   1.18730   13.224
 6018.00    1.08313   1.18778   13.177
 6019.00    1.09201   1.19022   13.379
 6020.00    1.11413   1.19399   13.399
 6021.00    1.16085   1.19848   13.192
 6022.00    1.22352   1.20358   13.019
 6023.00    1.26956   1.21056   12.992
 6024.00    1.26417   1.21764   13.098
 6025.00    1.20794   1.22364   13.346
 6026.00    1.13532   1.23058   13.717
 6027.00    1.10049   1.23719   14.016
 6028.00    1.14320   1.24210   14.032
 6029.00    1.24528   1.24675   13.854
 6030.00    1.35488   1.25103   13.684
 6031.00    1.42735   1.25387   13.549
 6032.00    1.44771   1.25581   13.360
 6033.00    1.44771   1.25741   13.030
 6034.00    1.46194   1.25793   12.615
 6035.00    1.48043   1.25787   12.373
 6036.00    1.47691   1.25800   12.446
 6037.00    1.44250   1.25756   12.641
 6038.00    1.38905   1.25769   12.737
 6039.00    1.34563   1.25884   12.800
 6040.00    1.32527   1.25973   12.917
 6041.00    1.30254   1.26160   12.959
 6042.00    1.25758   1.26432   12.877
 6043.00    1.20777   1.26614   12.904
 6044.00    1.18035   1.26779   13.193
 6045.00    1.19001   1.26933   13.590
 6046.00    1.23027   1.26929   13.836
 6047.00    1.27351   1.26799   13.776
 6048.00    1.29945   1.26601   13.485
 6049.00    1.30927   1.26293   13.237
 6050.00    1.30985   1.25890   13.209
 6051.00    1.30528   1.25447   13.395
 6052.00    1.30007   1.25041   13.717
 6053.00    1.29933   1.24671   14.065
 6054.00    1.30224   1.24325   14.334
 6055.00    1.29951   1.24090   14.459
 6056.00    1.27543   1.23926   14.460
 6057.00    1.21640   1.23725   14.427
 6058.00    1.13804   1.23575   14.436
 6059.00    1.08450   1.23475   14.502
 6060.00    1.09155   1.23276   14.564
 6061.00    1.16780   1.23203   14.513
 6062.00    1.27821   1.23347   14.309
 6063.00    1.36160   1.23487   14.021
 6064.00    1.39311   1.23875   13.816
 6065.00    1.38853   1.24536   13.842
 6066.00    1.36861   1.25157   13.985
 6067.00    1.35069   1.25835   13.967
 6068.00    1.35157   1.26503   13.761
 6069.00    1.38059   1.26965   13.553
 6070.00    1.42374   1.27207   13.424
 6071.00    1.45145   1.27213   13.361
 6072.00    1.44080   1.27024   13.372
 6073.00    1.38670   1.26555   13.478
 6074.00    1.31275   1.25882   13.659
 6075.00    1.25051   1.25248   13.880
 6076.00    1.20337   1.24462   14.153
 6077.00    1.16041   1.23618   14.402
 6078.00    1.12550   1.23064   14.266
 6079.00    1.10701   1.22529   13.641
 6080.00    1.09832   1.22010   13.247
 6081.00    1.08894   1.21798   13.612
 6082.00    1.08109   1.21642   14.196
 6083.00    1.08131   1.21486   14.223
 6084.00    1.08863   1.21463   14.134
 6085.00    1.09714   1.21395   14.548
 6086.00    1.10037   1.21362   14.989
 6087.00    1.09448   1.21394   14.803
 6088.00    1.08098   1.21325   14.397
 6089.00    1.06789   1.21392   14.276
 6090.00    1.06892   1.21604   14.263
 6091.00    1.08916   1.21695   14.147
 6092.00    1.11604   1.21876   14.132
 6093.00    1.13893   1.22154   14.348
 6094.00    1.16168   1.22156   14.537
 6095.00    1.18393   1.22066   14.500
 6096.00    1.19062   1.22000   14.392
 6097.00    1.17024   1.21569   14.257
 6098.00    1.12713   1.21058   13.846
 6099.00    1.08231   1.20796   13.270
 6100.00    1.06887   1.20360   13.062
 6101.00    1.10720   1.20085   13.351
 6102.00    1.19200   1.20292   13.702
 6103.00    1.29295   1.20454   13.877
 6104.00    1.36374   1.20835   14.166
 6105.00    1.37761   1.21508   14.660
 6106.00    1.34079   1.21983   14.993
 6107.00    1.28272   1.22534   14.989
 6108.00    1.24284   1.23087   14.861
 6109.00    1.23911   1.23367   14.556
 6110.00    1.26523   1.23623   13.767
 6111.00    1.31921   1.23692   12.622
 6112.00    1.40374   1.23546   11.561
 6113.00    1.49881   1.23345   -1.000
 6114.00    1.56606   1.22795   -1.000
 6115.00    1.58351   1.22157   -1.000
 6116.00    1.55078   1.21586   -1.000
 6117.00    1.47774   1.20690   -1.000
 6118.00    1.38508   1.20004   12.006
 6119.00    1.31159   1.19664   12.607
 6120.00    1.29238   1.19157   12.703
 6121.00    1.31173   1.19035   12.578
 6122.00    1.32519   1.19317   12.904
 6123.00    1.31976   1.19452   13.543
 6124.00    1.30760   1.19787   13.826
 6125.00    1.29510   1.20295   13.812
 6126.00    1.28452   1.20551   14.024
 6127.00    1.28488   1.20705   14.418
 6128.00    1.30179   1.20770   14.639
 6129.00    1.32124   1.20470   14.735
 6130.00    1.32374   1.19941   14.852
 6131.00    1.30571   1.19269   14.626
 6132.00    1.27159   1.18320   13.713
 6133.00    1.22129   1.17478   12.456
 6134.00    1.15524   1.16909   11.386
 6135.00    1.08220   1.16464   10.828
 6136.00    1.02380   1.16425   10.881
 6137.00    1.01479   1.16846   11.437
 6138.00    1.06623   1.17577   12.259
 6139.00    1.13630   1.18477   12.967
 6140.00    1.18148   1.19405   13.299
 6141.00    1.20097   1.20368   13.475
 6142.00    1.21835   1.21140   13.659
 6143.00    1.26018   1.21605   13.509
 6144.00    1.32515   1.21904   13.067
 6145.00    1.37107   1.21983   13.115
 6146.00    1.37175   1.21830   13.946
 6147.00    1.34720   1.21587   14.697
 6148.00    1.31252   1.21311   14.613
 6149.00    1.25365   1.20901   14.305
 6150.00    1.17244   1.20437   14.299
 6151.00    1.10405   1.20038   14.373
 6152.00    1.07403   1.19418   14.293
 6153.00    1.07763   1.18561   14.140
 6154.00    1.08876   1.17691   14.081
 6155.00    1.07210   1.16548   14.225
 6156.00    1.01366   1.15071   14.499
 6157.00    0.92798   1.13650   14.677
 6158.00    0.83575   1.12295   -1.000
 6159.00    0.75455   1.11013   -1.000
 6160.00    0.69799   1.10077   -1.000
 6161.00    0.67599   1.09446   -1.000
 6162.00    0.69648   1.09243   -1.000
 6163.00    0.76296   1.09451   -1.000
 6164.00    0.86616   1.09664   11.821
 6165.00    0.98483   1.10118   11.642
 6166.00    1.09421   1.10899   11.849
 6167.00    1.17111   1.11480   12.664
 6168.00    1.20023   1.12011   13.866
 6169.00    1.17317   1.12826   14.684
 6170.00    1.08326   1.13604   15.035
 6171.00    0.93940   1.14230   -1.000
 6172.00    0.79452   1.14949   -2.000
 6173.00    0.71793   1.15741   -2.000
 6174.00    0.73418   1.16381   -2.000
 6175.00    0.82209   1.16863   -2.000
 6176.00    0.93383   1.17425   -2.000
 6177.00    1.02471   1.17899   -2.000
 6178.00    1.09253   1.18068   -2.000
 6179.00    1.15724   1.18233   -2.000
 6180.00    1.22337   1.18297   -2.000
 6181.00    1.27146   1.17981   -2.000
 6182.00    1.25770   1.17574   -2.000
 6183.00    1.16708   1.17033   -2.000
 6184.00    1.07044   1.16264   10.692
 6185.00    1.05113   1.15554   11.018
 6186.00    1.12019   1.14743   12.089
 6187.00    1.23648   1.14075   13.345
 6188.00    1.33925   1.13853   14.389
 6189.00    1.38545   1.13605   -1.000
 6190.00    1.37844   1.13641   -1.000
 6191.00    1.34274   1.14158   -1.000
 6192.00    1.29975   1.14619   15.436
 6193.00    1.25974   1.15157   15.286
 6194.00    1.21908   1.15739   15.013
 6195.00    1.17483   1.16176   14.622
 6196.00    1.13449   1.16629   14.229
 6197.00    1.11068   1.16957   13.950
 6198.00    1.11588   1.17198   13.841
 6199.00    1.15478   1.17536   13.889
 6200.00    1.21922   1.17844   13.999
 6201.00    1.28556   1.18126   13.989
 6202.00    1.32061   1.18373   13.632
 6203.00    1.31571   1.18495   12.914
 6204.00    1.29540   1.18521   12.067
 6205.00    1.28120   1.18298   11.380
 6206.00    1.27462   1.17825   11.086
 6207.00    1.25723   1.17234   11.281
 6208.00    1.20319   1.16333   11.972
 6209.00    1.12309   1.15278   13.054
 6210.00    1.06154   1.14301   14.218
 6211.00    1.03386   1.13194   15.179
 6212.00    1.01893   1.12232   15.882
 6213.00    1.00470   1.11563   16.248
 6214.00    0.99668   1.10937   16.152
 6215.00    1.00081   1.10618   15.774
 6216.00    1.01754   1.10578   15.488
 6217.00    1.03992   1.10577   15.463
 6218.00    1.05550   1.10766   15.653
 6219.00    1.05189   1.11009   15.853
 6220.00    1.02354   1.11264   15.775
 6221.00    0.98260   1.11546   15.284
 6222.00    0.95339   1.11601   14.529
 6223.00    0.95667   1.11612   13.941
 6224.00    0.99966   1.11571   13.829
 6225.00    1.06465   1.11218   13.986
 6226.00    1.11792   1.10919   14.038
 6227.00    1.12836   1.10759   14.102
 6228.00    1.08460   1.10459   14.401
 6229.00    1.01451   1.10428   14.497
 6230.00    0.96454   1.10727   13.852
 6231.00    0.96640   1.10959   12.854
 6232.00    1.01861   1.11323   12.193
 6233.00    1.07322   1.11742   12.288
 6234.00    1.08894   1.11918   13.084
 6235.00    1.09008   1.11861   13.365
 6236.00    1.11950   1.11710   12.020
 6237.00    1.18274   1.11396   10.141
 6238.00    1.25355   1.10772    8.803
 6239.00    1.28900   1.10361    8.197
 6240.00    1.27210   1.10123    8.264
 6241.00    1.24151   1.09688    8.916
 6242.00    1.23330   1.09675   10.133
 6243.00    1.23600   1.09935   11.973
 6244.00    1.22552   1.09971   14.281
 6245.00    1.19343   1.10215   16.080
 6246.00    1.14567   1.10471   16.454
 6247.00    1.09907   1.10328   16.229
 6248.00    1.07321   1.10120   16.194
 6249.00    1.08264   1.09773   15.999
 6250.00    1.12183   1.09117   15.421
 6251.00    1.16327   1.08457   14.883
 6252.00    1.19105   1.07873   14.650
 6253.00    1.21218   1.07339   14.620
 6254.00    1.22607   1.07023   14.659
 6255.00    1.21644   1.07057   14.709
 6256.00    1.18061   1.07263   14.709
 6257.00    1.13687   1.07749   14.594
 6258.00    1.10240   1.08647   14.426
 6259.00    1.08451   1.09483   14.342
 6260.00    1.08206   1.10296   14.232
 6261.00    1.08756   1.11273   13.851
 6262.00    1.09172   1.12053   13.454
 6263.00    1.08810   1.12556   13.587
 6264.00    1.08165   1.13037   14.290
 6265.00    1.08241   1.13478   15.063
 6266.00    1.08209   1.13738   15.509
 6267.00    1.06153   1.13943   15.651
 6268.00    1.02472   1.14202   15.756
 6269.00    0.99569   1.14387   16.063
 6270.00    0.99184   1.14558   16.378
 6271.00    1.01675   1.14757   16.303
 6272.00    1.05892   1.14803   16.063
 6273.00    1.10050   1.14826   16.139
 6274.00    1.13409   1.14867   16.374
 6275.00    1.16060   1.14730   16.279
 6276.00    1.17991   1.14658   15.908
 6277.00    1.19118   1.14671   15.627
 6278.00    1.19585   1.14603   15.539
 6279.00    1.19926   1.14752   15.530
 6280.00    1.21169   1.15009    0.000
 6281.00    1.23954   1.15301    0.000
 6282.00    1.27429   1.15791    0.000
 6283.00    1.30656   1.16175    0.000
 6284.00    1.34325   1.16553    0.000
 6285.00    1.38810   1.16917    0.000
 6286.00    1.41989   1.17037    0.000
 6287.00    1.41456   1.17089    0.000
 6288.00    1.36966   1.16921    0.000
 6289.00    1.29971   1.16567    0.000
 6290.00    1.22802   1.16209    0.000
 6291.00    1.17285   1.15640    0.000
 6292.00    1.13714   1.15071    0.000
 6293.00    1.11750   1.14599    0.000
 6294.00    1.11237   1.14023    0.000
 6295.00    1.12602   1.13541    0.000
 6296.00    1.16813   1.13207    0.000
 6297.00    1.23533   1.12986    0.000
 6298.00    1.30171   1.12947    0.000
 6299.00    1.33573   1.12993    0.000
 6300.00    1.31503   1.13162    0.000
 6301.00    1.24823   1.13553    0.000
 6302.00    1.17871   1.14065    0.000
 6303.00    1.14482   1.14526    0.000
 6304.00    1.15790   1.14938    0.000
 6305.00    1.19666   1.15359    0.000
 6306.00    1.21675   1.15599    0.000
 6307.00    1.19916   1.15598    0.000
 6308.00    1.16429   1.15444    0.000
 6309.00    1.14693   1.15097    0.000
 6310.00    1.17494   1.14572    0.000
 6311.00    1.23181   1.14103    0.000
 6312.00    1.26484   1.13600    0.000
 6313.00    1.25111   1.12960    0.000
 6314.00    1.20995   1.12667    0.000
 6315.00    1.17575   1.12605    0.000
 6316.00    1.17683   1.12476    0.000
 6317.00    1.20287   1.12685    0.000
 6318.00    1.21713   1.13193    0.000
 6319.00    1.20585   1.13754    0.000
 6320.00    1.18006   1.14350    0.000
 6321.00    1.15258   1.15027   16.053
 6322.00    1.13307   1.15724   15.830
 6323.00    1.12854   1.16284   15.479
 6324.00    1.13927   1.16798   15.097
 6325.00    1.15188   1.17083   14.866
 6326.00    1.15341   1.17252   14.882
 6327.00    1.15585   1.17417   14.906
 6328.00    1.17662   1.17239   14.675
 6329.00    1.20361   1.16972   14.414
 6330.00    1.21093   1.16677   14.449
 6331.00    1.18850   1.16235   14.676
 6332.00    1.14337   1.15840   14.829
 6333.00    1.09524   1.15368   14.906
 6334.00    1.06327   1.14917   14.941
 6335.00    1.05159   1.14780   14.684
 6336.00    1.05234   1.14719   14.049
 6337.00    1.05211   1.14593   13.467
 6338.00    1.04802   1.14683   13.236
 6339.00    1.06032   1.14839   13.165
 6340.00    1.10731   1.14960   13.067
 6341.00    1.18229   1.15148   13.105
 6342.00    1.26103   1.15285   13.324
 6343.00    1.31273   1.15582   13.305
 6344.00    1.32410   1.15951   12.964
 6345.00    1.31301   1.16165   12.993
 6346.00    1.29807   1.16438   13.757
 6347.00    1.27934   1.16646   14.675
 6348.00    1.25595   1.16628   15.020
 6349.00    1.23694   1.16483   14.934
 6350.00    1.23404   1.16146   14.864
 6351.00    1.25523   1.15624   15.007
 6352.00    1.29497   1.14917   15.235
 6353.00    1.33185   1.14017   -1.000
 6354.00    1.34169   1.13169   -1.000
 6355.00    1.30824   1.12368   15.141
 6356.00    1.24057   1.11465   15.834
 6357.00    1.17193   1.10729   16.183
 6358.00    1.12473   1.10344   15.910
 6359.00    1.09865   1.10141   15.739
 6360.00    1.08074   1.10158   15.968
 6361.00    1.05625   1.10536   16.249
 6362.00    1.03070   1.11194   16.395
 6363.00    1.02899   1.12067   16.549
 6364.00    1.07020   1.13048   16.714
 6365.00    1.15518   1.14065   16.693
 6366.00    1.25563   1.15167   16.428
 6367.00    1.32853   1.16166   15.940
 6368.00    1.35942   1.16965   14.975
 6369.00    1.35697   1.17672   13.490
 6370.00    1.31483   1.18258   12.238
 6371.00    1.22294   1.18659   11.806
 6372.00    1.10955   1.18870   11.988
 6373.00    1.02330   1.18903   12.252
 6374.00    0.98151   1.18866   12.455
 6375.00    0.97491   1.18791   12.784
 6376.00    0.99439   1.18564   13.282
 6377.00    1.03725   1.18359   13.777
 6378.00    1.10851   1.18268   13.964
 6379.00    1.19788   1.18139   13.763
 6380.00    1.24909   1.18127   13.736
 6381.00    1.21468   1.18204   14.410
 6382.00    1.13281   1.18206   15.385
 6383.00    1.07361   1.18233   15.782
 6384.00    1.06053   1.18297   15.647
 6385.00    1.07837   1.18264   15.563
 6386.00    1.09561   1.18082   15.666
 6387.00    1.09210   1.17840   15.869
 6388.00    1.08301   1.17537   16.156
 6389.00    1.09015   1.17185   16.421
 6390.00    1.11301   1.16819   16.321
 6391.00    1.13566   1.16393   15.979
 6392.00    1.13714   1.16120   16.281
 6393.00    1.10872   1.16044   16.889
 6394.00    1.06558   1.15962   15.254
 6395.00    1.03389   1.15894   13.332
 6396.00    1.03773   1.16011   16.793
 6397.00    1.07979   1.16140   22.990
 6398.00    1.13379   1.16104   12.174
 6399.00    1.17530   1.16430    7.025
 6400.00    1.20110   1.16854   22.990
 6401.00    1.22752   1.16974   -2.000
 6402.00    1.28060   1.17190    3.918
 6403.00    1.35363   1.17292    1.522
 6404.00    1.39824   1.17276   -2.000
 6405.00    1.38471   1.17234   -2.000
 6406.00    1.32509   1.16951    0.526
 6407.00    1.24709   1.16852    0.231
 6408.00    1.17800   1.16858   -2.000
 6409.00    1.12943   1.16598   -2.000
 6410.00    1.09738   1.16493    0.059
 6411.00    1.08338   1.16578    0.033
 6412.00    1.09775   1.16533   -2.000
 6413.00    1.14520   1.16507   -2.000
 6414.00    1.21652   1.16524    0.007
 6415.00    1.27918   1.16474    0.005
 6416.00    1.29517   1.16485   -2.000
 6417.00    1.27443   1.16520   -2.000
 6418.00    1.26189   1.16574    0.001
 6419.00    1.26988   1.16749    0.001
 6420.00    1.28169   1.17062   -2.000
 6421.00    1.29723   1.17493   -2.000
 6422.00    1.32627   1.17828    0.000
 6423.00    1.35348   1.18026    0.000
 6424.00    1.35284   1.18202   -2.000
 6425.00    1.32760   1.18275   -2.000
 6426.00    1.29954   1.18187    0.000
 6427.00    1.27760   1.18036    0.000
 6428.00    1.25592   1.17760   -2.000
 6429.00    1.22059   1.17482   -2.000
 6430.00    1.17269   1.17463    0.000
 6431.00    1.15598   1.17443    0.000
 6432.00    1.20183   1.17412   -2.000
 6433.00    1.25645   1.17522   -2.000
 6434.00    1.24834   1.17643    0.000
 6435.00    1.17866   1.17886    0.000
 6436.00    1.09365   1.18106   -2.000
 6437.00    1.04014   1.18258    0.000
 6438.00    1.03874   1.18688    0.000
 6439.00    1.06554   1.19116   -2.000
 6440.00    1.09384   1.19332   -2.000
 6441.00    1.13070   1.19501    0.000
 6442.00    1.18117   1.19422    0.000
 6443.00    1.22013   1.19143   -2.000
 6444.00    1.23368   1.18745   -2.000
 6445.00    1.24733   1.18109    0.000
 6446.00    1.28207   1.17491    0.000
 6447.00    1.32450   1.16820   -2.000
 6448.00    1.34746   1.16201   -2.000
 6449.00    1.32886   1.16106    0.000
 6450.00    1.27482   1.16181    0.000
 6451.00    1.22470   1.16374    0.000
 6452.00    1.20571   1.16798    0.000
 6453.00    1.21081   1.17171    0.000
 6454.00    1.21513   1.17599    0.000
 6455.00    1.19248   1.17996    0.000
 6456.00    1.14854   1.18235    0.000
 6457.00    1.12323   1.18367    0.000
 6458.00    1.13845   1.18377    0.000
 6459.00    1.18305   1.18348    0.000
 6460.00    1.24010   1.18171    0.000
 6461.00    1.29514   1.18041   -2.000
 6462.00    1.32715   1.18196   -2.000
 6463.00    1.31480   1.18330    0.000
 6464.00    1.26518   1.18439    0.000
 6465.00    1.21246   1.18635   -2.000
 6466.00    1.18749   1.18843   -2.000
 6467.00    1.20558   1.18964    0.000
 6468.00    1.25895   1.19053    0.000
 6469.00    1.32045   1.19074   -2.000
 6470.00    1.35753   1.19061   -2.000
 6471.00    1.34487   1.19125    0.000
 6472.00    1.28400   1.19063    0.000
 6473.00    1.20239   1.18900   -2.000
 6474.00    1.14228   1.18765   -2.000
 6475.00    1.13613   1.18603    0.000
 6476.00    1.16810   1.18325    0.000
 6477.00    1.19881   1.18003   -2.000
 6478.00    1.21734   1.17729   -2.000
 6479.00    1.23109   1.17409    0.000
 6480.00    1.23749   1.17081    0.000
 6481.00    1.22976   1.16888   -2.000
 6482.00    1.21073   1.16773   -2.000
 6483.00    1.19008   1.16613    0.000
 6484.00    1.17803   1.16347    0.000
 6485.00    1.17939   1.15944   -2.000
 6486.00    1.18801   1.15361   -2.000
 6487.00    1.19141   1.14454    0.000
 6488.00    1.17789   1.13285   -2.000
 6489.00    1.15145   1.11953   -2.000
 6490.00    1.14194   1.10579    0.003
 6491.00    1.16737   1.09274    0.001
 6492.00    1.20305   1.07956   -2.000
 6493.00    1.21644   1.07099   -2.000
 6494.00    1.19841   1.06810    0.011
 6495.00    1.16430   1.06867    0.004
 6496.00    1.14819   1.07460   -2.000
 6497.00    1.16818   1.08298   -2.000
 6498.00    1.20713   1.09455    0.059
 6499.00    1.24255   1.10881    0.037
 6500.00    1.26417   1.12175   -2.000
 6501.00    1.26010   1.13438   -2.000
 6502.00    1.21469   1.14559    0.346
 6503.00    1.14240   1.15484    0.311
 6504.00    1.09269   1.16268   -2.000
 6505.00    1.08697   1.16800   -2.000
 6506.00    1.09891   1.17142    2.000
 6507.00    1.10486   1.17375    2.346
 6508.00    1.10383   1.17504   -2.000
 6509.00    1.10483   1.17541   -2.000
 6510.00    1.11832   1.17461    7.998
 6511.00    1.14549   1.17312    9.842
 6512.00    1.17801   1.17160   22.990
 6513.00    1.21043   1.16988   21.131
 6514.00    1.24260   1.16822   14.110
 6515.00    1.27391   1.16763   14.842
 6516.00    1.30084   1.16723   16.509
 6517.00    1.31503   1.16761   15.845
 6518.00    1.30830   1.16986   15.233
 6519.00    1.28603   1.17169   15.671
 6520.00    1.26289   1.17334   16.281
 6521.00    1.24503   1.17505   16.308
 6522.00    1.22816   1.17616   15.770
 6523.00    1.20266   1.17730   15.313
 6524.00    1.16245   1.17715   15.498
 6525.00    1.11918   1.17591   16.007
 6526.00    1.09065   1.17555   16.121
 6527.00    1.07619   1.17534   16.068
 6528.00    1.06423   1.17526    0.000
 6529.00    1.05165   1.17551    0.000
 6530.00    1.04458   1.17558    0.000
 6531.00    1.05439   1.17665    0.000
 6532.00    1.08571   1.17872    0.000
 6533.00    1.12211   1.18098    0.000
 6534.00    1.14190   1.18283    0.000
 6535.00    1.14002   1.18370    0.000
 6536.00    1.12935   1.18400    0.000
 6537.00    1.13744   1.18394    0.000
 6538.00    1.18400   1.18246    0.000
 6539.00    1.25883   1.17869    0.000
 6540.00    1.33086   1.17431    0.000
 6541.00    1.36248   1.16946    0.000
 6542.00    1.34285   1.16422    0.000
 6543.00    1.31025   1.15915    0.000
 6544.00    1.30280   1.15310    0.000
 6545.00    1.31960   1.14852    0.000
 6546.00    1.33724   1.14502    0.000
 6547.00    1.32753   1.14059    0.000
 6548.00    1.28073   1.13612    0.000
 6549.00    1.21754   1.13063    0.000
 6550.00    1.17023   1.12471    0.000
 6551.00    1.16533   1.11804    0.000
 6552.00    1.19600   1.10917    0.000
 6553.00    1.21803   1.09892    0.000
 6554.00    1.20676   1.08756    0.000
 6555.00    1.17744   1.07380    0.000
 6556.00    1.14209   1.05873    0.000
 6557.00    1.09341   1.04551    0.000
 6558.00    1.02623   1.03319    0.000
 6559.00    0.94905   1.02315    0.000
 6560.00    0.89081   1.01580    0.000
 6561.00    0.88937   1.01222    0.000
 6562.00    0.94363   1.01806    0.000
 6563.00    1.01156   1.02826    0.000
 6564.00    1.05939   1.03933    0.000
 6565.00    1.07454   1.05280    0.000
 6566.00    1.05478   1.06578    0.000
 6567.00    1.00676   1.07767    0.000
 6568.00    0.95063   1.08807    0.000
 6569.00    0.91424   1.09643    0.000
 6570.00    0.91579   1.10278    0.000
 6571.00    0.95782   1.10774    0.000
 6572.00    1.02389   1.11245    0.000
 6573.00    1.08917   1.11676    0.000
 6574.00    1.14311   1.12175    0.000
 6575.00    1.18747   1.12715    0.000
 6576.00    1.22387   1.13178    0.000
 6577.00    1.24917   1.13622    0.000
 6578.00    1.25257   1.14007    0.000
 6579.00    1.22916   1.14283    0.000
 6580.00    1.20050   1.14603    0.000
 6581.00    1.19150   1.14877    0.000
 6582.00    1.19426   1.15011    0.000
 6583.00    1.18779   1.15125    0.000
 6584.00    1.16967   1.15095    0.000
 6585.00    1.14526   1.14956    0.000
 6586.00    1.11107   1.14720    0.000
 6587.00    1.06935   1.14352    0.000
 6588.00    1.04394   1.13981    0.000
 6589.00    1.05630   1.13535    0.000
 6590.00    1.10004   1.13056    0.000
 6591.00    1.14606   1.12645    0.000
 6592.00    1.15377   1.12465    0.000
 6593.00    1.10989   1.12572    0.000
 6594.00    1.05415   1.12736    0.000
 6595.00    1.02784   1.12986    0.000
 6596.00    1.03474   1.13319    0.000
 6597.00    1.06093   1.13670    0.000
 6598.00    1.09312   1.14046    0.000
 6599.00    1.13305   1.14294    0.000
 6600.00    1.19928   1.14360    0.000
 6601.00    1.28563   1.14304    0.000
 6602.00    1.34692   1.14111    0.000
 6603.00    1.35739   1.13903    0.000
 6604.00    1.33457   1.13737    0.000
 6605.00    1.29666   1.13561    0.000
 6606.00    1.24540   1.13462    0.000
 6607.00    1.18832   1.13458    0.000
 6608.00    1.14513   1.13691    0.000
 6609.00    1.13078   1.14088   15.300
 6610.00    1.14857   1.14459   15.307
 6611.00    1.19197   1.14864   15.530
 6612.00    1.24740   1.15259   15.640
 6613.00    1.30100   1.15689   15.620
 6614.00    1.34309   1.16041   15.779
 6615.00    1.37443   1.16196   -1.000
 6616.00    1.40158   1.16258   -1.000
 6617.00    1.41890   1.16205   -1.000
 6618.00    1.41158   1.16045   -1.000
 6619.00    1.37676   1.15840   -1.000
 6620.00    1.32493   1.15502   16.711
 6621.00    1.26977   1.15094   16.504
 6622.00    1.22459   1.14685   16.629
 6623.00    1.20018   1.14245   16.862
 6624.00    1.19891   1.13919   16.570
 6625.00    1.20466   1.13570   16.157
 6626.00    1.18903   1.13165   16.346
 6627.00    1.12716   1.12830   16.727
 6628.00    1.02020   1.12531   16.452
 6629.00    0.92502   1.12312   -1.000
 6630.00    0.90876   1.12135   -1.000
 6631.00    0.97411   1.11983   16.502
 6632.00    1.07391   1.11930   16.309
 6633.00    1.14876   1.12018   15.946
 6634.00    1.15698   1.12204   16.096
 6635.00    1.10457   1.12378   16.561
 6636.00    1.02532   1.12502   16.824
 6637.00    0.95286   1.12628   16.894
 6638.00    0.91228   1.12757   -1.000
 6639.00    0.91414   1.12874   -1.000
 6640.00    0.94873   1.12923   16.808
 6641.00    0.98427   1.12876   16.833
 6642.00    0.99761   1.12891   17.143
 6643.00    0.99927   1.12984   17.105
 6644.00    1.01083   1.13047   16.493
 6645.00    1.04425   1.13099   16.210
 6646.00    1.09889   1.13151   16.663
 6647.00    1.16111   1.13225   16.975
 6648.00    1.20938   1.13315   16.529
 6649.00    1.22175   1.13327   16.086
 6650.00    1.20051   1.13295   16.140
 6651.00    1.17946   1.13263   16.255
 6652.00    1.17748   1.13175   16.031
 6653.00    1.17853   1.13049   15.638
 6654.00    1.17034   1.12848   15.391
 6655.00    1.16132   1.12577   15.489
 6656.00    1.15999   1.12263   15.859
 6657.00    1.16471   1.11916   16.160
 6658.00    1.16415   1.11563   16.334
 6659.00    1.14445   1.11183   16.734
 6660.00    1.11480   1.10874   17.300
 6661.00    1.10363   1.10613   17.404
 6662.00    1.10833   1.10499   17.042
 6663.00    1.09576   1.10576   16.911
 6664.00    1.06488   1.10695   17.098
 6665.00    1.04963   1.10920   17.072
 6666.00    1.06354   1.11216   16.804
 6667.00    1.08998   1.11541   16.742
 6668.00    1.10336   1.11867   16.822
 6669.00    1.08524   1.12050   16.619
 6670.00    1.04839   1.12082   16.340
 6671.00    1.02786   1.11983   16.509
 6672.00    1.04669   1.11824   16.855
 6673.00    1.10458   1.11597   16.647
 6674.00    1.17238   1.11262   16.120
 6675.00    1.21037   1.10952   15.989
 6676.00    1.20510   1.10689   16.213
 6677.00    1.16926   1.10643   16.333
 6678.00    1.12822   1.10768   16.328
 6679.00    1.10226   1.10884   16.461
 6680.00    1.08327   1.11122   16.745
 6681.00    1.05292   1.11406   16.992
 6682.00    1.01404   1.11736   17.042
 6683.00    0.98166   1.12061   16.926
 6684.00    0.96496   1.12261   16.978
 6685.00    0.96800   1.12413   17.355
 6686.00    0.99349   1.12477   17.472
 6687.00    1.04125   1.12484   16.889
 6688.00    1.10581   1.12417   16.346
 6689.00    1.17545   1.12233   16.325
 6690.00    1.23316   1.12033   16.017
 6691.00    1.27511   1.11790   14.704
 6692.00    1.32392   1.11532   12.964
 6693.00    1.39076   1.11317   -1.000
 6694.00    1.44692   1.11075   -1.000
 6695.00    1.47141   1.10933   -1.000
 6696.00    1.48543   1.10880    0.000
 6697.00    1.51258   1.10838    0.000
 6698.00    1.54809   1.10890    0.000
 6699.00    1.56042   1.10915    0.000
 6700.00    1.50405   1.10936    0.000
 6701.00    1.38261   1.10962    0.000
 6702.00    1.27025   1.10946    0.000
 6703.00    1.21637   1.10917    0.000
 6704.00    1.20160   1.10854    0.000
 6705.00    1.19148   1.10727    0.000
 6706.00    1.16653   1.10503    0.000
 6707.00    1.12708   1.10254    0.000
 6708.00    1.08867   1.09908    0.000
 6709.00    1.05558   1.09515    0.000
 6710.00    1.01642   1.09122    0.000
 6711.00    0.97108   1.08661    0.000
 6712.00    0.93442   1.08301    0.000
 6713.00    0.91190   1.07980    0.000
 6714.00    0.89987   1.07766    0.000
 6715.00    0.91398   1.07730    0.000
 6716.00    0.98187   1.07807    0.000
 6717.00    1.09586   1.08079    0.000
 6718.00    1.21390   1.08381    0.000
 6719.00    1.30005   1.08712    0.000
 6720.00    1.33849   1.09086    0.000
 6721.00    1.33963   1.09457    0.000
 6722.00    1.32314   1.09814    0.000
 6723.00    1.27908   1.10087    0.000
 6724.00    1.19862   1.10280    0.000
 6725.00    1.15093   1.10466    0.000
 6726.00    1.22529   1.10633    0.000
 6727.00    1.39737   1.10752    0.000
 6728.00    1.55683   1.10828    0.000
 6729.00    1.59873   1.10836    0.000
 6730.00    1.47296   1.10806    0.000
 6731.00    1.23395   1.10718    0.000
 6732.00    1.00884   1.10599    0.000
 6733.00    0.93523   1.10434    0.000
 6734.00    1.06169   1.10235    0.000
 6735.00    1.24235   1.09995    0.000
 6736.00    1.30538   1.09725    0.000
 6737.00    1.26095   1.09512    0.000
 6738.00    1.19910   1.09318    0.000
 6739.00    1.15324   1.09141    0.000
 6740.00    1.11167   1.08970    0.000
 6741.00    1.04684   1.08782    0.000
 6742.00    0.95283   1.08668    0.000
 6743.00    0.87208   1.08575    0.000
 6744.00    0.84904   1.08462    0.000
 6745.00    0.89066   1.08396    0.000
 6746.00    0.97841   1.08301    0.000
 6747.00    1.08038   1.08335    0.000
 6748.00    1.15370   1.08407    0.000
 6749.00    1.15400   1.08526    0.000
 6750.00    1.08807   1.08789    0.000
 6751.00    1.03235   1.09035    0.000
 6752.00    1.04162   1.09434    0.000
 6753.00    1.10145   1.09852    9.207
 6754.00    1.16992   1.10263    8.809
 6755.00    1.20719   1.10694    9.317
 6756.00    1.20122   1.11023   10.958
 6757.00    1.17191   1.11289   12.786
 6758.00    1.13512   1.11440   13.454
 6759.00    1.09082   1.11469   13.571
 6760.00    1.04255   1.11391   13.970
 6761.00    1.00658   1.11231   14.465
 6762.00    1.01414   1.11002   14.453
 6763.00    1.09359   1.10721   13.573
 6764.00    1.20972   1.10442   12.453
 6765.00    1.27885   1.10221   11.933
 6766.00    1.27844   1.10093   12.041
 6767.00    1.25353   1.10092   12.336
 6768.00    1.23645   1.10167   12.709
 6769.00    1.23225   1.10326   13.420
 6770.00    1.24217   1.10597   14.361
 6771.00    1.26061   1.10929   14.926
 6772.00    1.25457   1.11291   14.892
 6773.00    1.19351   1.11560   14.500
 6774.00    1.12133   1.11732   13.651
 6775.00    1.11039   1.11799   12.346
 6776.00    1.14341   1.11730   11.311
 6777.00    1.15201   1.11555   11.090
 6778.00    1.12664   1.11225   11.526
 6779.00    1.09948   1.10817   12.204
 6780.00    1.08404   1.10362   13.076
 6781.00    1.07893   1.09940   14.313
 6782.00    1.08834   1.09602   15.551
 6783.00    1.11705   1.09374   15.785
 6784.00    1.15954   1.09264   14.445
 6785.00    1.20117   1.09224   12.366
 6786.00    1.22238   1.09283   10.824
 6787.00    1.21056   1.09360   10.185
 6788.00    1.17275   1.09479   10.136
 6789.00    1.13089   1.09592   10.400
 6790.00    1.11262   1.09681   11.085
 6791.00    1.12249   1.09757   12.374
 6792.00    1.12081   1.09794   13.964
 6793.00    1.08118   1.09883   15.133
 6794.00    1.03686   1.09963   15.601
 6795.00    1.02407   1.10068   15.632
 6796.00    1.03582   1.10188   15.545
 6797.00    1.04723   1.10280   15.532
 6798.00    1.03962   1.10409   15.616
 6799.00    1.01730   1.10501   15.618
 6800.00    1.01081   1.10547   15.197
 6801.00    1.03112   1.10581   14.306
 6802.00    1.04982   1.10557   13.304
 6803.00    1.05260   1.10525   12.543
 6804.00    1.06245   1.10505   12.229
 6805.00    1.09626   1.10423   12.429
 6806.00    1.14441   1.10361   13.092
 6807.00    1.18613   1.10322   13.973
 6808.00    1.20272   1.10276   14.478
 6809.00    1.19941   1.10291   13.965
 6810.00    1.20568   1.10290   12.458
 6811.00    1.23943   1.10297   10.862
 6812.00    1.29490   1.10370    9.915
 6813.00    1.35212   1.10433    9.627
 6814.00    1.38055   1.10570    9.755
 6815.00    1.33942   1.10732   10.283
 6816.00    1.20684   1.10852   11.439
 6817.00    1.06287   1.10998   13.155
 6818.00    1.03445   1.11124   14.607
 6819.00    1.08184   1.11269   15.232
 6820.00    1.05215   1.11412   15.513
 6821.00    0.95705   1.11487   15.687
 6822.00    0.93796   1.11516   15.546
 6823.00    1.02728   1.11502   15.269
 6824.00    1.15152   1.11451   15.238
 6825.00    1.25422   1.11414   15.343
 6826.00    1.31228   1.11355   -1.000
 6827.00    1.31688   1.11302   -1.000
 6828.00    1.27586   1.11260   14.941
 6829.00    1.22359   1.11196   14.868
 6830.00    1.20253   1.11099   14.452
 6831.00    1.23102   1.10947   13.826
 6832.00    1.29289   1.10739   13.311
 6833.00    1.33289   1.10484   -1.000
 6834.00    1.30448   1.10156   12.963
 6835.00    1.23097   1.09746   13.238
 6836.00    1.16128   1.09350   13.804
 6837.00    1.10737   1.08968   14.189
 6838.00    1.05872   1.08692   13.900
 6839.00    1.00799   1.08534   13.161
 6840.00    0.96525   1.08501   12.417
 6841.00    0.96536   1.08637   11.825
 6842.00    1.02221   1.08858   11.468
 6843.00    1.09129   1.09145   11.518
 6844.00    1.12759   1.09445   12.104
 6845.00    1.13509   1.09693   13.194
 6846.00    1.13841   1.09877   14.521
 6847.00    1.15625   1.09976   15.456
 6848.00    1.19350   1.09952   15.560
 6849.00    1.23826   1.09821   15.265
 6850.00    1.27105   1.09595   15.105
 6851.00    1.27226   1.09286   15.199
 6852.00    1.22804   1.08960   15.472
 6853.00    1.13720   1.08625   15.773
 6854.00    1.02992   1.08371   15.874
 6855.00    0.96400   1.08217   15.578
 6856.00    0.95614   1.08077   15.105
 6857.00    0.96362   1.08000   14.982
 6858.00    0.96231   1.07956   15.230
 6859.00    0.97236   1.07990   15.279
 6860.00    1.01094   1.08119   15.014
 6861.00    1.07211   1.08238   14.966
 6862.00    1.13051   1.08335   15.209
 6863.00    1.15620   1.08348   15.229
 6864.00    1.15886   1.08307   14.855
 6865.00    1.18058   1.08294   14.451
 6866.00    1.22451   1.08306   14.300
 6867.00    1.24903   1.08318   14.475
 6868.00    1.21867   1.08330   14.856
 6869.00    1.11947   1.08352   15.183
 6870.00    0.95868   1.08406   15.320
 6871.00    0.77029   1.08500   -1.000
 6872.00    0.62760   1.08647   -1.000
 6873.00    0.60948   1.08823   -1.000
 6874.00    0.72080   1.08958   -1.000
 6875.00    0.89228   1.09072   13.212
 6876.00    1.01869   1.09187   13.337
 6877.00    1.02214   1.09257   14.132
 6878.00    0.94952   1.09310   15.341
 6879.00    0.91105   1.09361   16.304
 6880.00    0.94737   1.09474   16.666
 6881.00    1.03099   1.09645   16.624
 6882.00    1.10548   1.09850   16.510
 6883.00    1.12436   1.10122   16.536
 6884.00    1.09543   1.10410   16.665
 6885.00    1.05572   1.10732   16.756
 6886.00    1.03130   1.11063   16.794
 6887.00    1.03689   1.11383   16.810
 6888.00    1.08043   1.11642   16.767
 6889.00    1.15091   1.11815   16.609
 6890.00    1.20809   1.11948   16.344
 6891.00    1.22154   1.12008   16.010
 6892.00    1.20689   1.12044   15.652
 6893.00    1.19098   1.12058   15.364
 6894.00    1.17913   1.12075   15.300
 6895.00    1.17517   1.12092   15.520
 6896.00    1.19702   1.12103   15.862
 6897.00    1.24981   1.12166   16.077
 6898.00    1.30760   1.12261   15.999
 6899.00    1.33865   1.12346   -1.000
 6900.00    1.32531   1.12475   -1.000
 6901.00    1.27248   1.12590   15.999
 6902.00    1.20787   1.12673   15.941
 6903.00    1.15653   1.12743   15.450
 6904.00    1.12591   1.12762   15.216
 6905.00    1.10824   1.12770   15.399
 6906.00    1.08763   1.12696   15.278
 6907.00    1.06633   1.12557   14.518
 6908.00    1.06962   1.12367   13.611
 6909.00    1.11053   1.12162   12.899
 6910.00    1.17484   1.11933   12.403
 6911.00    1.22682   1.11745   12.160
 6912.00    1.22660   1.11598   12.262
 6913.00    1.18299   1.11477   12.666
 6914.00    1.15078   1.11456   13.158
 6915.00    1.15594   1.11411   13.584
 6916.00    1.18273   1.11437   13.954
 6917.00    1.21400   1.11444   14.330
 6918.00    1.23832   1.11439   14.745
 6919.00    1.23341   1.11422   15.100
 6920.00    1.17272   1.11284   15.236
 6921.00    1.05414   1.11160   15.262
 6922.00    0.90778   1.11012   -1.000
 6923.00    0.79517   1.10910   -1.000
 6924.00    0.77676   1.10838   -1.000
 6925.00    0.84496   1.10805   -1.000
 6926.00    0.93976   1.10829   14.778
 6927.00    1.00808   1.10848   14.465
 6928.00    1.02719   1.10918   14.586
 6929.00    1.02325   1.10996   14.831
 6930.00    1.03456   1.11133   14.693
 6931.00    1.04841   1.11285   14.252
 6932.00    1.02934   1.11413   13.932
 6933.00    0.97614   1.11550   13.962
 6934.00    0.91777   1.11641   14.305
 6935.00    0.89449   1.11718   -1.000
 6936.00    0.93114   1.11743   14.376
 6937.00    1.00904   1.11750   14.231
 6938.00    1.09092   1.11714   14.580
 6939.00    1.15359   1.11593   15.095
 6940.00    1.18908   1.11430   15.184
 6941.00    1.20125   1.11235   14.870
 6942.00    1.19606   1.11083   14.545
 6943.00    1.17368   1.10978   14.512
 6944.00    1.13902   1.10891   14.791
 6945.00    1.11041   1.10849   14.988
 6946.00    1.10810   1.10812   14.798
 6947.00    1.14240   1.10776   14.444
 6948.00    1.19845   1.10782   14.176
 6949.00    1.23223   1.10812   13.964
 6950.00    1.21636   1.10889   13.819
 6951.00    1.16875   1.11002   13.925
 6952.00    1.13315   1.11152   14.274
 6953.00    1.15380   1.11359   14.495
 6954.00    1.20762   1.11564   14.480
 6955.00    1.19746   1.11823   14.660
 6956.00    1.11275   1.12085   15.146
 6957.00    1.07250   1.12353   15.412
 6958.00    1.12908   1.12611   15.322
 6959.00    1.20303   1.12850   15.479
 6960.00    1.21383   1.13062   16.032
 6961.00    1.14048   1.13205   16.367
 6962.00    1.02569   1.13313   16.306
 6963.00    0.95067   1.13405   16.413
 6964.00    0.94410   1.13475   -1.000
 6965.00    0.96779   1.13480   16.870
 6966.00    0.97872   1.13419   16.591
 6967.00    0.95633   1.13246   16.393
 6968.00    0.91908   1.13003   -1.000
 6969.00    0.90729   1.12686   -1.000
 6970.00    0.92476   1.12270   15.449
 6971.00    0.94082   1.11816   15.252
 6972.00    0.93592   1.11290   15.379
 6973.00    0.91454   1.10773   15.585
 6974.00    0.90680   1.10286   15.814
 6975.00    0.94644   1.09942   16.123
 6976.00    1.02609   1.09855   16.253
 6977.00    1.11011   1.09924   15.897
 6978.00    1.17640   1.10184   15.385
 6979.00    1.21391   1.10598   15.266
 6980.00    1.20537   1.11081   15.654
 6981.00    1.14349   1.11596   16.315
 6982.00    1.05970   1.12091   16.756
 6983.00    1.00044   1.12562   16.565
 6984.00    0.98619   1.12940   16.029
 6985.00    1.01004   1.13172   15.625
 6986.00    1.04502   1.13335   15.404
 6987.00    1.06776   1.13439   15.231
 6988.00    1.08411   1.13478   15.065
 6989.00    1.10799   1.13491   14.911
 6990.00    1.13533   1.13440   14.747
 6991.00    1.15455   1.13358   14.587
 6992.00    1.16061   1.13249   14.525
 6993.00    1.16061   1.13096   14.604
 6994.00    1.17395   1.12934   14.713
 6995.00    1.19687   1.12700   14.783
 6996.00    1.18027   1.12436   14.951
 6997.00    1.09765   1.12205   15.345
 6998.00    0.99190   1.11996   15.881
 6999.00    0.91427   1.11839   -1.000
 7000.00    0.88049   1.11678   -1.000
 7001.00    0.88815   1.11571   -2.000
 7002.00    0.92924   1.11494   -2.000
 7003.00    0.98555   1.11465   -2.000
 7004.00    1.03006   1.11483   -2.000
 7005.00    1.05137   1.11512   -2.000
 7006.00    1.06214   1.11520   -2.000
 7007.00    1.07274   1.11456   -2.000
 7008.00    1.08247   1.11388   -2.000
 7009.00    1.10152   1.11294   -2.000
 7010.00    1.14770   1.11175   -2.000
 7011.00    1.19114   1.11013   -2.000
 7012.00    1.16703   1.10815   -2.000
 7013.00    1.10964   1.10692   -2.000
 7014.00    1.14275   1.10678   -2.000
 7015.00    1.27029   1.10722   -2.000
 7016.00    1.36299   1.10831   -2.000
 7017.00    1.35047   1.10953   -2.000
 7018.00    1.26026   1.11059   -2.000
 7019.00    1.14770   1.11122   -2.000
 7020.00    1.06106   1.11200   -2.000
 7021.00    1.00744   1.11325   -2.000
 7022.00    0.96035   1.11476   -2.000
 7023.00    0.89982   1.11603   -2.000
 7024.00    0.82820   1.11757   -2.000
 7025.00    0.78175   1.11928   -2.000
 7026.00    0.80527   1.12104   -2.000
 7027.00    0.89756   1.12284   -2.000
 7028.00    1.01703   1.12464   -2.000
 7029.00    1.11312   1.12646   -2.000
 7030.00    1.14591   1.12806   -2.000
 7031.00    1.10878   1.12937   -2.000
 7032.00    1.02990   1.13098   -2.000
 7033.00    0.96623   1.13247   -2.000
 7034.00    0.96218   1.13365   -2.000
 7035.00    0.99627   1.13585   -2.000
 7036.00    1.02578   1.13929   -2.000
 7037.00    1.05151   1.14338   -2.000
 7038.00    1.09191   1.14785   -2.000
 7039.00    1.14360   1.15223   -2.000
 7040.00    1.18609   1.15622   -2.000
 7041.00    1.19393   1.15895   -2.000
 7042.00    1.16119   1.16138   -2.000
 7043.00    1.12043   1.16299   -2.000
 7044.00    1.10398   1.16301   -2.000
 7045.00    1.10954   1.16140   -2.000
 7046.00    1.12038   1.15749   -2.000
 7047.00    1.12518   1.15204   -2.000
 7048.00    1.12232   1.14438   -2.000
 7049.00    1.12000   1.13554   -2.000
 7050.00    1.12206   1.12645   -2.000
 7051.00    1.12147   1.11700   -2.000
 7052.00    1.12281   1.10824   -2.000
 7053.00    1.14820   1.09994   -2.000
 7054.00    1.18663   1.09250   -2.000
 7055.00    1.18108   1.08563   -2.000
 7056.00    1.11833   1.07950   -2.000
 7057.00    1.05916   1.07483   -2.000
 7058.00    1.04798   1.07128   -2.000
 7059.00    1.07404   1.06836   -2.000
 7060.00    1.10158   1.06634   -2.000
 7061.00    1.09504   1.06463   -2.000
 7062.00    1.06063   1.06299   -2.000
 7063.00    1.04178   1.06194   -2.000
 7064.00    1.04171   1.06145   -2.000
 7065.00    1.01979   1.06221   -2.000
 7066.00    0.97587   1.06418   -2.000
 7067.00    0.95310   1.06711   -2.000
 7068.00    0.95820   1.07037   -2.000
 7069.00    0.95969   1.07398   -2.000
 7070.00    0.95219   1.07787   -2.000
 7071.00    0.95804   1.08144   -2.000
 7072.00    0.98431   1.08470   -2.000
 7073.00    1.01476   1.08720   -2.000
 7074.00    1.01864   1.08882   -2.000
 7075.00    0.97657   1.08886   -2.000
 7076.00    0.92846   1.08748   -2.000
 7077.00    0.94150   1.08473   -2.000
 7078.00    1.02883   1.08005   -2.000
 7079.00    1.14305   1.07393   -2.000
 7080.00    1.19716   1.06650   -2.000
 7081.00    1.14593   1.05849   -2.000
 7082.00    1.10183   1.05097   -2.000
 7083.00    1.17913   1.04327   -2.000
 7084.00    1.24852   1.03600   -2.000
 7085.00    1.14124   1.02965   -2.000
 7086.00    0.96122   1.02415   -2.000
 7087.00    0.89788   1.01991   -2.000
 7088.00    0.94952   1.01735   -2.000
 7089.00    1.02075   1.01554   -2.000
 7090.00    1.06912   1.01525   -2.000
 7091.00    1.07798   1.01553   -2.000
 7092.00    1.01749   1.01660   -2.000
 7093.00    0.90649   1.01860   -2.000
 7094.00    0.86042   1.02049   -2.000
 7095.00    0.94883   1.02357   -2.000
 7096.00    1.08267   1.02572   -2.000
 7097.00    1.15470   1.02821   -2.000
 7098.00    1.15632   1.02990   -2.000
 7099.00    1.14698   1.03130   -2.000
 7100.00    1.20892   1.03257   -2.000
 7101.00    1.33494   1.03334   -2.000
 7102.00    1.38987   1.03353   -2.000
 7103.00    1.33322   1.03295   -2.000
 7104.00    1.31078   1.03227   -2.000
 7105.00    1.37999   1.03163   -2.000
 7106.00    1.40111   1.03070   -2.000
 7107.00    1.29714   1.02972   -2.000
 7108.00    1.15645   1.02939   -2.000
 7109.00    1.06332   1.02946   -2.000
 7110.00    1.02584   1.03001   -2.000
 7111.00    1.02538   1.03047   -2.000
 7112.00    1.04175   1.03143   -2.000
 7113.00    1.06170   1.03216   -2.000
 7114.00    1.08058   1.03246   -2.000
 7115.00    1.09733   1.03272   -2.000
 7116.00    1.11040   1.03207   -2.000
 7117.00    1.11106   1.03134   -2.000
 7118.00    1.09051   1.02931   -2.000
 7119.00    1.06632   1.02711   -2.000
 7120.00    1.07129   1.02463   -2.000
 7121.00    1.10275   1.02108   -2.000
 7122.00    1.12031   1.01750   -2.000
 7123.00    1.07581   1.01361   -2.000
 7124.00    0.95135   1.01053   -2.000
 7125.00    0.82369   1.00742   -2.000
 7126.00    0.80249   1.00475   -2.000
 7127.00    0.87735   1.00293   -2.000
 7128.00    0.95952   1.00259   -2.000
 7129.00    1.01855   1.00323   -2.000
 7130.00    1.06810   1.00488   -2.000
 7131.00    1.09889   1.00733   -2.000
 7132.00    1.11305   1.00989   -2.000
 7133.00    1.18962   1.01314   -2.000
 7134.00    1.37277   1.01594   -2.000
 7135.00    1.50893   1.01830   -2.000
 7136.00    1.42898   1.02024   -2.000
 7137.00    1.20844   1.02208   -2.000
 7138.00    1.03907   1.02302   -2.000
 7139.00    1.02988   1.02299   -2.000
 7140.00    1.15442   1.02273   -2.000
 7141.00    1.23521   1.02185   -2.000
 7142.00    1.13705   1.02073   -2.000
 7143.00    0.94918   1.01969   -2.000
 7144.00    0.82704   1.01832   -2.000
 7145.00    0.82966   1.01806   -2.000
 7146.00    0.92541   1.01862   -2.000
 7147.00    1.01842   1.01970   -2.000
 7148.00    1.02767   1.02168   -2.000
 7149.00    0.94972   1.02426   -2.000
 7150.00    0.87226   1.02703   -2.000
 7151.00    0.94577   1.02949   -2.000
 7152.00    1.15411   1.03176   -2.000
 7153.00    1.23216   1.03431   -2.000
 7154.00    1.07194   1.03545   -2.000
 7155.00    0.89729   1.03586   -2.000
 7156.00    0.86174   1.03539   -2.000
 7157.00    0.87267   1.03432   -2.000
 7158.00    0.85006   1.03313   -2.000
 7159.00    0.83479   1.03138   -2.000
 7160.00    0.86573   1.02978   -2.000
 7161.00    0.92734   1.02846   -2.000
 7162.00    0.97778   1.02868   -2.000
 7163.00    0.97818   1.02985   -2.000
 7164.00    0.95259   1.03186   -2.000
 7165.00    0.97330   1.03450   -2.000
 7166.00    1.03502   1.03740   -2.000
 7167.00    1.05883   1.04064   -2.000
 7168.00    1.04149   1.04372   -2.000
 7169.00    1.06097   1.04634   -2.000
 7170.00    1.15471   1.04799   -2.000
 7171.00    1.28646   1.04881   -2.000
 7172.00    1.35682   1.04852   -2.000
 7173.00    1.26087   1.04749   -2.000
 7174.00    1.01419   1.04616   -2.000
 7175.00    0.73902   1.04395   -2.000
 7176.00    0.56586   1.04130   -2.000
 7177.00    0.57039   1.03863   -2.000
 7178.00    0.69646   1.03642   -2.000
 7179.00    0.81161   1.03473   -2.000
 7180.00    0.83609   1.03291   -2.000
 7181.00    0.77773   1.03090   -2.000
 7182.00    0.74417   1.02895   -2.000
 7183.00    0.84142   1.02671   -2.000
 7184.00    1.02218   1.02465   -2.000
 7185.00    1.16054   1.02323   -2.000
 7186.00    1.18857   1.02211   -2.000
 7187.00    1.11253   1.02187   -2.000
 7188.00    1.00429   1.02173   -2.000
 7189.00    0.92856   1.02215   -2.000
 7190.00    0.86560   1.02314   -2.000
 7191.00    0.78689   1.02475   -2.000
 7192.00    0.74061   1.02679   -2.000
 7193.00    0.79887   1.02850   -2.000
 7194.00    0.99518   1.03067   -2.000
 7195.00    1.30440   1.03266   -2.000
 7196.00    1.63101   1.03420   -2.000
 7197.00    1.82188   1.03542   -2.000
 7198.00    1.70940   1.03602   -2.000
 7199.00    1.35858   1.03645   -2.000
 7200.00    1.17109   1.03640   -2.000
 7201.00    1.31216   1.03559   -2.000
 7202.00    1.40961   1.03448   -2.000
 7203.00    1.21675   1.03279   -2.000
 7204.00    0.96274   1.03187   -2.000
 7205.00    0.85771   1.03166   -2.000
 7206.00    0.84100   1.03180   -2.000
 7207.00    0.84162   1.03303   -2.000
 7208.00    0.89303   1.03426   -2.000
 7209.00    0.98217   1.03615   -2.000
 7210.00    1.01231   1.03817   -2.000
 7211.00    0.97278   1.04074   -2.000
 7212.00    0.97300   1.04344   -2.000
 7213.00    1.07302   1.04614   -2.000
 7214.00    1.22826   1.04903   -2.000
 7215.00    1.34635   1.05120   -2.000
 7216.00    1.33750   1.05328   -2.000
 7217.00    1.20474   1.05509   -2.000
 7218.00    1.04291   1.05694   -2.000
