###################################################################
## OUTPUT of StarlightChains_v04.for    [Cid@UFSC - 01/Apr/2007] ##
###################################################################

## Some input info
2004ed.txt                               [arq_obs]
Base.CB07.vall.4m                        [arq_base]
Masks.EmLines.NEW.gm                     [arq_masks]
StCv04.C11.config                        [arq_config]
   66                                    [N_base]
    0                                    [N_YAV_components = # of components with extra extinction!]
    0                                    [i_FitPowerLaw (1/0 = Yes/No)]
-9.99                                    [alpha_PowerLaw]
CCM                                      [red_law_option]
 1.458241                                [q_norm = A(l_norm)/A(V)]

## (Re)Sampling Parameters
 3741.00                                 [l_ini (A)]
 7218.00                                 [l_fin (A)]
    1.00                                 [dl    (A)]     (OBS: dl_cushion =    50.00 A)

## Normalization info
 4020.00                                 [l_norm (A) - for base]
 4010.00                                 [llow_norm (A) - window for f_obs]
 4060.00                                 [lupp_norm (A) - window for f_obs]
1.570947E-16                             [fobs_norm (in input units)]

## S/N
 3691.00                                 [llow_SN (A) - window for S/N]
 7268.00                                 [lupp_SN (A) - window for S/N]
  10.692                                 [S/N in S/N window]
  12.739                                 [S/N in norm. window]
  21.756                                 [S/N_err in S/N window]
  25.922                                 [S/N_err in norm. window]
  1.0000                                 [fscale_chi2]

## etc...
    -2007289                             [idum_orig]
  2371                                   [NOl_eff]
  2369                                   [Nl_eff]
     2    NSIGMA                         [Ntot_cliped & clip_method]
  2221590                                [Nglobal_steps]
   7                                     [N_chains]
  33                                     [NEX0s_base = N_base in EX0s-fits]
 0   0   1        4   2.0   7.034E+01    [Clip-Bug, RC-Crash & Burn-In warning-flags, n_censored_weights, wei_nsig_threshold & wei_limit]
    21     20.565     20.072      0.494  [idt_all, wdt_TotTime, wdt_UsrTime & wdt_SysTime (sec)]

## Synthesis Results - Best model ##

 5.87180E-01                             [chi2/Nl_eff]
     2.71670                             [adev (%)]

    97.78680                             [sum-of-x (%)]
 3.95773E-16                             [Flux_tot (units of input spectrum!)]
 2.41834E-12                             [Mini_tot (???)]
 1.30493E-12                             [Mcor_tot (???)]

  23.45                                  [v0_min  (km/s)]
 159.13                                  [vd_min  (km/s)]
 0.7046                                  [AV_min  (mag)]
 0.0000                                  [YAV_min (mag)]

# j     x_j(%)      Mini_j(%)     Mcor_j(%)     age_j(yr)     Z_j      (L/M)_j    YAV?  Mstars   component_j        a/Fe...       SSP_chi2r SSP_adev(%)   SSP_AV   SSP_x(%)
  1      0.0000     0.0000E+00    0.0000E+00    1.000000E+06  0.00400  1.094E-02    0   1.0000   age020_m42            0.0000     2.4522E+00     6.0751   3.0097    76.5111
  2      0.0000     0.0000E+00    0.0000E+00    3.160000E+06  0.00400  4.007E-02    0   0.9999   age045_m42            0.0000     1.9325E+00     5.1983   2.2514    83.2033
  3      0.0000     0.0000E+00    0.0000E+00    5.010000E+06  0.00400  2.539E-02    0   0.9488   age055_m42            0.0000     2.0271E+00     5.3417   2.5771    80.8785
  4      0.0000     0.0000E+00    0.0000E+00    6.610000E+06  0.00400  2.620E-02    0   0.9220   age061_m42            0.0000     1.7258E+00     4.8945   2.1596    84.1432
  5      3.6244     4.5883E-02    7.5355E-02    1.000000E+07  0.00400  1.322E-02    0   0.8862   age070_m42            0.0000     9.7947E-01     3.4433   1.7717    90.4304
  6      0.9735     2.0667E-02    3.2828E-02    1.445000E+07  0.00400  7.883E-03    0   0.8571   age078_m42            0.0000     1.1832E+00     3.8647   2.1204    87.1930
  7      3.5909     1.1445E-01    1.7337E-01    2.512000E+07  0.00400  5.251E-03    0   0.8174   age090_m42            0.0000     8.7528E-01     3.2114   1.6201    91.8943
  8      8.3739     3.8406E-01    5.5880E-01    4.000000E+07  0.00400  3.649E-03    0   0.7851   age104_m42            0.0000     8.3529E-01     3.1378   1.3982    92.4394
  9      3.2484     1.7548E-01    2.4810E-01    5.500000E+07  0.00400  3.098E-03    0   0.7629   age110_m42            0.0000     1.0386E+00     3.6176   1.5927    90.6775
 10      1.8802     1.4124E-01    1.8864E-01    1.015200E+08  0.00400  2.228E-03    0   0.7207   age116_m42            0.0000     1.2121E+00     4.0493   1.6379    89.8000
 11      0.0000     0.0000E+00    0.0000E+00    2.861200E+08  0.00400  1.093E-03    0   0.6648   age125_m42            0.0000     1.1371E+00     3.7100   1.0208    94.8807
 12      0.0000     0.0000E+00    0.0000E+00    5.088000E+08  0.00400  6.597E-04    0   0.6365   age130_m42            0.0000     1.3000E+00     4.2674   1.0566    93.5925
 13      9.0553     7.1083E+00    7.6378E+00    1.434000E+09  0.00400  2.132E-04    0   0.5798   age139_m42            0.0000     1.1325E+00     4.3483   0.1114    94.2173
 14      0.0000     0.0000E+00    0.0000E+00    4.250000E+09  0.00400  5.895E-05    0   0.5377   age158_m42            0.0000     1.5822E+00     5.5145  -0.2374    86.6802
 15      1.8101     8.6305E+00    8.3363E+00    7.500000E+09  0.00400  3.510E-05    0   0.5212   age171_m42            0.0000     1.8449E+00     6.0558  -0.3932    84.8551
 16      0.0000     0.0000E+00    0.0000E+00    1.300000E+10  0.00400  2.005E-05    0   0.5034   age193_m42            0.0000     2.1460E+00     6.5745  -0.5293    83.3095
 17      0.0000     0.0000E+00    0.0000E+00    1.800000E+10  0.00400  1.525E-05    0   0.4967   age213_m42            0.0000     2.1019E+00     6.4750  -0.5580    83.1486
 18      2.1687     2.9318E-02    5.4332E-02    1.000000E+06  0.00800  1.238E-02    0   1.0000   age020_m52            0.0000     2.4503E+00     6.0749   3.0060    76.6578
 19      0.0007     3.6691E-06    6.7766E-06    3.160000E+06  0.00800  3.074E-02    0   0.9966   age045_m52            0.0000     2.4190E+00     6.0081   2.9306    77.2915
 20      0.0000     0.0000E+00    0.0000E+00    5.010000E+06  0.00800  2.668E-02    0   0.9443   age055_m52            0.0000     2.0153E+00     5.3745   2.6593    80.1361
 21      0.0000     0.0000E+00    0.0000E+00    6.610000E+06  0.00800  2.136E-02    0   0.9177   age061_m52            0.0000     9.5977E-01     3.6351   1.2918    90.5281
 22      1.0112     1.3929E-02    2.2786E-02    1.000000E+07  0.00800  1.215E-02    0   0.8827   age070_m52            0.0000     9.4398E-01     3.3927   1.9284    91.2370
 23      0.0000     0.0000E+00    0.0000E+00    1.445000E+07  0.00800  8.717E-03    0   0.8552   age078_m52            0.0000     1.0525E+00     3.6595   2.0783    88.7286
 24      7.2941     2.1830E-01    3.3020E-01    2.512000E+07  0.00800  5.592E-03    0   0.8162   age090_m52            0.0000     7.7850E-01     3.0506   1.6754    93.4119
 25      0.8575     3.6835E-02    5.3525E-02    4.000000E+07  0.00800  3.896E-03    0   0.7841   age104_m52            0.0000     8.1739E-01     3.1042   1.6018    93.5648
 26      0.0000     0.0000E+00    0.0000E+00    1.015200E+08  0.00800  2.148E-03    0   0.7226   age116_m52            0.0000     1.0212E+00     3.6476   1.5823    91.5554
 27      0.0000     0.0000E+00    0.0000E+00    2.861200E+08  0.00800  9.925E-04    0   0.6683   age125_m52            0.0000     1.1650E+00     4.0756   1.1159    94.6761
 28      0.0000     0.0000E+00    0.0000E+00    9.047900E+08  0.00800  3.141E-04    0   0.6138   age135_m52            0.0000     1.4507E+00     5.0063   0.3803    95.8025
 29      0.0000     0.0000E+00    0.0000E+00    1.434000E+09  0.00800  1.719E-04    0   0.5853   age139_m52            0.0000     1.5804E+00     5.2616  -0.1799    92.9987
 30      0.0000     0.0000E+00    0.0000E+00    2.500000E+09  0.00800  7.872E-05    0   0.5600   age150_m52            0.0000     2.0277E+00     6.3701  -0.3647    86.9381
 31      0.0000     0.0000E+00    0.0000E+00    4.250000E+09  0.00800  4.336E-05    0   0.5426   age158_m52            0.0000     2.0385E+00     6.4268  -0.3734    85.8475
 32      0.0000     0.0000E+00    0.0000E+00    6.250000E+09  0.00800  3.159E-05    0   0.5319   age166_m52            0.0000     2.5134E+00     7.2161  -0.5341    84.2302
 33      0.7558     9.2935E+00    8.7372E+00    1.300000E+10  0.00800  1.361E-05    0   0.5073   age193_m52            0.0000     3.2494E+00     8.2685  -0.9493    81.6437
 34      0.0000     0.0000E+00    0.0000E+00    1.800000E+10  0.00800  9.886E-06    0   0.4990   age213_m52            0.0000     3.8597E+00     9.1020  -1.0000    79.1240
 35      0.0003     3.2049E-06    5.9395E-06    1.000000E+06  0.02000  1.544E-02    0   1.0000   age020_m62            0.0000     2.4708E+00     6.1056   3.0031    76.7951
 36      0.0000     0.0000E+00    0.0000E+00    3.160000E+06  0.02000  3.762E-02    0   0.9858   age045_m62            0.0000     2.4789E+00     6.1016   2.9453    77.3559
 37      0.0000     0.0000E+00    0.0000E+00    5.010000E+06  0.02000  3.296E-02    0   0.9342   age055_m62            0.0000     1.9882E+00     5.3788   2.5433    81.6602
 38     23.9203     3.4690E-01    5.6967E-01    8.710000E+06  0.02000  1.154E-02    0   0.8861   age067_m62            0.0000     1.8534E+00     4.7745   1.2077   101.9791
 39      0.0000     0.0000E+00    0.0000E+00    1.445000E+07  0.02000  7.663E-03    0   0.8472   age078_m62            0.0000     1.0006E+00     3.3938   1.5168    96.0755
 40      0.0000     0.0000E+00    0.0000E+00    2.512000E+07  0.02000  4.532E-03    0   0.8099   age090_m62            0.0000     1.0904E+00     3.4806   1.4931    96.6144
 41      0.6984     4.2769E-02    6.0198E-02    5.500000E+07  0.02000  2.733E-03    0   0.7595   age110_m62            0.0000     7.8541E-01     3.1261   1.5868    92.7730
 42      1.0065     1.2305E-01    1.5928E-01    1.609000E+08  0.02000  1.369E-03    0   0.6985   age120_m62            0.0000     1.0323E+00     3.7802   1.4634    93.6891
 43      1.1189     2.0776E-01    2.5851E-01    2.861200E+08  0.02000  9.013E-04    0   0.6714   age125_m62            0.0000     1.2015E+00     4.1783   1.2291    95.6633
 44      0.0008     2.6721E-04    3.1936E-04    5.088000E+08  0.02000  5.028E-04    0   0.6449   age130_m62            0.0000     1.6261E+00     5.1914   0.9203    95.1048
 45      0.0000     0.0000E+00    0.0000E+00    9.047900E+08  0.02000  2.428E-04    0   0.6179   age135_m62            0.0000     1.6465E+00     5.6212   0.3805    92.5397
 46      0.0000     0.0000E+00    0.0000E+00    1.434000E+09  0.02000  1.263E-04    0   0.5908   age139_m62            0.0000     1.8214E+00     6.0547  -0.0346    89.9175
 47      0.0000     0.0000E+00    0.0000E+00    2.500000E+09  0.02000  5.985E-05    0   0.5673   age150_m62            0.0000     2.4552E+00     7.1766  -0.3344    85.9827
 48      0.0000     0.0000E+00    0.0000E+00    4.250000E+09  0.02000  3.271E-05    0   0.5468   age158_m62            0.0000     3.3307E+00     8.4167  -0.5735    82.6847
 49      3.9431     4.8522E+01    4.6463E+01    1.000000E+10  0.02000  1.360E-05    0   0.5167   age181_m62            0.0000     4.4047E+00     9.7355  -0.8541    79.8559
 50      0.0000     0.0000E+00    0.0000E+00    1.800000E+10  0.02000  7.124E-06    0   0.5013   age213_m62            0.0000     5.3114E+00    10.7535  -1.0000    76.9481
 51      0.0000     0.0000E+00    0.0000E+00    1.000000E+06  0.05000  2.592E-02    0   0.9998   age020_m72            0.0000     2.5046E+00     6.1664   2.9936    76.8367
 52      0.0000     0.0000E+00    0.0000E+00    3.160000E+06  0.05000  4.845E-02    0   0.9577   age045_m72            0.0000     2.3667E+00     5.8952   2.8279    78.4405
 53      0.0000     0.0000E+00    0.0000E+00    5.010000E+06  0.05000  3.072E-02    0   0.9147   age055_m72            0.0000     1.5656E+00     4.2970   2.1907    88.6950
 54      0.0000     0.0000E+00    0.0000E+00    6.610000E+06  0.05000  1.455E-02    0   0.8877   age061_m72            0.0000     6.7044E+00     7.7689   1.1981   106.6362
 55      0.0000     0.0000E+00    0.0000E+00    1.000000E+07  0.05000  9.074E-03    0   0.8524   age070_m72            0.0000     2.8317E+00     5.1030   2.3821    88.4734
 56      0.0000     0.0000E+00    0.0000E+00    2.512000E+07  0.05000  4.250E-03    0   0.7902   age090_m72            0.0000     1.8130E+00     4.1109   2.0495    91.3625
 57      0.0000     0.0000E+00    0.0000E+00    4.000000E+07  0.05000  3.087E-03    0   0.7618   age104_m72            0.0000     1.8209E+00     3.9641   1.7946    94.1367
 58      0.0000     0.0000E+00    0.0000E+00    1.015200E+08  0.05000  1.700E-03    0   0.7096   age116_m72            0.0000     9.9715E-01     3.5350   1.5767    94.6655
 59      3.1093     7.0472E-01    8.6628E-01    2.861200E+08  0.05000  7.384E-04    0   0.6633   age125_m72            0.0000     1.3480E+00     4.6024   1.1300    95.4999
 60     13.4858     5.9098E+00    6.9788E+00    5.088000E+08  0.05000  3.819E-04    0   0.6372   age130_m72            0.0000     1.6279E+00     5.4906   0.7071    93.8800
 61      4.7262     4.7194E+00    5.3438E+00    9.047900E+08  0.05000  1.676E-04    0   0.6110   age135_m72            0.0000     2.4177E+00     7.1495   0.1130    87.9240
 62      0.0000     0.0000E+00    0.0000E+00    1.434000E+09  0.05000  8.837E-05    0   0.5874   age139_m72            0.0000     2.6373E+00     7.4230  -0.3289    86.9993
 63      0.0000     0.0000E+00    0.0000E+00    2.500000E+09  0.05000  4.233E-05    0   0.5598   age150_m72            0.0000     3.6589E+00     8.8355  -0.5537    82.6174
 64      1.1327     1.3210E+01    1.2851E+01    6.250000E+09  0.05000  1.435E-05    0   0.5249   age166_m72            0.0000     4.8622E+00    10.1977  -0.9273    78.6583
 65      0.0000     0.0000E+00    0.0000E+00    1.300000E+10  0.05000  6.513E-06    0   0.5036   age193_m72            0.0000     6.3450E+00    11.8921  -1.0000    71.9629
 66      0.0000     0.0000E+00    0.0000E+00    1.800000E+10  0.05000  4.527E-06    0   0.4945   age213_m72            0.0000     7.7509E+00    13.2019  -1.0000    66.4695


## Synthesis Results - Average & Chains ##

# j      x_j: min, <> & last-chain-values for 1 ...  7 chains
  1      0.0000      0.0849      0.0000      0.0000      0.0000      0.3793      0.0000      0.1765      0.0000
  2      0.0000      0.1857      0.0000      0.1511      0.0000      0.5097      0.0000      0.0000      0.0258
  3      0.0000      1.1897      1.0356      1.1546      1.3356      1.5653      0.9258      1.2407      0.5763
  4      0.0000      1.8485      1.9050      2.0037      1.7219      1.0849      1.2350      1.3194      2.0839
  5      3.6244      3.3304      2.9100      3.7635      3.0302      3.3221      3.4110      3.0988      3.5196
  6      0.9735      0.7336      1.1654      0.9619      0.9776      1.3408      0.9669      0.7548      0.7853
  7      3.5909      1.2597      0.8741      1.5951      0.9821      0.7874      1.8764      1.5753      1.2745
  8      8.3739      4.7341      5.8584      5.9197      5.0538      5.3894      4.6784      5.7730      4.5496
  9      3.2484      2.3790      2.8159      2.5008      2.1764      2.5128      2.0014      2.0241      3.5389
 10      1.8802      1.1858      1.5694      1.1069      1.4512      0.8726      1.4353      1.4369      0.7066
 11      0.0000      0.3957      0.0000      0.3294      0.0000      0.0000      0.2070      0.0000      0.3195
 12      0.0000      0.2341      0.5070      0.0175      0.1041      0.0000      0.0000      0.0243      0.1970
 13      9.0553     10.0088      9.9117     10.0599     10.3257     11.0051      9.9675     10.2228     10.7248
 14      0.0000      0.1320      0.0054      0.0000      0.0761      0.0000      0.0000      0.0000      0.1208
 15      1.8101      2.8997      2.7044      2.6699      2.5834      3.0326      2.7589      3.2063      2.8832
 16      0.0000      0.0302      0.0000      0.0000      0.0000      0.0000      0.2810      0.0000      0.0000
 17      0.0000      1.4129      1.3957      1.2855      1.4515      1.4555      1.5253      1.3817      1.3938
 18      2.1687      3.5756      4.0518      3.5144      3.4886      3.8053      3.6231      4.0888      3.5872
 19      0.0007      1.2672      1.3487      0.9202      0.9341      1.0600      1.5464      1.0664      1.4175
 20      0.0000      0.1795      0.0000      0.0000      0.1488      0.0000      0.1851      0.9644      0.7304
 21      0.0000      0.6385      0.1680      0.7083      0.4050      0.0683      0.3531      0.0000      0.2725
 22      1.0112      2.0026      1.9408      1.4727      2.2729      2.4098      1.9037      1.9613      1.9914
 23      0.0000      0.2509      0.0000      0.1822      0.2164      0.3043      0.0000      0.9299      0.0000
 24      7.2941      5.6629      7.3772      5.7309      5.9433      5.8209      6.1133      6.9354      6.2083
 25      0.8575      0.8101      1.0120      0.6451      0.9359      2.0223      0.7988      1.2585      0.0000
 26      0.0000      0.3755      0.1775      0.0000      0.3221      1.0972      0.1368      0.0870      0.0244
 27      0.0000      0.3860      0.0000      0.1078      0.9233      0.0000      0.0000      0.5250      0.0000
 28      0.0000      0.1695      0.0000      0.1563      0.0000      0.0000      0.0000      0.0000      0.0000
 29      0.0000      0.0441      0.0000      0.0000      0.0000      0.0000      0.0000      0.0000      0.0000
 30      0.0000      0.0493      0.0000      0.0000      0.0000      0.0000      0.0000      0.0000      0.0000
 31      0.0000      0.0223      0.0000      0.0000      0.0000      0.0000      0.0000      0.0000      0.0000
 32      0.0000      0.0326      0.0000      0.0075      0.0211      0.0000      0.0000      0.0000      0.0000
 33      0.7558      0.6382      0.5795      0.8838      0.6225      0.6758      0.6340      0.6699      0.5719
 34      0.0000      0.0155      0.0196      0.0000      0.0000      0.1222      0.0000      0.0000      0.0000
 35      0.0003      0.6706      0.8106      0.9469      0.5809      0.4515      0.4567      0.0000      0.6510
 36      0.0000      0.0870      0.0000      0.0000      0.0370      0.1997      0.0000      0.0175      0.0000
 37      0.0000      0.1910      0.0000      0.2319      0.0000      0.5000      0.3917      0.4139      0.0000
 38     23.9203     15.7030     16.3198     16.1706     15.6572     15.9193     17.4086     15.9856     16.1054
 39      0.0000      0.3937      0.4024      0.0170      1.2047      0.0000      0.0000      0.3051      0.9250
 40      0.0000      1.5061      1.3261      1.8920      1.7300      0.5854      1.1827      0.9147      1.6225
 41      0.6984      1.6166      1.6146      2.1242      2.2975      1.2397      1.9514      1.7297      1.5905
 42      1.0065      1.1318      1.0970      0.0755      0.0842      1.3782      1.2832      0.8859      0.0000
 43      1.1189      1.0108      0.6454      0.5776      0.7174      1.1783      1.0921      0.2084      0.5197
 44      0.0008      0.5739      0.7008      0.0000      0.4549      1.3440      0.5122      0.0920      0.0000
 45      0.0000      0.1833      0.0027      0.0000      0.0171      0.0396      0.0000      0.4516      0.0000
 46      0.0000      0.4650      0.3599      0.5589      0.0000      0.0000      0.0000      0.0000      0.0000
 47      0.0000      0.0441      0.0000      0.0000      0.0141      0.0000      0.0000      0.0000      0.0000
 48      0.0000      0.0207      0.0000      0.0000      0.0000      0.0000      0.0000      0.0000      0.0000
 49      3.9431      3.4271      3.7528      3.5344      3.5289      3.4432      3.5136      3.5734      3.5940
 50      0.0000      0.0155      0.0000      0.0000      0.0712      0.0000      0.0000      0.0000      0.0000
 51      0.0000      0.8159      1.2069      1.0780      0.7789      0.9969      0.9269      0.5880      1.0589
 52      0.0000      0.1094      0.0196      0.0000      0.2715      0.0000      0.2654      0.0266      0.0908
 53      0.0000      0.1010      0.0366      0.0000      0.0000      0.0760      0.0000      0.0000      0.0000
 54      0.0000      0.0511      0.0000      0.0000      0.0000      0.0000      0.0000      0.0000      0.0000
 55      0.0000      0.0593      0.0000      0.0971      0.0000      0.0000      0.0000      0.0000      0.0000
 56      0.0000      0.0992      0.0000      0.0000      0.0172      0.0000      0.0000      0.0000      0.0000
 57      0.0000      0.0767      0.0000      0.0000      0.0000      0.0000      0.0000      0.0000      0.1000
 58      0.0000      1.9114      0.2051      1.7435      2.0704      1.3034      1.8583      1.9613      2.8150
 59      3.1093      3.7483      4.1507      4.7581      3.3728      2.3182      3.2297      3.9489      4.1360
 60     13.4858      8.8698      8.8390      9.2796     10.8341      9.0691      9.8848      8.9563      9.8689
 61      4.7262      4.2233      4.4445      4.0168      3.7737      4.4811      4.8687      4.3364      4.5843
 62      0.0000      0.9209      0.9860      1.0336      1.1220      0.8790      0.7503      0.8047      1.0723
 63      0.0000      0.0203      0.0000      0.0000      0.0000      0.0000      0.1039      0.0000      0.0000
 64      1.1327      0.7918      0.8524      0.9267      0.8385      0.8894      0.8139      0.8293      0.8240
 65      0.0000      0.2638      0.1954      0.3399      0.3392      0.3031      0.1565      0.2941      0.2620
 66      0.0000      0.0045      0.0000      0.0000      0.0000      0.0000      0.0000      0.0000      0.0000

# j      m_j: min, <> & last-chain-values for 1 ...  7 chains
  1  0.0000E+00  2.0486E-03  0.0000E+00  0.0000E+00  0.0000E+00  8.8786E-03  0.0000E+00  4.2054E-03  0.0000E+00
  2  0.0000E+00  1.2232E-03  0.0000E+00  9.6983E-04  0.0000E+00  3.2574E-03  0.0000E+00  0.0000E+00  1.7013E-04
  3  0.0000E+00  1.1733E-02  1.0280E-02  1.1098E-02  1.2934E-02  1.4980E-02  9.1821E-03  1.2085E-02  5.6819E-03
  4  0.0000E+00  1.7166E-02  1.7807E-02  1.8136E-02  1.5702E-02  9.7777E-03  1.1535E-02  1.2102E-02  1.9348E-02
  5  7.5355E-02  5.8915E-02  5.1815E-02  6.4893E-02  5.2637E-02  5.7032E-02  6.0688E-02  5.4143E-02  6.2249E-02
  6  3.2828E-02  2.1049E-02  3.3656E-02  2.6901E-02  2.7544E-02  3.7333E-02  2.7901E-02  2.1391E-02  2.2528E-02
  7  1.7337E-01  5.1748E-02  3.6142E-02  6.3866E-02  3.9616E-02  3.1390E-02  7.7526E-02  6.3916E-02  5.2345E-02
  8  5.5880E-01  2.6879E-01  3.3480E-01  3.2760E-01  2.8177E-01  2.9695E-01  2.6716E-01  3.2375E-01  2.5827E-01
  9  2.4810E-01  1.5460E-01  1.8419E-01  1.5840E-01  1.3888E-01  1.5847E-01  1.3081E-01  1.2992E-01  2.2993E-01
 10  1.8864E-01  1.0122E-01  1.3484E-01  9.2096E-02  1.2164E-01  7.2282E-02  1.2323E-01  1.2115E-01  6.0306E-02
 11  0.0000E+00  6.3513E-02  0.0000E+00  5.1529E-02  0.0000E+00  0.0000E+00  3.3409E-02  0.0000E+00  5.1267E-02
 12  0.0000E+00  5.9595E-02  1.2994E-01  4.3311E-03  2.6027E-02  0.0000E+00  0.0000E+00  6.1140E-03  5.0139E-02
 13  7.6378E+00  7.1829E+00  7.1598E+00  7.0370E+00  7.2766E+00  7.6645E+00  7.1945E+00  7.2463E+00  7.6952E+00
 14  0.0000E+00  3.1772E-01  1.3043E-02  0.0000E+00  1.7993E-01  0.0000E+00  0.0000E+00  0.0000E+00  2.9071E-01
 15  8.3363E+00  1.1362E+01  1.0667E+01  1.0197E+01  9.9404E+00  1.1532E+01  1.0873E+01  1.2410E+01  1.1296E+01
 16  0.0000E+00  1.9999E-01  0.0000E+00  0.0000E+00  0.0000E+00  0.0000E+00  1.8722E+00  0.0000E+00  0.0000E+00
 17  0.0000E+00  1.2144E+01  1.2075E+01  1.0769E+01  1.2251E+01  1.2140E+01  1.3186E+01  1.1730E+01  1.1977E+01
 18  5.4332E-02  7.6218E-02  8.6934E-02  7.3019E-02  7.3021E-02  7.8717E-02  7.7674E-02  8.6086E-02  7.6449E-02
 19  6.7766E-06  1.0842E-02  1.1614E-02  7.6735E-03  7.8477E-03  8.8010E-03  1.3306E-02  9.0112E-03  1.2125E-02
 20  0.0000E+00  1.6763E-03  0.0000E+00  0.0000E+00  1.3651E-03  0.0000E+00  1.7385E-03  8.8968E-03  6.8209E-03
 21  0.0000E+00  7.2387E-03  1.9169E-03  7.8276E-03  4.5095E-03  7.5151E-04  4.0259E-03  0.0000E+00  3.0892E-03
 22  2.2786E-02  3.8393E-02  3.7452E-02  2.7521E-02  4.2790E-02  4.4835E-02  3.6707E-02  3.7140E-02  3.8171E-02
 23  0.0000E+00  6.4956E-03  0.0000E+00  4.5981E-03  5.5003E-03  7.6454E-03  0.0000E+00  2.3779E-02  0.0000E+00
 24  3.3020E-01  2.1812E-01  2.8601E-01  2.1515E-01  2.2479E-01  2.1758E-01  2.3682E-01  2.6385E-01  2.3908E-01
 25  5.3525E-02  4.3023E-02  5.4102E-02  3.3397E-02  4.8811E-02  1.0423E-01  4.2666E-02  6.6019E-02  0.0000E+00
 26  0.0000E+00  3.3338E-02  1.5861E-02  0.0000E+00  2.8082E-02  9.4529E-02  1.2214E-02  7.6300E-03  2.1629E-03
 27  0.0000E+00  6.8589E-02  0.0000E+00  1.8679E-02  1.6111E-01  0.0000E+00  0.0000E+00  9.2151E-02  0.0000E+00
 28  0.0000E+00  8.7429E-02  0.0000E+00  7.8571E-02  0.0000E+00  0.0000E+00  0.0000E+00  0.0000E+00  0.0000E+00
 29  0.0000E+00  3.9612E-02  0.0000E+00  0.0000E+00  0.0000E+00  0.0000E+00  0.0000E+00  0.0000E+00  0.0000E+00
 30  0.0000E+00  9.2640E-02  0.0000E+00  0.0000E+00  0.0000E+00  0.0000E+00  0.0000E+00  0.0000E+00  0.0000E+00
 31  0.0000E+00  7.3654E-02  0.0000E+00  0.0000E+00  0.0000E+00  0.0000E+00  0.0000E+00  0.0000E+00  0.0000E+00
 32  0.0000E+00  1.4466E-01  0.0000E+00  3.2689E-02  9.1979E-02  0.0000E+00  0.0000E+00  0.0000E+00  0.0000E+00
 33  8.7372E+00  6.2775E+00  5.7373E+00  8.4735E+00  6.0125E+00  6.4507E+00  6.2726E+00  6.5080E+00  5.6248E+00
 34  0.0000E+00  2.0589E-01  2.6233E-01  0.0000E+00  0.0000E+00  1.5799E+00  0.0000E+00  0.0000E+00  0.0000E+00
 35  5.9395E-06  1.1461E-02  1.3946E-02  1.5775E-02  9.7488E-03  7.4884E-03  7.8505E-03  0.0000E+00  1.1125E-02
 36  0.0000E+00  6.0149E-04  0.0000E+00  0.0000E+00  2.5158E-04  1.3402E-03  0.0000E+00  1.1925E-04  0.0000E+00
 37  0.0000E+00  1.4284E-03  0.0000E+00  1.6903E-03  0.0000E+00  3.6290E-03  2.9466E-03  3.0579E-03  0.0000E+00
 38  5.6967E-01  3.1819E-01  3.3285E-01  3.1938E-01  3.1154E-01  3.1304E-01  3.5478E-01  3.1994E-01  3.2628E-01
 39  0.0000E+00  1.1486E-02  1.1817E-02  4.8410E-04  3.4512E-02  0.0000E+00  0.0000E+00  8.7920E-03  2.6980E-02
 40  0.0000E+00  7.1029E-02  6.2946E-02  8.6970E-02  8.0114E-02  2.6791E-02  5.6095E-02  4.2607E-02  7.6503E-02
 41  6.0198E-02  1.1856E-01  1.1918E-01  1.5184E-01  1.6545E-01  8.8225E-02  1.4393E-01  1.2529E-01  1.1662E-01
 42  1.5928E-01  1.5239E-01  1.4867E-01  9.9054E-03  1.1131E-02  1.8009E-01  1.7377E-01  1.1782E-01  0.0000E+00
 43  2.5851E-01  1.9870E-01  1.2771E-01  1.1066E-01  1.3847E-01  2.2478E-01  2.1593E-01  4.0469E-02  1.0215E-01
 44  3.1936E-04  1.9425E-01  2.3875E-01  0.0000E+00  1.5120E-01  4.4146E-01  1.7437E-01  3.0768E-02  0.0000E+00
 45  0.0000E+00  1.2310E-01  1.8576E-03  0.0000E+00  1.1285E-02  2.5815E-02  0.0000E+00  2.9959E-01  0.0000E+00
 46  0.0000E+00  5.7397E-01  4.4716E-01  6.7250E-01  0.0000E+00  0.0000E+00  0.0000E+00  0.0000E+00  0.0000E+00
 47  0.0000E+00  1.1026E-01  0.0000E+00  0.0000E+00  3.4702E-02  0.0000E+00  0.0000E+00  0.0000E+00  0.0000E+00
 48  0.0000E+00  9.1323E-02  0.0000E+00  0.0000E+00  0.0000E+00  0.0000E+00  0.0000E+00  0.0000E+00  0.0000E+00
 49  4.6463E+01  3.4360E+01  3.7872E+01  3.4539E+01  3.4742E+01  3.3501E+01  3.5430E+01  3.5387E+01  3.6026E+01
 50  0.0000E+00  2.8826E-01  0.0000E+00  0.0000E+00  1.2983E+00  0.0000E+00  0.0000E+00  0.0000E+00  0.0000E+00
 51  0.0000E+00  8.3046E-03  1.2366E-02  1.0696E-02  7.7850E-03  9.8471E-03  9.4890E-03  5.9116E-03  1.0776E-02
 52  0.0000E+00  5.7081E-04  1.0312E-04  0.0000E+00  1.3906E-03  0.0000E+00  1.3922E-03  1.3722E-04  4.7380E-04
 53  0.0000E+00  7.9348E-04  2.8960E-04  0.0000E+00  0.0000E+00  5.7980E-04  0.0000E+00  0.0000E+00  0.0000E+00
 54  0.0000E+00  8.2248E-04  0.0000E+00  0.0000E+00  0.0000E+00  0.0000E+00  0.0000E+00  0.0000E+00  0.0000E+00
 55  0.0000E+00  1.4705E-03  0.0000E+00  2.3467E-03  0.0000E+00  0.0000E+00  0.0000E+00  0.0000E+00  0.0000E+00
 56  0.0000E+00  4.8696E-03  0.0000E+00  0.0000E+00  8.2707E-04  0.0000E+00  0.0000E+00  0.0000E+00  0.0000E+00
 57  0.0000E+00  4.9921E-03  0.0000E+00  0.0000E+00  0.0000E+00  0.0000E+00  0.0000E+00  0.0000E+00  6.5083E-03
 58  0.0000E+00  2.1054E-01  2.2739E-02  1.8719E-01  2.2394E-01  1.3932E-01  2.0588E-01  2.1339E-01  3.1001E-01
 59  8.6628E-01  8.8854E-01  9.9037E-01  1.0994E+00  7.8510E-01  5.3329E-01  7.7000E-01  9.2460E-01  9.8027E-01
 60  6.9788E+00  3.9054E+00  3.9173E+00  3.9825E+00  4.6842E+00  3.8752E+00  4.3773E+00  3.8951E+00  4.3445E+00
 61  5.3438E+00  4.0630E+00  4.3038E+00  3.7666E+00  3.5650E+00  4.1836E+00  4.7108E+00  4.1205E+00  4.4094E+00
 62  0.0000E+00  1.6154E+00  1.7409E+00  1.7672E+00  1.9326E+00  1.4963E+00  1.3237E+00  1.3943E+00  1.8806E+00
 63  0.0000E+00  7.0773E-02  0.0000E+00  0.0000E+00  0.0000E+00  0.0000E+00  3.6473E-01  0.0000E+00  0.0000E+00
 64  1.2851E+01  7.6431E+00  8.2816E+00  8.7187E+00  7.9473E+00  8.3315E+00  7.9013E+00  7.9069E+00  7.9525E+00
 65  0.0000E+00  5.3823E+00  4.0124E+00  6.7606E+00  6.7958E+00  6.0013E+00  3.2110E+00  5.9266E+00  5.3449E+00
 66  0.0000E+00  1.3054E-01  0.0000E+00  0.0000E+00  0.0000E+00  0.0000E+00  0.0000E+00  0.0000E+00  0.0000E+00

# AV, chi2 & Mass for <> & i_chain = 1 ...  7 solutions
AV       0.7046      0.6884      0.6986      0.6822      0.6870      0.6828      0.6914      0.6959      0.6830
chi2 5.8718E-01  6.0432E-01  6.0051E-01  6.0156E-01  6.0173E-01  6.0154E-01  6.0028E-01  6.0156E-01  6.0167E-01
Mass 1.3049E-12  1.5007E-12  1.5114E-12  1.5268E-12  1.5253E-12  1.5348E-12  1.4981E-12  1.5347E-12  1.4900E-12
  23.45                                  [v0_min (km/s) before EX0s...]
 159.13                                  [vd_min (km/s) before EX0s...]


## Synthetic spectrum (Best Model) ##l_obs f_obs f_syn wei
 3478    [Nl_obs]
 3741.00    0.66863   0.71313    0.000
 3742.00    0.62290   0.71983    0.000
 3743.00    0.60586   0.71389    0.000
 3744.00    0.61254   0.69743    0.000
 3745.00    0.63143   0.67259   15.837
 3746.00    0.64665   0.64100   15.464
 3747.00    0.63289   0.60558   15.801
 3748.00    0.57735   0.57200   17.321
 3749.00    0.52042   0.54729   19.215
 3750.00    0.51581   0.53828   19.387
 3751.00    0.55324   0.54926   18.075
 3752.00    0.58831   0.57875   16.998
 3753.00    0.60628   0.61903   16.494
 3754.00    0.61648   0.66012   16.221
 3755.00    0.63129   0.69444   15.841
 3756.00    0.65539   0.71840   15.258
 3757.00    0.67755   0.73220   14.759
 3758.00    0.68640   0.73890   14.569
 3759.00    0.68747   0.74269   14.546
 3760.00    0.69293   0.74634   14.432
 3761.00    0.70905   0.74960   14.103
 3762.00    0.72930   0.75013   13.712
 3763.00    0.73235   0.74549   13.655
 3764.00    0.70806   0.73390   14.123
 3765.00    0.67381   0.71471   14.841
 3766.00    0.64666   0.68824   15.464
 3767.00    0.62577   0.65576   15.980
 3768.00    0.61026   0.62098   16.386
 3769.00    0.60671   0.59053   16.482
 3770.00    0.60421   0.57114   16.550
 3771.00    0.57232   0.56762   17.473
 3772.00    0.52004   0.58196   19.229
 3773.00    0.50622   0.61145   19.754
 3774.00    0.55437   0.64901   18.038
 3775.00    0.62830   0.68765   15.916
 3776.00    0.68824   0.72361   14.530
 3777.00    0.71865   0.75583   13.915
 3778.00    0.74244   0.78413   13.469
 3779.00    0.80072   0.80818   12.489
 3780.00    0.87691   0.82780   11.404
 3781.00    0.90919   0.84268   10.999
 3782.00    0.89104   0.85203   11.223
 3783.00    0.86950   0.85522   11.501
 3784.00    0.86978   0.85248   11.497
 3785.00    0.88362   0.84450   11.317
 3786.00    0.88769   0.83221   11.265
 3787.00    0.86508   0.81733   11.560
 3788.00    0.83749   0.80195   11.940
 3789.00    0.83500   0.78682   11.976
 3790.00    0.83387   0.77067   11.992
 3791.00    0.79566   0.75122   12.568
 3792.00    0.74368   0.72628   13.447
 3793.00    0.71790   0.69436   13.930
 3794.00    0.69758   0.65558   14.335
 3795.00    0.65094   0.61296   15.362
 3796.00    0.60789   0.57279   16.450
 3797.00    0.60864   0.54293   16.430
 3798.00    0.63831   0.53029   15.666
 3799.00    0.66368   0.53897   15.067
 3800.00    0.67656   0.56819   14.781
 3801.00    0.67970   0.61122   14.712
 3802.00    0.67207   0.65818   14.879
 3803.00    0.66520   0.70093   15.033
 3804.00    0.69074   0.73561   14.477
 3805.00    0.74828   0.76209   13.364
 3806.00    0.77885   0.78266   12.839
 3807.00    0.74804   0.80069   13.368
 3808.00    0.69387   0.81870   14.412
 3809.00    0.67611   0.83643   14.790
 3810.00    0.73565   0.85086   13.593
 3811.00    0.84954   0.85887   11.771
 3812.00    0.93121   0.85952   10.739
 3813.00    0.93692   0.85426   10.673
 3814.00    0.89993   0.84599   11.112
 3815.00    0.86051   0.83717   11.621
 3816.00    0.83256   0.82803   12.011
 3817.00    0.79499   0.81753   12.579
 3818.00    0.71651   0.80576   13.957
 3819.00    0.64396   0.79440   15.529
 3820.00    0.66835   0.78611   14.962
 3821.00    0.74255   0.78345   13.467
 3822.00    0.73168   0.78604   13.667
 3823.00    0.68313   0.78911   14.639
 3824.00    0.75326   0.78713   13.276
 3825.00    0.87302   0.77825   11.454
 3826.00    0.83908   0.76433   11.918
 3827.00    0.66590   0.74756   15.017
 3828.00    0.52826   0.72811   -1.000
 3829.00    0.51373   0.70445   -1.000
 3830.00    0.59918   0.67500   16.689
 3831.00    0.69424   0.63920   14.404
 3832.00    0.70753   0.59852   14.134
 3833.00    0.63256   0.55740   15.809
 3834.00    0.52887   0.52282   18.908
 3835.00    0.47563   0.50167   21.025
 3836.00    0.51426   0.49835   19.445
 3837.00    0.59295   0.51346   16.865
 3838.00    0.63874   0.54351   15.656
 3839.00    0.63979   0.58256   15.630
 3840.00    0.62127   0.62522   16.096
 3841.00    0.61252   0.66771   16.326
 3842.00    0.63193   0.70743   15.824
 3843.00    0.67737   0.74254   14.763
 3844.00    0.73464   0.77197   13.612
 3845.00    0.78615   0.79538   12.720
 3846.00    0.82190   0.81328   12.167
 3847.00    0.84482   0.82668    0.000
 3848.00    0.85879   0.83687    0.000
 3849.00    0.86097   0.84502    0.000
 3850.00    0.84228   0.85194    0.000
 3851.00    0.79444   0.85834    0.000
 3852.00    0.74181   0.86435    0.000
 3853.00    0.73967   0.86885    0.000
 3854.00    0.79813   0.87060    0.000
 3855.00    0.86512   0.86964    0.000
 3856.00    0.89376   0.86717    0.000
 3857.00    0.87141   0.86470    0.000
 3858.00    0.82362   0.86362    0.000
 3859.00    0.79452   0.86445    0.000
 3860.00    0.78473   0.86695    0.000
 3861.00    0.76083   0.87115    0.000
 3862.00    0.73518   0.87658    0.000
 3863.00    0.75448   0.88134    0.000
 3864.00    0.81641   0.88353    0.000
 3865.00    0.87754   0.88304    0.000
 3866.00    0.91699   0.88096    0.000
 3867.00    0.93215   0.87807    0.000
 3868.00    0.90349   0.87428    0.000
 3869.00    0.82815   0.86904    0.000
 3870.00    0.78678   0.86210    0.000
 3871.00    0.85524   0.85383    0.000
 3872.00    0.95418   0.84570    0.000
 3873.00    0.95697   0.83977    0.000
 3874.00    0.87090   0.83647    0.000
 3875.00    0.77929   0.83365    0.000
 3876.00    0.73501   0.82818    0.000
 3877.00    0.74317   0.81868    0.000
 3878.00    0.76117   0.80595    0.000
 3879.00    0.75397   0.79167    0.000
 3880.00    0.74400   0.77683    0.000
 3881.00    0.74898   0.76065   13.351
 3882.00    0.72904   0.74053   13.717
 3883.00    0.65853   0.71431   15.185
 3884.00    0.58070   0.68168   17.221
 3885.00    0.54750   0.64328   18.265
 3886.00    0.57202   0.60128   17.482
 3887.00    0.62705   0.56133   15.948
 3888.00    0.65705   0.53158   15.219
 3889.00    0.64170   0.51913   15.584
 3890.00    0.62019   0.52709   16.124
 3891.00    0.62350   0.55375   16.039
 3892.00    0.64439   0.59261   15.519
 3893.00    0.66921   0.63498   14.943
 3894.00    0.69424   0.67436   14.404
 3895.00    0.72744   0.70797   13.747
 3896.00    0.77956   0.73572   12.828
 3897.00    0.83044   0.75871   12.042
 3898.00    0.83644   0.77821   11.955
 3899.00    0.79514   0.79491   12.576
 3900.00    0.75117   0.80947   13.313
 3901.00    0.74869   0.82264   13.357
 3902.00    0.80672   0.83418   12.395
 3903.00    0.89437   0.84318   11.181
 3904.00    0.95022   0.84968   10.525
 3905.00    0.94204   0.85543   10.616
 3906.00    0.88131   0.86254   11.343
 3907.00    0.82161   0.87196   12.168
 3908.00    0.82224   0.88353   12.175
 3909.00    0.88300   0.89557   11.332
 3910.00    0.95569   0.90536   10.435
 3911.00    0.98565   0.91129   10.134
 3912.00    0.94901   0.91351   10.623
 3913.00    0.89367   0.91301   11.218
 3914.00    0.88120   0.91077   11.071
 3915.00    0.90382   0.90729   11.022
 3916.00    0.91627   0.90256   11.739
 3917.00    0.88947   0.89632   11.262
 3918.00    0.84226   0.88881    8.836
 3919.00    0.85665   0.88145    7.084
 3920.00    0.94955   0.87586    6.579
 3921.00    0.97381   0.87314    6.810
 3922.00    0.85764   0.87295    7.274
 3923.00    0.78135   0.87320    7.471
 3924.00    0.86934   0.87117    7.272
 3925.00    0.97823   0.86497    7.183
 3926.00    0.96682   0.85458    7.503
 3927.00    0.87347   0.84093    7.958
 3928.00    0.78353   0.82499    8.170
 3929.00    0.74028   0.80705    8.148
 3930.00    0.74836   0.78648    8.089
 3931.00    0.78322   0.76383    8.136
 3932.00    0.81630   0.74211    8.250
 3933.00    0.83027   0.72599    8.223
 3934.00    0.83055   0.72020    8.061
 3935.00    0.83953   0.72757    8.018
 3936.00    0.85614   0.74733    8.119
 3937.00    0.85378   0.77442    8.137
 3938.00    0.82854   0.80213    8.115
 3939.00    0.80129   0.82565    8.354
 3940.00    0.77100   0.84288    8.764
 3941.00    0.72414   0.85371    8.809
 3942.00    0.69991   0.85950    8.413
 3943.00    0.76386   0.86241    7.981
 3944.00    0.89929   0.86475    7.618
 3945.00    1.02262   0.86789    7.240
 3946.00    1.07774   0.87200    6.928
 3947.00    1.05981   0.87634    6.796
 3948.00    1.01726   0.87940    6.743
 3949.00    1.00430   0.88032    6.625
 3950.00    1.00036   0.87981    6.555
 3951.00    0.95955   0.87867    6.728
 3952.00    0.90752   0.87652    7.122
 3953.00    0.89279   0.87264    7.554
 3954.00    0.90010   0.86700    7.873
 3955.00    0.89352   0.86005    8.004
 3956.00    0.88297   0.85174    7.945
 3957.00    0.88566   0.84141    7.812
 3958.00    0.87738   0.82859    7.826
 3959.00    0.83885   0.81271    8.040
 3960.00    0.80180   0.79239    0.000
 3961.00    0.78738   0.76642    0.000
 3962.00    0.75485   0.73497    0.000
 3963.00    0.67653   0.69924    0.000
 3964.00    0.59400   0.66022    0.000
 3965.00    0.55177   0.61780    0.000
 3966.00    0.54819   0.57224    0.000
 3967.00    0.55359   0.52658    0.000
 3968.00    0.53208   0.48635    0.000
 3969.00    0.48647   0.45820    0.000
 3970.00    0.47209   0.44825    0.000
 3971.00    0.53391   0.45951    0.000
 3972.00    0.66914   0.49022    0.000
 3973.00    0.81235   0.53444    0.000
 3974.00    0.86153   0.58441    0.000
 3975.00    0.80847   0.63393    0.000
 3976.00    0.75169   0.67968    0.000
 3977.00    0.74370   0.72008    0.000
 3978.00    0.76025   0.75437    0.000
 3979.00    0.79038   0.78248    0.000
 3980.00    0.84545   0.80470    0.000
 3981.00    0.89665   0.82159    8.759
 3982.00    0.89304   0.83446    9.081
 3983.00    0.85565   0.84515    9.316
 3984.00    0.85399   0.85556    9.244
 3985.00    0.89446   0.86673    9.081
 3986.00    0.92886   0.87817    9.199
 3987.00    0.92765   0.88876    9.476
 3988.00    0.90024   0.89780    9.510
 3989.00    0.90063   0.90537    9.395
 3990.00    0.97282   0.91174    9.459
 3991.00    1.06306   0.91679    9.563
 3992.00    1.08666   0.92052    9.410
 3993.00    1.04612   0.92269    9.167
 3994.00    0.99872   0.92270    9.126
 3995.00    0.98822   0.92084    9.235
 3996.00    1.01642   0.91859    9.326
 3997.00    1.02652   0.91803    9.401
 3998.00    0.98294   0.92046    9.481
 3999.00    0.94835   0.92562    9.403
 4000.00    0.97521   0.93198    9.132
 4001.00    1.00681   0.93713    8.972
 4002.00    0.99310   0.93857    9.062
 4003.00    0.98438   0.93551    9.074
 4004.00    1.02041   0.92925    8.802
 4005.00    1.05140   0.92197    8.575
 4006.00    1.02637   0.91588    8.637
 4007.00    0.95517   0.91300    8.879
 4008.00    0.88828   0.91430    9.034
 4009.00    0.88761   0.91885    8.873
 4010.00    0.94892   0.92493    8.579
 4011.00    0.98662   0.93175    8.659
 4012.00    0.96634   0.93903    9.172
 4013.00    0.94739   0.94585    9.485
 4014.00    0.97613   0.95128    9.262
 4015.00    1.04267   0.95541    8.973
 4016.00    1.10320   0.95853    8.901
 4017.00    1.10791   0.96090    8.955
 4018.00    1.06235   0.96252    9.048
 4019.00    1.02191   0.96286    9.187
 4020.00    1.00887   0.96105    9.351
 4021.00    1.00376   0.95568    9.473
 4022.00    0.99461   0.94575    9.495
 4023.00    0.98562   0.93230    9.420
 4024.00    0.98317   0.91834    9.353
 4025.00    0.99106   0.90735    9.410
 4026.00    1.00793   0.90183    9.527
 4027.00    1.02518   0.90239    9.554
 4028.00    1.02509   0.90709    9.545
 4029.00    1.00000   0.91222    9.647
 4030.00    0.98415   0.91456    9.791
 4031.00    1.01032   0.91380    9.833
 4032.00    1.03727   0.91270    9.890
 4033.00    1.01230   0.91467   10.128
 4034.00    0.97028   0.92141   10.370
 4035.00    0.96938   0.93223   10.361
 4036.00    0.99701   0.94510   10.255
 4037.00    1.01820   0.95729   10.296
 4038.00    1.04028   0.96626   10.429
 4039.00    1.08129   0.97040   10.484
 4040.00    1.13172   0.96931   10.429
 4041.00    1.16172   0.96372   10.373
 4042.00    1.13558   0.95476   10.510
 4043.00    1.05210   0.94380   10.878
 4044.00    0.96827   0.93269   11.172
 4045.00    0.93647   0.92385   11.136
 4046.00    0.95932   0.92007   10.934
 4047.00    1.00484   0.92310   10.763
 4048.00    1.02607   0.93192   10.623
 4049.00    1.00585   0.94273   10.539
 4050.00    0.97310   0.95099   10.626
 4051.00    0.95299   0.95441   10.857
 4052.00    0.94588   0.95329   10.972
 4053.00    0.95372   0.94895   10.804
 4054.00    0.98489   0.94309   10.465
 4055.00    1.02150   0.93758   10.199
 4056.00    1.02310   0.93368   10.219
 4057.00    0.98963   0.93179   10.433
 4058.00    0.96366   0.93143   10.490
 4059.00    0.96119   0.93126   10.350
 4060.00    0.96410   0.92994   10.292
 4061.00    0.96654   0.92660   10.296
 4062.00    0.97590   0.92111   10.132
 4063.00    0.97953   0.91489   10.001
 4064.00    0.95952   0.91040   10.262
 4065.00    0.94541   0.90949   10.526
 4066.00    0.97912   0.91208   10.080
 4067.00    1.01980   0.91599    9.501
 4068.00    1.00184   0.91834    9.630
 4069.00    0.97387   0.91794   10.115
 4070.00    1.01595   0.91523   10.019
 4071.00    1.06622   0.91116    9.611
 4072.00    1.02277   0.90656    9.662
 4073.00    0.93070   0.90199   10.151
 4074.00    0.89419   0.89733   10.578
 4075.00    0.92573   0.89187   10.539
 4076.00    0.97668   0.88561   10.138
 4077.00    0.99944   0.88064   10.013
 4078.00    0.98116   0.88002   10.483
 4079.00    0.96569   0.88489   10.869
 4080.00    0.98654   0.89331   10.498
 4081.00    1.00810   0.90135   10.078
 4082.00    0.99471   0.90552   10.267
 4083.00    0.96766   0.90480   10.862
 4084.00    0.95069   0.90068   11.367
 4085.00    0.93001   0.89587   11.503
 4086.00    0.89286   0.89242   11.379
 4087.00    0.85309   0.89052   11.382
 4088.00    0.83145   0.88877   11.604
 4089.00    0.84097   0.88524   11.639
 4090.00    0.87904   0.87842   11.342
 4091.00    0.92420   0.86763   11.129
 4092.00    0.94060   0.85283    0.000
 4093.00    0.89283   0.83396    0.000
 4094.00    0.79877   0.81070    0.000
 4095.00    0.73043   0.78287    0.000
 4096.00    0.72821   0.75040    0.000
 4097.00    0.77403   0.71355    0.000
 4098.00    0.81862   0.67362    0.000
 4099.00    0.81337   0.63336    0.000
 4100.00    0.77470   0.59705    0.000
 4101.00    0.76578   0.57060    0.000
 4102.00    0.79290   0.56001    0.000
 4103.00    0.80808   0.56855    0.000
 4104.00    0.78721   0.59479    0.000
 4105.00    0.74371   0.63260    0.000
 4106.00    0.71372   0.67361    0.000
 4107.00    0.73035   0.71125    0.000
 4108.00    0.78156   0.74258    0.000
 4109.00    0.82574   0.76753    0.000
 4110.00    0.83398   0.78778    0.000
 4111.00    0.80194   0.80549    0.000
 4112.00    0.75559   0.82219    0.000
 4113.00    0.73378   0.83823   12.868
 4114.00    0.76154   0.85279   12.983
 4115.00    0.83223   0.86445   12.827
 4116.00    0.89391   0.87196   12.460
 4117.00    0.90307   0.87493   12.104
 4118.00    0.88230   0.87437   11.899
 4119.00    0.87090   0.87235   11.881
 4120.00    0.87124   0.87132   11.983
 4121.00    0.87371   0.87329   12.107
 4122.00    0.88262   0.87894   12.178
 4123.00    0.90576   0.88705   12.144
 4124.00    0.94292   0.89528   11.980
 4125.00    0.97573   0.90124   11.763
 4126.00    0.96898   0.90340   11.682
 4127.00    0.92239   0.90156   11.804
 4128.00    0.89022   0.89671   11.985
 4129.00    0.89687   0.89057   12.083
 4130.00    0.90211   0.88497   12.097
 4131.00    0.88031   0.88141   12.075
 4132.00    0.85352   0.88094   12.059
 4133.00    0.84713   0.88422   12.119
 4134.00    0.86797   0.89139   12.317
 4135.00    0.90406   0.90154   12.460
 4136.00    0.93225   0.91261   12.176
 4137.00    0.94457   0.92208   11.673
 4138.00    0.95311   0.92772   11.525
 4139.00    0.97359   0.92777   11.660
 4140.00    1.00801   0.92141   11.529
 4141.00    1.01247   0.90928   11.297
 4142.00    0.93643   0.89402   11.605
 4143.00    0.84420   0.88028   12.261
 4144.00    0.85294   0.87289   12.358
 4145.00    0.92051   0.87422   12.083
 4146.00    0.91621   0.88301   12.335
 4147.00    0.86467   0.89499   12.918
 4148.00    0.87497   0.90518   12.922
 4149.00    0.91974   0.91085   12.577
 4150.00    0.90819   0.91236   12.637
 4151.00    0.86971   0.91134   12.813
 4152.00    0.88594   0.90921   12.454
 4153.00    0.94805   0.90701   11.911
 4154.00    0.99284   0.90543   11.821
 4155.00    0.97998   0.90513   12.278
 4156.00    0.92027   0.90682   12.973
 4157.00    0.88961   0.91071   13.210
 4158.00    0.93635   0.91618   12.680
 4159.00    0.99193   0.92208   12.224
 4160.00    0.98420   0.92737   12.446
 4161.00    0.94535   0.93137   12.965
 4162.00    0.93172   0.93379   13.190
 4163.00    0.95002   0.93463   13.180
 4164.00    0.98258   0.93404   13.202
 4165.00    1.01102   0.93213   13.280
 4166.00    1.01628   0.92904   13.377
 4167.00    0.98164   0.92511   13.540
 4168.00    0.91724   0.92063   13.806
 4169.00    0.86641   0.91535   14.131
 4170.00    0.85803   0.90883   14.385
 4171.00    0.88286   0.90122   14.398
 4172.00    0.90895   0.89351   14.216
 4173.00    0.90155   0.88736   14.111
 4174.00    0.87173   0.88418   14.145
 4175.00    0.87361   0.88433   14.113
 4176.00    0.91277   0.88695   13.996
 4177.00    0.93592   0.89060   14.008
 4178.00    0.91995   0.89437   14.179
 4179.00    0.88849   0.89811   14.328
 4180.00    0.86449   0.90189   14.412
 4181.00    0.85704   0.90551   14.530
 4182.00    0.86737   0.90854   14.579
 4183.00    0.89171   0.91056   14.332
 4184.00    0.92394   0.91134   13.896
 4185.00    0.95559   0.91102   13.572
 4186.00    0.97470   0.90992   13.445
 4187.00    0.97321   0.90868   13.450
 4188.00    0.96084   0.90836   13.560
 4189.00    0.95075   0.90983   13.788
 4190.00    0.93150   0.91333   14.122
 4191.00    0.89319   0.91827   14.460
 4192.00    0.87270   0.92297   14.519
 4193.00    0.90480   0.92541   14.149
 4194.00    0.94832   0.92428   13.740
 4195.00    0.94294   0.91933   13.728
 4196.00    0.89101   0.91129   14.182
 4197.00    0.83514   0.90188   14.891
 4198.00    0.81935   0.89341   15.392
 4199.00    0.85891   0.88772   15.311
 4200.00    0.91870   0.88530   14.864
 4201.00    0.95704   0.88574   14.361
 4202.00    0.96577   0.88858   13.805
 4203.00    0.95823   0.89333   13.299
 4204.00    0.95378   0.89937   13.224
 4205.00    0.95490   0.90632   13.666
 4206.00    0.93893   0.91357   14.109
 4207.00    0.90778   0.92005   14.126
 4208.00    0.90743   0.92498   13.970
 4209.00    0.95008   0.92816   13.864
 4210.00    0.98455   0.92963   13.651
 4211.00    0.98124   0.92950   13.320
 4212.00    0.96467   0.92773   13.140
 4213.00    0.95398   0.92438   13.212
 4214.00    0.94361   0.92013   13.372
 4215.00    0.94104   0.91651   13.420
 4216.00    0.96807   0.91542   13.272
 4217.00    1.00794   0.91788   13.066
 4218.00    1.01134   0.92309   13.063
 4219.00    0.97900   0.92867   13.307
 4220.00    0.96020   0.93146   13.614
 4221.00    0.96943   0.92880   13.834
 4222.00    0.97860   0.91974   13.941
 4223.00    0.96199   0.90513   14.004
 4224.00    0.91760   0.88738   14.097
 4225.00    0.88631   0.87030   14.116
 4226.00    0.91434   0.85855   13.940
 4227.00    0.96979   0.85568   13.832
 4228.00    0.98147   0.86231   14.131
 4229.00    0.94105   0.87556   14.626
 4230.00    0.89400   0.89030   14.770
 4231.00    0.89127   0.90152   14.488
 4232.00    0.94868   0.90650   14.130
 4233.00    1.00403   0.90585   14.018
 4234.00    0.99231   0.90235   14.237
 4235.00    0.94729   0.89880   14.465
 4236.00    0.92692   0.89700   14.423
 4237.00    0.91477   0.89763   14.484
 4238.00    0.87990   0.90039   14.958
 4239.00    0.84801   0.90477   15.288
 4240.00    0.85810   0.91046   14.950
 4241.00    0.91385   0.91684   14.534
 4242.00    0.97862   0.92302   14.611
 4243.00    0.98629   0.92801   15.003
 4244.00    0.93325   0.93057   -2.000
 4245.00    0.92494   0.92968   -2.000
 4246.00    1.01157   0.92524   -2.000
 4247.00    1.09799   0.91815   -2.000
 4248.00    1.09936   0.90992   -2.000
 4249.00    1.02838   0.90228   -2.000
 4250.00    0.92659   0.89659   -2.000
 4251.00    0.82568   0.89334   -2.000
 4252.00    0.75678   0.89221   -2.000
 4253.00    0.75070   0.89271   -2.000
 4254.00    0.81640   0.89466   -2.000
 4255.00    0.92975   0.89762   -2.000
 4256.00    1.02818   0.90055   -2.000
 4257.00    1.03860   0.90223   -2.000
 4258.00    0.97614   0.90195   -2.000
 4259.00    0.93297   0.90025   -2.000
 4260.00    0.93968   0.89902   15.210
 4261.00    0.95512   0.90062   15.497
 4262.00    0.95832   0.90616   15.602
 4263.00    0.96098   0.91437   15.594
 4264.00    0.97396   0.92218   15.684
 4265.00    0.99560   0.92640   16.053
 4266.00    1.00569   0.92521   16.470
 4267.00    0.98420   0.91870   16.494
 4268.00    0.94842   0.90826   16.247
 4269.00    0.93216   0.89566   16.158
 4270.00    0.93778   0.88269   16.254
 4271.00    0.94718   0.87128   16.319
 4272.00    0.95169   0.86332   16.271
 4273.00    0.94724   0.86024   16.206
 4274.00    0.92264   0.86263   16.351
 4275.00    0.87876   0.87000   16.821
 4276.00    0.85122   0.88060   17.320
 4277.00    0.86890   0.89179   17.455
 4278.00    0.90837   0.90098   17.288
 4279.00    0.93553   0.90652   17.042
 4280.00    0.94971   0.90800   16.718
 4281.00    0.95884   0.90626   16.371
 4282.00    0.95556   0.90283   16.293
 4283.00    0.93602   0.89900   16.581
 4284.00    0.91441   0.89523   16.854
 4285.00    0.90615   0.89109   16.770
 4286.00    0.91456   0.88583   16.468
 4287.00    0.92840   0.87909   16.268
 4288.00    0.92597   0.87145   16.397
 4289.00    0.90421   0.86463   16.763
 4290.00    0.88847   0.86074   16.889
 4291.00    0.89563   0.86094   16.555
 4292.00    0.91759   0.86456   16.098
 4293.00    0.93579   0.86932   15.867
 4294.00    0.93294   0.87252   16.001
 4295.00    0.91108   0.87210   16.339
 4296.00    0.89038   0.86722   16.467
 4297.00    0.87841   0.85831   16.277
 4298.00    0.86750   0.84675   16.055
 4299.00    0.86294   0.83456   15.931
 4300.00    0.87815   0.82389   15.835
 4301.00    0.89456   0.81645   15.788
 4302.00    0.87502   0.81287   15.889
 4303.00    0.82748   0.81237   16.086
 4304.00    0.79487   0.81325   16.220
 4305.00    0.79360   0.81369   16.312
 4306.00    0.81443   0.81272   16.446
 4307.00    0.85330   0.81095   16.366
 4308.00    0.89765   0.81016   15.896
 4309.00    0.89259   0.81211   15.734
 4310.00    0.80580   0.81767   16.553
 4311.00    0.73643   0.82633   17.507
 4312.00    0.79023   0.83688   17.035
 4313.00    0.88099   0.84842   15.831
 4314.00    0.88162   0.86070   15.242
 4315.00    0.85000   0.87364   15.364
 4316.00    0.88849   0.88643   15.751
 4317.00    0.95381   0.89725   15.886
 4318.00    0.96774   0.90398   15.587
 4319.00    0.94950   0.90517   15.345
 4320.00    0.93914   0.90049   15.545
 4321.00    0.91941   0.89042   15.897
 4322.00    0.87883   0.87604   16.012
 4323.00    0.86106   0.85896   15.978
 4324.00    0.88424   0.84177   16.021
 4325.00    0.89104   0.82788   16.183
 4326.00    0.85017   0.82024   16.361
 4327.00    0.81276   0.81961   16.383
 4328.00    0.81622   0.82381   16.320
 4329.00    0.83396   0.82888   16.545
 4330.00    0.83636   0.83103    0.000
 4331.00    0.82308   0.82813    0.000
 4332.00    0.80870   0.81963    0.000
 4333.00    0.80956   0.80549    0.000
 4334.00    0.82134   0.78513    0.000
 4335.00    0.82015   0.75741    0.000
 4336.00    0.80339   0.72187    0.000
 4337.00    0.79538   0.68031    0.000
 4338.00    0.81129   0.63766    0.000
 4339.00    0.84780   0.60120    0.000
 4340.00    0.89379   0.57823    0.000
 4341.00    0.93620   0.57348    0.000
 4342.00    0.96586   0.58731    0.000
 4343.00    0.97677   0.61559    0.000
 4344.00    0.96042   0.65186    0.000
 4345.00    0.91132   0.68986    0.000
 4346.00    0.84147   0.72497    0.000
 4347.00    0.77688   0.75438    0.000
 4348.00    0.74398   0.77682    0.000
 4349.00    0.75778   0.79207    0.000
 4350.00    0.80649   0.80111    0.000
 4351.00    0.85646   0.80651   18.293
 4352.00    0.86632   0.81187   18.139
 4353.00    0.82726   0.82017   18.725
 4354.00    0.80916   0.83231   19.296
 4355.00    0.86727   0.84689   18.818
 4356.00    0.92793   0.86136   18.126
 4357.00    0.90625   0.87348   18.239
 4358.00    0.84423   0.88257   18.853
 4359.00    0.81941   0.88954   19.197
 4360.00    0.84159   0.89608   19.066
 4361.00    0.87891   0.90329   18.772
 4362.00    0.89457   0.91106   18.774
 4363.00    0.88602   0.91825   19.170
 4364.00    0.90280   0.92330   19.410
 4365.00    0.96236   0.92500   19.103
 4366.00    1.00354   0.92314   18.637
 4367.00    0.98742   0.91876   18.427
 4368.00    0.95103   0.91364   18.532
 4369.00    0.92825   0.90930   18.924
 4370.00    0.91026   0.90615   19.565
 4371.00    0.88858   0.90353   20.134
 4372.00    0.87393   0.90049   20.019
 4373.00    0.87544   0.89683   19.384
 4374.00    0.89139   0.89367   19.138
 4375.00    0.91253   0.89284   19.432
 4376.00    0.92636   0.89545   19.552
 4377.00    0.92656   0.90068   19.298
 4378.00    0.91641   0.90575   19.219
 4379.00    0.90807   0.90711   19.544
 4380.00    0.91362   0.90202   20.022
 4381.00    0.92118   0.88992   20.337
 4382.00    0.90604   0.87278   20.319
 4383.00    0.87614   0.85473   20.140
 4384.00    0.86240   0.84042   20.118
 4385.00    0.86966   0.83307   20.230
 4386.00    0.87851   0.83325   20.271
 4387.00    0.87299   0.83924   20.385
 4388.00    0.85299   0.84851   20.792
 4389.00    0.84455   0.85902   21.074
 4390.00    0.87146   0.86951   20.691
 4391.00    0.90801   0.87913   20.143
 4392.00    0.91383   0.88730   20.113
 4393.00    0.89445   0.89383   20.287
 4394.00    0.88035   0.89908   20.082
 4395.00    0.88748   0.90378   19.746
 4396.00    0.90960   0.90835   19.691
 4397.00    0.91809   0.91233   19.676
 4398.00    0.89640   0.91454   19.423
 4399.00    0.87225   0.91412   19.253
 4400.00    0.87575   0.91114   19.423
 4401.00    0.89930   0.90635   19.570
 4402.00    0.92093   0.90049   19.365
 4403.00    0.92757   0.89413   19.091
 4404.00    0.91850   0.88813   19.035
 4405.00    0.90485   0.88379   19.097
 4406.00    0.89707   0.88258   19.150
 4407.00    0.89746   0.88530   19.246
 4408.00    0.90700   0.89168   19.344
 4409.00    0.92765   0.90048   19.214
 4410.00    0.95094   0.90968   18.905
 4411.00    0.95755   0.91676   18.832
 4412.00    0.94560   0.91943   19.139
 4413.00    0.93556   0.91677   19.531
 4414.00    0.93175   0.91005   19.757
 4415.00    0.91530   0.90251   19.829
 4416.00    0.88233   0.89786   19.862
 4417.00    0.85265   0.89848   19.958
 4418.00    0.84771   0.90413   20.114
 4419.00    0.87685   0.91225   20.213
 4420.00    0.92080   0.91959   20.121
 4421.00    0.94330   0.92397   19.809
 4422.00    0.93566   0.92510   19.538
 4423.00    0.91786   0.92418   19.656
 4424.00    0.91096   0.92275   20.097
 4425.00    0.92404   0.92170   20.444
 4426.00    0.94184   0.92111   20.383
 4427.00    0.93950   0.92063   19.967
 4428.00    0.91537   0.91988   19.706
 4429.00    0.88740   0.91865   20.033
 4430.00    0.87510   0.91676   20.550
 4431.00    0.88824   0.91405   20.531
 4432.00    0.91505   0.91047   20.165
 4433.00    0.93357   0.90638   20.022
 4434.00    0.93030   0.90293   20.068
 4435.00    0.90643   0.90181   20.047
 4436.00    0.88093   0.90438   20.030
 4437.00    0.87214   0.91042   20.217
 4438.00    0.87789   0.91776   20.641
 4439.00    0.88792   0.92323   21.096
 4440.00    0.89781   0.92444   21.119
 4441.00    0.90416   0.92132   20.649
 4442.00    0.90080   0.91621   20.427
 4443.00    0.89356   0.91251   20.779
 4444.00    0.90669   0.91267   20.927
 4445.00    0.94177   0.91693   20.392
 4446.00    0.95789   0.92346   19.921
 4447.00    0.93768   0.92970   20.047
 4448.00    0.91843   0.93373   20.481
 4449.00    0.92033   0.93481   20.805
 4450.00    0.91738   0.93308   20.875
 4451.00    0.90668   0.92889   20.745
 4452.00    0.92601   0.92254   20.572
 4453.00    0.96787   0.91451   20.509
 4454.00    0.96814   0.90572   20.649
 4455.00    0.92192   0.89749   20.929
 4456.00    0.89716   0.89110   21.144
 4457.00    0.91075   0.88706   21.165
 4458.00    0.91361   0.88504   21.029
 4459.00    0.89130   0.88437   20.876
 4460.00    0.87512   0.88478   20.852
 4461.00    0.87796   0.88649    0.000
 4462.00    0.88708   0.88975    0.000
 4463.00    0.89470   0.89418    0.000
 4464.00    0.90229   0.89854    0.000
 4465.00    0.91156   0.90115    0.000
 4466.00    0.92037   0.90070    0.000
 4467.00    0.91944   0.89690    0.000
 4468.00    0.90248   0.89079    0.000
 4469.00    0.88498   0.88451    0.000
 4470.00    0.88861   0.88077    0.000
 4471.00    0.91102   0.88192    0.000
 4472.00    0.93366   0.88896    0.000
 4473.00    0.94102   0.90096    0.000
 4474.00    0.93020   0.91527    0.000
 4475.00    0.91827   0.92856    0.000
 4476.00    0.92066   0.93779    0.000
 4477.00    0.92677   0.94095    0.000
 4478.00    0.92157   0.93749    0.000
 4479.00    0.90982   0.92876    0.000
 4480.00    0.90267   0.91809    0.000
 4481.00    0.90290   0.90987    0.000
 4482.00    0.90636   0.90776   20.973
 4483.00    0.90566   0.91274   20.982
 4484.00    0.90062   0.92259   21.483
 4485.00    0.90307   0.93306   21.996
 4486.00    0.91724   0.94013   22.048
 4487.00    0.92969   0.94183   21.763
 4488.00    0.93212   0.93888   21.392
 4489.00    0.93163   0.93382   21.023
 4490.00    0.92914   0.92932   20.820
 4491.00    0.91417   0.92680   21.040
 4492.00    0.89772   0.92603   21.496
 4493.00    0.91233   0.92596   21.493
 4494.00    0.94435   0.92597   21.083
 4495.00    0.93558   0.92642   21.096
 4496.00    0.90106   0.92821   21.247
 4497.00    0.92551   0.93182   20.200
 4498.00    0.99702   0.93682   18.262
 4499.00    1.01061   0.94229   16.811
 4500.00    0.95365   0.94769   16.183
 4501.00    0.91091   0.95319   16.099
 4502.00    0.92203   0.95926   16.296
 4503.00    0.96268   0.96577   16.619
 4504.00    0.99672   0.97168   17.158
 4505.00    1.00101   0.97559   18.117
 4506.00    0.98886   0.97676   19.274
 4507.00    0.98852   0.97560   20.043
 4508.00    0.99334   0.97325   20.412
 4509.00    0.98097   0.97071   20.838
 4510.00    0.96178   0.96813   21.318
 4511.00    0.95700   0.96501   21.553
 4512.00    0.95403   0.96088   21.583
 4513.00    0.93455   0.95587   21.590
 4514.00    0.91987   0.95082   21.432
 4515.00    0.93359   0.94676   21.039
 4516.00    0.95142   0.94435   20.858
 4517.00    0.94549   0.94365   21.221
 4518.00    0.93569   0.94415   21.707
 4519.00    0.94067   0.94498   21.742
 4520.00    0.93054   0.94512   21.403
 4521.00    0.89077   0.94365   21.094
 4522.00    0.87284   0.94003   21.110
 4523.00    0.90688   0.93419   21.458
 4524.00    0.94053   0.92652   21.770
 4525.00    0.92836   0.91764   21.800
 4526.00    0.89165   0.90835   21.779
 4527.00    0.86805   0.89968   21.868
 4528.00    0.87518   0.89283   21.874
 4529.00    0.90292   0.88871   21.743
 4530.00    0.91775   0.88748   21.756
 4531.00    0.90155   0.88837   22.038
 4532.00    0.86842   0.89033   22.358
 4533.00    0.84927   0.89283   22.384
 4534.00    0.87239   0.89640   21.952
 4535.00    0.91718   0.90208   21.477
 4536.00    0.92468   0.91023   21.639
 4537.00    0.90141   0.91973   22.217
 4538.00    0.91396   0.92845   22.153
 4539.00    0.95129   0.93444   21.579
 4540.00    0.93588   0.93713   21.621
 4541.00    0.88298   0.93735   22.152
 4542.00    0.88156   0.93638   22.003
 4543.00    0.92866   0.93502   21.274
 4544.00    0.94895   0.93331   20.993
 4545.00    0.93652   0.93086   21.172
 4546.00    0.93643   0.92739   21.181
 4547.00    0.94161   0.92296   21.049
 4548.00    0.91600   0.91809   21.223
 4549.00    0.87394   0.91357   21.630
 4550.00    0.85529   0.91009    0.000
 4551.00    0.86242   0.90788    0.000
 4552.00    0.87486   0.90676    0.000
 4553.00    0.88524   0.90665    0.000
 4554.00    0.89681   0.90795    0.000
 4555.00    0.91305   0.91145    0.000
 4556.00    0.93185   0.91761    0.000
 4557.00    0.94152   0.92592    0.000
 4558.00    0.93546   0.93492    0.000
 4559.00    0.92633   0.94268    0.000
 4560.00    0.92836   0.94760    0.000
 4561.00    0.94085   0.94891    0.000
 4562.00    0.96016   0.94693    0.000
 4563.00    0.98872   0.94302    0.000
 4564.00    1.01680   0.93918    0.000
 4565.00    1.01437   0.93731    0.000
 4566.00    0.97448   0.93822    0.000
 4567.00    0.93415   0.94120    0.000
 4568.00    0.92001   0.94447    0.000
 4569.00    0.92084   0.94632    0.000
 4570.00    0.92332   0.94617    0.000
 4571.00    0.92840   0.94477    0.000
 4572.00    0.93222   0.94356    0.000
 4573.00    0.92335   0.94357    0.000
 4574.00    0.91155   0.94469    0.000
 4575.00    0.92550   0.94585    0.000
 4576.00    0.95724   0.94573    0.000
 4577.00    0.96369   0.94343    0.000
 4578.00    0.94414   0.93887    0.000
 4579.00    0.93963   0.93275    0.000
 4580.00    0.95018   0.92632    0.000
 4581.00    0.93774   0.92086    0.000
 4582.00    0.90267   0.91730    0.000
 4583.00    0.87901   0.91600    0.000
 4584.00    0.87282   0.91692    0.000
 4585.00    0.86887   0.91971    0.000
 4586.00    0.87706   0.92383    0.000
 4587.00    0.91377   0.92843    0.000
 4588.00    0.94869   0.93244    0.000
 4589.00    0.94105   0.93481    0.000
 4590.00    0.91672   0.93498    0.000
 4591.00    0.92243   0.93316    0.000
 4592.00    0.93851   0.93024    0.000
 4593.00    0.92512   0.92735    0.000
 4594.00    0.90111   0.92534    0.000
 4595.00    0.90241   0.92458    0.000
 4596.00    0.92014   0.92495    0.000
 4597.00    0.93000   0.92600    0.000
 4598.00    0.93158   0.92717    0.000
 4599.00    0.93402   0.92797    0.000
 4600.00    0.93806   0.92829    0.000
 4601.00    0.93885   0.92835    0.000
 4602.00    0.93118   0.92866    0.000
 4603.00    0.91921   0.92971    0.000
 4604.00    0.92008   0.93189    0.000
 4605.00    0.93610   0.93544    0.000
 4606.00    0.94163   0.94037    0.000
 4607.00    0.92812   0.94629    0.000
 4608.00    0.92429   0.95225    0.000
 4609.00    0.94248   0.95702    0.000
 4610.00    0.95674   0.95965    0.000
 4611.00    0.95178   0.96000    0.000
 4612.00    0.94162   0.95872    0.000
 4613.00    0.93673   0.95683    0.000
 4614.00    0.93380   0.95514    0.000
 4615.00    0.93702   0.95384    0.000
 4616.00    0.95691   0.95271    0.000
 4617.00    0.97502   0.95153    0.000
 4618.00    0.95552   0.95045    0.000
 4619.00    0.92163   0.94997    0.000
 4620.00    0.93777   0.95057    0.000
 4621.00    0.98971   0.95225    0.000
 4622.00    1.00320   0.95446    0.000
 4623.00    0.97825   0.95630    0.000
 4624.00    0.97306   0.95709    0.000
 4625.00    0.98923   0.95657    0.000
 4626.00    0.98478   0.95502    0.000
 4627.00    0.95426   0.95297    0.000
 4628.00    0.92440   0.95098    0.000
 4629.00    0.91560   0.94945    0.000
 4630.00    0.93004   0.94842    0.000
 4631.00    0.94522   0.94752    0.000
 4632.00    0.93747   0.94619    0.000
 4633.00    0.91597   0.94401    0.000
 4634.00    0.90451   0.94093    0.000
 4635.00    0.91123   0.93727    0.000
 4636.00    0.92587   0.93346    0.000
 4637.00    0.92356   0.92995    0.000
 4638.00    0.89452   0.92718    0.000
 4639.00    0.87061   0.92555    0.000
 4640.00    0.88222   0.92522    0.000
 4641.00    0.91816   0.92574    0.000
 4642.00    0.94952   0.92608    0.000
 4643.00    0.95442   0.92497    0.000
 4644.00    0.93160   0.92156    0.000
 4645.00    0.90468   0.91606    0.000
 4646.00    0.89021   0.90981    0.000
 4647.00    0.88025   0.90480    0.000
 4648.00    0.86967   0.90276    0.000
 4649.00    0.86907   0.90437    0.000
 4650.00    0.88202   0.90895    0.000
 4651.00    0.89656   0.91480    0.000
 4652.00    0.90580   0.92008    0.000
 4653.00    0.91450   0.92368    0.000
 4654.00    0.92318   0.92571    0.000
 4655.00    0.92479   0.92738    0.000
 4656.00    0.91865   0.93021    0.000
 4657.00    0.91321   0.93504    0.000
 4658.00    0.91652   0.94128    0.000
 4659.00    0.93031   0.94715    0.000
 4660.00    0.94276   0.95047    0.000
 4661.00    0.93630   0.94978    0.000
 4662.00    0.91371   0.94485    0.000
 4663.00    0.89411   0.93646    0.000
 4664.00    0.88643   0.92589    0.000
 4665.00    0.88734   0.91460    0.000
 4666.00    0.89118   0.90424    0.000
 4667.00    0.89287   0.89667    0.000
 4668.00    0.88937   0.89349    0.000
 4669.00    0.88107   0.89530    0.000
 4670.00    0.87338   0.90123    0.000
 4671.00    0.87216   0.90929    0.000
 4672.00    0.87645   0.91734    0.000
 4673.00    0.88281   0.92396    0.000
 4674.00    0.89235   0.92868    0.000
 4675.00    0.90543   0.93160    0.000
 4676.00    0.91470   0.93281    0.000
 4677.00    0.91181   0.93230    0.000
 4678.00    0.89618   0.93022    0.000
 4679.00    0.87840   0.92716    0.000
 4680.00    0.87963   0.92414    0.000
 4681.00    0.90225   0.92219    0.000
 4682.00    0.91082   0.92186    0.000
 4683.00    0.89000   0.92299    0.000
 4684.00    0.88181   0.92486    0.000
 4685.00    0.91080   0.92665    0.000
 4686.00    0.93924   0.92782    0.000
 4687.00    0.93558   0.92824    0.000
 4688.00    0.91427   0.92813    0.000
 4689.00    0.90105   0.92782    0.000
 4690.00    0.90935   0.92773    0.000
 4691.00    0.92862   0.92822    0.000
 4692.00    0.93005   0.92951    0.000
 4693.00    0.91551   0.93146    0.000
 4694.00    0.92139   0.93344    0.000
 4695.00    0.94448   0.93441    0.000
 4696.00    0.93771   0.93338    0.000
 4697.00    0.90289   0.92994    0.000
 4698.00    0.89317   0.92452    0.000
 4699.00    0.91326   0.91822    0.000
 4700.00    0.91835   0.91230    0.000
 4701.00    0.90357   0.90767    0.000
 4702.00    0.90164   0.90475    0.000
 4703.00    0.91139   0.90348    0.000
 4704.00    0.90524   0.90345    0.000
 4705.00    0.88762   0.90404    0.000
 4706.00    0.88444   0.90470    0.000
 4707.00    0.89535   0.90519    0.000
 4708.00    0.90235   0.90570    0.000
 4709.00    0.90286   0.90651    0.000
 4710.00    0.90473   0.90769    0.000
 4711.00    0.90862   0.90898    0.000
 4712.00    0.91150   0.91014    0.000
 4713.00    0.91550   0.91142    0.000
 4714.00    0.92281   0.91362    0.000
 4715.00    0.92809   0.91761    0.000
 4716.00    0.92726   0.92365    0.000
 4717.00    0.92774   0.93112    0.000
 4718.00    0.93658   0.93878    0.000
 4719.00    0.94795   0.94535    0.000
 4720.00    0.95419   0.95001    0.000
 4721.00    0.95645   0.95261    0.000
 4722.00    0.95660   0.95337    0.000
 4723.00    0.95076   0.95250    0.000
 4724.00    0.93724   0.94989    0.000
 4725.00    0.92217   0.94522    0.000
 4726.00    0.91419   0.93839    0.000
 4727.00    0.91872   0.93004    0.000
 4728.00    0.92614   0.92161    0.000
 4729.00    0.91257   0.91484    0.000
 4730.00    0.88082   0.91104    0.000
 4731.00    0.86965   0.91057    0.000
 4732.00    0.89272   0.91280    0.000
 4733.00    0.92044   0.91649    0.000
 4734.00    0.92996   0.92040    0.000
 4735.00    0.92459   0.92370    0.000
 4736.00    0.92256   0.92619    0.000
 4737.00    0.94146   0.92810    0.000
 4738.00    0.96292   0.92975    0.000
 4739.00    0.94639   0.93128    0.000
 4740.00    0.90500   0.93269    0.000
 4741.00    0.89355   0.93399    0.000
 4742.00    0.91525   0.93532    0.000
 4743.00    0.92842   0.93680    0.000
 4744.00    0.92352   0.93851    0.000
 4745.00    0.92157   0.94035    0.000
 4746.00    0.93041   0.94212    0.000
 4747.00    0.94091   0.94355    0.000
 4748.00    0.93874   0.94432    0.000
 4749.00    0.91903   0.94411    0.000
 4750.00    0.90573   0.94272    0.000
 4751.00    0.92278   0.94012    0.000
 4752.00    0.94741   0.93655    0.000
 4753.00    0.94396   0.93257    0.000
 4754.00    0.91828   0.92887    0.000
 4755.00    0.89702   0.92609    0.000
 4756.00    0.89330   0.92455    0.000
 4757.00    0.90376   0.92408    0.000
 4758.00    0.91163   0.92402    0.000
 4759.00    0.90469   0.92338    0.000
 4760.00    0.89099   0.92128    0.000
 4761.00    0.88159   0.91734   27.838
 4762.00    0.87530   0.91193   27.868
 4763.00    0.86865   0.90609   27.597
 4764.00    0.86418   0.90120   27.342
 4765.00    0.86594   0.89847   27.364
 4766.00    0.87521   0.89852   27.605
 4767.00    0.88623   0.90119   27.870
 4768.00    0.88691   0.90562   27.969
 4769.00    0.87773   0.91062   27.900
 4770.00    0.87643   0.91521   27.857
 4771.00    0.88770   0.91899   27.828
 4772.00    0.89462   0.92219   27.567
 4773.00    0.89028   0.92524   27.386
 4774.00    0.88717   0.92835   27.991
 4775.00    0.89578   0.93127   28.514
 4776.00    0.91474   0.93342   27.113
 4777.00    0.92793   0.93431   26.455
 4778.00    0.91505   0.93369   31.157
 4779.00    0.88646   0.93165   33.735
 4780.00    0.87550   0.92854   20.513
 4781.00    0.88545   0.92480   12.464
 4782.00    0.89316   0.92088   10.483
 4783.00    0.89654   0.91721   10.899
 4784.00    0.90877   0.91405   11.273
 4785.00    0.91821   0.91159   10.969
 4786.00    0.90335   0.90996   10.966
 4787.00    0.88015   0.90927   11.331
 4788.00    0.88144   0.90970   11.411
 4789.00    0.90353   0.91149   11.089
 4790.00    0.92168   0.91483   10.760
 4791.00    0.93019   0.91967   10.719
 4792.00    0.93448   0.92561   10.930
 4793.00    0.93093   0.93176   10.798
 4794.00    0.91511   0.93689   10.291
 4795.00    0.89536   0.93986   11.080
 4796.00    0.88456   0.94007   15.912
 4797.00    0.88822   0.93783   28.079
 4798.00    0.90032   0.93428   33.749
 4799.00    0.90280   0.93089   28.115
 4800.00    0.89023   0.92874   26.805
 4801.00    0.88816   0.92807   28.244
 4802.00    0.91138   0.92823   28.352
 4803.00    0.93319   0.92818   27.622
 4804.00    0.92852   0.92716   27.635
 4805.00    0.90560   0.92512   27.952
 4806.00    0.88752   0.92264   27.865
 4807.00    0.89490   0.92051   27.546
 4808.00    0.92413   0.91934   27.268
 4809.00    0.94308   0.91927   26.983
 4810.00    0.93476   0.92009   26.788
 4811.00    0.91499   0.92145   27.010
 4812.00    0.90298   0.92309   27.525
 4813.00    0.90597   0.92499   27.625
 4814.00    0.91768   0.92722   27.167
 4815.00    0.92373   0.92979   26.810
 4816.00    0.92352   0.93251   26.869
 4817.00    0.92945   0.93488   27.113
 4818.00    0.93666   0.93623   27.258
 4819.00    0.92619   0.93584   27.176
 4820.00    0.90514   0.93328   26.985
 4821.00    0.89962   0.92865   26.922
 4822.00    0.90422   0.92275   26.982
 4823.00    0.89238   0.91685   26.977
 4824.00    0.87332   0.91222   26.895
 4825.00    0.87663   0.90951   26.825
 4826.00    0.89168   0.90851   26.627
 4827.00    0.88934   0.90833   26.172
 4828.00    0.88659   0.90804   25.853
 4829.00    0.91387   0.90715   26.030
 4830.00    0.94138   0.90573   26.073
 4831.00    0.92416   0.90428   25.280
 4832.00    0.88649   0.90329   24.443
 4833.00    0.87511   0.90294   24.485
 4834.00    0.88077   0.90301   25.005
 4835.00    0.87257   0.90289   25.213
 4836.00    0.85153   0.90191   25.301
 4837.00    0.83696   0.89967   25.702
 4838.00    0.84308   0.89623   26.062
 4839.00    0.86271   0.89206   26.026
 4840.00    0.85948   0.88785   26.119
 4841.00    0.82262   0.88422   26.663
 4842.00    0.80546   0.88149   26.866
 4843.00    0.83856   0.87952   26.201
 4844.00    0.87113   0.87780   25.474
 4845.00    0.86330   0.87560   25.312
 4846.00    0.84361   0.87226   25.438
 4847.00    0.83810   0.86748   25.466
 4848.00    0.83135   0.86140    0.000
 4849.00    0.81562   0.85428    0.000
 4850.00    0.81080   0.84617    0.000
 4851.00    0.81793   0.83659    0.000
 4852.00    0.80770   0.82477    0.000
 4853.00    0.77704   0.81004    0.000
 4854.00    0.76075   0.79216    0.000
 4855.00    0.77394   0.77125    0.000
 4856.00    0.80316   0.74748    0.000
 4857.00    0.85841   0.72107    0.000
 4858.00    0.97236   0.69278    0.000
 4859.00    1.13805   0.66469    0.000
 4860.00    1.30637   0.64057    0.000
 4861.00    1.43636   0.62499    0.000
 4862.00    1.50377   0.62154    0.000
 4863.00    1.48571   0.63114    0.000
 4864.00    1.37072   0.65160    0.000
 4865.00    1.18937   0.67844    0.000
 4866.00    1.00127   0.70665    0.000
 4867.00    0.85471   0.73215    0.000
 4868.00    0.77237   0.75263    0.000
 4869.00    0.74181   0.76762    0.000
 4870.00    0.73610   0.77823    0.000
 4871.00    0.74845   0.78646    0.000
 4872.00    0.77604   0.79441    0.000
 4873.00    0.79131   0.80350    0.000
 4874.00    0.77614   0.81413    0.000
 4875.00    0.76681   0.82588   29.070
 4876.00    0.79622   0.83784   28.645
 4877.00    0.82689   0.84910   27.875
 4878.00    0.82118   0.85886   28.176
 4879.00    0.81441   0.86644   28.930
 4880.00    0.84128   0.87145   29.031
 4881.00    0.86834   0.87380   28.637
 4882.00    0.86012   0.87384   28.389
 4883.00    0.83397   0.87220   28.547
 4884.00    0.81990   0.86965   28.953
 4885.00    0.82754   0.86687   29.092
 4886.00    0.84672   0.86431   28.858
 4887.00    0.85433   0.86218   28.903
 4888.00    0.84321   0.86069   29.503
 4889.00    0.83345   0.86031   30.058
 4890.00    0.84012   0.86195   30.171
 4891.00    0.85869   0.86671   30.193
 4892.00    0.88016   0.87523   30.304
 4893.00    0.89791   0.88704   30.203
 4894.00    0.90484   0.90041   29.857
 4895.00    0.89554   0.91291   29.641
 4896.00    0.87951   0.92233   29.701
 4897.00    0.87670   0.92744   29.873
 4898.00    0.88643   0.92829   30.110
 4899.00    0.88904   0.92599   30.496
 4900.00    0.88203   0.92218   30.833
 4901.00    0.88049   0.91842   30.755
 4902.00    0.88839   0.91587   30.452
 4903.00    0.89595   0.91498   30.443
 4904.00    0.89250   0.91550   30.637
 4905.00    0.87562   0.91656   30.570
 4906.00    0.86296   0.91698   30.357
 4907.00    0.87369   0.91582   30.416
 4908.00    0.89021   0.91291   30.589
 4909.00    0.88276   0.90904   30.506
 4910.00    0.86184   0.90561   30.470
 4911.00    0.85593   0.90395   30.847
 4912.00    0.86509   0.90455   30.966
 4913.00    0.87312   0.90663   30.169
 4914.00    0.87345   0.90836   29.397
 4915.00    0.86747   0.90744   29.713
 4916.00    0.85798   0.90203   30.874
 4917.00    0.84699   0.89163   31.951
 4918.00    0.83447   0.87745   32.225
 4919.00    0.82128   0.86223   31.732
 4920.00    0.81164   0.84933   31.371
 4921.00    0.80699   0.84160   31.654
 4922.00    0.80200   0.84054   31.928
 4923.00    0.79727   0.84607   31.577
 4924.00    0.80650   0.85686   30.996
 4925.00    0.83439   0.87097   30.720
 4926.00    0.86439   0.88633   30.828
 4927.00    0.88258   0.90095   30.929
 4928.00    0.89121   0.91310   30.354
 4929.00    0.89625   0.92144   29.335
 4930.00    0.89996   0.92526   29.044
 4931.00    0.90126   0.92464   29.720
 4932.00    0.89707   0.92046   30.266
 4933.00    0.88651   0.91413   30.037
 4934.00    0.87157   0.90708   29.615
 4935.00    0.85243   0.90038   29.567
 4936.00    0.82893   0.89469   29.968
 4937.00    0.81245   0.89055   30.423
 4938.00    0.82066   0.88860   30.298
 4939.00    0.84824   0.88952   29.689
 4940.00    0.86997   0.89353    0.000
 4941.00    0.87588   0.90011    0.000
 4942.00    0.87438   0.90795    0.000
 4943.00    0.87449   0.91557    0.000
 4944.00    0.87951   0.92188    0.000
 4945.00    0.88369   0.92654    0.000
 4946.00    0.88039   0.92986    0.000
 4947.00    0.87889   0.93240    0.000
 4948.00    0.89149   0.93450    0.000
 4949.00    0.90545   0.93610    0.000
 4950.00    0.90305   0.93672    0.000
 4951.00    0.89998   0.93568    0.000
 4952.00    0.91650   0.93236    0.000
 4953.00    0.93003   0.92638    0.000
 4954.00    0.91393   0.91791    0.000
 4955.00    0.89254   0.90791    0.000
 4956.00    0.89940   0.89822    0.000
 4957.00    0.92378   0.89105    0.000
 4958.00    0.93979   0.88821    0.000
 4959.00    0.94166   0.89017    0.000
 4960.00    0.93536   0.89574    0.000
 4961.00    0.92725   0.90254    0.000
 4962.00    0.92077   0.90809    0.000
 4963.00    0.91472   0.91075    0.000
 4964.00    0.90566   0.91022    0.000
 4965.00    0.89050   0.90738    0.000
 4966.00    0.87136   0.90373    0.000
 4967.00    0.85702   0.90078    0.000
 4968.00    0.85234   0.89957    0.000
 4969.00    0.85337   0.90053    0.000
 4970.00    0.85551   0.90346    0.000
 4971.00    0.85759   0.90772    0.000
 4972.00    0.86041   0.91237    0.000
 4973.00    0.86582   0.91637    0.000
 4974.00    0.87660   0.91878    0.000
 4975.00    0.89291   0.91885    0.000
 4976.00    0.89954   0.91622    0.000
 4977.00    0.87549   0.91085    0.000
 4978.00    0.84007   0.90303    0.000
 4979.00    0.84013   0.89331    0.000
 4980.00    0.86667   0.88258    0.000
 4981.00    0.86673   0.87211    0.000
 4982.00    0.84108   0.86348    0.000
 4983.00    0.83432   0.85823    0.000
 4984.00    0.84968   0.85735    0.000
 4985.00    0.85729   0.86075    0.000
 4986.00    0.85517   0.86724    0.000
 4987.00    0.86160   0.87491    0.000
 4988.00    0.87619   0.88189    0.000
 4989.00    0.88648   0.88700    0.000
 4990.00    0.89133   0.89001    0.000
 4991.00    0.89577   0.89149    0.000
 4992.00    0.89762   0.89227    0.000
 4993.00    0.89119   0.89297    0.000
 4994.00    0.87542   0.89372    0.000
 4995.00    0.85736   0.89411    0.000
 4996.00    0.85355   0.89341    0.000
 4997.00    0.87085   0.89099    0.000
 4998.00    0.88814   0.88661    0.000
 4999.00    0.88624   0.88066    0.000
 5000.00    0.87646   0.87395    0.000
 5001.00    0.87727   0.86742    0.000
 5002.00    0.89290   0.86176    0.000
 5003.00    0.92383   0.85730    0.000
 5004.00    0.97478   0.85420    0.000
 5005.00    1.04225   0.85266    0.000
 5006.00    1.10764   0.85283    0.000
 5007.00    1.15105   0.85453    0.000
 5008.00    1.16040   0.85695    0.000
 5009.00    1.13123   0.85873    0.000
 5010.00    1.06705   0.85846    0.000
 5011.00    0.98314   0.85542    0.000
 5012.00    0.90438   0.84988    0.000
 5013.00    0.84788   0.84314    0.000
 5014.00    0.81632   0.83689    0.000
 5015.00    0.80302   0.83256    0.000
 5016.00    0.79739   0.83089    0.000
 5017.00    0.79605   0.83188    0.000
 5018.00    0.80271   0.83501    0.000
 5019.00    0.81567   0.83953    0.000
 5020.00    0.82726   0.84477    0.000
 5021.00    0.83368   0.85019    0.000
 5022.00    0.83573   0.85545    0.000
 5023.00    0.83344   0.86028    0.000
 5024.00    0.82810   0.86446    0.000
 5025.00    0.82932   0.86789    0.000
 5026.00    0.84656   0.87070    0.000
 5027.00    0.86954   0.87333    0.000
 5028.00    0.87919   0.87633    0.000
 5029.00    0.87363   0.88003   30.237
 5030.00    0.86279   0.88425   30.374
 5031.00    0.85242   0.88824   31.144
 5032.00    0.84348   0.89090   31.770
 5033.00    0.83532   0.89113   31.948
 5034.00    0.82882   0.88831   31.845
 5035.00    0.82915   0.88245   31.736
 5036.00    0.83564   0.87414   31.745
 5037.00    0.83182   0.86434   31.674
 5038.00    0.80842   0.85429   31.435
 5039.00    0.78528   0.84552   31.443
 5040.00    0.78241   0.83978   31.943
 5041.00    0.79367   0.83859   32.444
 5042.00    0.80712   0.84252   32.443
 5043.00    0.82254   0.85069   32.133
 5044.00    0.84165   0.86092   31.851
 5045.00    0.86047   0.87032   31.635
 5046.00    0.87269   0.87651   31.463
 5047.00    0.87318   0.87845   31.390
 5048.00    0.86368   0.87676   31.421
 5049.00    0.85373   0.87323   31.473
 5050.00    0.84827   0.86995   31.575
 5051.00    0.84343   0.86856   31.889
 5052.00    0.83816   0.86972   32.265
 5053.00    0.83822   0.87321   32.198
 5054.00    0.84936   0.87821   31.728
 5055.00    0.87189   0.88383   31.508
 5056.00    0.89234   0.88940   31.729
 5057.00    0.89031   0.89450   31.992
 5058.00    0.87086   0.89884   32.036
 5059.00    0.86103   0.90197   31.975
 5060.00    0.86756   0.90336   32.131
 5061.00    0.87509   0.90245   32.772
 5062.00    0.87564   0.89896   33.485
 5063.00    0.87204   0.89323   33.484
 5064.00    0.86682   0.88624   33.029
 5065.00    0.86103   0.87936   32.945
 5066.00    0.85738   0.87377   32.970
 5067.00    0.85808   0.87012   32.395
 5068.00    0.85976   0.86843   31.799
 5069.00    0.85717   0.86815   32.113
 5070.00    0.85089   0.86854   32.915
 5071.00    0.84499   0.86902   33.167
 5072.00    0.84144   0.86931   32.971
 5073.00    0.83969   0.86923   33.059
 5074.00    0.83740   0.86853   33.625
 5075.00    0.83430   0.86686   34.348
 5076.00    0.83594   0.86388   34.595
 5077.00    0.84401   0.85941   34.168
 5078.00    0.84698   0.85380   33.960
 5079.00    0.83749   0.84803   34.579
 5080.00    0.82808   0.84341   35.210
 5081.00    0.83057   0.84110   35.103
 5082.00    0.83861   0.84167   35.036
 5083.00    0.84150   0.84496   35.658
 5084.00    0.83641   0.85022   36.288
 5085.00    0.82919   0.85642   36.168
 5086.00    0.83217   0.86261   35.523
 5087.00    0.84988   0.86825   34.944
 5088.00    0.87235   0.87315   34.826
 5089.00    0.88803   0.87736   35.013
 5090.00    0.89133   0.88095   34.843
 5091.00    0.88248   0.88381   34.469
 5092.00    0.86689   0.88554   34.976
 5093.00    0.85316   0.88551   36.183
 5094.00    0.84978   0.88319   36.204
 5095.00    0.85585   0.87847   34.921
 5096.00    0.86079   0.87193   34.339
 5097.00    0.85623   0.86478   34.915
 5098.00    0.84162   0.85853   35.443
 5099.00    0.82768   0.85445   35.504
 5100.00    0.82883   0.85310   35.714
 5101.00    0.83977   0.85409   35.736
 5102.00    0.84232   0.85630   34.680
 5103.00    0.83874   0.85837   33.475
 5104.00    0.84617   0.85928   33.663
 5105.00    0.86577   0.85862   34.730
 5106.00    0.88355   0.85668   34.910
 5107.00    0.88642   0.85429   34.302
 5108.00    0.87096   0.85243   34.160
 5109.00    0.85215   0.85189   34.277
 5110.00    0.84813   0.85314   33.850
 5111.00    0.85447   0.85618   33.389
 5112.00    0.85796   0.86067   33.650
 5113.00    0.86130   0.86605   33.975
 5114.00    0.86954   0.87163   33.485
 5115.00    0.87005   0.87674   32.918
 5116.00    0.85374   0.88069   33.196
 5117.00    0.83945   0.88282   33.877
 5118.00    0.84383   0.88255   34.117
 5119.00    0.85079   0.87956   33.918
 5120.00    0.84277   0.87396   33.708
 5121.00    0.82954   0.86637   33.761
 5122.00    0.82410   0.85777   34.060
 5123.00    0.82262   0.84935   34.274
 5124.00    0.81836   0.84215   34.217
 5125.00    0.81230   0.83684   34.144
 5126.00    0.80739   0.83371   34.261
 5127.00    0.80465   0.83266   34.437
 5128.00    0.80547   0.83343   34.537
 5129.00    0.81246   0.83566   34.596
 5130.00    0.82644   0.83907   34.590
 5131.00    0.84446   0.84328   34.389
 5132.00    0.85820   0.84772   34.145
 5133.00    0.85701   0.85170   34.295
 5134.00    0.84298   0.85449   34.903
 5135.00    0.83134   0.85554   35.523
 5136.00    0.82831   0.85473   35.794
 5137.00    0.82721   0.85234   35.735
 5138.00    0.82388   0.84892   35.709
 5139.00    0.82100   0.84528   36.131
 5140.00    0.82492   0.84213   36.753
 5141.00    0.84022   0.83973   36.858
 5142.00    0.85864   0.83808   36.560
 5143.00    0.86390   0.83699   36.666
 5144.00    0.84987   0.83625   37.484
 5145.00    0.82405   0.83575   38.706
 5146.00    0.80508   0.83535   39.607
 5147.00    0.80934   0.83500   39.538
 5148.00    0.82803   0.83461   38.934
 5149.00    0.83887   0.83406   38.646
 5150.00    0.83323   0.83335   38.661
 5151.00    0.81752   0.83276   38.566
 5152.00    0.80774   0.83280   38.448
 5153.00    0.81658   0.83412   38.512
 5154.00    0.83817   0.83724   38.463
 5155.00    0.85866   0.84219   38.040
 5156.00    0.87144   0.84852   37.679
 5157.00    0.87655   0.85518   37.687
 5158.00    0.87777   0.86086   37.460
 5159.00    0.87842   0.86442   36.671
 5160.00    0.87771   0.86490   36.243
 5161.00    0.87174   0.86155   36.774
 5162.00    0.85548   0.85385   37.470
 5163.00    0.83053   0.84170   37.602
 5164.00    0.80867   0.82570   37.738
 5165.00    0.79581   0.80736   38.383
 5166.00    0.78322   0.78878   39.039
 5167.00    0.76496   0.77196   39.110
 5168.00    0.74725   0.75848   38.629
 5169.00    0.73738   0.74936   38.114
 5170.00    0.73747   0.74511   38.180
 5171.00    0.74606   0.74558   38.545
 5172.00    0.75919   0.75045   38.027
 5173.00    0.77081   0.75945   36.924
 5174.00    0.77511   0.77193   36.968
 5175.00    0.77496   0.78642   38.107
 5176.00    0.78040   0.80071   38.223
 5177.00    0.79218   0.81227   36.961
 5178.00    0.80078   0.81869   36.153
 5179.00    0.80198   0.81850   36.353
 5180.00    0.79858   0.81215   36.744
 5181.00    0.79125   0.80187   36.747
 5182.00    0.77866   0.79087   36.439
 5183.00    0.76415   0.78264   36.314
 5184.00    0.75517   0.77983   36.799
 5185.00    0.75797   0.78349   37.405
 5186.00    0.77381   0.79260   37.221
 5187.00    0.79397   0.80431   36.533
 5188.00    0.80635   0.81539   36.259
 5189.00    0.80847   0.82350   36.505
 5190.00    0.80507   0.82769    0.000
 5191.00    0.80060   0.82833    0.000
 5192.00    0.79929   0.82703    0.000
 5193.00    0.80667   0.82567    0.000
 5194.00    0.82524   0.82575    0.000
 5195.00    0.84926   0.82803    0.000
 5196.00    0.87016   0.83237    0.000
 5197.00    0.88361   0.83792    0.000
 5198.00    0.88916   0.84347    0.000
 5199.00    0.88903   0.84777    0.000
 5200.00    0.88646   0.84956    0.000
 5201.00    0.88405   0.84789    0.000
 5202.00    0.88080   0.84264    0.000
 5203.00    0.87089   0.83439    0.000
 5204.00    0.85111   0.82419    0.000
 5205.00    0.82616   0.81373    0.000
 5206.00    0.80631   0.80496    0.000
 5207.00    0.80284   0.79959    0.000
 5208.00    0.81128   0.79876    0.000
 5209.00    0.80902   0.80272    0.000
 5210.00    0.79403   0.81068    0.000
 5211.00    0.79487   0.82097   39.567
 5212.00    0.82125   0.83165   39.714
 5213.00    0.84928   0.84108   39.552
 5214.00    0.85948   0.84844   38.805
 5215.00    0.85202   0.85377   37.339
 5216.00    0.84109   0.85783   36.131
 5217.00    0.84545   0.86149   36.493
 5218.00    0.86565   0.86525   37.625
 5219.00    0.88422   0.86876   37.004
 5220.00    0.88886   0.87094   35.278
 5221.00    0.87838   0.87040   35.147
 5222.00    0.85936   0.86605   36.281
 5223.00    0.84167   0.85787   36.154
 5224.00    0.83060   0.84733   34.850
 5225.00    0.82625   0.83689   34.372
 5226.00    0.82655   0.82899   34.870
 5227.00    0.82815   0.82542   35.293
 5228.00    0.82708   0.82652   35.425
 5229.00    0.82211   0.83111   35.702
 5230.00    0.81963   0.83725   36.101
 5231.00    0.82560   0.84318   36.285
 5232.00    0.83287   0.84791   36.181
 5233.00    0.83053   0.85155   36.079
 5234.00    0.81875   0.85488   36.569
 5235.00    0.80761   0.85877   37.645
 5236.00    0.81201   0.86367   37.607
 5237.00    0.83697   0.86946   35.810
 5238.00    0.86446   0.87540   35.038
 5239.00    0.87455   0.88062   36.462
 5240.00    0.86644   0.88461   36.217
 5241.00    0.85070   0.88713   32.406
 5242.00    0.83987   0.88797   29.794
 5243.00    0.84048   0.88691   30.380
 5244.00    0.84826   0.88403   31.959
 5245.00    0.85459   0.87961   31.821
 5246.00    0.85224   0.87395   30.260
 5247.00    0.84100   0.86760   29.257
 5248.00    0.82957   0.86157   30.642
 5249.00    0.82748   0.85679   34.570
 5250.00    0.83892   0.85378   37.402
 5251.00    0.85567   0.85259   36.472
 5252.00    0.85970   0.85322   35.271
 5253.00    0.84930   0.85566   35.696
 5254.00    0.84281   0.85968   36.361
 5255.00    0.84776   0.86470   36.517
 5256.00    0.85464   0.86986   37.091
 5257.00    0.85919   0.87402   38.191
 5258.00    0.86604   0.87570   38.671
 5259.00    0.87513   0.87352   38.309
 5260.00    0.87941   0.86676   38.109
 5261.00    0.87097   0.85566   38.657
 5262.00    0.84669   0.84144   39.842
 5263.00    0.81705   0.82612   41.055
 5264.00    0.79894   0.81185   41.519
 5265.00    0.79517   0.79981   41.292
 5266.00    0.79636   0.79041   41.052
 5267.00    0.79418   0.78421   41.041
 5268.00    0.78606   0.78160   41.172
 5269.00    0.77839   0.78247   41.552
 5270.00    0.77958   0.78645   42.240
 5271.00    0.78864   0.79313   42.721
 5272.00    0.79933   0.80190   42.476
 5273.00    0.80862   0.81224   41.980
 5274.00    0.81703   0.82352   41.875
 5275.00    0.82736   0.83489   41.901
 5276.00    0.84061   0.84550   41.537
 5277.00    0.85214   0.85446   40.832
 5278.00    0.85728   0.86096   40.133
 5279.00    0.85718   0.86463   39.712
 5280.00    0.85431   0.86565   39.705
 5281.00    0.84851   0.86495   40.078
 5282.00    0.84176   0.86420   40.493
 5283.00    0.84102   0.86489   40.292
 5284.00    0.84774   0.86783   39.551
 5285.00    0.85251   0.87318   39.437
 5286.00    0.85146   0.88040   40.130
 5287.00    0.85430   0.88829   40.024
 5288.00    0.86621   0.89542   39.078
 5289.00    0.87949   0.90063   39.646
 5290.00    0.88829   0.90336   40.820
 5291.00    0.89440   0.90350   37.896
 5292.00    0.89714   0.90096   35.267
 5293.00    0.89112   0.89574   42.713
 5294.00    0.87756   0.88811   50.695
 5295.00    0.86531   0.87903   26.260
 5296.00    0.85695   0.86988   13.781
 5297.00    0.84772   0.86196   10.956
 5298.00    0.83939   0.85634   11.465
 5299.00    0.84007   0.85396   12.233
 5300.00    0.85004   0.85526   11.897
 5301.00    0.86166   0.85990   11.520
 5302.00    0.87039   0.86684   11.479
 5303.00    0.87642   0.87475   11.362
 5304.00    0.88109   0.88244   11.281
 5305.00    0.88516   0.88914   11.549
 5306.00    0.88699   0.89451   11.468
 5307.00    0.88563   0.89856   10.567
 5308.00    0.88691   0.90135   10.804
 5309.00    0.89692   0.90297   15.635
 5310.00    0.90967   0.90343   34.862
 5311.00    0.91428   0.90281   57.807
 5312.00    0.90862   0.90105   41.426
 5313.00    0.89651   0.89814   36.467
 5314.00    0.88147   0.89449   40.496
 5315.00    0.86846   0.89072   42.694
 5316.00    0.86618   0.88733   40.952
 5317.00    0.87669   0.88464   39.880
 5318.00    0.88587   0.88270   40.282
 5319.00    0.88282   0.88107   41.138
 5320.00    0.87718   0.87890   -2.000
 5321.00    0.87726   0.87546   -2.000
 5322.00    0.87253   0.87053   -2.000
 5323.00    0.85576   0.86385   -2.000
 5324.00    0.83830   0.85488   -2.000
 5325.00    0.82827   0.84411   -2.000
 5326.00    0.81815   0.83360   -2.000
 5327.00    0.80701   0.82553   -2.000
 5328.00    0.81016   0.82119   -2.000
 5329.00    0.83288   0.82129   -2.000
 5330.00    0.85962   0.82592   -2.000
 5331.00    0.87481   0.83434   -2.000
 5332.00    0.87377   0.84481   -2.000
 5333.00    0.86263   0.85534   -2.000
 5334.00    0.85457   0.86430   -2.000
 5335.00    0.85631   0.87042   42.504
 5336.00    0.86458   0.87284   42.216
 5337.00    0.87288   0.87180   41.744
 5338.00    0.87617   0.86875   41.417
 5339.00    0.87753   0.86531   41.169
 5340.00    0.88371   0.86248   40.729
 5341.00    0.88758   0.86089   40.257
 5342.00    0.87524   0.86070   40.196
 5343.00    0.85511   0.86170   40.585
 5344.00    0.84985   0.86337   41.031
 5345.00    0.86277   0.86490   40.975
 5346.00    0.87956   0.86594   40.179
 5347.00    0.88696   0.86688   39.391
 5348.00    0.87859   0.86829   39.545
 5349.00    0.85834   0.87070   40.557
 5350.00    0.83839   0.87448   41.565
 5351.00    0.83443   0.87989   41.636
 5352.00    0.85387   0.88661   40.643
 5353.00    0.88152   0.89382   39.922
 5354.00    0.89743   0.90080   40.470
 5355.00    0.90123   0.90694   41.187
 5356.00    0.90250   0.91161   40.740
 5357.00    0.90645   0.91424   40.113
 5358.00    0.91324   0.91452   40.510
 5359.00    0.91923   0.91249   41.331
 5360.00    0.91989   0.90848   41.606
 5361.00    0.91286   0.90288   41.523
 5362.00    0.90182   0.89628   41.505
 5363.00    0.89743   0.88942   41.384
 5364.00    0.90143   0.88277   41.295
 5365.00    0.89874   0.87646   42.149
 5366.00    0.88251   0.87022   44.123
 5367.00    0.86679   0.86367   45.617
 5368.00    0.86102   0.85708   45.286
 5369.00    0.85790   0.85156   43.893
 5370.00    0.85102   0.84838   43.000
 5371.00    0.84342   0.84838   43.790
 5372.00    0.84209   0.85176   45.734
 5373.00    0.85304   0.85804   46.257
 5374.00    0.87270   0.86614   44.874
 5375.00    0.88872   0.87479   44.051
 5376.00    0.89543   0.88257   44.443
 5377.00    0.89653   0.88820   44.598
 5378.00    0.89416   0.89111   44.164
 5379.00    0.88703   0.89149   44.222
 5380.00    0.87571   0.89010   44.947
 5381.00    0.86422   0.88806   45.418
 5382.00    0.85955   0.88627   44.943
 5383.00    0.86686   0.88504   43.719
 5384.00    0.87910   0.88428   42.955
 5385.00    0.88258   0.88373   43.716
 5386.00    0.87370   0.88289   44.993
 5387.00    0.85895   0.88127   44.716
 5388.00    0.84822   0.87863   43.348
 5389.00    0.84792   0.87502   42.694
 5390.00    0.85251   0.87061   43.030
 5391.00    0.85359   0.86572   43.613
 5392.00    0.85496   0.86077   43.663
 5393.00    0.86194   0.85572   42.943
 5394.00    0.86529   0.85067   42.222
 5395.00    0.85568   0.84656   42.216
 5396.00    0.84221   0.84402   42.575
 5397.00    0.83714   0.84291   42.626
 5398.00    0.83828   0.84309   42.286
 5399.00    0.83877   0.84429   42.000
 5400.00    0.83789   0.84544   42.457
 5401.00    0.83679   0.84516   43.679
 5402.00    0.83440   0.84283   44.300
 5403.00    0.83109   0.83883   43.555
 5404.00    0.83092   0.83400   42.823
 5405.00    0.83505   0.82934   43.005
 5406.00    0.83839   0.82578   43.269
 5407.00    0.83717   0.82408   43.073
 5408.00    0.83299   0.82495   43.188
 5409.00    0.82799   0.82868   43.941
 5410.00    0.82331   0.83468   44.475
 5411.00    0.82543   0.84194   44.254
 5412.00    0.84449   0.84956   43.752
 5413.00    0.87323   0.85713   43.387
 5414.00    0.88722   0.86436   43.177
 5415.00    0.88171   0.87084   43.236
 5416.00    0.87601   0.87597   43.819
 5417.00    0.87765   0.87923   44.817
 5418.00    0.87709   0.88074   45.698
 5419.00    0.87152   0.88102   46.118
 5420.00    0.86760   0.88019   46.142
 5421.00    0.86781   0.87826   46.067
 5422.00    0.86882   0.87589   46.183
 5423.00    0.86716   0.87391   46.394
 5424.00    0.86175   0.87260   46.364
 5425.00    0.85608   0.87127   46.058
 5426.00    0.85494   0.86893   45.659
 5427.00    0.85730   0.86549   45.164
 5428.00    0.85876   0.86158   44.622
 5429.00    0.85819   0.85739   44.590
 5430.00    0.85609   0.85291   -2.000
 5431.00    0.85034   0.84838   -2.000
 5432.00    0.84053   0.84456   -2.000
 5433.00    0.83463   0.84249   -2.000
 5434.00    0.84347   0.84310   -2.000
 5435.00    0.87148   0.84671   -2.000
 5436.00    0.90156   0.85272   -2.000
 5437.00    0.88548   0.86032   -2.000
 5438.00    0.81347   0.86883   -2.000
 5439.00    0.77414   0.87722   -2.000
 5440.00    0.83863   0.88411   -2.000
 5441.00    0.95962   0.88811   -2.000
 5442.00    1.05608   0.88819   -2.000
 5443.00    1.09263   0.88416   -2.000
 5444.00    1.10225   0.87717   -2.000
 5445.00    1.17383   0.86948   -2.000
 5446.00    1.28744   0.86305   -2.000
 5447.00    1.25893   0.85888   -2.000
 5448.00    1.04744   0.85719   -2.000
 5449.00    0.87122   0.85760   -2.000
 5450.00    0.85513   0.85913   -2.000
 5451.00    0.89358   0.86039   -2.000
 5452.00    0.89520   0.86014   -2.000
 5453.00    0.87786   0.85818   11.402
 5454.00    0.86804   0.85562   11.557
 5455.00    0.86372   0.85384   11.519
 5456.00    0.86082   0.85354   11.504
 5457.00    0.86130   0.85474   11.808
 5458.00    0.86514   0.85690   11.867
 5459.00    0.86893   0.85919   10.946
 5460.00    0.86970   0.86087   10.734
 5461.00    0.86684   0.86174   14.539
 5462.00    0.86375   0.86182   32.333
 5463.00    0.86506   0.86132   70.345
 5464.00    0.86939   0.86092   52.158
 5465.00    0.87141   0.86135   40.714
 5466.00    0.86990   0.86256   43.757
 5467.00    0.86799   0.86389   47.165
 5468.00    0.87049   0.86484   45.822
 5469.00    0.87957   0.86488   44.873
 5470.00    0.88900   0.86336   45.543
 5471.00    0.89014   0.86035   46.147
 5472.00    0.88200   0.85626   46.282
 5473.00    0.86886   0.85103   46.437
 5474.00    0.85511   0.84513   46.517
 5475.00    0.84430   0.84008   46.336
 5476.00    0.83877   0.83692   46.397
 5477.00    0.83857   0.83545   47.089
 5478.00    0.84066   0.83529   47.801
 5479.00    0.84257   0.83644   47.718
 5480.00    0.84560   0.83897   46.855
 5481.00    0.85045   0.84282   45.935
 5482.00    0.85408   0.84761   45.897
 5483.00    0.85671   0.85220   46.505
 5484.00    0.86530   0.85561   45.757
 5485.00    0.87905   0.85796   43.864
 5486.00    0.88293   0.85987   44.195
 5487.00    0.87061   0.86133   46.095
 5488.00    0.85530   0.86214   43.018
 5489.00    0.84878   0.86256   39.636
 5490.00    0.85098   0.86271   50.083
 5491.00    0.85780   0.86283   67.880
 5492.00    0.86589   0.86332   30.817
 5493.00    0.87491   0.86393   14.180
 5494.00    0.88661   0.86397   10.455
 5495.00    0.89764   0.86352   10.544
 5496.00    0.89995   0.86318   11.594
 5497.00    0.89209   0.86287   11.690
 5498.00    0.88051   0.86215   10.730
 5499.00    0.87125   0.86088   10.645
 5500.00    0.86736   0.85924   14.409
 5501.00    0.86946   0.85744   31.219
 5502.00    0.87583   0.85560   70.345
 5503.00    0.88231   0.85341   54.066
 5504.00    0.88452   0.85088   42.519
 5505.00    0.88229   0.84888   45.281
 5506.00    0.87747   0.84795   48.169
 5507.00    0.86778   0.84763   46.792
 5508.00    0.85228   0.84726   46.944
 5509.00    0.84228   0.84636   48.886
 5510.00    0.84907   0.84500   49.156
 5511.00    0.86280   0.84377   48.135
 5512.00    0.86708   0.84304   48.267
 5513.00    0.86341   0.84296   49.520
 5514.00    0.86246   0.84404   50.375
 5515.00    0.86878   0.84683   49.810
 5516.00    0.88039   0.85130   48.177
 5517.00    0.89092   0.85682   47.150
 5518.00    0.89567   0.86246   47.509
 5519.00    0.89696   0.86736   47.731
 5520.00    0.89887   0.87096   46.642
 5521.00    0.90202   0.87289   45.722
 5522.00    0.90393   0.87294   46.048
 5523.00    0.90019   0.87100   46.462
 5524.00    0.88900   0.86728   46.082
 5525.00    0.87398   0.86237   45.946
 5526.00    0.86151   0.85731   46.441
 5527.00    0.85770   0.85334   46.094
 5528.00    0.86179   0.85100   44.627
 5529.00    0.86484   0.85015   43.932
 5530.00    0.86231   0.85057   44.651
 5531.00    0.85880   0.85190   45.346
 5532.00    0.85843   0.85366   45.113
 5533.00    0.86093   0.85565   44.652
 5534.00    0.86460   0.85757   44.402
 5535.00    0.86818   0.85907   44.077
 5536.00    0.87298   0.86044   43.782
 5537.00    0.88153   0.86229   44.033
 5538.00    0.89134   0.86467   44.597
 5539.00    0.89641   0.86709   44.550
 5540.00    0.89792   0.86900   43.759
 5541.00    0.90196   0.87004   42.895
 5542.00    0.90591   0.87033   42.225
 5543.00    0.90129   0.87020   41.696
 5544.00    0.88859   0.86998   41.621
 5545.00    0.87628   0.87016   42.311
 5546.00    0.87128   0.87108   42.985
 5547.00    0.87628   0.87272   42.483
 5548.00    0.88857   0.87488   41.357
 5549.00    0.90154   0.87695   40.927
 5550.00    0.90757   0.87824   41.486
 5551.00    0.90272   0.87848   42.623
 5552.00    0.89250   0.87771   43.762
 5553.00    0.88578   0.87619   44.453
 5554.00    0.88586   0.87428   44.788
 5555.00    0.89083   0.87227   45.116
 5556.00    0.89589   0.87046   45.543
 5557.00    0.89798   0.86903   46.014
 5558.00    0.89985   0.86786   46.457
 5559.00    0.90462   0.86666   46.687
 5560.00    0.91048   0.86503   46.376
 5561.00    0.91369   0.86291   45.666
 5562.00    0.91171   0.86055   45.465
 5563.00    0.90367   0.85799   46.197
 5564.00    0.89069   0.85531   47.056
 5565.00    0.87634   0.85290   47.099
 5566.00    0.86616   0.85089   46.260
 5567.00    0.86243   0.84939   45.307
 5568.00    0.86182   0.84871   45.314
 5569.00    0.86064   0.84860   46.293
 5570.00    0.85765   0.84855   46.846
 5571.00    0.85389   0.84898   46.498
 5572.00    0.85200   0.85020   46.489
 5573.00    0.85426   0.85175   47.157
 5574.00    0.86135   0.85355   47.366
 5575.00    0.87053   0.85567   46.846
 5576.00    0.87687   0.85760   46.609
 5577.00    0.87915   0.85950   46.883
 5578.00    0.88010   0.86138   46.954
 5579.00    0.88027   0.86223   46.757
 5580.00    0.87800   0.86185   46.892
 5581.00    0.87437   0.86057   47.280
 5582.00    0.87238   0.85793   47.245
 5583.00    0.87147   0.85352   46.700
 5584.00    0.86839   0.84742   46.236
 5585.00    0.86222   0.84005   46.601
 5586.00    0.85483   0.83257   48.101
 5587.00    0.84947   0.82619   49.413
 5588.00    0.84760   0.82165   48.873
 5589.00    0.84426   0.81928   47.987
 5590.00    0.83494   0.81907   48.928
 5591.00    0.82685   0.82086   50.469
 5592.00    0.82985   0.82432   50.081
 5593.00    0.84165   0.82895   48.648
 5594.00    0.85411   0.83380   48.140
 5595.00    0.86361   0.83730   48.294
 5596.00    0.86928   0.83887   48.171
 5597.00    0.86993   0.83913   47.986
 5598.00    0.86608   0.83846   48.140
 5599.00    0.86189   0.83709   48.172
 5600.00    0.86057   0.83554   47.789
 5601.00    0.86057   0.83467   47.724
 5602.00    0.85959   0.83590   48.365
 5603.00    0.85806   0.83978   48.809
 5604.00    0.85810   0.84556   48.466
 5605.00    0.86221   0.85224   48.144
 5606.00    0.87036   0.85917   48.275
 5607.00    0.87886   0.86560   48.069
 5608.00    0.88420   0.87072   47.319
 5609.00    0.88514   0.87377   47.040
 5610.00    0.88142   0.87444   47.564
 5611.00    0.87338   0.87257   47.950
 5612.00    0.86371   0.86795   47.567
 5613.00    0.85685   0.86129   46.794
 5614.00    0.85349   0.85456   46.280
 5615.00    0.85021   0.84906   46.459
 5616.00    0.84669   0.84474   47.031
 5617.00    0.84650   0.84165   47.116
 5618.00    0.85106   0.84021   46.614
 5619.00    0.85849   0.84078   46.230
 5620.00    0.86625   0.84279   46.140
 5621.00    0.87209   0.84432   45.997
 5622.00    0.87434   0.84412   45.835
 5623.00    0.87215   0.84319   45.911
 5624.00    0.86574   0.84289   45.836
 5625.00    0.85727   0.84337   44.969
 5626.00    0.85205   0.84460   43.605
 5627.00    0.85470   0.84687   42.556
 5628.00    0.86185   0.85028   42.230
 5629.00    0.86697   0.85452   42.649
 5630.00    0.87035   0.85859   43.561
 5631.00    0.87527   0.86134   44.694
 5632.00    0.88005   0.86246   46.201
 5633.00    0.88056   0.86205   48.192
 5634.00    0.87502   0.86014   49.807
 5635.00    0.86486   0.85717   50.010
 5636.00    0.85450   0.85396   49.183
 5637.00    0.84737   0.85101   48.343
 5638.00    0.84202   0.84835   48.021
 5639.00    0.83630   0.84614   48.333
 5640.00    0.83149   0.84485   49.112
 5641.00    0.83029   0.84456   49.737
 5642.00    0.83444   0.84504   49.143
 5643.00    0.84256   0.84605   47.355
 5644.00    0.84952   0.84736   45.959
 5645.00    0.85246   0.84900   45.493
 5646.00    0.85422   0.85087   44.685
 5647.00    0.85860   0.85250   43.172
 5648.00    0.86677   0.85390   42.361
 5649.00    0.87508   0.85529   42.806
 5650.00    0.87626   0.85645   43.493
 5651.00    0.87072   0.85684   43.671
 5652.00    0.86817   0.85601   43.701
 5653.00    0.87066   0.85418   44.107
 5654.00    0.86914   0.85164   45.056
 5655.00    0.85919   0.84770   46.099
 5656.00    0.84533   0.84217   46.392
 5657.00    0.83380   0.83677   46.250
 5658.00    0.82874   0.83290   46.942
 5659.00    0.82896   0.83028   48.287
 5660.00    0.82988   0.82858   48.714
 5661.00    0.83148   0.82826   48.231
 5662.00    0.83721   0.83002   48.284
 5663.00    0.84573   0.83349   48.990
 5664.00    0.85220   0.83704   49.366
 5665.00    0.85544   0.83960   49.293
 5666.00    0.85701   0.84179   49.373
 5667.00    0.85661   0.84427   49.609
 5668.00    0.85275   0.84671   49.624
 5669.00    0.84564   0.84886   49.483
 5670.00    0.83774   0.85123   49.496
 5671.00    0.83350   0.85416   49.675
 5672.00    0.83637   0.85731   49.834
 5673.00    0.84481   0.86016   49.835
 5674.00    0.85501   0.86263   49.606
 5675.00    0.86487   0.86454   49.131
 5676.00    0.87315   0.86533   48.585
 5677.00    0.87809   0.86477   48.413
 5678.00    0.87893   0.86318   48.736
 5679.00    0.87747   0.86080   48.858
 5680.00    0.87616   0.85765   48.319
 5681.00    0.87625   0.85411   47.766
 5682.00    0.87649   0.85086   47.658
 5683.00    0.87296   0.84815   47.437
 5684.00    0.86330   0.84575   46.848
 5685.00    0.84995   0.84362   46.641
 5686.00    0.83998   0.84241   47.106
 5687.00    0.84296   0.84271   47.409
 5688.00    0.85978   0.84434   47.134
 5689.00    0.87924   0.84668   46.970
 5690.00    0.89336   0.84957   47.096
 5691.00    0.90311   0.85284   46.740
 5692.00    0.90725   0.85595   46.028
 5693.00    0.90009   0.85838   46.200
 5694.00    0.88418   0.85969   47.434
 5695.00    0.87144   0.85948   48.440
 5696.00    0.86829   0.85765   48.472
 5697.00    0.87192   0.85475   48.055
 5698.00    0.87671   0.85120   47.814
 5699.00    0.87749   0.84724   48.013
 5700.00    0.87239   0.84340   48.497
 5701.00    0.86330   0.84016   48.821
 5702.00    0.85491   0.83760   48.677
 5703.00    0.85216   0.83522   48.163
 5704.00    0.85527   0.83244   47.987
 5705.00    0.85964   0.82940   48.848
 5706.00    0.85844   0.82621   50.183
 5707.00    0.84787   0.82295   50.698
 5708.00    0.83565   0.82015   50.340
 5709.00    0.83261   0.81813   49.903
 5710.00    0.83714   0.81766   49.499
 5711.00    0.84149   0.81969   48.915
 5712.00    0.84484   0.82377   48.399
 5713.00    0.85059   0.82924   48.237
 5714.00    0.86034   0.83556   48.147
 5715.00    0.87252   0.84195   47.760
 5716.00    0.88225   0.84809   47.231
 5717.00    0.88572   0.85372   46.945
 5718.00    0.88465   0.85833   47.127
 5719.00    0.88366   0.86204   47.443
 5720.00    0.88689   0.86515   46.785
 5721.00    0.89363   0.86755   44.947
 5722.00    0.89633   0.86917   43.464
 5723.00    0.89167   0.86987   43.133
 5724.00    0.88733   0.86932   43.073
 5725.00    0.88894   0.86774   42.892
 5726.00    0.89239   0.86597   43.705
 5727.00    0.89448   0.86439   45.620
 5728.00    0.89809   0.86268   46.367
 5729.00    0.90317   0.86077   45.250
 5730.00    0.90382   0.85953   44.860
 5731.00    0.89891   0.85968   46.209
 5732.00    0.89468   0.86074   47.505
 5733.00    0.89299   0.86181   47.747
 5734.00    0.88895   0.86251   48.148
 5735.00    0.88201   0.86319   49.088
 5736.00    0.87770   0.86398   49.428
 5737.00    0.87828   0.86442   48.989
 5738.00    0.88086   0.86431   48.756
 5739.00    0.88165   0.86385   48.474
 5740.00    0.87740   0.86321   -2.000
 5741.00    0.86538   0.86264   -2.000
 5742.00    0.84497   0.86254   -2.000
 5743.00    0.82115   0.86293   -2.000
 5744.00    0.80229   0.86327   -2.000
 5745.00    0.79335   0.86289   -2.000
 5746.00    0.79466   0.86189   -2.000
 5747.00    0.80267   0.86113   -2.000
 5748.00    0.81249   0.86062   -2.000
 5749.00    0.82184   0.85946   -2.000
 5750.00    0.82931   0.85721   -2.000
 5751.00    0.83080   0.85446   -2.000
 5752.00    0.82518   0.85248   -2.000
 5753.00    0.82193   0.85190   -2.000
 5754.00    0.83050   0.85223   -2.000
 5755.00    0.84628   0.85286   -2.000
 5756.00    0.85941   0.85378   -2.000
 5757.00    0.86625   0.85492   -2.000
 5758.00    0.86806   0.85587   -2.000
 5759.00    0.86813   0.85594    0.000
 5760.00    0.86885   0.85487    0.000
 5761.00    0.86977   0.85352    0.000
 5762.00    0.87081   0.85311    0.000
 5763.00    0.87431   0.85379    0.000
 5764.00    0.87997   0.85535    0.000
 5765.00    0.88220   0.85781    0.000
 5766.00    0.87701   0.86094    0.000
 5767.00    0.86615   0.86411    0.000
 5768.00    0.85354   0.86643    0.000
 5769.00    0.84283   0.86731    0.000
 5770.00    0.83609   0.86695    0.000
 5771.00    0.83359   0.86592    0.000
 5772.00    0.83590   0.86439    0.000
 5773.00    0.84356   0.86259    0.000
 5774.00    0.85219   0.86083    0.000
 5775.00    0.85371   0.85898    0.000
 5776.00    0.84816   0.85681    0.000
 5777.00    0.84376   0.85382    0.000
 5778.00    0.84329   0.84949    0.000
 5779.00    0.84241   0.84406    0.000
 5780.00    0.83781   0.83851    0.000
 5781.00    0.82998   0.83341    0.000
 5782.00    0.82354   0.82871    0.000
 5783.00    0.82414   0.82476    0.000
 5784.00    0.83146   0.82287    0.000
 5785.00    0.83985   0.82379    0.000
 5786.00    0.84312   0.82663    0.000
 5787.00    0.83879   0.83025    0.000
 5788.00    0.83346   0.83388    0.000
 5789.00    0.83673   0.83764    0.000
 5790.00    0.84979   0.84178    0.000
 5791.00    0.86620   0.84564    0.000
 5792.00    0.87643   0.84889    0.000
 5793.00    0.87400   0.85161    0.000
 5794.00    0.86237   0.85375    0.000
 5795.00    0.85023   0.85535    0.000
 5796.00    0.84467   0.85674    0.000
 5797.00    0.84770   0.85849    0.000
 5798.00    0.85412   0.86047    0.000
 5799.00    0.85878   0.86213    0.000
 5800.00    0.86311   0.86343    0.000
 5801.00    0.86945   0.86449    0.000
 5802.00    0.87615   0.86511    0.000
 5803.00    0.88023   0.86509    0.000
 5804.00    0.88016   0.86439    0.000
 5805.00    0.87817   0.86339    0.000
 5806.00    0.88038   0.86232    0.000
 5807.00    0.88826   0.86145    0.000
 5808.00    0.89509   0.86133    0.000
 5809.00    0.89537   0.86191    0.000
 5810.00    0.88952   0.86260    0.000
 5811.00    0.88112   0.86299    0.000
 5812.00    0.87469   0.86290    0.000
 5813.00    0.87300   0.86227    0.000
 5814.00    0.87590   0.86132    0.000
 5815.00    0.88029   0.86074    0.000
 5816.00    0.88154   0.86102    0.000
 5817.00    0.87800   0.86193    0.000
 5818.00    0.87181   0.86324    0.000
 5819.00    0.86651   0.86496    0.000
 5820.00    0.86485   0.86699    0.000
 5821.00    0.86495   0.86885    0.000
 5822.00    0.86263   0.87011    0.000
 5823.00    0.85958   0.87085    0.000
 5824.00    0.86151   0.87117    0.000
 5825.00    0.86965   0.87119    0.000
 5826.00    0.88023   0.87118    0.000
 5827.00    0.88696   0.87133    0.000
 5828.00    0.88491   0.87151    0.000
 5829.00    0.87617   0.87141    0.000
 5830.00    0.86722   0.87107    0.000
 5831.00    0.86332   0.87051    0.000
 5832.00    0.86597   0.86957    0.000
 5833.00    0.87093   0.86843    0.000
 5834.00    0.87241   0.86754    0.000
 5835.00    0.86857   0.86691    0.000
 5836.00    0.86119   0.86628    0.000
 5837.00    0.85425   0.86595    0.000
 5838.00    0.85175   0.86644    0.000
 5839.00    0.85555   0.86760    0.000
 5840.00    0.86393   0.86867    0.000
 5841.00    0.87127   0.86929    0.000
 5842.00    0.87395   0.86957    0.000
 5843.00    0.87426   0.86941    0.000
 5844.00    0.87450   0.86843    0.000
 5845.00    0.87313   0.86650    0.000
 5846.00    0.86967   0.86406    0.000
 5847.00    0.86703   0.86148    0.000
 5848.00    0.86592   0.85882    0.000
 5849.00    0.86284   0.85592    0.000
 5850.00    0.85738   0.85253    0.000
 5851.00    0.85412   0.84880    0.000
 5852.00    0.85463   0.84532    0.000
 5853.00    0.85497   0.84216    0.000
 5854.00    0.85159   0.83871    0.000
 5855.00    0.84412   0.83472    0.000
 5856.00    0.83620   0.83134    0.000
 5857.00    0.83346   0.82988    0.000
 5858.00    0.83583   0.83005    0.000
 5859.00    0.83808   0.83079    0.000
 5860.00    0.83839   0.83170    0.000
 5861.00    0.83934   0.83352    0.000
 5862.00    0.84395   0.83649    0.000
 5863.00    0.85299   0.83949    0.000
 5864.00    0.86162   0.84150    0.000
 5865.00    0.86340   0.84271    0.000
 5866.00    0.85967   0.84420    0.000
 5867.00    0.85648   0.84613    0.000
 5868.00    0.85536   0.84780    0.000
 5869.00    0.85505   0.84874    0.000
 5870.00    0.85696   0.84920    0.000
 5871.00    0.86397   0.84937    0.000
 5872.00    0.87728   0.84868    0.000
 5873.00    0.89617   0.84681    0.000
 5874.00    0.91831   0.84416    0.000
 5875.00    0.93883   0.84145    0.000
 5876.00    0.94991   0.83918    0.000
 5877.00    0.94643   0.83690    0.000
 5878.00    0.93152   0.83467    0.000
 5879.00    0.91048   0.83307    0.000
 5880.00    0.88493   0.83215    0.000
 5881.00    0.85707   0.83082    0.000
 5882.00    0.83284   0.82785    0.000
 5883.00    0.81555   0.82331    0.000
 5884.00    0.80188   0.81723    0.000
 5885.00    0.78854   0.80871    0.000
 5886.00    0.77641   0.79630    0.000
 5887.00    0.76619   0.77970    0.000
 5888.00    0.75611   0.76160    0.000
 5889.00    0.74431   0.74604    0.000
 5890.00    0.73051   0.73422    0.000
 5891.00    0.71706   0.72509    0.000
 5892.00    0.70841   0.71853    0.000
 5893.00    0.70654   0.71525    0.000
 5894.00    0.70990   0.71652    0.000
 5895.00    0.71688   0.72231    0.000
 5896.00    0.72711   0.73061    0.000
 5897.00    0.74116   0.73977    0.000
 5898.00    0.75935   0.74967    0.000
 5899.00    0.77880   0.76196    0.000
 5900.00    0.79429   0.77678    0.000
 5901.00    0.80323   0.79111   52.371
 5902.00    0.80697   0.80277   54.214
 5903.00    0.81034   0.81203   55.116
 5904.00    0.81775   0.81939   53.604
 5905.00    0.82540   0.82500   51.484
 5906.00    0.82650   0.82918   51.283
 5907.00    0.82438   0.83203   52.448
 5908.00    0.82736   0.83376   52.809
 5909.00    0.83565   0.83496   52.119
 5910.00    0.84375   0.83564   51.609
 5911.00    0.84776   0.83520   51.952
 5912.00    0.84668   0.83353   52.938
 5913.00    0.84262   0.83161   53.282
 5914.00    0.83924   0.83012   52.177
 5915.00    0.83973   0.82908   51.152
 5916.00    0.84434   0.82841   51.491
 5917.00    0.84848   0.82845   51.959
 5918.00    0.84836   0.82967   51.397
 5919.00    0.84640   0.83150   51.331
 5920.00    0.84661   0.83331   52.598
 5921.00    0.85002   0.83493   52.627
 5922.00    0.85408   0.83632   50.282
 5923.00    0.85327   0.83745   49.041
 5924.00    0.84535   0.83810   50.841
 5925.00    0.83486   0.83826   53.549
 5926.00    0.82643   0.83813   54.226
 5927.00    0.82079   0.83751   52.702
 5928.00    0.81747   0.83643   51.117
 5929.00    0.81643   0.83565   51.911
 5930.00    0.81756   0.83531   54.846
 5931.00    0.82041   0.83493   55.903
 5932.00    0.82424   0.83427   53.843
 5933.00    0.82819   0.83396   52.522
 5934.00    0.83203   0.83477   53.267
 5935.00    0.83623   0.83591   54.000
 5936.00    0.84143   0.83649   53.497
 5937.00    0.84769   0.83674   52.606
 5938.00    0.85331   0.83701   52.066
 5939.00    0.85583   0.83715   51.945
 5940.00    0.85609   0.83701   52.017
 5941.00    0.85723   0.83684   52.003
 5942.00    0.85932   0.83677   51.916
 5943.00    0.86014   0.83665   51.929
 5944.00    0.86025   0.83670   51.866
 5945.00    0.86141   0.83697   51.390
 5946.00    0.86113   0.83681   50.617
 5947.00    0.85588   0.83604   50.052
 5948.00    0.84869   0.83539   50.298
 5949.00    0.84498   0.83479   51.563
 5950.00    0.84378   0.83340   52.806
 5951.00    0.84126   0.83147   52.646
 5952.00    0.83774   0.83042   51.476
 5953.00    0.83511   0.83052   50.594
 5954.00    0.83238   0.83042   50.665
 5955.00    0.82837   0.82973   51.589
 5956.00    0.82530   0.82975   52.388
 5957.00    0.82657   0.83121   52.211
 5958.00    0.83377   0.83319   51.557
 5959.00    0.84542   0.83498   51.028
 5960.00    0.85645   0.83698   50.234
 5961.00    0.86150   0.83938   49.170
 5962.00    0.85817   0.84166   48.987
 5963.00    0.84950   0.84324   50.021
 5964.00    0.84421   0.84407   50.670
 5965.00    0.84654   0.84476   50.121
 5966.00    0.85086   0.84549   50.043
 5967.00    0.85180   0.84617   51.264
 5968.00    0.84978   0.84678   52.273
 5969.00    0.84692   0.84750   52.107
 5970.00    0.84478   0.84829   51.863
 5971.00    0.84520   0.84852   52.160
 5972.00    0.84985   0.84789   52.290
 5973.00    0.85598   0.84635   51.997
 5974.00    0.85695   0.84395   51.939
 5975.00    0.85105   0.84106   52.333
 5976.00    0.84310   0.83818   52.527
 5977.00    0.83817   0.83558   51.356
 5978.00    0.83855   0.83349   48.246
 5979.00    0.84129   0.83201   44.910
 5980.00    0.84010   0.83096   43.461
 5981.00    0.83223   0.82984   43.961
 5982.00    0.82028   0.82855   45.312
 5983.00    0.81168   0.82763   47.123
 5984.00    0.81351   0.82726   49.627
 5985.00    0.82212   0.82705   52.109
 5986.00    0.82794   0.82697   53.123
 5987.00    0.82896   0.82776   52.762
 5988.00    0.82856   0.82977   52.177
 5989.00    0.82732   0.83195   51.474
 5990.00    0.82458   0.83363   50.459
 5991.00    0.82293   0.83539   50.048
 5992.00    0.82579   0.83726   50.968
 5993.00    0.83327   0.83841   51.945
 5994.00    0.84254   0.83850   51.495
 5995.00    0.84930   0.83810   50.800
 5996.00    0.85116   0.83751   51.284
 5997.00    0.85056   0.83651   52.005
 5998.00    0.84952   0.83520   51.749
 5999.00    0.84479   0.83384   51.407
 6000.00    0.83434   0.83231   51.996
 6001.00    0.82286   0.83077   52.921
 6002.00    0.81597   0.82976   53.080
 6003.00    0.81530   0.82908   52.082
 6004.00    0.81880   0.82802   50.581
 6005.00    0.82196   0.82627   49.894
 6006.00    0.82184   0.82450   50.477
 6007.00    0.81938   0.82374   51.413
 6008.00    0.81773   0.82387   51.820
 6009.00    0.82030   0.82405   51.693
 6010.00    0.82687   0.82377   51.237
 6011.00    0.83304   0.82342   50.558
 6012.00    0.83685   0.82394   50.174
 6013.00    0.84038   0.82469   50.864
 6014.00    0.84395   0.82425   52.178
 6015.00    0.84478   0.82287   52.389
 6016.00    0.84104   0.82187   51.561
 6017.00    0.83331   0.82145   51.541
 6018.00    0.82410   0.82070   52.189
 6019.00    0.81692   0.81972   51.660
 6020.00    0.81407   0.81948   50.634
 6021.00    0.81602   0.82005   51.434
 6022.00    0.82166   0.82077   53.464
 6023.00    0.82877   0.82207   53.769
 6024.00    0.83495   0.82434   52.408
 6025.00    0.83802   0.82695   51.866
 6026.00    0.83640   0.82966   52.795
 6027.00    0.83059   0.83270   54.323
 6028.00    0.82537   0.83586   55.446
 6029.00    0.82609   0.83846   55.459
 6030.00    0.83213   0.84063   54.375
 6031.00    0.83889   0.84291   53.000
 6032.00    0.84241   0.84489   52.685
 6033.00    0.84159   0.84611   53.928
 6034.00    0.83971   0.84688   54.713
 6035.00    0.84048   0.84755   53.200
 6036.00    0.84321   0.84786   51.450
 6037.00    0.84612   0.84757   51.510
 6038.00    0.84987   0.84694   52.343
 6039.00    0.85489   0.84634   52.267
 6040.00    0.85871   0.84588   51.445
 6041.00    0.85835   0.84574   50.974
 6042.00    0.85265   0.84599   51.731
 6043.00    0.84381   0.84657   53.484
 6044.00    0.83745   0.84748   54.259
 6045.00    0.83716   0.84861   53.183
 6046.00    0.84148   0.84975   52.229
 6047.00    0.84860   0.85045   52.373
 6048.00    0.85842   0.85072   52.243
 6049.00    0.86788   0.85067   51.371
 6050.00    0.86998   0.85002   51.258
 6051.00    0.86198   0.84859   52.266
 6052.00    0.84825   0.84680   52.841
 6053.00    0.83512   0.84501   52.530
 6054.00    0.82784   0.84303   52.737
 6055.00    0.82780   0.84102   53.659
 6056.00    0.83250   0.83955   53.849
 6057.00    0.83913   0.83883   53.052
 6058.00    0.84553   0.83847   52.500
 6059.00    0.84921   0.83805   52.514
 6060.00    0.84811   0.83760   52.512
 6061.00    0.84332   0.83704   52.654
 6062.00    0.83857   0.83611   53.620
 6063.00    0.83714   0.83460   54.977
 6064.00    0.84018   0.83339   55.440
 6065.00    0.84502   0.83353   54.843
 6066.00    0.84802   0.83488   53.963
 6067.00    0.85057   0.83680   53.042
 6068.00    0.85619   0.83938   52.043
 6069.00    0.86393   0.84305   51.415
 6070.00    0.87001   0.84698   51.506
 6071.00    0.87221   0.84985   51.656
 6072.00    0.87010   0.85142   51.282
 6073.00    0.86449   0.85201   51.461
 6074.00    0.85819   0.85167   53.174
 6075.00    0.85648   0.85014   54.949
 6076.00    0.86119   0.84736   54.838
 6077.00    0.86479   0.84399   53.810
 6078.00    0.85982   0.84073   53.199
 6079.00    0.84833   0.83744   52.156
 6080.00    0.83719   0.83393   49.963
 6081.00    0.83272   0.83098   47.686
 6082.00    0.83607   0.82937   46.286
 6083.00    0.84102   0.82840   45.751
 6084.00    0.84127   0.82735   46.010
 6085.00    0.83568   0.82685   47.328
 6086.00    0.82727   0.82725   49.423
 6087.00    0.82143   0.82750   50.854
 6088.00    0.82020   0.82699   51.003
 6089.00    0.82028   0.82662   51.227
 6090.00    0.81921   0.82683   52.247
 6091.00    0.81821   0.82699   53.137
 6092.00    0.81995   0.82709   53.334
 6093.00    0.82633   0.82793   53.427
 6094.00    0.83412   0.82943   53.667
 6095.00    0.83607   0.83056   53.635
 6096.00    0.83115   0.83097   53.432
 6097.00    0.82555   0.83111   53.731
 6098.00    0.82413   0.83075   54.608
 6099.00    0.82741   0.82898   55.340
 6100.00    0.83153   0.82546   55.073
 6101.00    0.83107   0.82139   53.426
 6102.00    0.82604   0.81874   51.098
 6103.00    0.82056   0.81774   49.235
 6104.00    0.81594   0.81714   48.451
 6105.00    0.81131   0.81693   48.755
 6106.00    0.80823   0.81866   49.366
 6107.00    0.80956   0.82243   49.379
 6108.00    0.81561   0.82618   49.315
 6109.00    0.82396   0.82856   50.210
 6110.00    0.83051   0.83016   51.729
 6111.00    0.83206   0.83202   52.679
 6112.00    0.82966   0.83395   52.581
 6113.00    0.82650   0.83475   51.947
 6114.00    0.82440   0.83417   51.889
 6115.00    0.82408   0.83317   52.912
 6116.00    0.82579   0.83199   53.748
 6117.00    0.82810   0.82978   53.251
 6118.00    0.82681   0.82616   52.684
 6119.00    0.81860   0.82177   53.363
 6120.00    0.80434   0.81736   54.636
 6121.00    0.78821   0.81374   55.387
 6122.00    0.77610   0.81152   55.563
 6123.00    0.77120   0.81044   55.487
 6124.00    0.77137   0.81013   55.193
 6125.00    0.77372   0.81114   54.806
 6126.00    0.77767   0.81370   54.728
 6127.00    0.78451   0.81663   55.146
 6128.00    0.79613   0.81906   55.718
 6129.00    0.81045   0.82107   55.512
 6130.00    0.82050   0.82232   53.528
 6131.00    0.82182   0.82225   50.715
 6132.00    0.81564   0.82086   49.262
 6133.00    0.80692   0.81801   49.401
 6134.00    0.80177   0.81322   49.578
 6135.00    0.80111   0.80699   49.682
 6136.00    0.80078   0.80154   51.277
 6137.00    0.79985   0.79864   53.891
 6138.00    0.80160   0.79763   54.563
 6139.00    0.80755   0.79742   53.374
 6140.00    0.81588   0.79910   53.098
 6141.00    0.82229   0.80398   -2.000
 6142.00    0.82229   0.81015   -2.000
 6143.00    0.81616   0.81475   -2.000
 6144.00    0.80885   0.81777   -2.000
 6145.00    0.80717   0.82067   -2.000
 6146.00    0.81546   0.82311   -2.000
 6147.00    0.82896   0.82386   -2.000
 6148.00    0.83830   0.82314   -2.000
 6149.00    0.83941   0.82210   -2.000
 6150.00    0.83352   0.82132   -2.000
 6151.00    0.82437   0.82059   -2.000
 6152.00    0.81595   0.81956   -2.000
 6153.00    0.80998   0.81831   47.879
 6154.00    0.80623   0.81712   49.245
 6155.00    0.80340   0.81535   50.788
 6156.00    0.79985   0.81206   52.198
 6157.00    0.79446   0.80740   53.992
 6158.00    0.78772   0.80189   56.410
 6159.00    0.78241   0.79497   57.946
 6160.00    0.78038   0.78680   57.526
 6161.00    0.78006   0.77946   56.855
 6162.00    0.77981   0.77432   57.059
 6163.00    0.78033   0.77064   56.568
 6164.00    0.78166   0.76823   54.590
 6165.00    0.78136   0.76847   52.958
 6166.00    0.77766   0.77121   52.892
 6167.00    0.77166   0.77388   53.838
 6168.00    0.76745   0.77559   54.763
 6169.00    0.77062   0.77814   54.869
 6170.00    0.78093   0.78176   54.004
 6171.00    0.79072   0.78451   52.731
 6172.00    0.79530   0.78666   51.713
 6173.00    0.79624   0.79026   51.330
 6174.00    0.79578   0.79470   51.248
 6175.00    0.79462   0.79813   50.715
 6176.00    0.79302   0.80093   50.210
 6177.00    0.79135   0.80406   51.176
 6178.00    0.79036   0.80675   53.706
 6179.00    0.79130   0.80867   56.234
 6180.00    0.79548   0.81051   57.622
 6181.00    0.80341   0.81205   57.999
 6182.00    0.81256   0.81253   57.770
 6183.00    0.81824   0.81219   57.251
 6184.00    0.81661   0.81111   56.766
 6185.00    0.80683   0.80869   56.441
 6186.00    0.79376   0.80517   55.813
 6187.00    0.78443   0.80147   54.694
 6188.00    0.78086   0.79764   54.557
 6189.00    0.78106   0.79326   56.467
 6190.00    0.78285   0.78955   57.450
 6191.00    0.78442   0.78833   54.520
 6192.00    0.78432   0.78908   51.985
 6193.00    0.78287   0.79013   53.756
 6194.00    0.78371   0.79190   56.945
 6195.00    0.78980   0.79539   56.306
 6196.00    0.79890   0.79914   53.525
 6197.00    0.80628   0.80119   52.276
 6198.00    0.80822   0.80200   52.577
 6199.00    0.80425   0.80308   53.184
 6200.00    0.79843   0.80448   53.390
 6201.00    0.79590   0.80543   53.216
 6202.00    0.79971   0.80624   53.288
 6203.00    0.80926   0.80780   53.499
 6204.00    0.81978   0.80993   52.394
 6205.00    0.82597   0.81164   49.859
 6206.00    0.82474   0.81240   47.900
 6207.00    0.81660   0.81227   47.353
 6208.00    0.80586   0.81111   47.272
 6209.00    0.79733   0.80873   47.389
 6210.00    0.79393   0.80522   48.841
 6211.00    0.79444   0.80065   51.765
 6212.00    0.79363   0.79521   54.175
 6213.00    0.78768   0.78973   54.976
 6214.00    0.77675   0.78492   55.570
 6215.00    0.76543   0.78103   56.556
 6216.00    0.76043   0.77825   56.896
 6217.00    0.76266   0.77650   56.521
 6218.00    0.76703   0.77562   56.539
 6219.00    0.77034   0.77588   56.911
 6220.00    0.77254   0.77713   56.583
 6221.00    0.77382   0.77844   55.741
 6222.00    0.77445   0.77941   55.493
 6223.00    0.77633   0.78053   55.814
 6224.00    0.78175   0.78178   55.881
 6225.00    0.78980   0.78228   55.666
 6226.00    0.79690   0.78169   55.693
 6227.00    0.79935   0.78032   55.895
 6228.00    0.79560   0.77810   55.860
 6229.00    0.78925   0.77541   55.624
 6230.00    0.78560   0.77347   55.488
 6231.00    0.78580   0.77262   55.544
 6232.00    0.78774   0.77255   55.805
 6233.00    0.78860   0.77373   56.439
 6234.00    0.78746   0.77614   57.553
 6235.00    0.78773   0.77857   58.811
 6236.00    0.79269   0.78019   59.328
 6237.00    0.80050   0.78070   57.920
 6238.00    0.80624   0.77967   55.136
 6239.00    0.80489   0.77763   53.851
 6240.00    0.79488   0.77521   55.539
 6241.00    0.78052   0.77217   58.341
 6242.00    0.76762   0.76926   59.534
 6243.00    0.75979   0.76794   58.772
 6244.00    0.75781   0.76769   57.433
 6245.00    0.75965   0.76766   56.981
 6246.00    0.76256   0.76867   57.579
 6247.00    0.76450   0.77071   57.804
 6248.00    0.76425   0.77233   57.159
 6249.00    0.76179   0.77306   57.057
 6250.00    0.75950   0.77288   58.074
 6251.00    0.76127   0.77141   59.018
 6252.00    0.76603   0.76891   58.919
 6253.00    0.76710   0.76585   58.053
 6254.00    0.76195   0.76236   57.280
 6255.00    0.75453   0.75894   57.354
 6256.00    0.74965   0.75642   57.914
 6257.00    0.75015   0.75544   57.776
 6258.00    0.75484   0.75622   57.154
 6259.00    0.75985   0.75818   57.436
 6260.00    0.76414   0.76095   58.655
 6261.00    0.76958   0.76524   59.447
 6262.00    0.77722   0.77045   58.955
 6263.00    0.78580   0.77457   57.522
 6264.00    0.79078   0.77761   56.387
 6265.00    0.78766   0.78087   56.590
 6266.00    0.77878   0.78350   57.471
 6267.00    0.77039   0.78448   57.589
 6268.00    0.76491   0.78511   57.108
 6269.00    0.76253   0.78642   57.120
 6270.00    0.76573   0.78774   57.781
 6271.00    0.77602   0.78861   58.394
 6272.00    0.78842   0.78947   57.939
 6273.00    0.79595   0.79043   56.298
 6274.00    0.79626   0.79119   55.207
 6275.00    0.79135   0.79143   55.847
 6276.00    0.78586   0.79114   56.752
 6277.00    0.78336   0.79050   56.342
 6278.00    0.78295   0.78952   55.920
 6279.00    0.78220   0.78834   56.893
 6280.00    0.78016   0.78759    0.000
 6281.00    0.77702   0.78758    0.000
 6282.00    0.77351   0.78813    0.000
 6283.00    0.77082   0.78929    0.000
 6284.00    0.77044   0.79122    0.000
 6285.00    0.77342   0.79374    0.000
 6286.00    0.77983   0.79636    0.000
 6287.00    0.78788   0.79847    0.000
 6288.00    0.79412   0.79984    0.000
 6289.00    0.79682   0.80048    0.000
 6290.00    0.79713   0.80029    0.000
 6291.00    0.79609   0.79913    0.000
 6292.00    0.79372   0.79724    0.000
 6293.00    0.79104   0.79506    0.000
 6294.00    0.79063   0.79253    0.000
 6295.00    0.79504   0.78954    0.000
 6296.00    0.80588   0.78683    0.000
 6297.00    0.82274   0.78488    0.000
 6298.00    0.84328   0.78316    0.000
 6299.00    0.86437   0.78137    0.000
 6300.00    0.88250   0.78020    0.000
 6301.00    0.89354   0.78036    0.000
 6302.00    0.89384   0.78156    0.000
 6303.00    0.88269   0.78294    0.000
 6304.00    0.86245   0.78460    0.000
 6305.00    0.83742   0.78730    0.000
 6306.00    0.81332   0.79060    0.000
 6307.00    0.79664   0.79312    0.000
 6308.00    0.79134   0.79464    0.000
 6309.00    0.79392   0.79550    0.000
 6310.00    0.79679   0.79548    0.000
 6311.00    0.79467   0.79451    0.000
 6312.00    0.78641   0.79258    0.000
 6313.00    0.77562   0.78958    0.000
 6314.00    0.76668   0.78660    0.000
 6315.00    0.75988   0.78456    0.000
 6316.00    0.75390   0.78237    0.000
 6317.00    0.74920   0.78011    0.000
 6318.00    0.74777   0.77978    0.000
 6319.00    0.75217   0.78118    0.000
 6320.00    0.76114   0.78257    0.000
 6321.00    0.76713   0.78451   56.850
 6322.00    0.76601   0.78796   56.604
 6323.00    0.76381   0.79175   56.608
 6324.00    0.76720   0.79470   57.344
 6325.00    0.77671   0.79712   57.730
 6326.00    0.78835   0.79942   57.286
 6327.00    0.79595   0.80135   57.233
 6328.00    0.79674   0.80239   58.088
 6329.00    0.79365   0.80238   58.738
 6330.00    0.79046   0.80199   58.777
 6331.00    0.78909   0.80148   59.328
 6332.00    0.78897   0.80021   60.574
 6333.00    0.78753   0.79777   61.030
 6334.00    0.78363   0.79489   59.932
 6335.00    0.77857   0.79271   57.992
 6336.00    0.77488   0.79118   55.704
 6337.00    0.77503   0.78949   53.140
 6338.00    0.77887   0.78823   50.888
 6339.00    0.78401   0.78855   49.714
 6340.00    0.78926   0.78951   49.604
 6341.00    0.79465   0.78962   50.015
 6342.00    0.79906   0.78926   50.752
 6343.00    0.80038   0.78940   51.863
 6344.00    0.79746   0.78970   52.901
 6345.00    0.79119   0.78952   53.198
 6346.00    0.78557   0.78968   53.010
 6347.00    0.78448   0.79111   53.198
 6348.00    0.78556   0.79303   54.192
 6349.00    0.78393   0.79445   55.864
 6350.00    0.77971   0.79574   57.489
 6351.00    0.77621   0.79693   58.215
 6352.00    0.77546   0.79681   58.063
 6353.00    0.77690   0.79506   57.604
 6354.00    0.77677   0.79272   57.193
 6355.00    0.77156   0.79009   57.079
 6356.00    0.76204   0.78627   57.637
 6357.00    0.75225   0.78158   58.873
 6358.00    0.74771   0.77771   59.865
 6359.00    0.75146   0.77472   59.775
 6360.00    0.76102   0.77160   58.981
 6361.00    0.77162   0.76914   58.064
 6362.00    0.77942   0.76877   56.985
 6363.00    0.78376   0.76998   55.933
 6364.00    0.78798   0.77178   55.704
 6365.00    0.79411   0.77453   56.498
 6366.00    0.79993   0.77857   57.294
 6367.00    0.80265   0.78302   56.951
 6368.00    0.80114   0.78690   55.237
 6369.00    0.79564   0.79030   53.220
 6370.00    0.78762   0.79372   52.493
 6371.00    0.78019   0.79692   52.912
 6372.00    0.77732   0.79918   52.511
 6373.00    0.78001   0.80065   50.956
 6374.00    0.78554   0.80198   50.046
 6375.00    0.79105   0.80298   50.540
 6376.00    0.79496   0.80286   51.803
 6377.00    0.79679   0.80188   53.335
 6378.00    0.79677   0.80087   55.110
 6379.00    0.79485   0.79980   56.915
 6380.00    0.79102   0.79851   58.127
 6381.00    0.78689   0.79765   57.943
 6382.00    0.78473   0.79735   56.227
 6383.00    0.78421   0.79724   54.650
 6384.00    0.78382   0.79760   54.966
 6385.00    0.78532   0.79843   56.228
 6386.00    0.79125   0.79894   56.110
 6387.00    0.79874   0.79887   55.041
 6388.00    0.80178   0.79850   54.835
 6389.00    0.79724   0.79782   55.129
 6390.00    0.78647   0.79644   54.450
 6391.00    0.77576   0.79419   52.629
 6392.00    0.77110   0.79184   50.536
 6393.00    0.77131   0.79047   49.066
 6394.00    0.77273   0.78944   48.744
 6395.00    0.77566   0.78810   49.571
 6396.00    0.78043   0.78780   51.221
 6397.00    0.78271   0.78847   53.084
 6398.00    0.77810   0.78831   54.310
 6399.00    0.76703   0.78804   54.103
 6400.00    0.75429   0.78935   52.483
 6401.00    0.74748   0.79080   50.534
 6402.00    0.75162   0.79137   49.283
 6403.00    0.76522   0.79282   49.188
 6404.00    0.78250   0.79514   50.361
 6405.00    0.79604   0.79620   52.630
 6406.00    0.80167   0.79569   55.227
 6407.00    0.80077   0.79524   56.649
 6408.00    0.79568   0.79509   56.585
 6409.00    0.78753   0.79385   56.763
 6410.00    0.77865   0.79195   57.982
 6411.00    0.77299   0.79141   59.005
 6412.00    0.77218   0.79165   58.475
 6413.00    0.77451   0.79118   56.264
 6414.00    0.77810   0.79089   53.523
 6415.00    0.78198   0.79136   51.687
 6416.00    0.78514   0.79146   51.054
 6417.00    0.78641   0.79112   51.059
 6418.00    0.78500   0.79084   51.409
 6419.00    0.78094   0.79039   52.207
 6420.00    0.77569   0.79033   53.427
 6421.00    0.77176   0.79149   54.815
 6422.00    0.77112   0.79321   56.078
 6423.00    0.77443   0.79492   56.962
 6424.00    0.78023   0.79725   57.306
 6425.00    0.78578   0.79977   57.181
 6426.00    0.78918   0.80110   57.061
 6427.00    0.79001   0.80126   57.455
 6428.00    0.78958   0.80061   58.251
 6429.00    0.78952   0.79895   58.882
 6430.00    0.78962   0.79696   58.853
 6431.00    0.78892   0.79556   58.166
 6432.00    0.78794   0.79436   57.613
 6433.00    0.78784   0.79328   57.797
 6434.00    0.78901   0.79318   58.047
 6435.00    0.79031   0.79396   57.579
 6436.00    0.78874   0.79433   56.938
 6437.00    0.78292   0.79393   56.938
 6438.00    0.77635   0.79417   57.540
 6439.00    0.77391   0.79563   57.947
 6440.00    0.77816   0.79700   56.935
 6441.00    0.78737   0.79824   54.580
 6442.00    0.79517   0.80062   52.829
 6443.00    0.79723   0.80319   52.856
 6444.00    0.79560   0.80411   54.116
 6445.00    0.79310   0.80363   55.661
 6446.00    0.78985   0.80253   56.919
 6447.00    0.78545   0.79981   57.805
 6448.00    0.78044   0.79536   58.666
 6449.00    0.77632   0.79127   59.540
 6450.00    0.77486   0.78842   59.895
 6451.00    0.77546   0.78591   59.661
 6452.00    0.77498   0.78459   59.493
 6453.00    0.77249   0.78544   59.589
 6454.00    0.77026   0.78703   59.522
 6455.00    0.76979   0.78879   59.413
 6456.00    0.77083   0.79105   59.900
 6457.00    0.77339   0.79272   60.564
 6458.00    0.77764   0.79355   60.091
 6459.00    0.78197   0.79441   58.665
 6460.00    0.78355   0.79429   57.719
 6461.00    0.78180   0.79264   57.689
 6462.00    0.77870   0.79157   58.025
 6463.00    0.77730   0.79160   58.101
 6464.00    0.78045   0.79119   57.579
 6465.00    0.78887   0.79136   56.725
 6466.00    0.80024   0.79319   56.022
 6467.00    0.80855   0.79510   55.452
 6468.00    0.80872   0.79626   54.942
 6469.00    0.80416   0.79721   55.191
 6470.00    0.80204   0.79774   56.722
 6471.00    0.80414   0.79786   58.210
 6472.00    0.80760   0.79806   58.061
 6473.00    0.80789   0.79770   57.553
 6474.00    0.80289   0.79719   58.354
 6475.00    0.79670   0.79755   59.316
 6476.00    0.79395   0.79771   58.846
 6477.00    0.79337   0.79671   58.088
 6478.00    0.79174   0.79583   58.566
 6479.00    0.78839   0.79523   59.904
 6480.00    0.78483   0.79347   60.784
 6481.00    0.78380   0.79124   60.147
 6482.00    0.78671   0.79005   58.475
 6483.00    0.79187   0.78939   57.835
 6484.00    0.79610   0.78859   58.752
 6485.00    0.79644   0.78833   58.927
 6486.00    0.79300   0.78864   57.399
 6487.00    0.78977   0.78834   56.488
 6488.00    0.78903   0.78645   56.944
 6489.00    0.78880   0.78284   56.572
 6490.00    0.78588   0.77793   54.857
 6491.00    0.77788   0.77159   54.166
 6492.00    0.76477   0.76342   55.433
 6493.00    0.74920   0.75462   57.331
 6494.00    0.73503   0.74711   58.721
 6495.00    0.72602   0.74139   59.657
 6496.00    0.72351   0.73752   60.230
 6497.00    0.72617   0.73667   60.240
 6498.00    0.73176   0.73904   59.844
 6499.00    0.73794   0.74393   59.514
 6500.00    0.74302   0.75047   59.352
 6501.00    0.74663   0.75764   59.090
 6502.00    0.75091   0.76507   58.535
 6503.00    0.75879   0.77207   57.749
 6504.00    0.76959   0.77799   57.144
 6505.00    0.77974   0.78272   57.082
 6506.00    0.78619   0.78621   57.152
 6507.00    0.78808   0.78851   56.748
 6508.00    0.78825   0.79011   56.327
 6509.00    0.79044   0.79117   56.552
 6510.00    0.79442   0.79130   56.774
 6511.00    0.79759   0.79092   56.163
 6512.00    0.79838   0.79053   55.624
 6513.00    0.79675   0.78957   56.219
 6514.00    0.79405   0.78786   57.136
 6515.00    0.79156   0.78632   57.148
 6516.00    0.78893   0.78514   56.749
 6517.00    0.78531   0.78383   57.033
 6518.00    0.78073   0.78310   58.302
 6519.00    0.77651   0.78362   59.946
 6520.00    0.77522   0.78452   60.440
 6521.00    0.77762   0.78538   59.419
 6522.00    0.78079   0.78663   58.966
 6523.00    0.78293   0.78798   59.956
 6524.00    0.78624   0.78864   60.166
 6525.00    0.79123   0.78847   58.713
 6526.00    0.79375   0.78806   58.288
 6527.00    0.79086   0.78764   59.755
 6528.00    0.78400   0.78677    0.000
 6529.00    0.77634   0.78566    0.000
 6530.00    0.77098   0.78489    0.000
 6531.00    0.76949   0.78435    0.000
 6532.00    0.77149   0.78379    0.000
 6533.00    0.77566   0.78353    0.000
 6534.00    0.78045   0.78371    0.000
 6535.00    0.78501   0.78397    0.000
 6536.00    0.78949   0.78417    0.000
 6537.00    0.79501   0.78449    0.000
 6538.00    0.80264   0.78461    0.000
 6539.00    0.81078   0.78397    0.000
 6540.00    0.81633   0.78248    0.000
 6541.00    0.81991   0.78028    0.000
 6542.00    0.82722   0.77749    0.000
 6543.00    0.84892   0.77403    0.000
 6544.00    0.89643   0.76981    0.000
 6545.00    0.97350   0.76544    0.000
 6546.00    1.07333   0.76175    0.000
 6547.00    1.17707   0.75834    0.000
 6548.00    1.25916   0.75471    0.000
 6549.00    1.29713   0.75128    0.000
 6550.00    1.27800   0.74790    0.000
 6551.00    1.20528   0.74390    0.000
 6552.00    1.09816   0.73894    0.000
 6553.00    0.98804   0.73277    0.000
 6554.00    0.90416   0.72544    0.000
 6555.00    0.85812   0.71715    0.000
 6556.00    0.85923   0.70736    0.000
 6557.00    0.93333   0.69506    0.000
 6558.00    1.12439   0.68118    0.000
 6559.00    1.48957   0.66764    0.000
 6560.00    2.05566   0.65352    0.000
 6561.00    2.77978   0.63872    0.000
 6562.00    3.53796   0.62859    0.000
 6563.00    4.13170   0.62572    0.000
 6564.00    4.38213   0.62628    0.000
 6565.00    4.20278   0.63133    0.000
 6566.00    3.63904   0.64404    0.000
 6567.00    2.87055   0.65950    0.000
 6568.00    2.10090   0.67318    0.000
 6569.00    1.48553   0.68663    0.000
 6570.00    1.08883   0.69924    0.000
 6571.00    0.87876   0.70859    0.000
 6572.00    0.79239   0.71572    0.000
 6573.00    0.77048   0.72205    0.000
 6574.00    0.77393   0.72743    0.000
 6575.00    0.78722   0.73232    0.000
 6576.00    0.80833   0.73724    0.000
 6577.00    0.84452   0.74215    0.000
 6578.00    0.91072   0.74693    0.000
 6579.00    1.02818   0.75114    0.000
 6580.00    1.22163   0.75466    0.000
 6581.00    1.50355   0.75778    0.000
 6582.00    1.83808   0.76049    0.000
 6583.00    2.14775   0.76264    0.000
 6584.00    2.34951   0.76456    0.000
 6585.00    2.38073   0.76626    0.000
 6586.00    2.23342   0.76775    0.000
 6587.00    1.95126   0.76864    0.000
 6588.00    1.61077   0.76843    0.000
 6589.00    1.29391   0.76790    0.000
 6590.00    1.05023   0.76692    0.000
 6591.00    0.89449   0.76464    0.000
 6592.00    0.81279   0.76210    0.000
 6593.00    0.77761   0.76075    0.000
 6594.00    0.76598   0.75993    0.000
 6595.00    0.76296   0.75941    0.000
 6596.00    0.76267   0.76050    0.000
 6597.00    0.76393   0.76285    0.000
 6598.00    0.76573   0.76531    0.000
 6599.00    0.76763   0.76793    0.000
 6600.00    0.77035   0.77040    0.000
 6601.00    0.77468   0.77226    0.000
 6602.00    0.78050   0.77351    0.000
 6603.00    0.78683   0.77384    0.000
 6604.00    0.79197   0.77308    0.000
 6605.00    0.79413   0.77192    0.000
 6606.00    0.79195   0.77069    0.000
 6607.00    0.78614   0.76924    0.000
 6608.00    0.77986   0.76809    0.000
 6609.00    0.77627   0.76816   58.345
 6610.00    0.77694   0.76913   59.109
 6611.00    0.78107   0.77023   59.508
 6612.00    0.78564   0.77195   59.639
 6613.00    0.78802   0.77452   59.426
 6614.00    0.78755   0.77706   58.595
 6615.00    0.78708   0.77889   57.871
 6616.00    0.79138   0.78043   58.478
 6617.00    0.79974   0.78205   59.473
 6618.00    0.80600   0.78304   58.327
 6619.00    0.80616   0.78306   56.094
 6620.00    0.80035   0.78261   55.827
 6621.00    0.79212   0.78194   56.643
 6622.00    0.78619   0.78064   55.580
 6623.00    0.78395   0.77869   54.973
 6624.00    0.78415   0.77689   58.404
 6625.00    0.78666   0.77545   58.959
 6626.00    0.79123   0.77375   50.980
 6627.00    0.79409   0.77216   52.370
 6628.00    0.79177   0.77113   70.345
 6629.00    0.78836   0.76992   68.369
 6630.00    0.78977   0.76853   23.029
 6631.00    0.79353   0.76732   12.992
 6632.00    0.79339   0.76608   11.588
 6633.00    0.78757   0.76523   12.640
 6634.00    0.77800   0.76518   13.132
 6635.00    0.76808   0.76541   13.020
 6636.00    0.76124   0.76607   13.412
 6637.00    0.75970   0.76743   13.126
 6638.00    0.76376   0.76851   12.025
 6639.00    0.77136   0.76916   13.277
 6640.00    0.77890   0.76997   22.889
 6641.00    0.78241   0.77016   65.298
 6642.00    0.78118   0.76941   70.345
 6643.00    0.77946   0.76924   53.325
 6644.00    0.77916   0.76958   49.952
 6645.00    0.77605   0.76926   56.739
 6646.00    0.76863   0.76915   58.380
 6647.00    0.76249   0.77011   56.278
 6648.00    0.76232   0.77105   56.114
 6649.00    0.76752   0.77143   56.953
 6650.00    0.77412   0.77194   57.210
 6651.00    0.77701   0.77258   57.278
 6652.00    0.77514   0.77276   57.896
 6653.00    0.77235   0.77264   59.233
 6654.00    0.77152   0.77252   60.411
 6655.00    0.77244   0.77209   59.903
 6656.00    0.77294   0.77138   58.183
 6657.00    0.77041   0.77063   57.077
 6658.00    0.76541   0.76930   55.825
 6659.00    0.76107   0.76753   52.352
 6660.00    0.75864   0.76590   48.206
 6661.00    0.75696   0.76394   46.091
 6662.00    0.75427   0.76159   45.901
 6663.00    0.74950   0.76010   46.054
 6664.00    0.74400   0.75936   45.870
 6665.00    0.74093   0.75864   45.647
 6666.00    0.74331   0.75894   45.799
 6667.00    0.75230   0.76042   46.572
 6668.00    0.76500   0.76208   47.841
 6669.00    0.77619   0.76374   49.231
 6670.00    0.78180   0.76546   50.484
 6671.00    0.78095   0.76679   51.628
 6672.00    0.77790   0.76715   53.089
 6673.00    0.77749   0.76631   54.880
 6674.00    0.77946   0.76470   55.426
 6675.00    0.78152   0.76246   53.866
 6676.00    0.78373   0.75914   52.645
 6677.00    0.78711   0.75601   53.685
 6678.00    0.79190   0.75443   55.574
 6679.00    0.79653   0.75343   56.340
 6680.00    0.79744   0.75298   56.679
 6681.00    0.79249   0.75455   57.372
 6682.00    0.78364   0.75740   56.959
 6683.00    0.77506   0.75983   55.037
 6684.00    0.77111   0.76221   53.951
 6685.00    0.77305   0.76481   54.672
 6686.00    0.77751   0.76670   55.278
 6687.00    0.78053   0.76782   54.517
 6688.00    0.77995   0.76869   53.710
 6689.00    0.77558   0.76915   53.780
 6690.00    0.76889   0.76906   54.097
 6691.00    0.76119   0.76865   53.736
 6692.00    0.75318   0.76799   52.181
 6693.00    0.74649   0.76706   49.472
 6694.00    0.74353   0.76575   46.128
 6695.00    0.74469   0.76435   42.867
 6696.00    0.74795   0.76337    0.000
 6697.00    0.75152   0.76256    0.000
 6698.00    0.75495   0.76190    0.000
 6699.00    0.76015   0.76188    0.000
 6700.00    0.77060   0.76217    0.000
 6701.00    0.78865   0.76241    0.000
 6702.00    0.81319   0.76268    0.000
 6703.00    0.83603   0.76279    0.000
 6704.00    0.84721   0.76289    0.000
 6705.00    0.84741   0.76282    0.000
 6706.00    0.84512   0.76248    0.000
 6707.00    0.84610   0.76228    0.000
 6708.00    0.85185   0.76198    0.000
 6709.00    0.86046   0.76106    0.000
 6710.00    0.87063   0.76000    0.000
 6711.00    0.88733   0.75870    0.000
 6712.00    0.92142   0.75655    0.000
 6713.00    0.98712   0.75419    0.000
 6714.00    1.08909   0.75205    0.000
 6715.00    1.20868   0.74972    0.000
 6716.00    1.31928   0.74752    0.000
 6717.00    1.40360   0.74638    0.000
 6718.00    1.44278   0.74632    0.000
 6719.00    1.40775   0.74661    0.000
 6720.00    1.29273   0.74757    0.000
 6721.00    1.14020   0.74957    0.000
 6722.00    1.00150   0.75168    0.000
 6723.00    0.90476   0.75340    0.000
 6724.00    0.85674   0.75492    0.000
 6725.00    0.84813   0.75639    0.000
 6726.00    0.86887   0.75768    0.000
 6727.00    0.91680   0.75854    0.000
 6728.00    0.99248   0.75915    0.000
 6729.00    1.09281   0.75990    0.000
 6730.00    1.19566   0.76051    0.000
 6731.00    1.26161   0.76073    0.000
 6732.00    1.27477   0.76079    0.000
 6733.00    1.25059   0.76066    0.000
 6734.00    1.19482   0.76018    0.000
 6735.00    1.09922   0.75944    0.000
 6736.00    0.98413   0.75852    0.000
 6737.00    0.89528   0.75738    0.000
 6738.00    0.84660   0.75610    0.000
 6739.00    0.81696   0.75494    0.000
 6740.00    0.79195   0.75388    0.000
 6741.00    0.77171   0.75260    0.000
 6742.00    0.75996   0.75154    0.000
 6743.00    0.75950   0.75110    0.000
 6744.00    0.76856   0.75038    0.000
 6745.00    0.78032   0.74933    0.000
 6746.00    0.78380   0.74887    0.000
 6747.00    0.77253   0.74853    0.000
 6748.00    0.75839   0.74766    0.000
 6749.00    0.75752   0.74707    0.000
 6750.00    0.76493   0.74722    0.000
 6751.00    0.76765   0.74727    0.000
 6752.00    0.76837   0.74746    0.000
 6753.00    0.77543   0.74894   44.288
 6754.00    0.78647   0.75061   43.608
 6755.00    0.79475   0.75214   43.789
 6756.00    0.79839   0.75455   45.091
 6757.00    0.79832   0.75695   47.395
 6758.00    0.79524   0.75877   49.643
 6759.00    0.79025   0.76047   50.769
 6760.00    0.78553   0.76168   51.207
 6761.00    0.78167   0.76204   51.777
 6762.00    0.77614   0.76186   52.471
 6763.00    0.76823   0.76108   52.935
 6764.00    0.76188   0.75973   52.951
 6765.00    0.75951   0.75812   52.486
 6766.00    0.75861   0.75627   51.668
 6767.00    0.75653   0.75468   50.699
 6768.00    0.75343   0.75365   49.772
 6769.00    0.75216   0.75278   48.996
 6770.00    0.75670   0.75259   48.421
 6771.00    0.76558   0.75360   48.272
 6772.00    0.77164   0.75497   48.895
 6773.00    0.77332   0.75644   50.052
 6774.00    0.77603   0.75852   50.722
 6775.00    0.77896   0.76065   49.974
 6776.00    0.77480   0.76212   47.709
 6777.00    0.76463   0.76313   44.892
 6778.00    0.75856   0.76358   42.747
 6779.00    0.76273   0.76293   41.805
 6780.00    0.77569   0.76150   42.123
 6781.00    0.78965   0.75964   43.619
 6782.00    0.79493   0.75713   46.046
 6783.00    0.78909   0.75458   48.766
 6784.00    0.77689   0.75255   50.776
 6785.00    0.76545   0.75079   51.510
 6786.00    0.76066   0.74975   51.291
 6787.00    0.76266   0.74973   51.149
 6788.00    0.76845   0.74995   51.821
 6789.00    0.77748   0.75036   52.412
 6790.00    0.78839   0.75124   51.781
 6791.00    0.79331   0.75180   51.072
 6792.00    0.78568   0.75186   51.733
 6793.00    0.77115   0.75216   52.874
 6794.00    0.75990   0.75244   52.890
 6795.00    0.75583   0.75234   52.145
 6796.00    0.75789   0.75263   51.692
 6797.00    0.76297   0.75322   51.551
 6798.00    0.76753   0.75371   51.303
 6799.00    0.76907   0.75440   50.763
 6800.00    0.76806   0.75511   49.998
 6801.00    0.76883   0.75568   49.238
 6802.00    0.77430   0.75599   48.630
 6803.00    0.78215   0.75604   48.105
 6804.00    0.78740   0.75613   47.576
 6805.00    0.78514   0.75576   47.047
 6806.00    0.77578   0.75505   46.442
 6807.00    0.76656   0.75487   45.605
 6808.00    0.76280   0.75439   44.764
 6809.00    0.76353   0.75356   44.563
 6810.00    0.76513   0.75337   45.370
 6811.00    0.76392   0.75314   47.077
 6812.00    0.75965   0.75270   49.374
 6813.00    0.75551   0.75261   51.753
 6814.00    0.75298   0.75261   53.338
 6815.00    0.75065   0.75281   53.310
 6816.00    0.74769   0.75314   52.477
 6817.00    0.74471   0.75342   52.594
 6818.00    0.74275   0.75403   53.352
 6819.00    0.74242   0.75476   52.797
 6820.00    0.74289   0.75540   51.232
 6821.00    0.74234   0.75608   50.672
 6822.00    0.74010   0.75666   51.479
 6823.00    0.73669   0.75709   52.553
 6824.00    0.73284   0.75737   52.867
 6825.00    0.72995   0.75738   52.160
 6826.00    0.73116   0.75702   51.324
 6827.00    0.73846   0.75642   51.272
 6828.00    0.74735   0.75595   51.296
 6829.00    0.75164   0.75554   50.418
 6830.00    0.75218   0.75510   49.759
 6831.00    0.75362   0.75488   50.603
 6832.00    0.75798   0.75486   51.675
 6833.00    0.76426   0.75481   51.190
 6834.00    0.76941   0.75437   50.343
 6835.00    0.77093   0.75342   50.674
 6836.00    0.76942   0.75220   51.109
 6837.00    0.76615   0.75051   50.284
 6838.00    0.76043   0.74823   49.166
 6839.00    0.75159   0.74597   49.087
 6840.00    0.74087   0.74397   50.137
 6841.00    0.73085   0.74236   51.617
 6842.00    0.72459   0.74160   52.369
 6843.00    0.72404   0.74172   51.980
 6844.00    0.72901   0.74259   51.504
 6845.00    0.73730   0.74406   51.456
 6846.00    0.74503   0.74589   50.962
 6847.00    0.74683   0.74771   49.985
 6848.00    0.73788   0.74910   49.967
 6849.00    0.72320   0.75003   51.104
 6850.00    0.71813   0.75037   51.563
 6851.00    0.72797   0.75005   50.761
 6852.00    0.74203   0.74934   50.416
 6853.00    0.74925   0.74798   51.426
 6854.00    0.74535   0.74622   53.085
 6855.00    0.73418   0.74496   54.182
 6856.00    0.72490   0.74348   53.859
 6857.00    0.72164   0.74178   52.864
 6858.00    0.72243   0.74123   52.760
 6859.00    0.72645   0.74107   53.209
 6860.00    0.73457   0.74061   52.495
 6861.00    0.74495   0.74102   50.861
 6862.00    0.75323   0.74196   49.914
 6863.00    0.75577   0.74238   49.809
 6864.00    0.75171   0.74284   49.708
 6865.00    0.74551   0.74363   49.437
 6866.00    0.74338   0.74393   49.238
 6867.00    0.74565   0.74360   48.732
 6868.00    0.74927   0.74338   47.641
 6869.00    0.75403   0.74326   47.047
 6870.00    0.76072   0.74275   47.936
 6871.00    0.76672   0.74248   49.148
 6872.00    0.76744   0.74298   48.897
 6873.00    0.75920   0.74344   47.823
 6874.00    0.74356   0.74376   47.411
 6875.00    0.73101   0.74473   47.800
 6876.00    0.72998   0.74588   48.486
 6877.00    0.73556   0.74649   49.138
 6878.00    0.74023   0.74687   49.634
 6879.00    0.74462   0.74728   50.011
 6880.00    0.75086   0.74726   50.136
 6881.00    0.75654   0.74676   49.552
 6882.00    0.75866   0.74644   48.503
 6883.00    0.75687   0.74658   48.269
 6884.00    0.75288   0.74676   49.151
 6885.00    0.74948   0.74725   49.517
 6886.00    0.74860   0.74873   48.438
 6887.00    0.75025   0.75047   47.172
 6888.00    0.75380   0.75177   46.704
 6889.00    0.75853   0.75345   46.844
 6890.00    0.76295   0.75519   47.117
 6891.00    0.76493   0.75600   47.219
 6892.00    0.76378   0.75651   47.351
 6893.00    0.76102   0.75703   48.068
 6894.00    0.75955   0.75686   49.110
 6895.00    0.76227   0.75640   49.346
 6896.00    0.76836   0.75622   48.807
 6897.00    0.77355   0.75596   48.732
 6898.00    0.77473   0.75564   49.343
 6899.00    0.77185   0.75558   49.707
 6900.00    0.76858   0.75586   49.225
 6901.00    0.76873   0.75622   48.179
 6902.00    0.76744   0.75652   47.608
 6903.00    0.75681   0.75709   48.359
 6904.00    0.74262   0.75776   49.371
 6905.00    0.73753   0.75825   48.653
 6906.00    0.74055   0.75868   46.754
 6907.00    0.74224   0.75880   45.593
 6908.00    0.74070   0.75871   45.779
 6909.00    0.73965   0.75836   46.813
 6910.00    0.74096   0.75730   47.331
 6911.00    0.74464   0.75624   46.436
 6912.00    0.75048   0.75501   45.591
 6913.00    0.75701   0.75330   46.181
 6914.00    0.76018   0.75234   46.898
 6915.00    0.75750   0.75170   46.309
 6916.00    0.75249   0.75092   46.175
 6917.00    0.75049   0.75123   48.016
 6918.00    0.75368   0.75191   49.683
 6919.00    0.75957   0.75220   48.958
 6920.00    0.76094   0.75282   48.059
 6921.00    0.75379   0.75329   48.784
 6922.00    0.74271   0.75319   49.288
 6923.00    0.73322   0.75286   48.263
 6924.00    0.72644   0.75240   47.742
 6925.00    0.72425   0.75191   48.602
 6926.00    0.73106   0.75158   48.565
 6927.00    0.74395   0.75148   46.747
 6928.00    0.75010   0.75166   45.532
 6929.00    0.74437   0.75212   45.939
 6930.00    0.73530   0.75270   46.590
 6931.00    0.72977   0.75317   46.583
 6932.00    0.72702   0.75349   46.579
 6933.00    0.72506   0.75403   46.998
 6934.00    0.72358   0.75455   47.486
 6935.00    0.72471   0.75472   47.891
 6936.00    0.73134   0.75524   48.467
 6937.00    0.74129   0.75589   49.180
 6938.00    0.74852   0.75608   49.583
 6939.00    0.75224   0.75621   49.312
 6940.00    0.75579   0.75614   48.453
 6941.00    0.75673   0.75555   47.876
 6942.00    0.74912   0.75485   48.464
 6943.00    0.73470   0.75397   49.459
 6944.00    0.72166   0.75280   49.178
 6945.00    0.71647   0.75217   47.884
 6946.00    0.72092   0.75176   46.968
 6947.00    0.73039   0.75114   46.513
 6948.00    0.73774   0.75128   45.833
 6949.00    0.74039   0.75158   44.750
 6950.00    0.73842   0.75126   43.657
 6951.00    0.73046   0.75143   43.274
 6952.00    0.71751   0.75174   44.043
 6953.00    0.70827   0.75153   45.428
 6954.00    0.71040   0.75187   46.474
 6955.00    0.71988   0.75269   46.837
 6956.00    0.72824   0.75327   46.712
 6957.00    0.73168   0.75419   46.419
 6958.00    0.73238   0.75545   46.220
 6959.00    0.73780   0.75641   46.218
 6960.00    0.75172   0.75735   46.382
 6961.00    0.76758   0.75824   46.577
 6962.00    0.77718   0.75879   46.689
 6963.00    0.77747   0.75941   46.717
 6964.00    0.76832   0.75985   46.646
 6965.00    0.75116   0.75997   46.380
 6966.00    0.73155   0.76036   45.847
 6967.00    0.71946   0.76051   45.058
 6968.00    0.72089   0.76027   44.025
 6969.00    0.73374   0.76011   42.781
 6970.00    0.75038   0.75942   41.670
 6971.00    0.76090   0.75812   41.260
 6972.00    0.76098   0.75660   41.770
 6973.00    0.75431   0.75420   42.931
 6974.00    0.74802   0.75111   44.086
 6975.00    0.74846   0.74819   44.425
 6976.00    0.75333   0.74518   44.004
 6977.00    0.75326   0.74204   43.751
 6978.00    0.74504   0.74016   44.276
 6979.00    0.73344   0.73990   45.560
 6980.00    0.72422   0.74015   46.801
 6981.00    0.72147   0.74163   46.837
 6982.00    0.72599   0.74476   45.910
 6983.00    0.73513   0.74781   45.194
 6984.00    0.74353   0.75053   44.876
 6985.00    0.74653   0.75337   44.390
 6986.00    0.74636   0.75549   43.412
 6987.00    0.74820   0.75667   42.080
 6988.00    0.75144   0.75742   -2.000
 6989.00    0.75261   0.75786   -2.000
 6990.00    0.75222   0.75796   -2.000
 6991.00    0.75181   0.75796   -2.000
 6992.00    0.74872   0.75799   -2.000
 6993.00    0.74148   0.75784   -2.000
 6994.00    0.73679   0.75765   -2.000
 6995.00    0.74046   0.75726   -2.000
 6996.00    0.74694   0.75644   -2.000
 6997.00    0.74940   0.75561   -2.000
 6998.00    0.75026   0.75459   -2.000
 6999.00    0.75460   0.75322   -2.000
 7000.00    0.76339   0.75213   -2.000
 7001.00    0.77407   0.75124   -2.000
 7002.00    0.78149   0.75029   -2.000
 7003.00    0.77859   0.74964   -2.000
 7004.00    0.75856   0.74946   -2.000
 7005.00    0.72608   0.74941   -2.000
 7006.00    0.70140   0.74938   -2.000
 7007.00    0.70103   0.74969   -2.000
 7008.00    0.72607   0.75015   -2.000
 7009.00    0.76163   0.75030   -2.000
 7010.00    0.78268   0.75023   -2.000
 7011.00    0.78088   0.75000   -2.000
 7012.00    0.77058   0.74926   -2.000
 7013.00    0.76235   0.74823   -2.000
 7014.00    0.75456   0.74722   -2.000
 7015.00    0.74438   0.74598   -2.000
 7016.00    0.73336   0.74529   -2.000
 7017.00    0.73135   0.74537   -2.000
 7018.00    0.74861   0.74534   -2.000
 7019.00    0.76993   0.74588   -2.000
 7020.00    0.76654   0.74707   -2.000
 7021.00    0.74575   0.74770   -2.000
 7022.00    0.74034   0.74806   -2.000
 7023.00    0.75409   0.74857   -2.000
 7024.00    0.76618   0.74885   -2.000
 7025.00    0.76723   0.74906   -2.000
 7026.00    0.76065   0.74949   -2.000
 7027.00    0.75117   0.75029   -2.000
 7028.00    0.74326   0.75132   -2.000
 7029.00    0.74202   0.75243   -2.000
 7030.00    0.74943   0.75355   -2.000
 7031.00    0.75903   0.75449   -2.000
 7032.00    0.76315   0.75536   -2.000
 7033.00    0.76300   0.75590   -2.000
 7034.00    0.76284   0.75594   -2.000
 7035.00    0.76166   0.75640   -2.000
 7036.00    0.75623   0.75696   -2.000
 7037.00    0.74548   0.75713   -2.000
 7038.00    0.73150   0.75834   -2.000
 7039.00    0.71977   0.76039   -2.000
 7040.00    0.71604   0.76201   -2.000
 7041.00    0.72307   0.76425   -2.000
 7042.00    0.73657   0.76721   -2.000
 7043.00    0.74415   0.76932   -2.000
 7044.00    0.73913   0.77099   -2.000
 7045.00    0.72837   0.77270   -2.000
 7046.00    0.72199   0.77346   -2.000
 7047.00    0.72586   0.77333   -2.000
 7048.00    0.73712   0.77268   -2.000
 7049.00    0.74487   0.77114   -2.000
 7050.00    0.74439   0.76887   -2.000
 7051.00    0.74132   0.76585   -2.000
 7052.00    0.73899   0.76236   -2.000
 7053.00    0.73458   0.75898   -2.000
 7054.00    0.72611   0.75552   -2.000
 7055.00    0.71581   0.75235   -2.000
 7056.00    0.71157   0.74989   -2.000
 7057.00    0.72251   0.74789   -2.000
 7058.00    0.74457   0.74619   -2.000
 7059.00    0.76274   0.74477   -2.000
 7060.00    0.76921   0.74388   -2.000
 7061.00    0.76653   0.74299   -2.000
 7062.00    0.76216   0.74187   -2.000
 7063.00    0.76212   0.74134   -2.000
 7064.00    0.76066   0.74072   -2.000
 7065.00    0.74962   0.73975   -2.000
 7066.00    0.74031   0.73955   -2.000
 7067.00    0.74837   0.73941   -2.000
 7068.00    0.76116   0.73930   -2.000
 7069.00    0.75637   0.74031   -2.000
 7070.00    0.73892   0.74159   -2.000
 7071.00    0.72557   0.74298   -2.000
 7072.00    0.71608   0.74512   -2.000
 7073.00    0.70508   0.74718   -2.000
 7074.00    0.70083   0.74879   -2.000
 7075.00    0.71129   0.75028   -2.000
 7076.00    0.72731   0.75131   -2.000
 7077.00    0.73735   0.75162   -2.000
 7078.00    0.74296   0.75122   -2.000
 7079.00    0.74671   0.75020   -2.000
 7080.00    0.74168   0.74831   -2.000
 7081.00    0.72591   0.74553   -2.000
 7082.00    0.71271   0.74229   -2.000
 7083.00    0.71403   0.73824   -2.000
 7084.00    0.72793   0.73388   -2.000
 7085.00    0.73960   0.73002   -2.000
 7086.00    0.72857   0.72589   -2.000
 7087.00    0.70370   0.72229   -2.000
 7088.00    0.70538   0.71993   -2.000
 7089.00    0.71385   0.71759   -2.000
 7090.00    0.64204   0.71598   -2.000
 7091.00    0.52178   0.71545   -2.000
 7092.00    0.52032   0.71492   -2.000
 7093.00    0.65288   0.71502   -2.000
 7094.00    0.74402   0.71571   -2.000
 7095.00    0.72740   0.71657   -2.000
 7096.00    0.69691   0.71778   -2.000
 7097.00    0.70444   0.71916   -2.000
 7098.00    0.72206   0.72084   -2.000
 7099.00    0.73189   0.72233   -2.000
 7100.00    0.74246   0.72368   -2.000
 7101.00    0.75995   0.72515   -2.000
 7102.00    0.77976   0.72605   -2.000
 7103.00    0.78597   0.72668   -2.000
 7104.00    0.76613   0.72727   -2.000
 7105.00    0.74073   0.72732   -2.000
 7106.00    0.74127   0.72703   -2.000
 7107.00    0.76004   0.72670   -2.000
 7108.00    0.76749   0.72616   -2.000
 7109.00    0.75600   0.72540   -2.000
 7110.00    0.73544   0.72476   -2.000
 7111.00    0.71564   0.72441   -2.000
 7112.00    0.70285   0.72434   -2.000
 7113.00    0.69836   0.72445   -2.000
 7114.00    0.69913   0.72490   -2.000
 7115.00    0.69935   0.72565   -2.000
 7116.00    0.69772   0.72631   -2.000
 7117.00    0.70330   0.72684   -2.000
 7118.00    0.71716   0.72713   -2.000
 7119.00    0.71807   0.72716   -2.000
 7120.00    0.69654   0.72695   -2.000
 7121.00    0.67958   0.72606   -2.000
 7122.00    0.68695   0.72510   -2.000
 7123.00    0.70098   0.72409   -2.000
 7124.00    0.70182   0.72237   -2.000
 7125.00    0.69103   0.72069   -2.000
 7126.00    0.67849   0.71903   -2.000
 7127.00    0.67205   0.71714   -2.000
 7128.00    0.67082   0.71558   -2.000
 7129.00    0.66522   0.71416   -2.000
 7130.00    0.65388   0.71334   -2.000
 7131.00    0.64830   0.71331   -2.000
 7132.00    0.65669   0.71351   -2.000
 7133.00    0.67784   0.71460   -2.000
 7134.00    0.70553   0.71624   -2.000
 7135.00    0.73115   0.71759   -2.000
 7136.00    0.74626   0.71944   -2.000
 7137.00    0.74497   0.72116   -2.000
 7138.00    0.72840   0.72202   -2.000
 7139.00    0.70464   0.72306   -2.000
 7140.00    0.68459   0.72388   -2.000
 7141.00    0.67779   0.72371   -2.000
 7142.00    0.68525   0.72369   -2.000
 7143.00    0.69893   0.72354   -2.000
 7144.00    0.70488   0.72236   -2.000
 7145.00    0.69286   0.72159   -2.000
 7146.00    0.67277   0.72091   -2.000
 7147.00    0.66348   0.71951   -2.000
 7148.00    0.66792   0.71925   -2.000
 7149.00    0.67693   0.71970   -2.000
 7150.00    0.68216   0.71992   -2.000
 7151.00    0.68112   0.72129   -2.000
 7152.00    0.68059   0.72341   -2.000
 7153.00    0.68609   0.72530   -2.000
 7154.00    0.68954   0.72715   -2.000
 7155.00    0.68514   0.72906   -2.000
 7156.00    0.68670   0.73053   -2.000
 7157.00    0.70165   0.73109   -2.000
 7158.00    0.70734   0.73132   -2.000
 7159.00    0.69250   0.73113   -2.000
 7160.00    0.68921   0.73003   -2.000
 7161.00    0.71077   0.72885   -2.000
 7162.00    0.71068   0.72770   -2.000
 7163.00    0.66883   0.72631   -2.000
 7164.00    0.64116   0.72543   -2.000
 7165.00    0.65991   0.72530   -2.000
 7166.00    0.68180   0.72563   -2.000
 7167.00    0.67753   0.72668   -2.000
 7168.00    0.67350   0.72844   -2.000
 7169.00    0.68756   0.73039   -2.000
 7170.00    0.70297   0.73248   -2.000
 7171.00    0.70810   0.73442   -2.000
 7172.00    0.70936   0.73574   -2.000
 7173.00    0.70590   0.73666   -2.000
 7174.00    0.68684   0.73709   -2.000
 7175.00    0.66020   0.73655   -2.000
 7176.00    0.65176   0.73569   -2.000
 7177.00    0.66669   0.73465   -2.000
 7178.00    0.68548   0.73309   -2.000
 7179.00    0.68945   0.73164   -2.000
 7180.00    0.67347   0.73029   -2.000
 7181.00    0.65773   0.72898   -2.000
 7182.00    0.66827   0.72810   -2.000
 7183.00    0.68688   0.72694   -2.000
 7184.00    0.67522   0.72587   -2.000
 7185.00    0.64657   0.72511   -2.000
 7186.00    0.63810   0.72368   -2.000
 7187.00    0.63501   0.72256   -2.000
 7188.00    0.61471   0.72183   -2.000
 7189.00    0.63593   0.72084   -2.000
 7190.00    0.72091   0.72081   -2.000
 7191.00    0.67966   0.72130   -2.000
 7192.00    0.39321   0.72174   -2.000
 7193.00    0.18601   0.72285   -2.000
 7194.00    0.36836   0.72431   -2.000
 7195.00    0.67987   0.72540   -2.000
 7196.00    0.76166   0.72632   -2.000
 7197.00    0.69308   0.72748   -2.000
 7198.00    0.67696   0.72815   -2.000
 7199.00    0.70561   0.72848   -2.000
 7200.00    0.70833   0.72887   -2.000
 7201.00    0.69428   0.72876   -2.000
 7202.00    0.69175   0.72845   -2.000
 7203.00    0.69673   0.72786   -2.000
 7204.00    0.69787   0.72704   -2.000
 7205.00    0.69483   0.72610   -2.000
 7206.00    0.69097   0.72478   -2.000
 7207.00    0.68853   0.72416   -2.000
 7208.00    0.69041   0.72379   -2.000
 7209.00    0.69951   0.72342   -2.000
 7210.00    0.71036   0.72430   -2.000
 7211.00    0.70969   0.72534   -2.000
 7212.00    0.69632   0.72629   -2.000
 7213.00    0.68432   0.72801   -2.000
 7214.00    0.68154   0.72956   -2.000
 7215.00    0.68416   0.73072   -2.000
 7216.00    0.68795   0.73212   -2.000
 7217.00    0.69241   0.73341   -2.000
 7218.00    0.70098   0.73430   -2.000
