###################################################################
## OUTPUT of StarlightChains_v04.for    [Cid@UFSC - 01/Apr/2007] ##
###################################################################

## Some input info
2004G.txt                                [arq_obs]
Base.CB07.vall.4m                        [arq_base]
Masks.EmLines.NEW.gm                     [arq_masks]
StCv04.C11.config                        [arq_config]
   66                                    [N_base]
    0                                    [N_YAV_components = # of components with extra extinction!]
    0                                    [i_FitPowerLaw (1/0 = Yes/No)]
-9.99                                    [alpha_PowerLaw]
CCM                                      [red_law_option]
 1.458241                                [q_norm = A(l_norm)/A(V)]

## (Re)Sampling Parameters
 3741.00                                 [l_ini (A)]
 7218.00                                 [l_fin (A)]
    1.00                                 [dl    (A)]     (OBS: dl_cushion =    50.00 A)

## Normalization info
 4020.00                                 [l_norm (A) - for base]
 4010.00                                 [llow_norm (A) - window for f_obs]
 4060.00                                 [lupp_norm (A) - window for f_obs]
2.687428E-13                             [fobs_norm (in input units)]

## S/N
 3691.00                                 [llow_SN (A) - window for S/N]
 7268.00                                 [lupp_SN (A) - window for S/N]
   5.861                                 [S/N in S/N window]
   7.931                                 [S/N in norm. window]
  10.000                                 [S/N_err in S/N window]
  13.530                                 [S/N_err in norm. window]
  1.0000                                 [fscale_chi2]

## etc...
    -2007292                             [idum_orig]
  2385                                   [NOl_eff]
  2342                                   [Nl_eff]
    43    NSIGMA                         [Ntot_cliped & clip_method]
  1173620                                [Nglobal_steps]
   7                                     [N_chains]
  19                                     [NEX0s_base = N_base in EX0s-fits]
 0   0   1       68   2.0   1.896E+01    [Clip-Bug, RC-Crash & Burn-In warning-flags, n_censored_weights, wei_nsig_threshold & wei_limit]
    12     12.338     11.847      0.491  [idt_all, wdt_TotTime, wdt_UsrTime & wdt_SysTime (sec)]

## Synthesis Results - Best model ##

 9.59860E-01                             [chi2/Nl_eff]
     7.70290                             [adev (%)]

    95.06495                             [sum-of-x (%)]
 3.85182E-13                             [Flux_tot (units of input spectrum!)]
 2.99962E-09                             [Mini_tot (???)]
 1.56947E-09                             [Mcor_tot (???)]

  60.01                                  [v0_min  (km/s)]
 246.12                                  [vd_min  (km/s)]
 0.3057                                  [AV_min  (mag)]
 0.0000                                  [YAV_min (mag)]

# j     x_j(%)      Mini_j(%)     Mcor_j(%)     age_j(yr)     Z_j      (L/M)_j    YAV?  Mstars   component_j        a/Fe...       SSP_chi2r SSP_adev(%)   SSP_AV   SSP_x(%)
  1      0.0000     0.0000E+00    0.0000E+00    1.000000E+06  0.00400  1.094E-02    0   1.0000   age020_m42            0.0000     1.5942E+00     9.8355   2.6068    77.8672
  2      0.0000     0.0000E+00    0.0000E+00    3.160000E+06  0.00400  4.007E-02    0   0.9999   age045_m42            0.0000     1.2532E+00     8.8450   1.8316    85.1955
  3      0.0000     0.0000E+00    0.0000E+00    5.010000E+06  0.00400  2.539E-02    0   0.9488   age055_m42            0.0000     1.3571E+00     9.1922   2.1706    82.3603
  4      0.0000     0.0000E+00    0.0000E+00    6.610000E+06  0.00400  2.620E-02    0   0.9220   age061_m42            0.0000     1.2145E+00     8.7009   1.7525    85.6099
  5      0.0000     0.0000E+00    0.0000E+00    1.000000E+07  0.00400  1.322E-02    0   0.8862   age070_m42            0.0000     1.1266E+00     8.3171   1.4826    87.0029
  6      0.0000     0.0000E+00    0.0000E+00    1.445000E+07  0.00400  7.883E-03    0   0.8571   age078_m42            0.0000     1.2170E+00     8.6277   1.8220    84.2864
  7      0.0000     0.0000E+00    0.0000E+00    2.512000E+07  0.00400  5.251E-03    0   0.8174   age090_m42            0.0000     1.1001E+00     8.2081   1.3511    87.5740
  8      0.0000     0.0000E+00    0.0000E+00    4.000000E+07  0.00400  3.649E-03    0   0.7851   age104_m42            0.0000     1.0645E+00     8.0856   1.1145    88.6963
  9      0.0000     0.0000E+00    0.0000E+00    5.500000E+07  0.00400  3.098E-03    0   0.7629   age110_m42            0.0000     1.0844E+00     8.1749   1.2551    89.2136
 10      0.0000     0.0000E+00    0.0000E+00    1.015200E+08  0.00400  2.228E-03    0   0.7207   age116_m42            0.0000     1.1165E+00     8.2809   1.2647    89.8203
 11      0.0000     0.0000E+00    0.0000E+00    2.861200E+08  0.00400  1.093E-03    0   0.6648   age125_m42            0.0000     1.0404E+00     7.9613   0.6860    93.0353
 12      0.0000     0.0000E+00    0.0000E+00    5.088000E+08  0.00400  6.597E-04    0   0.6365   age130_m42            0.0000     1.1343E+00     8.3078   0.6631    94.3524
 13     14.5597     9.2246E+00    1.0222E+01    1.434000E+09  0.00400  2.132E-04    0   0.5798   age139_m42            0.0000     1.1441E+00     8.4266  -0.3150    96.5841
 14      0.0000     0.0000E+00    0.0000E+00    4.250000E+09  0.00400  5.895E-05    0   0.5377   age158_m42            0.0000     1.3343E+00     9.1127  -0.7384    92.1144
 15      0.0000     0.0000E+00    0.0000E+00    7.500000E+09  0.00400  3.510E-05    0   0.5212   age171_m42            0.0000     1.4914E+00     9.5910  -0.9245    91.4176
 16      0.0000     0.0000E+00    0.0000E+00    1.300000E+10  0.00400  2.005E-05    0   0.5034   age193_m42            0.0000     1.6814E+00    10.0837  -1.0000    88.0104
 17      0.0000     0.0000E+00    0.0000E+00    1.800000E+10  0.00400  1.525E-05    0   0.4967   age213_m42            0.0000     1.6674E+00    10.0212  -1.0000    86.8800
 18      0.1016     1.1082E-03    2.1180E-03    1.000000E+06  0.00800  1.238E-02    0   1.0000   age020_m52            0.0000     1.5958E+00     9.8426   2.6031    78.0178
 19      0.0000     0.0000E+00    0.0000E+00    3.160000E+06  0.00800  3.074E-02    0   0.9966   age045_m52            0.0000     1.5592E+00     9.7678   2.5210    78.9157
 20      0.0000     0.0000E+00    0.0000E+00    5.010000E+06  0.00800  2.668E-02    0   0.9443   age055_m52            0.0000     1.3958E+00     9.3176   2.2601    81.3540
 21      0.0000     0.0000E+00    0.0000E+00    6.610000E+06  0.00800  2.136E-02    0   0.9177   age061_m52            0.0000     1.1580E+00     8.4454   0.9911    87.6772
 22      0.0000     0.0000E+00    0.0000E+00    1.000000E+07  0.00800  1.215E-02    0   0.8827   age070_m52            0.0000     1.1604E+00     8.4074   1.6732    86.3649
 23      0.0000     0.0000E+00    0.0000E+00    1.445000E+07  0.00800  8.717E-03    0   0.8552   age078_m52            0.0000     1.1783E+00     8.4968   1.7833    85.6328
 24      0.0000     0.0000E+00    0.0000E+00    2.512000E+07  0.00800  5.592E-03    0   0.8162   age090_m52            0.0000     1.0800E+00     8.1274   1.4132    88.7039
 25      0.0000     0.0000E+00    0.0000E+00    4.000000E+07  0.00800  3.896E-03    0   0.7841   age104_m52            0.0000     1.0469E+00     8.0158   1.3141    89.8743
 26      5.8322     3.6676E-01    5.0651E-01    1.015200E+08  0.00800  2.148E-03    0   0.7226   age116_m52            0.0000     1.0548E+00     8.0626   1.2365    90.3934
 27      0.0008     1.1141E-04    1.4230E-04    2.861200E+08  0.00800  9.925E-04    0   0.6683   age125_m52            0.0000     1.1316E+00     8.2761   0.7272    95.2629
 28     15.0473     6.4710E+00    7.5912E+00    9.047900E+08  0.00800  3.141E-04    0   0.6138   age135_m52            0.0000     1.2861E+00     8.8358  -0.0838    99.8652
 29      2.9259     2.2992E+00    2.5719E+00    1.434000E+09  0.00800  1.719E-04    0   0.5853   age139_m52            0.0000     1.2699E+00     8.8729  -0.6508    97.2820
 30      0.0000     0.0000E+00    0.0000E+00    2.500000E+09  0.00800  7.872E-05    0   0.5600   age150_m52            0.0000     1.5376E+00     9.7649  -0.9163    94.4728
 31      0.0000     0.0000E+00    0.0000E+00    4.250000E+09  0.00800  4.336E-05    0   0.5426   age158_m52            0.0000     1.5791E+00     9.8535  -0.9280    93.4288
 32      0.0000     0.0000E+00    0.0000E+00    6.250000E+09  0.00800  3.159E-05    0   0.5319   age166_m52            0.0000     1.8780E+00    10.5942  -1.0000    89.1276
 33      0.0000     0.0000E+00    0.0000E+00    1.300000E+10  0.00800  1.361E-05    0   0.5073   age193_m52            0.0000     3.4114E+00    13.5382  -1.0000    73.4664
 34      5.7580     7.8674E+01    7.5031E+01    1.800000E+10  0.00800  9.886E-06    0   0.4990   age213_m52            0.0000     4.1184E+00    14.6998  -1.0000    69.8048
 35      0.0100     8.7077E-05    1.6642E-04    1.000000E+06  0.02000  1.544E-02    0   1.0000   age020_m62            0.0000     1.6059E+00     9.8746   2.6009    78.1435
 36      0.0000     0.0000E+00    0.0000E+00    3.160000E+06  0.02000  3.762E-02    0   0.9858   age045_m62            0.0000     1.6002E+00     9.8880   2.5360    78.9634
 37      0.0000     0.0000E+00    0.0000E+00    5.010000E+06  0.02000  3.296E-02    0   0.9342   age055_m62            0.0000     1.3159E+00     9.0819   2.1176    83.8768
 38      8.1467     9.5358E-02    1.6149E-01    8.710000E+06  0.02000  1.154E-02    0   0.8861   age067_m62            0.0000     1.5121E+00     9.3826   1.1605    87.3038
 39      0.0000     0.0000E+00    0.0000E+00    1.445000E+07  0.02000  7.663E-03    0   0.8472   age078_m62            0.0000     1.1835E+00     8.4249   1.3288    88.0267
 40      0.0000     0.0000E+00    0.0000E+00    2.512000E+07  0.02000  4.532E-03    0   0.8099   age090_m62            0.0000     1.1670E+00     8.3855   1.3164    87.9903
 41      0.0000     0.0000E+00    0.0000E+00    5.500000E+07  0.02000  2.733E-03    0   0.7595   age110_m62            0.0000     1.0596E+00     8.0688   1.2994    89.1214
 42      0.0000     0.0000E+00    0.0000E+00    1.609000E+08  0.02000  1.369E-03    0   0.6985   age120_m62            0.0000     1.1000E+00     8.1817   1.1044    93.0160
 43      0.0000     0.0000E+00    0.0000E+00    2.861200E+08  0.02000  9.013E-04    0   0.6714   age125_m62            0.0000     1.2136E+00     8.5449   0.8350    96.5338
 44      0.0000     0.0000E+00    0.0000E+00    5.088000E+08  0.02000  5.028E-04    0   0.6449   age130_m62            0.0000     1.3907E+00     9.1548   0.4426    99.7660
 45      0.0000     0.0000E+00    0.0000E+00    9.047900E+08  0.02000  2.428E-04    0   0.6179   age135_m62            0.0000     1.3897E+00     9.2382  -0.1370    98.9243
 46      0.0000     0.0000E+00    0.0000E+00    1.434000E+09  0.02000  1.263E-04    0   0.5908   age139_m62            0.0000     1.4802E+00     9.5386  -0.5719    97.0661
 47      0.0000     0.0000E+00    0.0000E+00    2.500000E+09  0.02000  5.985E-05    0   0.5673   age150_m62            0.0000     1.7675E+00    10.4278  -0.9354    95.6051
 48      0.0000     0.0000E+00    0.0000E+00    4.250000E+09  0.02000  3.271E-05    0   0.5468   age158_m62            0.0000     2.3745E+00    11.7732  -1.0000    86.7132
 49      0.0000     0.0000E+00    0.0000E+00    1.000000E+10  0.02000  1.360E-05    0   0.5167   age181_m62            0.0000     3.8520E+00    14.2712  -1.0000    75.0207
 50      0.0000     0.0000E+00    0.0000E+00    1.800000E+10  0.02000  7.124E-06    0   0.5013   age213_m62            0.0000     5.0911E+00    16.1095  -1.0000    67.9935
 51      0.0000     0.0000E+00    0.0000E+00    1.000000E+06  0.05000  2.592E-02    0   0.9998   age020_m72            0.0000     1.6405E+00     9.9456   2.5963    78.0137
 52      0.0000     0.0000E+00    0.0000E+00    3.160000E+06  0.05000  4.845E-02    0   0.9577   age045_m72            0.0000     1.4852E+00     9.6132   2.4013    80.6803
 53      0.0000     0.0000E+00    0.0000E+00    5.010000E+06  0.05000  3.072E-02    0   0.9147   age055_m72            0.0000     1.2971E+00     8.8339   1.9262    84.2480
 54      7.4605     6.9261E-02    1.1751E-01    6.610000E+06  0.05000  1.455E-02    0   0.8877   age061_m72            0.0000     1.9311E+00    10.8242   1.2277    87.4985
 55      0.0000     0.0000E+00    0.0000E+00    1.000000E+07  0.05000  9.074E-03    0   0.8524   age070_m72            0.0000     1.3709E+00     9.1365   2.1167    83.9031
 56      0.0000     0.0000E+00    0.0000E+00    2.512000E+07  0.05000  4.250E-03    0   0.7902   age090_m72            0.0000     1.1718E+00     8.4547   1.7869    86.5574
 57      0.0000     0.0000E+00    0.0000E+00    4.000000E+07  0.05000  3.087E-03    0   0.7618   age104_m72            0.0000     1.1176E+00     8.2580   1.5476    88.4943
 58     35.2221     2.7986E+00    3.7955E+00    1.015200E+08  0.05000  1.700E-03    0   0.7096   age116_m72            0.0000     1.0630E+00     8.0155   1.2537    92.3691
 59      0.0000     0.0000E+00    0.0000E+00    2.861200E+08  0.05000  7.384E-04    0   0.6633   age125_m72            0.0000     1.3054E+00     8.8272   0.6942    98.2503
 60      0.0000     0.0000E+00    0.0000E+00    5.088000E+08  0.05000  3.819E-04    0   0.6372   age130_m72            0.0000     1.3988E+00     9.2713   0.1961   100.0901
 61      0.0000     0.0000E+00    0.0000E+00    9.047900E+08  0.05000  1.676E-04    0   0.6110   age135_m72            0.0000     1.6866E+00    10.2275  -0.4915    97.9518
 62      0.0000     0.0000E+00    0.0000E+00    1.434000E+09  0.05000  8.837E-05    0   0.5874   age139_m72            0.0000     1.8424E+00    10.5947  -0.9412    97.2428
 63      0.0000     0.0000E+00    0.0000E+00    2.500000E+09  0.05000  4.233E-05    0   0.5598   age150_m72            0.0000     2.5127E+00    12.0758  -1.0000    87.4470
 64      0.0000     0.0000E+00    0.0000E+00    6.250000E+09  0.05000  1.435E-05    0   0.5249   age166_m72            0.0000     4.3218E+00    15.0724  -1.0000    71.7176
 65      0.0000     0.0000E+00    0.0000E+00    1.300000E+10  0.05000  6.513E-06    0   0.5036   age193_m72            0.0000     6.0770E+00    17.5169  -1.0000    63.9717
 66      0.0000     0.0000E+00    0.0000E+00    1.800000E+10  0.05000  4.527E-06    0   0.4945   age213_m72            0.0000     7.1762E+00    18.9538  -1.0000    59.3141


## Synthesis Results - Average & Chains ##

# j      x_j: min, <> & last-chain-values for 1 ...  7 chains
  1      0.0000      0.2551      0.0000      0.4759      0.0000      0.0000      0.0000      0.0000      0.0000
  2      0.0000      0.4932      0.0000      0.0000      0.0000      0.0000      2.1177      0.0000      0.0000
  3      0.0000      0.2265      1.7478      0.0000      0.0000      0.0000      0.0856      0.1082      0.0000
  4      0.0000      0.4194      0.7587      0.0000      0.0000      0.0000      0.0000      0.0000      0.0000
  5      0.0000      0.6005      0.4666      0.2443      0.0000      1.3561      0.0000      0.0000      0.0000
  6      0.0000      0.3258      0.0000      0.0000      0.0000      0.0000      0.0000      0.0000      0.0000
  7      0.0000      0.8736      0.5582      0.0000      0.0000      0.0000      0.1524      0.0000      0.0000
  8      0.0000      0.8066      2.5016      0.0000      0.0000      0.6505      0.4846      0.0000      0.0000
  9      0.0000      1.0831      1.1721      0.0000      0.0000      0.0000      0.0000      0.0000      1.5392
 10      0.0000      0.5107      0.0000      0.0000      0.0000      0.7020      1.1285      0.0000      0.0000
 11      0.0000      4.3887     10.0039      1.7511      3.5297      9.0366      7.0269      7.2665      8.1939
 12      0.0000      1.6483      0.1794      2.6606      0.0000      0.0000      0.8760      0.0000      2.1983
 13     14.5597      9.3405      9.7124     10.6534     16.4014      9.9778      9.3117      8.5325      8.5781
 14      0.0000      1.0830      0.0000      0.8788      0.0000      1.3388      0.0000      0.9223      0.9023
 15      0.0000      0.2977      0.0000      0.0000      0.0000      0.0000      0.0000      0.3504      0.0000
 16      0.0000      0.2216      1.0795      0.0000      0.0000      1.4233      0.0000      0.0000      0.0000
 17      0.0000      0.1936      0.1446      0.0000      0.0000      0.0000      1.7758      0.0000      0.0000
 18      0.1016      0.5469      0.0000      1.1156      0.4806      0.0000      0.0000      0.0000      0.3390
 19      0.0000      0.1815      0.0000      0.0000      0.0000      0.0000      0.0000      0.1130      0.0000
 20      0.0000      0.2378      0.0000      0.0000      0.0000      0.0000      0.3545      0.0000      0.0000
 21      0.0000      0.5984      0.3401      0.0000      0.0000      0.0327      0.0000      0.0000      0.0000
 22      0.0000      1.2055      0.0000      1.8009      2.1118      0.2627      1.1264      0.0000      1.9712
 23      0.0000      0.9035      0.0000      0.0000      0.0000      0.0000      0.0000      0.1813      1.8587
 24      0.0000      1.6774      2.7209      0.0217      2.2303      4.5952      1.6630      0.0000      1.7599
 25      0.0000      2.0012      0.8810      1.1564      0.0000      0.0000      1.7611      1.6705      0.0000
 26      5.8322      2.8591      3.6724      2.8696      6.5067      8.6993      1.4397      1.5809      4.8686
 27      0.0008      2.1759      0.0000      2.4520      2.3137      1.5024      5.8268      0.0000      2.8187
 28     15.0473     12.4984     16.0644     13.1302     13.5399      9.3667     19.2143     13.7043     13.3845
 29      2.9259      2.6686      2.8808      2.7897      3.4948      3.1243      0.0000      4.6584      3.0680
 30      0.0000      0.2416      0.0000      0.0000      0.0000      1.8246      0.0000      0.0000      0.0000
 31      0.0000      0.7704      0.0000      1.9072      0.0000      1.0061      0.0000      1.6555      1.4939
 32      0.0000      0.1202      0.0000      0.0000      0.0000      0.0000      0.0000      0.0000      0.0000
 33      0.0000      0.1756      0.0000      0.9575      0.3707      0.0000      0.1133      0.0000      0.6419
 34      5.7580      1.5754      1.9798      1.2247      1.2975      1.5637      2.6890      1.5765      1.2630
 35      0.0100      0.3286      0.0130      1.5547      1.2503      0.0000      0.0000      3.2827      0.0000
 36      0.0000      0.1187      0.0000      0.0000      0.0000      0.0000      0.0000      0.0000      0.0000
 37      0.0000      0.4766      0.0295      2.3130      0.0061      0.0000      0.1363      0.0781      0.0000
 38      8.1467      6.3822      5.9524      6.6473      9.6838      7.0892      6.4133      7.3771     10.8556
 39      0.0000      1.3120      0.0000      0.4972      0.0000      0.7674      3.4840      0.2589      0.0000
 40      0.0000      0.9123      3.4016      1.9818      1.1567      0.0000      0.0807      0.0000      0.3913
 41      0.0000      0.8468      0.0000      0.0000      0.0000      0.0000      0.0000      0.0000      0.0000
 42      0.0000      2.8138      6.8392      2.5610      0.2644      0.8814      0.0000     10.9316      0.0000
 43      0.0000      3.0298      1.2387      5.2332      0.0000      5.5308      1.2010      1.5104      3.2235
 44      0.0000      1.4687      0.0000      1.7300      0.7969      1.7877      0.8986      2.6575      0.8691
 45      0.0000      0.8618      0.8052      1.2590      0.0000      0.0000      0.0000      0.0000      0.0000
 46      0.0000      0.2389      0.0000      0.0000      0.0014      0.0000      0.0000      0.0000      0.9719
 47      0.0000      0.1578      0.0000      0.0000      0.0000      0.0000      0.0000      0.9656      0.0000
 48      0.0000      0.1263      0.0000      0.0000      0.0000      0.0647      0.0000      0.0000      0.0000
 49      0.0000      0.1071      0.0000      0.0000      0.0000      0.0000      0.0000      0.0000      0.0000
 50      0.0000      0.0269      0.0000      0.0000      0.0000      0.0000      0.0000      0.0000      0.0000
 51      0.0000      0.2272      0.0000      0.0000      0.0000      0.9421      0.9645      1.1553      0.6661
 52      0.0000      0.2302      0.0000      0.0000      0.2228      0.0000      0.6590      0.0000      0.0000
 53      0.0000      0.3201      0.1624      0.0000      0.0000      0.0000      0.0000      0.0000      0.0000
 54      7.4605      5.7574      7.4571      8.9265      4.2132      7.7811      7.8001      6.6998      6.0212
 55      0.0000      0.2997      0.0000      0.0000      0.4386      0.0000      0.0000      0.0094      0.0000
 56      0.0000      0.5067      0.0000      0.0000      3.2538      0.0450      2.1536      1.4704      0.0000
 57      0.0000      0.6404      0.0000      1.6343      0.7070      0.4955      0.3665      1.7611      2.9058
 58     35.2221      7.1579     10.6589      8.1404     13.7936     11.1465      7.3190     10.2081      7.3214
 59      0.0000      5.4154      0.0000      5.6467      6.1862      1.3337      5.2688      3.8098      6.3001
 60      0.0000      0.7567      0.0000      0.0000      0.0000      0.0000      0.4930      0.0000      0.0000
 61      0.0000      0.2191      0.0000      0.1641      0.0760      0.0634      0.0000      0.0000      0.0000
 62      0.0000      0.1428      0.0000      0.0000      0.0000      0.0000      0.0000      0.0000      0.0000
 63      0.0000      0.0697      0.1660      0.0000      0.0000      0.0000      0.0000      0.0000      0.0000
 64      0.0000      0.1204      0.5987      0.0000      0.0000      0.0000      0.0000      0.0000      0.0000
 65      0.0000      0.0303      0.0000      0.0000      0.3141      0.0000      0.0000      0.0000      0.0883
 66      0.0000      0.0710      0.0000      0.0783      0.0000      0.0000      0.0000      0.0000      0.0000

# j      m_j: min, <> & last-chain-values for 1 ...  7 chains
  1  0.0000E+00  9.7384E-03  0.0000E+00  1.8868E-02  0.0000E+00  0.0000E+00  0.0000E+00  0.0000E+00  0.0000E+00
  2  0.0000E+00  5.1393E-03  0.0000E+00  0.0000E+00  0.0000E+00  0.0000E+00  1.8607E-02  0.0000E+00  0.0000E+00
  3  0.0000E+00  3.5352E-03  2.6657E-02  0.0000E+00  0.0000E+00  0.0000E+00  1.1270E-03  1.8892E-03  0.0000E+00
  4  0.0000E+00  6.1634E-03  1.0896E-02  0.0000E+00  0.0000E+00  0.0000E+00  0.0000E+00  0.0000E+00  0.0000E+00
  5  0.0000E+00  1.6810E-02  1.2767E-02  7.1022E-03  0.0000E+00  3.8782E-02  0.0000E+00  0.0000E+00  0.0000E+00
  6  0.0000E+00  1.4792E-02  0.0000E+00  0.0000E+00  0.0000E+00  0.0000E+00  0.0000E+00  0.0000E+00  0.0000E+00
  7  0.0000E+00  5.6787E-02  3.5467E-02  0.0000E+00  0.0000E+00  0.0000E+00  8.3532E-03  0.0000E+00  0.0000E+00
  8  0.0000E+00  7.2464E-02  2.1968E-01  0.0000E+00  0.0000E+00  5.9709E-02  3.6710E-02  0.0000E+00  0.0000E+00
  9  0.0000E+00  1.1138E-01  1.1780E-01  0.0000E+00  0.0000E+00  0.0000E+00  0.0000E+00  0.0000E+00  1.7897E-01
 10  0.0000E+00  6.8985E-02  0.0000E+00  0.0000E+00  0.0000E+00  9.6873E-02  1.2854E-01  0.0000E+00  0.0000E+00
 11  0.0000E+00  1.1147E+00  2.4834E+00  4.6194E-01  1.0330E+00  2.3448E+00  1.5049E+00  2.0655E+00  2.3533E+00
 12  0.0000E+00  6.6409E-01  7.0658E-02  1.1134E+00  0.0000E+00  0.0000E+00  2.9759E-01  0.0000E+00  1.0015E+00
 13  1.0222E+01  1.0607E+01  1.0780E+01  1.2566E+01  2.1461E+01  1.1576E+01  8.9166E+00  1.0844E+01  1.1015E+01
 14  0.0000E+00  4.1249E+00  0.0000E+00  3.4765E+00  0.0000E+00  5.2095E+00  0.0000E+00  3.9313E+00  3.8864E+00
 15  0.0000E+00  1.8458E+00  0.0000E+00  0.0000E+00  0.0000E+00  0.0000E+00  0.0000E+00  2.4314E+00  0.0000E+00
 16  0.0000E+00  2.3237E+00  1.1062E+01  0.0000E+00  0.0000E+00  1.5246E+01  0.0000E+00  0.0000E+00  0.0000E+00
 17  0.0000E+00  2.6330E+00  1.9226E+00  0.0000E+00  0.0000E+00  0.0000E+00  2.0365E+01  0.0000E+00  0.0000E+00
 18  2.1180E-03  1.8448E-02  0.0000E+00  3.9085E-02  1.8676E-02  0.0000E+00  0.0000E+00  0.0000E+00  1.2930E-02
 19  0.0000E+00  2.4570E-03  0.0000E+00  0.0000E+00  0.0000E+00  0.0000E+00  0.0000E+00  1.7121E-03  0.0000E+00
 20  0.0000E+00  3.5142E-03  0.0000E+00  0.0000E+00  0.0000E+00  0.0000E+00  4.4177E-03  0.0000E+00  0.0000E+00
 21  0.0000E+00  1.0735E-02  5.9641E-03  0.0000E+00  0.0000E+00  5.9875E-04  0.0000E+00  0.0000E+00  0.0000E+00
 22  0.0000E+00  3.6571E-02  0.0000E+00  5.6747E-02  7.3817E-02  8.1411E-03  2.8815E-02  0.0000E+00  6.7621E-02
 23  0.0000E+00  3.7013E-02  0.0000E+00  0.0000E+00  0.0000E+00  0.0000E+00  0.0000E+00  8.3138E-03  8.6106E-02
 24  0.0000E+00  1.0224E-01  1.6209E-01  1.3714E-03  1.5662E-01  2.8613E-01  8.5470E-02  0.0000E+00  1.2130E-01
 25  0.0000E+00  1.6818E-01  7.2369E-02  1.0094E-01  0.0000E+00  0.0000E+00  1.2480E-01  1.5712E-01  0.0000E+00
 26  5.0651E-01  4.0164E-01  5.0423E-01  4.1870E-01  1.0532E+00  1.2485E+00  1.7053E-01  2.4853E-01  7.7337E-01
 27  1.4230E-04  6.1180E-01  0.0000E+00  7.1611E-01  7.4956E-01  4.3159E-01  1.3815E+00  0.0000E+00  8.9619E-01
 28  7.5912E+00  1.0199E+01  1.2812E+01  1.1129E+01  1.2730E+01  7.8088E+00  1.3221E+01  1.2515E+01  1.2350E+01
 29  2.5719E+00  3.7942E+00  4.0033E+00  4.1198E+00  5.7252E+00  4.5384E+00  0.0000E+00  7.4124E+00  4.9327E+00
 30  0.0000E+00  7.1765E-01  0.0000E+00  0.0000E+00  0.0000E+00  5.5374E+00  0.0000E+00  0.0000E+00  0.0000E+00
 31  0.0000E+00  4.0256E+00  0.0000E+00  1.0351E+01  0.0000E+00  5.3714E+00  0.0000E+00  9.6813E+00  8.8276E+00
 32  0.0000E+00  8.4494E-01  0.0000E+00  0.0000E+00  0.0000E+00  0.0000E+00  0.0000E+00  0.0000E+00  0.0000E+00
 33  0.0000E+00  2.7334E+00  0.0000E+00  1.5479E+01  6.6479E+00  0.0000E+00  1.4875E+00  0.0000E+00  1.1297E+01
 34  7.5031E+01  3.3206E+01  4.0787E+01  2.6811E+01  3.1510E+01  3.3672E+01  4.7792E+01  3.7187E+01  3.0103E+01
 35  1.6642E-04  8.8879E-03  3.4464E-04  4.3672E-02  3.8962E-02  0.0000E+00  0.0000E+00  9.9358E-02  0.0000E+00
 36  0.0000E+00  1.2990E-03  0.0000E+00  0.0000E+00  0.0000E+00  0.0000E+00  0.0000E+00  0.0000E+00  0.0000E+00
 37  0.0000E+00  5.6412E-03  3.4114E-04  2.8434E-02  8.3614E-05  0.0000E+00  1.3599E-03  1.0349E-03  0.0000E+00
 38  1.6149E-01  2.0464E-01  1.8654E-01  2.2138E-01  3.5776E-01  2.3223E-01  1.7340E-01  2.6472E-01  3.9360E-01
 39  0.0000E+00  6.0569E-02  0.0000E+00  2.3841E-02  0.0000E+00  3.6195E-02  1.3563E-01  1.3378E-02  0.0000E+00
 40  0.0000E+00  6.8080E-02  2.4810E-01  1.5360E-01  9.9453E-02  0.0000E+00  5.0790E-03  0.0000E+00  3.3022E-02
 41  0.0000E+00  9.8263E-02  0.0000E+00  0.0000E+00  0.0000E+00  0.0000E+00  0.0000E+00  0.0000E+00  0.0000E+00
 42  0.0000E+00  5.9949E-01  1.4242E+00  5.6673E-01  6.4902E-02  1.9185E-01  0.0000E+00  2.6065E+00  0.0000E+00
 43  0.0000E+00  9.4244E-01  3.7660E-01  1.6908E+00  0.0000E+00  1.7577E+00  3.1502E-01  5.2580E-01  1.1338E+00
 44  0.0000E+00  7.8664E-01  0.0000E+00  9.6239E-01  4.9176E-01  9.7823E-01  4.0584E-01  1.5929E+00  5.2637E-01
 45  0.0000E+00  9.1585E-01  8.3633E-01  1.3896E+00  0.0000E+00  0.0000E+00  0.0000E+00  0.0000E+00  0.0000E+00
 46  0.0000E+00  4.6666E-01  0.0000E+00  0.0000E+00  3.2565E-03  0.0000E+00  0.0000E+00  0.0000E+00  2.1466E+00
 47  0.0000E+00  6.2454E-01  0.0000E+00  0.0000E+00  0.0000E+00  0.0000E+00  0.0000E+00  4.2774E+00  0.0000E+00
 48  0.0000E+00  8.8169E-01  0.0000E+00  0.0000E+00  0.0000E+00  4.6124E-01  0.0000E+00  0.0000E+00  0.0000E+00
 49  0.0000E+00  1.6998E+00  0.0000E+00  0.0000E+00  0.0000E+00  0.0000E+00  0.0000E+00  0.0000E+00  0.0000E+00
 50  0.0000E+00  7.9165E-01  0.0000E+00  0.0000E+00  0.0000E+00  0.0000E+00  0.0000E+00  0.0000E+00  0.0000E+00
 51  0.0000E+00  3.6600E-03  0.0000E+00  0.0000E+00  0.0000E+00  1.5504E-02  1.3100E-02  2.0826E-02  1.2133E-02
 52  0.0000E+00  1.8998E-03  0.0000E+00  0.0000E+00  2.1186E-03  0.0000E+00  4.5867E-03  0.0000E+00  0.0000E+00
 53  0.0000E+00  3.9802E-03  1.9739E-03  0.0000E+00  0.0000E+00  0.0000E+00  0.0000E+00  0.0000E+00  0.0000E+00
 54  1.1751E-01  1.4668E-01  1.8569E-01  2.3621E-01  1.2368E-01  2.0253E-01  1.6756E-01  1.9102E-01  1.7346E-01
 55  0.0000E+00  1.1755E-02  0.0000E+00  0.0000E+00  1.9825E-02  0.0000E+00  0.0000E+00  4.1360E-04  0.0000E+00
 56  0.0000E+00  3.9337E-02  0.0000E+00  0.0000E+00  2.9108E-01  3.5721E-03  1.4099E-01  1.2777E-01  0.0000E+00
 57  0.0000E+00  6.5994E-02  0.0000E+00  1.7492E-01  8.3939E-02  5.2165E-02  3.1847E-02  2.0309E-01  3.3860E-01
 58  3.7955E+00  1.2476E+00  1.8159E+00  1.4737E+00  2.7702E+00  1.9849E+00  1.0757E+00  1.9913E+00  1.4430E+00
 59  0.0000E+00  2.0313E+00  0.0000E+00  2.2000E+00  2.6737E+00  5.1112E-01  1.6665E+00  1.5994E+00  2.6723E+00
 60  0.0000E+00  5.2720E-01  0.0000E+00  0.0000E+00  0.0000E+00  0.0000E+00  2.8961E-01  0.0000E+00  0.0000E+00
 61  0.0000E+00  3.3360E-01  0.0000E+00  2.5941E-01  1.3336E-01  9.8652E-02  0.0000E+00  0.0000E+00  0.0000E+00
 62  0.0000E+00  3.9649E-01  0.0000E+00  0.0000E+00  0.0000E+00  0.0000E+00  0.0000E+00  0.0000E+00  0.0000E+00
 63  0.0000E+00  3.8516E-01  8.9616E-01  0.0000E+00  0.0000E+00  0.0000E+00  0.0000E+00  0.0000E+00  0.0000E+00
 64  0.0000E+00  1.8398E+00  8.9383E+00  0.0000E+00  0.0000E+00  0.0000E+00  0.0000E+00  0.0000E+00  0.0000E+00
 65  0.0000E+00  9.7696E-01  0.0000E+00  0.0000E+00  1.1687E+01  0.0000E+00  0.0000E+00  0.0000E+00  3.2230E+00
 66  0.0000E+00  3.2406E+00  0.0000E+00  3.7090E+00  0.0000E+00  0.0000E+00  0.0000E+00  0.0000E+00  0.0000E+00

# AV, chi2 & Mass for <> & i_chain = 1 ...  7 solutions
AV       0.3057      0.4401      0.4323      0.4358      0.4410      0.4190      0.4321      0.4422      0.4453
chi2 9.5986E-01  9.7097E-01  9.6822E-01  9.6857E-01  9.6649E-01  9.6817E-01  9.6825E-01  9.6842E-01  9.6840E-01
Mass 1.5695E-09  1.1623E-09  1.1768E-09  1.1125E-09  1.0100E-09  1.1059E-09  1.3637E-09  1.0415E-09  1.0350E-09
  60.01                                  [v0_min (km/s) before EX0s...]
 246.12                                  [vd_min (km/s) before EX0s...]


## Synthetic spectrum (Best Model) ##l_obs f_obs f_syn wei
 3478    [Nl_obs]
 3741.00    0.85718   0.60528    0.000
 3742.00    0.80373   0.61687    0.000
 3743.00    0.71011   0.61855    0.000
 3744.00    0.61605   0.61038    0.000
 3745.00    0.55248   0.59368   18.100
 3746.00    0.53914   0.57101   18.548
 3747.00    0.57612   0.54613   17.357
 3748.00    0.63838   0.52358   15.665
 3749.00    0.68083   0.50700   14.688
 3750.00    0.67121   0.49835   14.898
 3751.00    0.61077   0.49996   16.373
 3752.00    0.53093   0.51344   18.835
 3753.00    0.46849   0.53682   18.956
 3754.00    0.45058   0.56491   18.956
 3755.00    0.49181   0.59312   18.956
 3756.00    0.58238   0.61926   17.171
 3757.00    0.68100   0.64151   14.684
 3758.00    0.72427   0.65804   13.807
 3759.00    0.67846   0.66841   14.739
 3760.00    0.56890   0.67397   17.578
 3761.00    0.46882   0.67626   -1.000
 3762.00    0.43582   0.67500   -1.000
 3763.00    0.47709   0.66853   -1.000
 3764.00    0.55566   0.65644   17.997
 3765.00    0.62817   0.63939   15.919
 3766.00    0.66481   0.61825   15.042
 3767.00    0.65092   0.59433   15.363
 3768.00    0.59134   0.57009   16.911
 3769.00    0.51256   0.54957   18.956
 3770.00    0.45579   0.53612   18.956
 3771.00    0.44438   0.53102   18.956
 3772.00    0.46787   0.53559   18.956
 3773.00    0.49071   0.55155   18.956
 3774.00    0.49330   0.57741   18.956
 3775.00    0.49142   0.60863   18.956
 3776.00    0.52581   0.64169   18.956
 3777.00    0.61492   0.67477   16.262
 3778.00    0.73328   0.70616   13.637
 3779.00    0.82359   0.73396   12.142
 3780.00    0.84859   0.75717   11.784
 3781.00    0.81409   0.77575   12.284
 3782.00    0.76080   0.78910   13.144
 3783.00    0.72958   0.79633   13.706
 3784.00    0.74665   0.79797   13.393
 3785.00    0.82081   0.79511   12.183
 3786.00    0.93447   0.78812   10.701
 3787.00    1.04000   0.77666    9.615
 3788.00    1.07417   0.76130   -1.000
 3789.00    1.01149   0.74319    9.886
 3790.00    0.88532   0.72217   11.295
 3791.00    0.76862   0.69754   13.010
 3792.00    0.70453   0.66945   14.194
 3793.00    0.67980   0.63834   14.710
 3794.00    0.64287   0.60469   15.555
 3795.00    0.56747   0.57084   17.622
 3796.00    0.47602   0.54114   18.956
 3797.00    0.42263   0.51945   18.956
 3798.00    0.43570   0.50779   18.956
 3799.00    0.49758   0.50738   18.956
 3800.00    0.55974   0.51991   17.866
 3801.00    0.59212   0.54492   16.888
 3802.00    0.60002   0.57791   16.666
 3803.00    0.61236   0.61355   16.330
 3804.00    0.64523   0.64898   15.498
 3805.00    0.68982   0.68296   14.497
 3806.00    0.72179   0.71371   13.854
 3807.00    0.72924   0.73985   13.713
 3808.00    0.72163   0.76143   13.858
 3809.00    0.72163   0.77933   13.858
 3810.00    0.74181   0.79374   13.481
 3811.00    0.77753   0.80393   12.861
 3812.00    0.81304   0.80962   12.300
 3813.00    0.83860   0.81143   11.925
 3814.00    0.85551   0.81029   11.689
 3815.00    0.87180   0.80665   11.471
 3816.00    0.89082   0.80092   11.226
 3817.00    0.90798   0.79425   11.013
 3818.00    0.91447   0.78834   10.935
 3819.00    0.90688   0.78332   11.027
 3820.00    0.88972   0.77705   11.239
 3821.00    0.87163   0.76863   11.473
 3822.00    0.85584   0.76028   11.684
 3823.00    0.83777   0.75320   11.936
 3824.00    0.80893   0.74479   12.362
 3825.00    0.76634   0.73222   13.049
 3826.00    0.71495   0.71542   13.987
 3827.00    0.66420   0.69605   15.056
 3828.00    0.62037   0.67404   16.119
 3829.00    0.58464   0.64801   17.105
 3830.00    0.55471   0.61808   18.027
 3831.00    0.52820   0.58572   18.932
 3832.00    0.50350   0.55301   18.956
 3833.00    0.48052   0.52241   18.956
 3834.00    0.46226   0.49664   18.956
 3835.00    0.45510   0.47875   18.956
 3836.00    0.46550   0.47110   18.956
 3837.00    0.49320   0.47518   18.956
 3838.00    0.52986   0.49139   18.873
 3839.00    0.56346   0.51752   17.748
 3840.00    0.58695   0.55007   17.037
 3841.00    0.60009   0.58624   16.664
 3842.00    0.60658   0.62343   16.486
 3843.00    0.60869   0.65964   16.429
 3844.00    0.60627   0.69331   16.494
 3845.00    0.59931   0.72259   16.686
 3846.00    0.59285   0.74666   16.868
 3847.00    0.59774   0.76617    0.000
 3848.00    0.62494   0.78260    0.000
 3849.00    0.67533   0.79637    0.000
 3850.00    0.73804   0.80677    0.000
 3851.00    0.79709   0.81415    0.000
 3852.00    0.84299   0.81987    0.000
 3853.00    0.87461   0.82477    0.000
 3854.00    0.89528   0.82844    0.000
 3855.00    0.90615   0.83021    0.000
 3856.00    0.90518   0.83054    0.000
 3857.00    0.89056   0.83051    0.000
 3858.00    0.86616   0.83146    0.000
 3859.00    0.84221   0.83390    0.000
 3860.00    0.82941   0.83631    0.000
 3861.00    0.82981   0.83842    0.000
 3862.00    0.83566   0.84149    0.000
 3863.00    0.83556   0.84531    0.000
 3864.00    0.82392   0.84821    0.000
 3865.00    0.80233   0.84976    0.000
 3866.00    0.77888   0.85032    0.000
 3867.00    0.76712   0.84945    0.000
 3868.00    0.78523   0.84676    0.000
 3869.00    0.84392   0.84238    0.000
 3870.00    0.92926   0.83722    0.000
 3871.00    1.00173   0.83158    0.000
 3872.00    1.02083   0.82484    0.000
 3873.00    0.97874   0.81695    0.000
 3874.00    0.90340   0.80845    0.000
 3875.00    0.83528   0.79987    0.000
 3876.00    0.79656   0.79081    0.000
 3877.00    0.78779   0.78006    0.000
 3878.00    0.79700   0.76642    0.000
 3879.00    0.81148   0.74976    0.000
 3880.00    0.81940   0.73114    0.000
 3881.00    0.81266   0.71121   12.305
 3882.00    0.79037   0.68799   12.652
 3883.00    0.75899   0.65991   13.175
 3884.00    0.72820   0.62886   13.732
 3885.00    0.70603   0.59714   14.164
 3886.00    0.69815   0.56582   14.324
 3887.00    0.70631   0.53723   14.158
 3888.00    0.72659   0.51558   13.763
 3889.00    0.74961   0.50383   -1.000
 3890.00    0.76626   0.50269   -1.000
 3891.00    0.77398   0.51277   -1.000
 3892.00    0.77693   0.53375   12.871
 3893.00    0.77994   0.56233   12.822
 3894.00    0.78188   0.59433   12.790
 3895.00    0.77564   0.62667   12.893
 3896.00    0.75437   0.65740   13.256
 3897.00    0.71808   0.68567   13.926
 3898.00    0.67399   0.71145   14.837
 3899.00    0.63339   0.73400   15.788
 3900.00    0.60846   0.75263   16.435
 3901.00    0.61127   0.76850   16.359
 3902.00    0.64583   0.78288   15.484
 3903.00    0.70048   0.79594   14.276
 3904.00    0.74895   0.80749   13.352
 3905.00    0.76841   0.81830   13.014
 3906.00    0.75642   0.82899   13.220
 3907.00    0.73059   0.83914   13.688
 3908.00    0.71194   0.84926   14.046
 3909.00    0.70981   0.85964   14.088
 3910.00    0.72150   0.86873   13.860
 3911.00    0.73986   0.87538   13.516
 3912.00    0.75991   0.88001   13.160
 3913.00    0.77914   0.88283   12.835
 3914.00    0.79576   0.88328   12.567
 3915.00    0.80716   0.88147   12.389
 3916.00    0.81011   0.87839   12.344
 3917.00    0.80327   0.87457   12.449
 3918.00    0.78925   0.86997   12.670
 3919.00    0.77413   0.86522   12.918
 3920.00    0.76230   0.86064   13.118
 3921.00    0.75238   0.85633   13.291
 3922.00    0.73781   0.85237   13.554
 3923.00    0.71296   0.84849   14.026
 3924.00    0.67793   0.84370   14.751
 3925.00    0.63853   0.83695   15.661
 3926.00    0.60424   0.82767   -1.000
 3927.00    0.58674   0.81536   -1.000
 3928.00    0.59812   0.80009   16.719
 3929.00    0.63936   0.78227   15.641
 3930.00    0.69202   0.76230   14.450
 3931.00    0.72205   0.74229   13.849
 3932.00    0.70852   0.72556   14.114
 3933.00    0.66350   0.71380   15.072
 3934.00    0.62746   0.70718   15.937
 3935.00    0.63216   0.70716   15.819
 3936.00    0.67598   0.71607   14.793
 3937.00    0.72773   0.73236   13.741
 3938.00    0.75846   0.75136   13.185
 3939.00    0.76200   0.77018   13.123
 3940.00    0.75289   0.78795   13.282
 3941.00    0.74809   0.80366   13.367
 3942.00    0.75562   0.81620   13.234
 3943.00    0.77477   0.82563   12.907
 3944.00    0.80032   0.83238   12.495
 3945.00    0.82502   0.83678   12.121
 3946.00    0.84075   0.84027   11.894
 3947.00    0.84390   0.84410   11.850
 3948.00    0.83861   0.84718   11.925
 3949.00    0.83508   0.84792   11.975
 3950.00    0.84031   0.84730   11.900
 3951.00    0.85282   0.84679   11.726
 3952.00    0.86384   0.84526   11.576
 3953.00    0.86434   0.84085   11.570
 3954.00    0.84873   0.83405   11.782
 3955.00    0.81539   0.82652   12.264
 3956.00    0.76801   0.81762   13.021
 3957.00    0.71637   0.80524   13.959
 3958.00    0.67452   0.78892   14.825
 3959.00    0.65217   0.77003   15.334
 3960.00    0.65028   0.74865    0.000
 3961.00    0.66219   0.72303    0.000
 3962.00    0.67911   0.69220    0.000
 3963.00    0.69277   0.65757    0.000
 3964.00    0.69605   0.62080    0.000
 3965.00    0.68501   0.58214    0.000
 3966.00    0.65994   0.54237    0.000
 3967.00    0.62542   0.50486    0.000
 3968.00    0.59084   0.47354    0.000
 3969.00    0.57051   0.45100    0.000
 3970.00    0.58010   0.43907    0.000
 3971.00    0.62205   0.43986    0.000
 3972.00    0.67914   0.45431    0.000
 3973.00    0.72121   0.48048    0.000
 3974.00    0.73196   0.51453    0.000
 3975.00    0.72029   0.55325    0.000
 3976.00    0.71328   0.59423    0.000
 3977.00    0.72890   0.63468    0.000
 3978.00    0.76487   0.67194    0.000
 3979.00    0.80377   0.70485    0.000
 3980.00    0.83261   0.73347    0.000
 3981.00    0.85049   0.75817   11.758
 3982.00    0.86555   0.77910   11.553
 3983.00    0.88368   0.79649   11.316
 3984.00    0.90429   0.81139   11.058
 3985.00    0.92222   0.82523   10.843
 3986.00    0.93461   0.83807   10.700
 3987.00    0.94338   0.84919   10.600
 3988.00    0.95340   0.85892   10.489
 3989.00    0.96617   0.86815   10.350
 3990.00    0.97770   0.87637   10.228
 3991.00    0.98128   0.88248   10.191
 3992.00    0.97622   0.88701   10.244
 3993.00    0.97084   0.89090   10.300
 3994.00    0.97819   0.89375   10.223
 3995.00    1.00300   0.89509    9.970
 3996.00    1.03748   0.89598    9.639
 3997.00    1.06589   0.89755    9.382
 3998.00    1.07816   0.89912    9.275
 3999.00    1.07416   0.90036    9.310
 4000.00    1.06108   0.90226    9.424
 4001.00    1.04588   0.90456    9.561
 4002.00    1.03302   0.90512    9.680
 4003.00    1.02415   0.90398    9.764
 4004.00    1.01750   0.90328    9.828
 4005.00    1.00776   0.90297    9.923
 4006.00    0.98924   0.90146   10.109
 4007.00    0.96416   0.90022   10.372
 4008.00    0.94487   0.90173   10.583
 4009.00    0.94572   0.90495   10.574
 4010.00    0.96249   0.90779   10.390
 4011.00    0.96714   0.91091   10.340
 4012.00    0.92408   0.91527   10.822
 4013.00    0.83014   0.91977   12.046
 4014.00    0.72453   0.92317   13.802
 4015.00    0.66687   0.92596   -1.000
 4016.00    0.68507   0.92889   -1.000
 4017.00    0.76255   0.93143   13.114
 4018.00    0.85632   0.93236   11.678
 4019.00    0.93835   0.93185   10.657
 4020.00    1.00546   0.93089    9.946
 4021.00    1.06944   0.92875    9.351
 4022.00    1.13525   0.92431    8.809
 4023.00    1.19606   0.91869    8.361
 4024.00    1.23790   0.91371    8.078
 4025.00    1.24962   0.90929    8.002
 4026.00    1.22522   0.90490    8.162
 4027.00    1.16571   0.90125    8.578
 4028.00    1.08291   0.89921    9.234
 4029.00    1.00000   0.89850   10.000
 4030.00    0.94217   0.89807   10.614
 4031.00    0.91827   0.89756   10.890
 4032.00    0.91731   0.89791   10.901
 4033.00    0.91858   0.90021   10.886
 4034.00    0.91117   0.90436   10.975
 4035.00    0.89768   0.90968   11.140
 4036.00    0.88849   0.91580   11.255
 4037.00    0.89137   0.92217   11.219
 4038.00    0.90935   0.92768   10.997
 4039.00    0.94054   0.93136   10.632
 4040.00    0.97763   0.93267   10.229
 4041.00    1.00814   0.93095    9.919
 4042.00    1.02076   0.92622    9.797
 4043.00    1.01645   0.92031    9.838
 4044.00    1.00995   0.91518    9.902
 4045.00    1.01998   0.91076    9.804
 4046.00    1.05303   0.90669    9.496
 4047.00    1.10078   0.90492    9.085
 4048.00    1.14604   0.90712    8.726
 4049.00    1.17232   0.91108    8.530
 4050.00    1.16566   0.91404    8.579
 4051.00    1.12035   0.91625    8.926
 4052.00    1.04783   0.91814    9.543
 4053.00    0.97730   0.91860   10.232
 4054.00    0.93995   0.91705   10.639
 4055.00    0.94535   0.91425   10.578
 4056.00    0.97868   0.91135   10.218
 4057.00    1.01570   0.90895    9.845
 4058.00    1.04454   0.90664    9.574
 4059.00    1.06832   0.90382    9.361
 4060.00    1.09643   0.90060    9.121
 4061.00    1.13223   0.89752    8.832
 4062.00    1.17155   0.89502    8.536
 4063.00    1.20641   0.89246    8.289
 4064.00    1.23000   0.88898    8.130
 4065.00    1.23747   0.88623    8.081
 4066.00    1.22681   0.88634    8.151
 4067.00    1.20011   0.88740    8.333
 4068.00    1.16351   0.88652    8.595
 4069.00    1.12446   0.88492    8.893
 4070.00    1.08814   0.88468    9.190
 4071.00    1.05713   0.88395    9.460
 4072.00    1.03181   0.88028    9.692
 4073.00    1.01093   0.87525    9.892
 4074.00    0.99188   0.87131   10.082
 4075.00    0.97308   0.86788   10.277
 4076.00    0.95689   0.86398   10.451
 4077.00    0.94951   0.86074   10.532
 4078.00    0.95538   0.85929   10.467
 4079.00    0.97082   0.85946   10.301
 4080.00    0.98411   0.86071   10.162
 4081.00    0.98451   0.86245   10.157
 4082.00    0.97228   0.86386   10.285
 4083.00    0.95872   0.86426   10.431
 4084.00    0.95443   0.86347   10.477
 4085.00    0.95683   0.86163   10.451
 4086.00    0.95018   0.85860   10.524
 4087.00    0.92035   0.85430   10.865
 4088.00    0.86990   0.84886   11.496
 4089.00    0.81813   0.84172   12.223
 4090.00    0.78596   0.83195   12.723
 4091.00    0.78082   0.81945   12.807
 4092.00    0.79609   0.80385    0.000
 4093.00    0.81951   0.78404    0.000
 4094.00    0.84115   0.76030    0.000
 4095.00    0.85436   0.73359    0.000
 4096.00    0.85784   0.70386    0.000
 4097.00    0.85757   0.67150    0.000
 4098.00    0.86585   0.63834    0.000
 4099.00    0.89058   0.60692    0.000
 4100.00    0.92563   0.58041    0.000
 4101.00    0.95183   0.56099    0.000
 4102.00    0.95295   0.54951    0.000
 4103.00    0.92959   0.54819    0.000
 4104.00    0.89827   0.55863    0.000
 4105.00    0.87467   0.57802    0.000
 4106.00    0.85964   0.60266    0.000
 4107.00    0.84035   0.63094    0.000
 4108.00    0.80889   0.66080    0.000
 4109.00    0.77719   0.68946    0.000
 4110.00    0.77465   0.71574    0.000
 4111.00    0.82069   0.73950    0.000
 4112.00    0.90324   0.76049    0.000
 4113.00    0.98173   0.77887   10.186
 4114.00    1.01999   0.79512    9.804
 4115.00    1.01114   0.80885    9.890
 4116.00    0.97611   0.81947   10.245
 4117.00    0.94148   0.82787   10.622
 4118.00    0.92329   0.83489   10.831
 4119.00    0.92655   0.83998   10.793
 4120.00    0.94854   0.84349   10.543
 4121.00    0.98117   0.84705   10.192
 4122.00    1.01185   0.85098    9.883
 4123.00    1.02874   0.85437    9.721
 4124.00    1.02424   0.85676    9.763
 4125.00    0.99595   0.85813   10.041
 4126.00    0.95079   0.85860   10.518
 4127.00    0.90785   0.85810   11.015
 4128.00    0.89447   0.85579   11.180
 4129.00    0.92098   0.85247   10.858
 4130.00    0.96473   0.85050   10.366
 4131.00    0.97662   0.85019   10.239
 4132.00    0.92465   0.85068   10.815
 4133.00    0.82070   0.85315   12.185
 4134.00    0.71463   0.85833   13.993
 4135.00    0.65334   0.86457   15.306
 4136.00    0.65649   0.87094   15.233
 4137.00    0.71745   0.87693   13.938
 4138.00    0.81422   0.88126   12.282
 4139.00    0.91567   0.88326   10.921
 4140.00    0.98563   0.88252   10.146
 4141.00    1.00303   0.87911    9.970
 4142.00    0.97304   0.87493   10.277
 4143.00    0.92277   0.87116   10.837
 4144.00    0.87690   0.86719   11.404
 4145.00    0.84457   0.86487   11.840
 4146.00    0.82199   0.86606   12.166
 4147.00    0.80705   0.86865   12.391
 4148.00    0.80689   0.87110   12.393
 4149.00    0.83427   0.87427   11.986
 4150.00    0.88951   0.87728   11.242
 4151.00    0.95137   0.87867   10.511
 4152.00    0.98389   0.87936   10.164
 4153.00    0.96787   0.88005   10.332
 4154.00    0.91618   0.88016   10.915
 4155.00    0.86633   0.88029   11.543
 4156.00    0.84649   0.88173   11.814
 4157.00    0.85957   0.88399   11.634
 4158.00    0.88790   0.88619   11.263
 4159.00    0.91420   0.88878   10.939
 4160.00    0.93108   0.89204   10.740
 4161.00    0.93975   0.89459   10.641
 4162.00    0.94392   0.89591   10.594
 4163.00    0.94715   0.89700   10.558
 4164.00    0.95230   0.89740   10.501
 4165.00    0.95956   0.89601   10.421
 4166.00    0.96565   0.89371   10.356
 4167.00    0.96501   0.89134   10.363
 4168.00    0.95435   0.88771   10.478
 4169.00    0.93443   0.88259   10.702
 4170.00    0.90957   0.87724   10.994
 4171.00    0.88546   0.87218   11.294
 4172.00    0.86834   0.86705   11.516
 4173.00    0.86441   0.86231   11.569
 4174.00    0.87787   0.85894   11.391
 4175.00    0.91012   0.85722   10.988
 4176.00    0.95913   0.85691   10.426
 4177.00    1.01697   0.85796    9.833
 4178.00    1.06904   0.86005    9.354
 4179.00    1.09777   0.86242    9.109
 4180.00    1.09459   0.86518    9.136
 4181.00    1.06407   0.86842    9.398
 4182.00    1.02029   0.87109    9.801
 4183.00    0.97529   0.87293   10.253
 4184.00    0.93525   0.87436   10.692
 4185.00    0.90162   0.87516   11.091
 4186.00    0.87499   0.87589   11.429
 4187.00    0.85628   0.87682   11.678
 4188.00    0.84529   0.87707   11.830
 4189.00    0.83660   0.87734   11.953
 4190.00    0.81829   0.87925   12.221
 4191.00    0.77763   0.88152   12.860
 4192.00    0.71688   0.88191   13.949
 4193.00    0.65787   0.88146   -1.000
 4194.00    0.63195   0.88136   -1.000
 4195.00    0.65270   0.87958   -1.000
 4196.00    0.70819   0.87493   14.120
 4197.00    0.77014   0.87014   12.985
 4198.00    0.81778   0.86663   12.228
 4199.00    0.84460   0.86249   11.840
 4200.00    0.85486   0.85878   11.698
 4201.00    0.85488   0.85819   11.698
 4202.00    0.85066   0.85929   11.756
 4203.00    0.84734   0.86063   11.802
 4204.00    0.84797   0.86395   11.793
 4205.00    0.85315   0.86893   11.721
 4206.00    0.86162   0.87339   11.606
 4207.00    0.87162   0.87730   11.473
 4208.00    0.88120   0.88123   11.348
 4209.00    0.88957   0.88434   11.241
 4210.00    0.90002   0.88596   11.111
 4211.00    0.92044   0.88639   10.864
 4212.00    0.95762   0.88588   10.443
 4213.00    1.00473   0.88423    9.953
 4214.00    1.03876   0.88233    9.627
 4215.00    1.03321   0.88112    9.679
 4216.00    0.98473   0.87973   10.155
 4217.00    0.91860   0.87846   10.886
 4218.00    0.87269   0.87872   11.459
 4219.00    0.86507   0.87897   11.560
 4220.00    0.88728   0.87672   11.270
 4221.00    0.91574   0.87304   10.920
 4222.00    0.93394   0.86875   10.707
 4223.00    0.93690   0.86193   10.673
 4224.00    0.92761   0.85277   10.780
 4225.00    0.91010   0.84463   10.988
 4226.00    0.88810   0.83932   11.260
 4227.00    0.86599   0.83540   11.548
 4228.00    0.85039   0.83380   11.759
 4229.00    0.85030   0.83674   11.761
 4230.00    0.87117   0.84137   11.479
 4231.00    0.90448   0.84497   11.056
 4232.00    0.92644   0.84940   10.794
 4233.00    0.91325   0.85355   10.950
 4234.00    0.86706   0.85477   11.533
 4235.00    0.81949   0.85580   12.203
 4236.00    0.80854   0.85757   12.368
 4237.00    0.84042   0.85788   11.899
 4238.00    0.88438   0.85881   11.307
 4239.00    0.89982   0.86212   11.113
 4240.00    0.87954   0.86490   11.370
 4241.00    0.85538   0.86713   11.691
 4242.00    0.86971   0.87089   11.498
 4243.00    0.93162   0.87368   10.734
 4244.00    1.01131   0.87384    9.888
 4245.00    1.06465   0.87345    9.393
 4246.00    1.06976   0.87282    9.348
 4247.00    1.03177   0.86980    9.692
 4248.00    0.97108   0.86484   10.298
 4249.00    0.90645   0.86106   11.032
 4250.00    0.85258   0.85856   11.729
 4251.00    0.81947   0.85499   12.203
 4252.00    0.81166   0.85175   12.320
 4253.00    0.82810   0.85143   12.076
 4254.00    0.86265   0.85222   11.592
 4255.00    0.90465   0.85190   11.054
 4256.00    0.93947   0.85195   10.644
 4257.00    0.95489   0.85336   10.472
 4258.00    0.94937   0.85417   10.533
 4259.00    0.93265   0.85416   10.722
 4260.00    0.91811   0.85534   10.892
 4261.00    0.91330   0.85729   10.949
 4262.00    0.91900   0.85904   10.881
 4263.00    0.93158   0.86160   10.734
 4264.00    0.94602   0.86411   10.571
 4265.00    0.95633   0.86441   10.457
 4266.00    0.95763   0.86349   10.442
 4267.00    0.94838   0.86170   10.544
 4268.00    0.93055   0.85673   10.746
 4269.00    0.90785   0.84928   11.015
 4270.00    0.88372   0.84265   11.316
 4271.00    0.86110   0.83695   11.613
 4272.00    0.84251   0.83064   11.869
 4273.00    0.83004   0.82656   12.048
 4274.00    0.82522   0.82691   12.118
 4275.00    0.82753   0.82894   12.084
 4276.00    0.83278   0.83155   12.008
 4277.00    0.83339   0.83609   11.999
 4278.00    0.82339   0.84128   12.145
 4279.00    0.80351   0.84517   12.445
 4280.00    0.78113   0.84751   12.802
 4281.00    0.76467   0.84855   13.078
 4282.00    0.75812   0.84847   13.191
 4283.00    0.76080   0.84666   13.144
 4284.00    0.77008   0.84354   12.986
 4285.00    0.78391   0.84029   12.757
 4286.00    0.80096   0.83647   12.485
 4287.00    0.81928   0.83150   12.206
 4288.00    0.83515   0.82698   11.974
 4289.00    0.84335   0.82389   11.858
 4290.00    0.84127   0.82116   11.887
 4291.00    0.83250   0.81859   12.012
 4292.00    0.82618   0.81713   12.104
 4293.00    0.82920   0.81681   12.060
 4294.00    0.83940   0.81563   11.913
 4295.00    0.84612   0.81269   11.819
 4296.00    0.83929   0.80911   11.915
 4297.00    0.81689   0.80388   12.242
 4298.00    0.78506   0.79693   12.738
 4299.00    0.75436   0.79005   13.256
 4300.00    0.73687   0.78263   13.571
 4301.00    0.74464   0.77539   13.429
 4302.00    0.77981   0.77073   12.824
 4303.00    0.82688   0.76717   12.094
 4304.00    0.85561   0.76370   11.688
 4305.00    0.84722   0.76197   11.803
 4306.00    0.81392   0.76140   12.286
 4307.00    0.79509   0.76118   12.577
 4308.00    0.82088   0.76198   12.182
 4309.00    0.88605   0.76400   11.286
 4310.00    0.95327   0.76749   10.490
 4311.00    0.98730   0.77287   10.129
 4312.00    0.97874   0.77939   10.217
 4313.00    0.94274   0.78732   10.607
 4314.00    0.90139   0.79708   11.094
 4315.00    0.87190   0.80642   11.469
 4316.00    0.86558   0.81454   11.553
 4317.00    0.88538   0.82224   11.295
 4318.00    0.92426   0.82734   10.820
 4319.00    0.96667   0.82836   10.345
 4320.00    0.99801   0.82668   10.020
 4321.00    1.01057   0.82196    9.895
 4322.00    1.00388   0.81369    9.961
 4323.00    0.98495   0.80352   10.153
 4324.00    0.96846   0.79318   10.326
 4325.00    0.97324   0.78379   10.275
 4326.00    1.00220   0.77557    9.978
 4327.00    1.03065   0.76869    9.703
 4328.00    1.01369   0.76357   -2.000
 4329.00    0.92944   0.75942   -2.000
 4330.00    0.80347   0.75440   -2.000
 4331.00    0.69886   0.74679   -2.000
 4332.00    0.65889   0.73631   -2.000
 4333.00    0.67565   0.72264   -2.000
 4334.00    0.69954   0.70388   -2.000
 4335.00    0.69289   0.67989   -2.000
 4336.00    0.65843   0.65411   -2.000
 4337.00    0.63187   0.62732   -2.000
 4338.00    0.64161   0.59923   -2.000
 4339.00    0.68816   0.57583   -2.000
 4340.00    0.74869   0.56099   -2.000
 4341.00    0.80155   0.55219   -2.000
 4342.00    0.83838   0.55174   -2.000
 4343.00    0.86227   0.56293   -2.000
 4344.00    0.87801   0.58083    0.000
 4345.00    0.88738   0.60163    0.000
 4346.00    0.88975   0.62639    0.000
 4347.00    0.88518   0.65248    0.000
 4348.00    0.87581   0.67522    0.000
 4349.00    0.86563   0.69426    0.000
 4350.00    0.85931   0.71170    0.000
 4351.00    0.86161   0.72731   11.606
 4352.00    0.87606   0.73952   11.415
 4353.00    0.89941   0.75021   11.118
 4354.00    0.91935   0.76217   10.877
 4355.00    0.91883   0.77404   10.883
 4356.00    0.89307   0.78424   11.197
 4357.00    0.85653   0.79446   11.675
 4358.00    0.83647   0.80529   11.955
 4359.00    0.84867   0.81482   11.783
 4360.00    0.88769   0.82262   11.265
 4361.00    0.93259   0.82990   10.723
 4362.00    0.96761   0.83680   10.335
 4363.00    0.99022   0.84237   10.099
 4364.00    1.00745   0.84606    9.926
 4365.00    1.02292   0.84835    9.776
 4366.00    1.03200   0.84989    9.690
 4367.00    1.02524   0.85017    9.754
 4368.00    1.00001   0.84859   10.000
 4369.00    0.96460   0.84650   10.367
 4370.00    0.93423   0.84485   10.704
 4371.00    0.91806   0.84263   10.893
 4372.00    0.91477   0.83981   10.932
 4373.00    0.91552   0.83794   10.923
 4374.00    0.91326   0.83724   10.950
 4375.00    0.90590   0.83668   11.039
 4376.00    0.89488   0.83632   11.175
 4377.00    0.88096   0.83632   11.351
 4378.00    0.86287   0.83579   11.589
 4379.00    0.83864   0.83418   11.924
 4380.00    0.80936   0.83071   12.355
 4381.00    0.78037   0.82472   12.814
 4382.00    0.75937   0.81773   13.169
 4383.00    0.75140   0.81136   13.308
 4384.00    0.75729   0.80535   13.205
 4385.00    0.77476   0.80011   12.907
 4386.00    0.80144   0.79822   12.477
 4387.00    0.83568   0.80013   11.966
 4388.00    0.87501   0.80294   11.428
 4389.00    0.91214   0.80696   10.963
 4390.00    0.93403   0.81370   10.706
 4391.00    0.92797   0.82032   10.776
 4392.00    0.89674   0.82514   11.151
 4393.00    0.86244   0.83012   11.595
 4394.00    0.85476   0.83563   11.699
 4395.00    0.88298   0.83956   11.325
 4396.00    0.92906   0.84197   10.764
 4397.00    0.96047   0.84463   10.412
 4398.00    0.95998   0.84617   10.417
 4399.00    0.93285   0.84573   10.720
 4400.00    0.89872   0.84535   11.127
 4401.00    0.87343   0.84406   11.449
 4402.00    0.86471   0.84044   11.565
 4403.00    0.87293   0.83758   11.456
 4404.00    0.89282   0.83644   11.200
 4405.00    0.91393   0.83430   10.942
 4406.00    0.92459   0.83276   10.816
 4407.00    0.91994   0.83478   10.870
 4408.00    0.90369   0.83787   11.066
 4409.00    0.88432   0.83988   11.308
 4410.00    0.86774   0.84333   11.524
 4411.00    0.85571   0.84774   11.686
 4412.00    0.84768   0.84920   11.797
 4413.00    0.84428   0.84912   11.844
 4414.00    0.84801   0.85003   11.792
 4415.00    0.86160   0.84944   11.606
 4416.00    0.88505   0.84779   11.299
 4417.00    0.91508   0.84824   10.928
 4418.00    0.94551   0.84961   10.576
 4419.00    0.96820   0.85076   10.328
 4420.00    0.97326   0.85274   10.275
 4421.00    0.95233   0.85526   10.501
 4422.00    0.90423   0.85717   11.059
 4423.00    0.83593   0.85808   11.963
 4424.00    0.76066   0.85848   13.146
 4425.00    0.69478   0.85840   14.393
 4426.00    0.65690   0.85795   15.223
 4427.00    0.66052   0.85725   15.140
 4428.00    0.70204   0.85564   14.244
 4429.00    0.75937   0.85434   13.169
 4430.00    0.80529   0.85351   12.418
 4431.00    0.82842   0.85136   12.071
 4432.00    0.83600   0.84923   11.962
 4433.00    0.84271   0.84825   11.867
 4434.00    0.85351   0.84735   11.716
 4435.00    0.86156   0.84691   11.607
 4436.00    0.85713   0.84764   11.667
 4437.00    0.84088   0.84923   11.892
 4438.00    0.82523   0.85094   12.118
 4439.00    0.82335   0.85243   12.146
 4440.00    0.83366   0.85381   11.995
 4441.00    0.83850   0.85437   11.926
 4442.00    0.81937   0.85423   12.204
 4443.00    0.77783   0.85478   12.856
 4444.00    0.73728   0.85523   13.563
 4445.00    0.72451   0.85528   13.802
 4446.00    0.74537   0.85702   13.416
 4447.00    0.78262   0.85911   12.778
 4448.00    0.81241   0.85939   12.309
 4449.00    0.82535   0.85975   12.116
 4450.00    0.82842   0.85982   12.071
 4451.00    0.83504   0.85751   11.975
 4452.00    0.85258   0.85391   11.729
 4453.00    0.88097   0.84991   11.351
 4454.00    0.91347   0.84544   10.947
 4455.00    0.93757   0.84078   10.666
 4456.00    0.93600   0.83605   10.684
 4457.00    0.89871   0.83246   11.127
 4458.00    0.83670   0.83060   11.952
 4459.00    0.78179   0.82882   12.791
 4460.00    0.76403   0.82778   13.089
 4461.00    0.78643   0.82914    0.000
 4462.00    0.82429   0.83051    0.000
 4463.00    0.84877   0.83110    0.000
 4464.00    0.85233   0.83305    0.000
 4465.00    0.84976   0.83488    0.000
 4466.00    0.85938   0.83491    0.000
 4467.00    0.88347   0.83502    0.000
 4468.00    0.90781   0.83580    0.000
 4469.00    0.91706   0.83576    0.000
 4470.00    0.91026   0.83611    0.000
 4471.00    0.90089   0.83871    0.000
 4472.00    0.90238   0.84199    0.000
 4473.00    0.91393   0.84539    0.000
 4474.00    0.92084   0.85013    0.000
 4475.00    0.90999   0.85459    0.000
 4476.00    0.88437   0.85699    0.000
 4477.00    0.86251   0.85828    0.000
 4478.00    0.86065   0.85820    0.000
 4479.00    0.87658   0.85578    0.000
 4480.00    0.89037   0.85307    0.000
 4481.00    0.88286   0.85128    0.000
 4482.00    0.85205   0.84953   11.736
 4483.00    0.81259   0.84938   12.306
 4484.00    0.78046   0.85159   12.813
 4485.00    0.75992   0.85402   13.159
 4486.00    0.74357   0.85631   13.449
 4487.00    0.72063   0.85883   13.877
 4488.00    0.68368   0.86035   14.627
 4489.00    0.62967   0.86036   -1.000
 4490.00    0.56361   0.85993   -1.000
 4491.00    0.50156   0.85939   -1.000
 4492.00    0.46877   0.85838   -1.000
 4493.00    0.48356   0.85793   -1.000
 4494.00    0.54507   0.85837   -1.000
 4495.00    0.63421   0.85895   -1.000
 4496.00    0.72732   0.86024   13.749
 4497.00    0.80616   0.86267   12.404
 4498.00    0.85886   0.86548   11.643
 4499.00    0.88209   0.86833   11.337
 4500.00    0.88269   0.87200   11.329
 4501.00    0.87585   0.87632   11.417
 4502.00    0.87220   0.87979   11.465
 4503.00    0.86892   0.88314   11.509
 4504.00    0.85171   0.88688   11.741
 4505.00    0.81139   0.88927   12.324
 4506.00    0.75489   0.89041   13.247
 4507.00    0.70319   0.89133   14.221
 4508.00    0.67431   0.89128   14.830
 4509.00    0.67241   0.88988   14.872
 4510.00    0.68898   0.88796   14.514
 4511.00    0.71373   0.88604   14.011
 4512.00    0.74120   0.88336   13.492
 4513.00    0.77064   0.88009   12.976
 4514.00    0.80298   0.87760   12.454
 4515.00    0.83900   0.87510   11.919
 4516.00    0.87874   0.87225   11.380
 4517.00    0.91858   0.87035   10.886
 4518.00    0.94957   0.86866   10.531
 4519.00    0.95918   0.86680   10.426
 4520.00    0.94121   0.86476   10.625
 4521.00    0.90143   0.86216   11.094
 4522.00    0.85554   0.85950   11.688
 4523.00    0.81805   0.85559   12.224
 4524.00    0.79611   0.85065   12.561
 4525.00    0.78986   0.84630   12.660
 4526.00    0.79499   0.84117   12.579
 4527.00    0.80416   0.83588   12.435
 4528.00    0.80838   0.83194   12.370
 4529.00    0.80368   0.82835   12.443
 4530.00    0.79442   0.82589   12.588
 4531.00    0.79102   0.82489   12.642
 4532.00    0.79873   0.82468   12.520
 4533.00    0.81224   0.82608   12.312
 4534.00    0.81836   0.82864   12.220
 4535.00    0.80864   0.83205   12.366
 4536.00    0.78535   0.83638   12.733
 4537.00    0.75944   0.84112   13.168
 4538.00    0.74113   0.84613   13.493
 4539.00    0.73569   0.85027   13.593
 4540.00    0.74364   0.85353   13.447
 4541.00    0.76228   0.85632   13.119
 4542.00    0.78637   0.85721   12.717
 4543.00    0.80906   0.85684   12.360
 4544.00    0.82553   0.85603   12.113
 4545.00    0.83455   0.85389   11.982
 4546.00    0.83814   0.85103   11.931
 4547.00    0.84004   0.84764   11.904
 4548.00    0.84511   0.84424   11.833
 4549.00    0.85870   0.84153   11.646
 4550.00    0.88448   0.83805    0.000
 4551.00    0.92356   0.83569    0.000
 4552.00    0.97216   0.83557    0.000
 4553.00    1.01378   0.83476    0.000
 4554.00    1.01617   0.83529    0.000
 4555.00    0.94313   0.83842    0.000
 4556.00    0.79418   0.84103    0.000
 4557.00    0.61912   0.84440    0.000
 4558.00    0.49838   0.84919    0.000
 4559.00    0.47809   0.85294    0.000
 4560.00    0.54723   0.85622    0.000
 4561.00    0.65334   0.85914    0.000
 4562.00    0.75341   0.86078    0.000
 4563.00    0.83128   0.86176    0.000
 4564.00    0.89119   0.86213    0.000
 4565.00    0.93751   0.86240    0.000
 4566.00    0.96805   0.86262    0.000
 4567.00    0.97682   0.86273    0.000
 4568.00    0.96235   0.86362    0.000
 4569.00    0.93035   0.86379    0.000
 4570.00    0.89162   0.86357    0.000
 4571.00    0.85614   0.86452    0.000
 4572.00    0.83129   0.86414    0.000
 4573.00    0.82090   0.86306    0.000
 4574.00    0.82292   0.86346    0.000
 4575.00    0.82875   0.86263    0.000
 4576.00    0.82758   0.86071    0.000
 4577.00    0.81768   0.85951    0.000
 4578.00    0.80949   0.85719    0.000
 4579.00    0.81861   0.85402    0.000
 4580.00    0.84803   0.85126    0.000
 4581.00    0.88334   0.84804    0.000
 4582.00    0.90153   0.84527    0.000
 4583.00    0.89264   0.84381    0.000
 4584.00    0.86527   0.84248    0.000
 4585.00    0.83862   0.84220    0.000
 4586.00    0.82337   0.84335    0.000
 4587.00    0.81697   0.84429    0.000
 4588.00    0.80950   0.84556    0.000
 4589.00    0.79703   0.84713    0.000
 4590.00    0.78480   0.84785    0.000
 4591.00    0.78203   0.84843    0.000
 4592.00    0.79056   0.84865    0.000
 4593.00    0.80231   0.84815    0.000
 4594.00    0.80480   0.84809    0.000
 4595.00    0.79301   0.84800    0.000
 4596.00    0.77194   0.84754    0.000
 4597.00    0.75118   0.84799    0.000
 4598.00    0.73380   0.84842    0.000
 4599.00    0.71411   0.84850    0.000
 4600.00    0.68461   0.84949    0.000
 4601.00    0.64968   0.85025    0.000
 4602.00    0.62809   0.85093    0.000
 4603.00    0.64160   0.85258    0.000
 4604.00    0.69313   0.85428    0.000
 4605.00    0.76270   0.85620    0.000
 4606.00    0.81972   0.85886    0.000
 4607.00    0.84579   0.86168    0.000
 4608.00    0.83890   0.86418    0.000
 4609.00    0.80827   0.86660    0.000
 4610.00    0.76514   0.86885    0.000
 4611.00    0.72101   0.86980    0.000
 4612.00    0.68641   0.87028    0.000
 4613.00    0.66878   0.87079    0.000
 4614.00    0.67207   0.86966    0.000
 4615.00    0.69565   0.86867    0.000
 4616.00    0.73262   0.86841    0.000
 4617.00    0.76974   0.86662    0.000
 4618.00    0.79321   0.86577    0.000
 4619.00    0.79802   0.86614    0.000
 4620.00    0.78927   0.86508    0.000
 4621.00    0.77701   0.86506    0.000
 4622.00    0.76836   0.86620    0.000
 4623.00    0.76627   0.86585    0.000
 4624.00    0.77115   0.86568    0.000
 4625.00    0.78332   0.86622    0.000
 4626.00    0.80322   0.86549    0.000
 4627.00    0.82950   0.86411    0.000
 4628.00    0.85613   0.86332    0.000
 4629.00    0.87234   0.86223    0.000
 4630.00    0.86886   0.86016    0.000
 4631.00    0.84663   0.85849    0.000
 4632.00    0.81755   0.85734    0.000
 4633.00    0.79602   0.85519    0.000
 4634.00    0.78744   0.85298    0.000
 4635.00    0.78713   0.85144    0.000
 4636.00    0.78796   0.84945    0.000
 4637.00    0.79043   0.84761    0.000
 4638.00    0.80317   0.84613    0.000
 4639.00    0.83256   0.84490    0.000
 4640.00    0.86933   0.84419    0.000
 4641.00    0.88821   0.84302    0.000
 4642.00    0.86624   0.84206    0.000
 4643.00    0.80517   0.84134    0.000
 4644.00    0.73263   0.83941    0.000
 4645.00    0.68151   0.83774    0.000
 4646.00    0.66547   0.83649    0.000
 4647.00    0.67714   0.83454    0.000
 4648.00    0.70094   0.83366    0.000
 4649.00    0.72784   0.83376    0.000
 4650.00    0.75646   0.83395    0.000
 4651.00    0.78738   0.83541    0.000
 4652.00    0.81688   0.83716    0.000
 4653.00    0.83675   0.83904    0.000
 4654.00    0.83992   0.84177    0.000
 4655.00    0.82655   0.84389    0.000
 4656.00    0.80415   0.84627    0.000
 4657.00    0.78228   0.84917    0.000
 4658.00    0.76710   0.85109    0.000
 4659.00    0.76089   0.85279    0.000
 4660.00    0.76272   0.85384    0.000
 4661.00    0.76904   0.85315    0.000
 4662.00    0.77414   0.85127    0.000
 4663.00    0.77420   0.84819    0.000
 4664.00    0.77115   0.84364    0.000
 4665.00    0.77236   0.83842    0.000
 4666.00    0.78440   0.83381    0.000
 4667.00    0.80713   0.82955    0.000
 4668.00    0.83373   0.82615    0.000
 4669.00    0.85600   0.82520    0.000
 4670.00    0.86898   0.82555    0.000
 4671.00    0.87121   0.82657    0.000
 4672.00    0.86313   0.82942    0.000
 4673.00    0.84577   0.83260    0.000
 4674.00    0.82077   0.83531    0.000
 4675.00    0.79147   0.83803    0.000
 4676.00    0.76388   0.83975    0.000
 4677.00    0.74619   0.84066    0.000
 4678.00    0.74451   0.84111    0.000
 4679.00    0.75929   0.84069    0.000
 4680.00    0.78547   0.84010    0.000
 4681.00    0.81526   0.83981    0.000
 4682.00    0.84033   0.83932    0.000
 4683.00    0.85257   0.83896    0.000
 4684.00    0.84866   0.83955    0.000
 4685.00    0.83361   0.84009    0.000
 4686.00    0.81967   0.84029    0.000
 4687.00    0.81670   0.84124    0.000
 4688.00    0.82512   0.84191    0.000
 4689.00    0.83676   0.84203    0.000
 4690.00    0.84365   0.84279    0.000
 4691.00    0.84426   0.84339    0.000
 4692.00    0.84296   0.84350    0.000
 4693.00    0.84435   0.84411    0.000
 4694.00    0.84925   0.84441    0.000
 4695.00    0.85508   0.84386    0.000
 4696.00    0.85939   0.84302    0.000
 4697.00    0.86221   0.84160    0.000
 4698.00    0.86568   0.83950    0.000
 4699.00    0.87107   0.83672    0.000
 4700.00    0.87689   0.83379    0.000
 4701.00    0.87912   0.83127    0.000
 4702.00    0.87303   0.82878    0.000
 4703.00    0.85433   0.82663    0.000
 4704.00    0.82017   0.82525    0.000
 4705.00    0.77447   0.82453    0.000
 4706.00    0.73119   0.82432    0.000
 4707.00    0.71099   0.82420    0.000
 4708.00    0.72215   0.82448    0.000
 4709.00    0.74967   0.82553    0.000
 4710.00    0.76082   0.82638    0.000
 4711.00    0.73697   0.82731    0.000
 4712.00    0.69140   0.82919    0.000
 4713.00    0.66231   0.83092    0.000
 4714.00    0.67412   0.83282    0.000
 4715.00    0.71672   0.83552    0.000
 4716.00    0.75255   0.83827    0.000
 4717.00    0.75520   0.84135    0.000
 4718.00    0.72942   0.84454    0.000
 4719.00    0.70491   0.84731    0.000
 4720.00    0.70366   0.84990    0.000
 4721.00    0.72363   0.85178    0.000
 4722.00    0.74382   0.85257    0.000
 4723.00    0.74969   0.85229    0.000
 4724.00    0.74552   0.85103    0.000
 4725.00    0.74982   0.84882    0.000
 4726.00    0.77398   0.84567    0.000
 4727.00    0.81235   0.84220    0.000
 4728.00    0.84601   0.83843    0.000
 4729.00    0.86023   0.83482    0.000
 4730.00    0.85235   0.83243    0.000
 4731.00    0.82960   0.83065    0.000
 4732.00    0.79979   0.82933    0.000
 4733.00    0.76719   0.82978    0.000
 4734.00    0.73376   0.83075    0.000
 4735.00    0.70413   0.83141    0.000
 4736.00    0.68771   0.83337    0.000
 4737.00    0.69558   0.83489    0.000
 4738.00    0.72863   0.83565    0.000
 4739.00    0.77286   0.83764    0.000
 4740.00    0.80459   0.83903    0.000
 4741.00    0.80983   0.83976    0.000
 4742.00    0.79180   0.84139    0.000
 4743.00    0.76626   0.84271    0.000
 4744.00    0.74447   0.84393    0.000
 4745.00    0.72680   0.84534    0.000
 4746.00    0.70602   0.84608    0.000
 4747.00    0.67851   0.84699    0.000
 4748.00    0.64841   0.84770    0.000
 4749.00    0.62520   0.84725    0.000
 4750.00    0.61567   0.84664    0.000
 4751.00    0.62108   0.84583    0.000
 4752.00    0.63840   0.84412    0.000
 4753.00    0.66401   0.84214    0.000
 4754.00    0.69502   0.84017    0.000
 4755.00    0.72927   0.83795    0.000
 4756.00    0.76531   0.83582    0.000
 4757.00    0.80243   0.83360    0.000
 4758.00    0.83964   0.83137    0.000
 4759.00    0.87292   0.82906    0.000
 4760.00    0.89434   0.82633    0.000
 4761.00    0.89494   0.82364   11.174
 4762.00    0.87262   0.82078   11.460
 4763.00    0.83450   0.81762   11.983
 4764.00    0.79388   0.81519   12.596
 4765.00    0.76178   0.81361   13.127
 4766.00    0.74459   0.81236   13.430
 4767.00    0.74431   0.81213   13.435
 4768.00    0.75956   0.81329   13.165
 4769.00    0.78589   0.81469   12.724
 4770.00    0.81666   0.81667   12.245
 4771.00    0.84550   0.81934   11.827
 4772.00    0.86692   0.82156   11.535
 4773.00    0.87701   0.82376   11.402
 4774.00    0.87508   0.82596   11.428
 4775.00    0.86405   0.82778   11.573
 4776.00    0.84903   0.82896   11.778
 4777.00    0.83398   0.82930   11.991
 4778.00    0.82088   0.82953   12.182
 4779.00    0.81014   0.82901   12.344
 4780.00    0.80161   0.82754   12.475
 4781.00    0.79481   0.82591   12.582
 4782.00    0.78887   0.82417   12.676
 4783.00    0.78239   0.82239   12.781
 4784.00    0.77350   0.82019   12.928
 4785.00    0.76142   0.81868   13.133
 4786.00    0.74995   0.81826   13.334
 4787.00    0.74804   0.81719   13.368
 4788.00    0.76465   0.81725   13.078
 4789.00    0.79826   0.81881   12.527
 4790.00    0.83487   0.81983   11.978
 4791.00    0.85650   0.82189   11.675
 4792.00    0.85785   0.82474   11.657
 4793.00    0.84947   0.82688   11.772
 4794.00    0.84826   0.82920   11.789
 4795.00    0.85937   0.83128   11.636
 4796.00    0.87296   0.83229   11.455
 4797.00    0.87277   0.83263   11.458
 4798.00    0.85186   0.83243   11.739
 4799.00    0.81552   0.83173   12.262
 4800.00    0.77611   0.83055   12.885
 4801.00    0.74411   0.82924   13.439
 4802.00    0.72640   0.82816   13.767
 4803.00    0.72514   0.82687   13.790
 4804.00    0.73605   0.82561   13.586
 4805.00    0.74826   0.82437   13.364
 4806.00    0.75072   0.82284   13.320
 4807.00    0.74273   0.82200   13.464
 4808.00    0.73528   0.82123   13.600
 4809.00    0.74311   0.82034   13.457
 4810.00    0.77172   0.82041   12.958
 4811.00    0.81557   0.82075   12.261
 4812.00    0.86255   0.82117   11.594
 4813.00    0.90097   0.82205   11.099
 4814.00    0.92079   0.82307   10.860
 4815.00    0.91699   0.82415   10.905
 4816.00    0.89448   0.82488   11.180
 4817.00    0.86834   0.82536   11.516
 4818.00    0.85429   0.82555   11.706
 4819.00    0.85490   0.82476   11.697
 4820.00    0.85827   0.82356   11.651
 4821.00    0.84932   0.82156   11.774
 4822.00    0.82558   0.81908   12.113
 4823.00    0.79869   0.81690   12.521
 4824.00    0.78361   0.81379   12.762
 4825.00    0.78412   0.81105   12.753
 4826.00    0.79143   0.80962   12.635
 4827.00    0.79225   0.80789   12.622
 4828.00    0.77936   0.80629   12.831
 4829.00    0.75284   0.80519   13.283
 4830.00    0.71841   0.80404   13.920
 4831.00    0.68527   0.80333   14.593
 4832.00    0.66544   0.80235   15.028
 4833.00    0.66784   0.80086   14.974
 4834.00    0.69112   0.79997   14.469
 4835.00    0.72347   0.79895   13.822
 4836.00    0.75117   0.79709   13.313
 4837.00    0.76873   0.79505   13.008
 4838.00    0.77948   0.79301   12.829
 4839.00    0.78870   0.79049   12.679
 4840.00    0.79594   0.78744   12.564
 4841.00    0.79472   0.78418   12.583
 4842.00    0.77982   0.78117   12.823
 4843.00    0.75524   0.77802   13.241
 4844.00    0.73410   0.77393   13.622
 4845.00    0.72868   0.76993   13.724
 4846.00    0.73975   0.76578   13.518
 4847.00    0.75643   0.76038   13.220
 4848.00    0.76579   0.75418    0.000
 4849.00    0.76283   0.74670    0.000
 4850.00    0.75095   0.73803    0.000
 4851.00    0.73803   0.72844    0.000
 4852.00    0.73241   0.71656    0.000
 4853.00    0.74214   0.70272    0.000
 4854.00    0.77053   0.68762    0.000
 4855.00    0.81179   0.67073    0.000
 4856.00    0.85187   0.65192    0.000
 4857.00    0.87908   0.63270    0.000
 4858.00    0.89406   0.61454    0.000
 4859.00    0.90910   0.59728    0.000
 4860.00    0.93433   0.58291    0.000
 4861.00    0.96542   0.57285    0.000
 4862.00    0.98432   0.56689    0.000
 4863.00    0.97456   0.56794    0.000
 4864.00    0.93450   0.57507    0.000
 4865.00    0.87701   0.58521    0.000
 4866.00    0.81864   0.59929    0.000
 4867.00    0.77065   0.61564    0.000
 4868.00    0.73833   0.63201    0.000
 4869.00    0.72149   0.64799    0.000
 4870.00    0.71471   0.66310    0.000
 4871.00    0.70842   0.67675    0.000
 4872.00    0.69655   0.68860    0.000
 4873.00    0.68258   0.69980    0.000
 4874.00    0.67839   0.71065    0.000
 4875.00    0.69302   0.72063   14.430
 4876.00    0.72416   0.72954   13.809
 4877.00    0.75916   0.73802   13.172
 4878.00    0.78604   0.74599   12.722
 4879.00    0.80144   0.75231   12.478
 4880.00    0.80992   0.75799   12.347
 4881.00    0.81552   0.76251   12.262
 4882.00    0.81578   0.76486   12.258
 4883.00    0.80295   0.76675   12.454
 4884.00    0.77377   0.76800   12.924
 4885.00    0.73610   0.76832   13.585
 4886.00    0.70718   0.76830   14.141
 4887.00    0.69996   0.76814   14.287
 4888.00    0.71414   0.76902   14.003
 4889.00    0.73769   0.77049   13.556
 4890.00    0.75881   0.77277   13.179
 4891.00    0.77345   0.77634   12.929
 4892.00    0.78469   0.78014   12.744
 4893.00    0.79664   0.78601   12.553
 4894.00    0.81072   0.79266   12.335
 4895.00    0.82587   0.79816   12.108
 4896.00    0.84047   0.80373   11.898
 4897.00    0.85353   0.80825   11.716
 4898.00    0.86442   0.81133   11.568
 4899.00    0.87125   0.81358   11.478
 4900.00    0.86995   0.81414   11.495
 4901.00    0.85549   0.81373   11.689
 4902.00    0.82850   0.81383   12.070
 4903.00    0.79891   0.81325   12.517
 4904.00    0.78322   0.81215   12.768
 4905.00    0.79016   0.81146   12.656
 4906.00    0.81300   0.81091   12.300
 4907.00    0.83288   0.81046   12.007
 4908.00    0.83629   0.80950   11.958
 4909.00    0.82400   0.80838   12.136
 4910.00    0.80835   0.80744   12.371
 4911.00    0.79900   0.80618   12.516
 4912.00    0.79588   0.80501   12.565
 4913.00    0.79103   0.80389   12.642
 4914.00    0.77772   0.80189   12.858
 4915.00    0.75486   0.79915   13.247
 4916.00    0.72654   0.79580   13.764
 4917.00    0.69951   0.79140   14.296
 4918.00    0.68206   0.78654   14.661
 4919.00    0.68262   0.78124   14.649
 4920.00    0.70421   0.77641   14.200
 4921.00    0.74197   0.77307   13.478
 4922.00    0.78536   0.77162   12.733
 4923.00    0.82704   0.77280   12.091
 4924.00    0.86670   0.77565   11.538
 4925.00    0.90867   0.77988   11.005
 4926.00    0.95224   0.78545   10.502
 4927.00    0.98769   0.79229   10.125
 4928.00    0.99963   0.79833   10.004
 4929.00    0.97985   0.80287   10.206
 4930.00    0.93249   0.80669   10.724
 4931.00    0.87148   0.80859   11.475
 4932.00    0.81110   0.80897   12.329
 4933.00    0.76229   0.80829   13.118
 4934.00    0.73202   0.80565   13.661
 4935.00    0.72114   0.80284   13.867
 4936.00    0.72364   0.80132   13.819
 4937.00    0.72937   0.79975   13.710
 4938.00    0.73320   0.79842   13.639
 4939.00    0.73821   0.79827   13.546
 4940.00    0.75274   0.79919    0.000
 4941.00    0.78075   0.80178    0.000
 4942.00    0.81836   0.80523    0.000
 4943.00    0.85634   0.80815    0.000
 4944.00    0.88753   0.81172    0.000
 4945.00    0.90938   0.81548    0.000
 4946.00    0.92291   0.81826    0.000
 4947.00    0.92961   0.82047    0.000
 4948.00    0.93045   0.82212    0.000
 4949.00    0.92608   0.82277    0.000
 4950.00    0.91760   0.82219    0.000
 4951.00    0.90672   0.82052    0.000
 4952.00    0.89562   0.81790    0.000
 4953.00    0.88635   0.81362    0.000
 4954.00    0.88071   0.80881    0.000
 4955.00    0.87995   0.80395    0.000
 4956.00    0.88406   0.79910    0.000
 4957.00    0.89158   0.79510    0.000
 4958.00    0.89989   0.79067    0.000
 4959.00    0.90608   0.78835    0.000
 4960.00    0.90721   0.78876    0.000
 4961.00    0.90126   0.78889    0.000
 4962.00    0.88966   0.78950    0.000
 4963.00    0.87789   0.79016    0.000
 4964.00    0.87240   0.79101    0.000
 4965.00    0.87319   0.79213    0.000
 4966.00    0.87209   0.79203    0.000
 4967.00    0.85807   0.79212    0.000
 4968.00    0.82984   0.79269    0.000
 4969.00    0.79874   0.79307    0.000
 4970.00    0.78178   0.79416    0.000
 4971.00    0.78589   0.79516    0.000
 4972.00    0.80430   0.79629    0.000
 4973.00    0.82238   0.79758    0.000
 4974.00    0.83011   0.79775    0.000
 4975.00    0.82502   0.79750    0.000
 4976.00    0.81035   0.79617    0.000
 4977.00    0.79144   0.79350    0.000
 4978.00    0.77480   0.79000    0.000
 4979.00    0.76588   0.78536    0.000
 4980.00    0.76457   0.78067    0.000
 4981.00    0.76438   0.77633    0.000
 4982.00    0.75716   0.77220    0.000
 4983.00    0.74244   0.76885    0.000
 4984.00    0.72902   0.76680    0.000
 4985.00    0.72810   0.76667    0.000
 4986.00    0.74035   0.76761    0.000
 4987.00    0.75362   0.76918    0.000
 4988.00    0.75230   0.77201    0.000
 4989.00    0.73404   0.77451    0.000
 4990.00    0.71261   0.77680    0.000
 4991.00    0.70689   0.77913    0.000
 4992.00    0.72163   0.78035    0.000
 4993.00    0.74441   0.78190    0.000
 4994.00    0.75731   0.78253    0.000
 4995.00    0.75651   0.78158    0.000
 4996.00    0.75530   0.78095    0.000
 4997.00    0.77243   0.77922    0.000
 4998.00    0.81316   0.77664    0.000
 4999.00    0.86658   0.77401    0.000
 5000.00    0.91571   0.77020    0.000
 5001.00    0.95361   0.76640    0.000
 5002.00    0.98557   0.76287    0.000
 5003.00    1.02124   0.75957    0.000
 5004.00    1.06262   0.75740    0.000
 5005.00    1.10251   0.75545    0.000
 5006.00    1.13080   0.75368    0.000
 5007.00    1.14369   0.75241    0.000
 5008.00    1.14479   0.75165    0.000
 5009.00    1.13947   0.75159    0.000
 5010.00    1.12691   0.75070    0.000
 5011.00    1.09931   0.74915    0.000
 5012.00    1.04898   0.74771    0.000
 5013.00    0.97811   0.74547    0.000
 5014.00    0.89966   0.74351    0.000
 5015.00    0.83031   0.74179    0.000
 5016.00    0.78100   0.74051    0.000
 5017.00    0.75581   0.74058    0.000
 5018.00    0.75277   0.74055    0.000
 5019.00    0.76496   0.74128    0.000
 5020.00    0.78098   0.74337    0.000
 5021.00    0.78987   0.74616    0.000
 5022.00    0.78726   0.74929    0.000
 5023.00    0.77585   0.75168    0.000
 5024.00    0.76218   0.75466    0.000
 5025.00    0.75275   0.75835    0.000
 5026.00    0.75337   0.76120    0.000
 5027.00    0.76669   0.76411    0.000
 5028.00    0.78934   0.76616    0.000
 5029.00    0.81206   0.76821   12.314
 5030.00    0.82526   0.77085   12.117
 5031.00    0.82541   0.77165   12.115
 5032.00    0.81531   0.77175   12.265
 5033.00    0.79990   0.77145   12.501
 5034.00    0.78182   0.76991   12.791
 5035.00    0.76115   0.76764   13.138
 5036.00    0.73856   0.76352   13.540
 5037.00    0.71861   0.75855   13.916
 5038.00    0.70939   0.75526   14.097
 5039.00    0.71546   0.75213   13.977
 5040.00    0.73072   0.74930   13.685
 5041.00    0.73900   0.74764   13.532
 5042.00    0.72744   0.74701   13.747
 5043.00    0.69961   0.74921   14.294
 5044.00    0.67501   0.75272   14.815
 5045.00    0.67185   0.75545   14.884
 5046.00    0.69092   0.75863   14.473
 5047.00    0.71589   0.76130   13.969
 5048.00    0.73045   0.76338   13.690
 5049.00    0.73389   0.76491   13.626
 5050.00    0.74053   0.76552   13.504
 5051.00    0.76276   0.76613   13.110
 5052.00    0.79598   0.76681   12.563
 5053.00    0.81969   0.76765   12.200
 5054.00    0.81691   0.76933   12.241
 5055.00    0.79073   0.77127   12.647
 5056.00    0.76317   0.77329   13.103
 5057.00    0.75459   0.77553   13.252
 5058.00    0.76677   0.77754   13.042
 5059.00    0.78382   0.77976   12.758
 5060.00    0.78969   0.78036   12.663
 5061.00    0.78193   0.78018   12.789
 5062.00    0.77115   0.77970   12.968
 5063.00    0.76886   0.77810   13.006
 5064.00    0.77813   0.77614   12.851
 5065.00    0.79385   0.77309   12.597
 5066.00    0.80868   0.77013   12.366
 5067.00    0.81749   0.76825   12.233
 5068.00    0.81792   0.76613   12.226
 5069.00    0.81208   0.76436   12.314
 5070.00    0.80775   0.76301   12.380
 5071.00    0.81694   0.76203   12.241
 5072.00    0.84495   0.76141   11.835
 5073.00    0.88287   0.76027   11.327
 5074.00    0.90975   0.75926   10.992
 5075.00    0.90981   0.75779   10.991
 5076.00    0.88400   0.75584   11.312
 5077.00    0.84842   0.75390   11.787
 5078.00    0.82046   0.75182   12.188
 5079.00    0.80987   0.75001   12.348
 5080.00    0.81853   0.74790   12.217
 5081.00    0.84184   0.74665   11.879
 5082.00    0.86956   0.74680   11.500
 5083.00    0.88755   0.74775   11.267
 5084.00    0.88769   0.74929   11.265
 5085.00    0.87385   0.75144   11.444
 5086.00    0.85984   0.75431   11.630
 5087.00    0.85621   0.75756   11.679
 5088.00    0.86255   0.76066   11.594
 5089.00    0.86912   0.76339   11.506
 5090.00    0.86747   0.76581   11.528
 5091.00    0.85642   0.76744   11.676
 5092.00    0.84122   0.76822   11.888
 5093.00    0.82787   0.76824   12.079
 5094.00    0.82006   0.76745   12.194
 5095.00    0.81903   0.76571   12.210
 5096.00    0.82328   0.76344   12.146
 5097.00    0.82847   0.76091   12.070
 5098.00    0.82837   0.75828   12.072
 5099.00    0.81959   0.75592   12.201
 5100.00    0.80394   0.75360   12.439
 5101.00    0.78739   0.75224   12.700
 5102.00    0.77493   0.75162   12.904
 5103.00    0.76800   0.75094   13.021
 5104.00    0.76513   0.75062   13.070
 5105.00    0.76503   0.75027   13.071
 5106.00    0.76806   0.75001   13.020
 5107.00    0.77543   0.75029   12.896
 5108.00    0.78561   0.75031   12.729
 5109.00    0.79267   0.75068   12.616
 5110.00    0.78747   0.75187   12.699
 5111.00    0.76271   0.75298   13.111
 5112.00    0.71514   0.75497   13.983
 5113.00    0.64679   0.75746   15.461
 5114.00    0.56963   0.75953   -1.000
 5115.00    0.50745   0.76186   -1.000
 5116.00    0.48997   0.76340   -1.000
 5117.00    0.52991   0.76416   -1.000
 5118.00    0.61369   0.76448   16.295
 5119.00    0.70781   0.76318   14.128
 5120.00    0.78296   0.76095   12.772
 5121.00    0.82368   0.75800   12.141
 5122.00    0.82764   0.75427   12.083
 5123.00    0.80234   0.75053   12.464
 5124.00    0.76390   0.74652   13.091
 5125.00    0.73338   0.74291   13.636
 5126.00    0.72457   0.74048   13.801
 5127.00    0.73943   0.73884   13.524
 5128.00    0.76985   0.73797   12.990
 5129.00    0.80349   0.73790   12.446
 5130.00    0.82596   0.73846   12.107
 5131.00    0.82373   0.73997   12.140
 5132.00    0.79333   0.74173   12.605
 5133.00    0.74445   0.74308   13.433
 5134.00    0.69528   0.74426   14.383
 5135.00    0.65838   0.74462   15.189
 5136.00    0.63597   0.74523   15.724
 5137.00    0.62312   0.74503   16.048
 5138.00    0.61725   0.74343   16.201
 5139.00    0.62120   0.74208   16.098
 5140.00    0.64038   0.74014   15.616
 5141.00    0.67488   0.73867   14.817
 5142.00    0.71700   0.73757   13.947
 5143.00    0.75420   0.73545   13.259
 5144.00    0.77708   0.73413   12.869
 5145.00    0.78182   0.73361   12.791
 5146.00    0.77002   0.73276   12.987
 5147.00    0.74820   0.73227   13.365
 5148.00    0.72767   0.73173   13.743
 5149.00    0.72085   0.73145   13.873
 5150.00    0.73205   0.73193   13.660
 5151.00    0.75500   0.73236   13.245
 5152.00    0.77760   0.73318   12.860
 5153.00    0.79355   0.73461   12.602
 5154.00    0.80538   0.73656   12.416
 5155.00    0.82012   0.73878   12.193
 5156.00    0.83902   0.74143   11.919
 5157.00    0.85501   0.74395   11.696
 5158.00    0.85676   0.74564   11.672
 5159.00    0.83796   0.74654   11.934
 5160.00    0.79961   0.74555   12.506
 5161.00    0.74840   0.74282   13.362
 5162.00    0.69315   0.73802   14.427
 5163.00    0.64391   0.73059   15.530
 5164.00    0.60889   0.72194   16.423
 5165.00    0.58804   0.71229   17.006
 5166.00    0.57174   0.70169   17.491
 5167.00    0.54752   0.69089   18.264
 5168.00    0.51384   0.68030   -1.000
 5169.00    0.48290   0.67224   -1.000
 5170.00    0.47243   0.66749   -1.000
 5171.00    0.48939   0.66531   -1.000
 5172.00    0.52674   0.66495   18.956
 5173.00    0.57007   0.66587   17.542
 5174.00    0.61035   0.66946   16.384
 5175.00    0.64636   0.67533   15.471
 5176.00    0.68100   0.68149   14.684
 5177.00    0.71430   0.68646   14.000
 5178.00    0.74221   0.69004   13.473
 5179.00    0.75940   0.69202   13.168
 5180.00    0.76434   0.69291   13.083
 5181.00    0.76014   0.69304   13.155
 5182.00    0.75213   0.69211   13.296
 5183.00    0.74363   0.69098   13.448
 5184.00    0.73525   0.68947   13.601
 5185.00    0.72596   0.68963   13.775
 5186.00    0.71495   0.69233   13.987
 5187.00    0.70192   0.69547   14.247
 5188.00    0.68794   0.69908   14.536
 5189.00    0.67672   0.70262   14.777
 5190.00    0.67464   0.70629    0.000
 5191.00    0.68657   0.71015    0.000
 5192.00    0.70936   0.71279    0.000
 5193.00    0.73117   0.71482    0.000
 5194.00    0.73885   0.71701    0.000
 5195.00    0.72916   0.71928    0.000
 5196.00    0.71005   0.72099    0.000
 5197.00    0.69357   0.72270    0.000
 5198.00    0.68546   0.72411    0.000
 5199.00    0.68387   0.72494    0.000
 5200.00    0.68415   0.72528    0.000
 5201.00    0.68570   0.72425    0.000
 5202.00    0.69250   0.72248    0.000
 5203.00    0.70781   0.71976    0.000
 5204.00    0.72672   0.71642    0.000
 5205.00    0.73579   0.71290    0.000
 5206.00    0.72312   0.70960    0.000
 5207.00    0.69161   0.70742    0.000
 5208.00    0.65974   0.70694    0.000
 5209.00    0.64805   0.70723    0.000
 5210.00    0.66181   0.70925    0.000
 5211.00    0.68964   0.71261   14.500
 5212.00    0.71418   0.71680   14.002
 5213.00    0.72528   0.72197   13.788
 5214.00    0.72148   0.72695   13.860
 5215.00    0.70752   0.73180   14.134
 5216.00    0.69160   0.73566   14.459
 5217.00    0.68447   0.73892   14.610
 5218.00    0.69266   0.74163   14.437
 5219.00    0.71056   0.74344   14.073
 5220.00    0.72059   0.74414   13.878
 5221.00    0.70587   0.74342   14.167
 5222.00    0.66423   0.74182   15.055
 5223.00    0.60894   0.73915   16.422
 5224.00    0.55944   0.73625   -1.000
 5225.00    0.53145   0.73313   -1.000
 5226.00    0.53563   0.73003   -1.000
 5227.00    0.57385   0.72766   17.426
 5228.00    0.63529   0.72596   15.741
 5229.00    0.69728   0.72625   14.341
 5230.00    0.73906   0.72782   13.531
 5231.00    0.75553   0.72964   13.236
 5232.00    0.75732   0.73258   13.204
 5233.00    0.75785   0.73529   13.195
 5234.00    0.76094   0.73813   13.142
 5235.00    0.76071   0.74157   13.146
 5236.00    0.75102   0.74485   13.315
 5237.00    0.73442   0.74855   13.616
 5238.00    0.72178   0.75164   13.855
 5239.00    0.72191   0.75420   13.852
 5240.00    0.73211   0.75641   13.659
 5241.00    0.73880   0.75776   13.535
 5242.00    0.72970   0.75859   13.704
 5243.00    0.70448   0.75840   14.195
 5244.00    0.67452   0.75739   14.825
 5245.00    0.65287   0.75598   15.317
 5246.00    0.64588   0.75377   15.483
 5247.00    0.65297   0.75107   15.315
 5248.00    0.66993   0.74809   14.927
 5249.00    0.69160   0.74583   14.459
 5250.00    0.71213   0.74420   14.042
 5251.00    0.72599   0.74261   13.774
 5252.00    0.72875   0.74225   13.722
 5253.00    0.71742   0.74263   13.939
 5254.00    0.69308   0.74340   14.428
 5255.00    0.66286   0.74427   15.086
 5256.00    0.63891   0.74466   15.652
 5257.00    0.63001   0.74501   15.873
 5258.00    0.63543   0.74435   15.737
 5259.00    0.64580   0.74226   15.485
 5260.00    0.65183   0.73886   15.341
 5261.00    0.65067   0.73389   15.369
 5262.00    0.64558   0.72771   15.490
 5263.00    0.64206   0.72076   15.575
 5264.00    0.64517   0.71349   15.500
 5265.00    0.65882   0.70659   15.179
 5266.00    0.68241   0.70056   14.654
 5267.00    0.70851   0.69600   14.114
 5268.00    0.72427   0.69354   13.807
 5269.00    0.72067   0.69252   13.876
 5270.00    0.69846   0.69250   14.317
 5271.00    0.66726   0.69437   14.987
 5272.00    0.63821   0.69857   15.669
 5273.00    0.61946   0.70412   16.143
 5274.00    0.61576   0.70989   16.240
 5275.00    0.62752   0.71624   15.936
 5276.00    0.65025   0.72201   15.379
 5277.00    0.67531   0.72738   14.808
 5278.00    0.69462   0.73284   14.396
 5279.00    0.70323   0.73761   14.220
 5280.00    0.69954   0.74157   14.295
 5281.00    0.68557   0.74458   14.586
 5282.00    0.66710   0.74712   14.990
 5283.00    0.65257   0.74958   15.324
 5284.00    0.64738   0.75200   15.447
 5285.00    0.65077   0.75474   15.366
 5286.00    0.65705   0.75809   15.219
 5287.00    0.66194   0.76119   15.107
 5288.00    0.66585   0.76394   15.018
 5289.00    0.67284   0.76599   14.862
 5290.00    0.68492   0.76726   14.600
 5291.00    0.69921   0.76765   14.302
 5292.00    0.70910   0.76678   14.102
 5293.00    0.71004   0.76509   14.084
 5294.00    0.70234   0.76235   14.238
 5295.00    0.69025   0.75920   14.488
 5296.00    0.67741   0.75567   14.762
 5297.00    0.66476   0.75223   15.043
 5298.00    0.65142   0.74935   15.351
 5299.00    0.63856   0.74747   15.660
 5300.00    0.63128   0.74719   15.841
 5301.00    0.63681   0.74802   15.703
 5302.00    0.65766   0.74970   15.205
 5303.00    0.68851   0.75229   14.524
 5304.00    0.71848   0.75543   13.918
 5305.00    0.74016   0.75891   13.511
 5306.00    0.75342   0.76222   13.273
 5307.00    0.76359   0.76509   13.096
 5308.00    0.77435   0.76730   12.914
 5309.00    0.78478   0.76878   12.742
 5310.00    0.79066   0.76959   12.648
 5311.00    0.78938   0.76978   12.668
 5312.00    0.78184   0.76918   12.790
 5313.00    0.77148   0.76807   12.962
 5314.00    0.76073   0.76634   13.145
 5315.00    0.74966   0.76444   13.339
 5316.00    0.73690   0.76232   13.570
 5317.00    0.72264   0.75990   13.838
 5318.00    0.70979   0.75740   14.089
 5319.00    0.70239   0.75505   14.237
 5320.00    0.70048   0.75232   14.276
 5321.00    0.69832   0.74916   14.320
 5322.00    0.68736   0.74550   14.548
 5323.00    0.66552   0.74141   15.026
 5324.00    0.64035   0.73704   15.616
 5325.00    0.62528   0.73243   15.993
 5326.00    0.62823   0.72863   15.918
 5327.00    0.64795   0.72532   15.433
 5328.00    0.67665   0.72283   14.779
 5329.00    0.70797   0.72107   14.125
 5330.00    0.73948   0.72149   13.523
 5331.00    0.77088   0.72347   12.972
 5332.00    0.79882   0.72645   12.518
 5333.00    0.81542   0.73003   12.264
 5334.00    0.81174   0.73340   12.319
 5335.00    0.78718   0.73671   12.704
 5336.00    0.75220   0.73927   13.294
 5337.00    0.72325   0.74117   13.826
 5338.00    0.70947   0.74248   14.095
 5339.00    0.70899   0.74297   14.105
 5340.00    0.71279   0.74293   14.029
 5341.00    0.71446   0.74251   13.997
 5342.00    0.71281   0.74223   14.029
 5343.00    0.71001   0.74262   14.084
 5344.00    0.70687   0.74294   14.147
 5345.00    0.70164   0.74393   14.252
 5346.00    0.69176   0.74493   14.456
 5347.00    0.67794   0.74624   14.751
 5348.00    0.66517   0.74823   15.034
 5349.00    0.66006   0.75039   15.150
 5350.00    0.66490   0.75308   15.040
 5351.00    0.67627   0.75625   14.787
 5352.00    0.68751   0.75972   14.545
 5353.00    0.69421   0.76333   14.405
 5354.00    0.69549   0.76658   14.378
 5355.00    0.69287   0.76963   14.433
 5356.00    0.68802   0.77204   14.535
 5357.00    0.68220   0.77350   14.658
 5358.00    0.67678   0.77416   14.776
 5359.00    0.67424   0.77368   14.832
 5360.00    0.67825   0.77227   14.744
 5361.00    0.69157   0.76984   14.460
 5362.00    0.71166   0.76668   14.052
 5363.00    0.72997   0.76279   13.699
 5364.00    0.73614   0.75863   13.584
 5365.00    0.72610   0.75431   13.772
 5366.00    0.70352   0.75013   14.214
 5367.00    0.67618   0.74653   14.789
 5368.00    0.64913   0.74332   15.405
 5369.00    0.62355   0.74098   16.037
 5370.00    0.59902   0.73937   16.694
 5371.00    0.57774   0.73865   17.309
 5372.00    0.56518   0.73911   -1.000
 5373.00    0.56669   0.74076   -1.000
 5374.00    0.58180   0.74358   17.188
 5375.00    0.60335   0.74672   16.574
 5376.00    0.62200   0.75014   16.077
 5377.00    0.63359   0.75307   15.783
 5378.00    0.64027   0.75548   15.618
 5379.00    0.64737   0.75749   15.447
 5380.00    0.65834   0.75867   15.190
 5381.00    0.67390   0.75933   14.839
 5382.00    0.69261   0.75927   14.438
 5383.00    0.71166   0.75889   14.052
 5384.00    0.72712   0.75790   13.753
 5385.00    0.73575   0.75685   13.592
 5386.00    0.73780   0.75563   13.554
 5387.00    0.73724   0.75400   13.564
 5388.00    0.73815   0.75218   13.547
 5389.00    0.73953   0.74994   13.522
 5390.00    0.73490   0.74737   13.607
 5391.00    0.71787   0.74434   13.930
 5392.00    0.69007   0.74159   14.491
 5393.00    0.66175   0.73868   15.111
 5394.00    0.64476   0.73600   15.510
 5395.00    0.64297   0.73345   15.553
 5396.00    0.65136   0.73135   15.352
 5397.00    0.66177   0.72943   15.111
 5398.00    0.67031   0.72748   14.918
 5399.00    0.67817   0.72634   14.745
 5400.00    0.68823   0.72515   14.530
 5401.00    0.70080   0.72420   14.269
 5402.00    0.71327   0.72300   14.020
 5403.00    0.72171   0.72175   13.856
 5404.00    0.72287   0.72020   13.834
 5405.00    0.71453   0.71888   13.995
 5406.00    0.69691   0.71791   14.349
 5407.00    0.67440   0.71757   14.828
 5408.00    0.65537   0.71828   15.259
 5409.00    0.64709   0.71978   15.454
 5410.00    0.64998   0.72212   15.385
 5411.00    0.65747   0.72497   15.210
 5412.00    0.66150   0.72865   15.117
 5413.00    0.65868   0.73255   15.182
 5414.00    0.65072   0.73659   15.367
 5415.00    0.64229   0.74037   15.569
 5416.00    0.63868   0.74370   15.657
 5417.00    0.64539   0.74655   15.495
 5418.00    0.66467   0.74861   15.045
 5419.00    0.69221   0.75003   14.447
 5420.00    0.71741   0.75073   13.939
 5421.00    0.73078   0.75076   13.684
 5422.00    0.73115   0.75022   13.677
 5423.00    0.72558   0.74913   13.782
 5424.00    0.72134   0.74767   13.863
 5425.00    0.71817   0.74579   -2.000
 5426.00    0.70858   0.74381   -2.000
 5427.00    0.68731   0.74160   -2.000
 5428.00    0.66000   0.73925   -2.000
 5429.00    0.64255   0.73696   -2.000
 5430.00    0.64779   0.73434   -2.000
 5431.00    0.67354   0.73236   -2.000
 5432.00    0.70334   0.73121   -2.000
 5433.00    0.72157   0.73054   -2.000
 5434.00    0.72656   0.73102   -2.000
 5435.00    0.72990   0.73214   -2.000
 5436.00    0.74205   0.73417   -2.000
 5437.00    0.76037   0.73693   -2.000
 5438.00    0.76998   0.73996   -2.000
 5439.00    0.75847   0.74307   -2.000
 5440.00    0.72774   0.74561   13.741
 5441.00    0.69317   0.74752   14.426
 5442.00    0.67076   0.74841   14.909
 5443.00    0.66699   0.74807   14.993
 5444.00    0.67901   0.74689   14.727
 5445.00    0.70026   0.74469   14.280
 5446.00    0.72480   0.74205   13.797
 5447.00    0.74769   0.73895   13.375
 5448.00    0.76606   0.73595   13.054
 5449.00    0.77987   0.73353   12.823
 5450.00    0.79150   0.73138   12.634
 5451.00    0.80267   0.72993   12.458
 5452.00    0.81225   0.72856   12.311
 5453.00    0.81657   0.72751   12.246
 5454.00    0.81247   0.72649   12.308
 5455.00    0.79937   0.72583   12.510
 5456.00    0.77914   0.72516   12.835
 5457.00    0.75491   0.72505   13.247
 5458.00    0.73019   0.72539   13.695
 5459.00    0.70864   0.72600   14.111
 5460.00    0.69274   0.72675   14.435
 5461.00    0.68292   0.72738   14.643
 5462.00    0.67780   0.72791   14.754
 5463.00    0.67606   0.72837   14.792
 5464.00    0.67750   0.72860   14.760
 5465.00    0.68286   0.72900   14.644
 5466.00    0.69227   0.72928   14.445
 5467.00    0.70442   0.72934   14.196
 5468.00    0.71662   0.72929   13.954
 5469.00    0.72575   0.72878   13.779
 5470.00    0.72877   0.72791   13.722
 5471.00    0.72324   0.72660   13.827
 5472.00    0.71024   0.72505   14.080
 5473.00    0.69586   0.72320   14.371
 5474.00    0.68982   0.72121   14.497
 5475.00    0.69772   0.71932   14.332
 5476.00    0.71696   0.71779   13.948
 5477.00    0.73834   0.71646   13.544
 5478.00    0.75441   0.71586   13.255
 5479.00    0.76378   0.71604   13.093
 5480.00    0.77010   0.71669   12.985
 5481.00    0.77632   0.71809   12.881
 5482.00    0.78190   0.71956   12.789
 5483.00    0.78375   0.72145   12.759
 5484.00    0.78077   0.72326   12.808
 5485.00    0.77609   0.72523   12.885
 5486.00    0.77571   0.72711   12.891
 5487.00    0.78234   0.72858   12.782
 5488.00    0.79252   0.72980   12.618
 5489.00    0.79853   0.73062   12.523
 5490.00    0.79630   0.73132   12.558
 5491.00    0.78908   0.73166   12.673
 5492.00    0.78523   0.73201   12.735
 5493.00    0.78933   0.73214   12.669
 5494.00    0.79828   0.73189   12.527
 5495.00    0.80370   0.73165   12.442
 5496.00    0.80127   0.73106   12.480
 5497.00    0.79472   0.73042   12.583
 5498.00    0.79286   0.72943   12.613
 5499.00    0.79844   0.72848   12.524
 5500.00    0.80371   0.72737   12.442
 5501.00    0.79451   0.72615   12.586
 5502.00    0.76565   0.72497   13.061
 5503.00    0.72676   0.72364   13.760
 5504.00    0.69722   0.72238   14.343
 5505.00    0.68825   0.72124   14.530
 5506.00    0.69616   0.72027   14.365
 5507.00    0.70677   0.71933   14.149
 5508.00    0.71054   0.71856   14.074
 5509.00    0.70796   0.71811   14.125
 5510.00    0.70659   0.71776   14.153
 5511.00    0.71117   0.71786   14.061
 5512.00    0.72016   0.71815   13.886
 5513.00    0.72795   0.71866   13.737
 5514.00    0.73190   0.71978   13.663
 5515.00    0.73467   0.72120   13.611
 5516.00    0.74187   0.72314   13.480
 5517.00    0.75484   0.72536   13.248
 5518.00    0.76847   0.72763   13.013
 5519.00    0.77403   0.72981   12.919
 5520.00    0.76773   0.73154   13.025
 5521.00    0.75339   0.73278   13.273
 5522.00    0.73960   0.73333   13.521
 5523.00    0.73198   0.73321   13.662
 5524.00    0.73082   0.73247   13.683
 5525.00    0.73225   0.73133   13.657
 5526.00    0.73135   0.72984   13.673
 5527.00    0.72313   0.72830   13.829
 5528.00    0.70491   0.72687   14.186
 5529.00    0.68252   0.72567   14.652
 5530.00    0.67184   0.72507   14.885
 5531.00    0.68962   0.72490   14.501
 5532.00    0.73064   0.72528   13.687
 5533.00    0.76194   0.72604   13.124
 5534.00    0.74638   0.72697   13.398
 5535.00    0.69933   0.72800   14.299
 5536.00    0.70208   0.72913   -2.000
 5537.00    0.84806   0.73041   -2.000
 5538.00    1.11747   0.73165   -2.000
 5539.00    1.34826   0.73284   -2.000
 5540.00    1.33198   0.73406   -2.000
 5541.00    1.02908   0.73498   -2.000
 5542.00    0.61771   0.73588   -2.000
 5543.00    0.37333   0.73656   -2.000
 5544.00    0.40726   0.73711   -2.000
 5545.00    0.60909   0.73757   -2.000
 5546.00    0.75653   0.73801   -2.000
 5547.00    0.74581   0.73847   -2.000
 5548.00    0.64077   0.73900   -2.000
 5549.00    0.59219   0.73940   -2.000
 5550.00    0.67433   0.73969   -2.000
 5551.00    0.85123   0.73979   -2.000
 5552.00    1.02473   0.73964   -2.000
 5553.00    1.12852   0.73915   -2.000
 5554.00    1.14711   0.73847   -2.000
 5555.00    1.10051   0.73751   -2.000
 5556.00    1.01552   0.73647   -2.000
 5557.00    0.91983   0.73531   -2.000
 5558.00    0.83777   0.73409   -2.000
 5559.00    0.78246   0.73286   -2.000
 5560.00    0.75457   0.73154   13.253
 5561.00    0.74705   0.73014   13.386
 5562.00    0.75353   0.72874   13.271
 5563.00    0.76980   0.72734   12.990
 5564.00    0.79243   0.72585   12.619
 5565.00    0.81640   0.72457   12.249
 5566.00    0.83484   0.72330   11.978
 5567.00    0.84166   0.72234   11.881
 5568.00    0.83594   0.72156   11.963
 5569.00    0.82251   0.72102   12.158
 5570.00    0.80820   0.72080   12.373
 5571.00    0.79593   0.72081   12.564
 5572.00    0.78387   0.72117   12.757
 5573.00    0.76885   0.72155   13.006
 5574.00    0.75148   0.72230   13.307
 5575.00    0.73674   0.72300   13.573
 5576.00    0.73044   0.72366   13.690
 5577.00    0.73380   0.72430   13.628
 5578.00    0.74289   0.72474   13.461
 5579.00    0.75179   0.72458   13.302
 5580.00    0.75723   0.72411   13.206
 5581.00    0.75909   0.72310   13.174
 5582.00    0.75842   0.72140   13.185
 5583.00    0.75455   0.71929   13.253
 5584.00    0.74489   0.71665   13.425
 5585.00    0.72742   0.71371   13.747
 5586.00    0.70394   0.71073   14.206
 5587.00    0.68045   0.70793   14.696
 5588.00    0.66475   0.70536   15.043
 5589.00    0.66354   0.70344   15.071
 5590.00    0.68177   0.70208   14.668
 5591.00    0.71927   0.70158   13.903
 5592.00    0.76656   0.70175   13.045
 5593.00    0.80506   0.70229   12.421
 5594.00    0.81823   0.70324   12.222
 5595.00    0.80489   0.70401   12.424
 5596.00    0.77990   0.70492   12.822
 5597.00    0.76178   0.70559   13.127
 5598.00    0.75841   0.70625   13.185
 5599.00    0.76595   0.70687   13.056
 5600.00    0.77559   0.70749   12.893
 5601.00    0.78123   0.70824   12.800
 5602.00    0.78018   0.70942   12.817
 5603.00    0.77302   0.71125   12.936
 5604.00    0.76324   0.71323   13.102
 5605.00    0.75694   0.71581   13.211
 5606.00    0.75853   0.71831   13.183
 5607.00    0.76628   0.72101   13.050
 5608.00    0.77238   0.72318   12.947
 5609.00    0.76873   0.72477   13.008
 5610.00    0.75277   0.72557   13.284
 5611.00    0.72773   0.72554   13.741
 5612.00    0.69940   0.72475   14.298
 5613.00    0.67293   0.72332   14.860
 5614.00    0.65249   0.72141   15.326
 5615.00    0.64034   0.71931   15.617
 5616.00    0.63603   0.71706   15.722
 5617.00    0.63670   0.71509   15.706
 5618.00    0.64076   0.71332   15.607
 5619.00    0.65128   0.71220   15.354
 5620.00    0.67540   0.71172   14.806
 5621.00    0.71587   0.71141   13.969
 5622.00    0.76355   0.71137   13.097
 5623.00    0.79861   0.71155   12.522
 5624.00    0.80587   0.71202   12.409
 5625.00    0.78796   0.71261   12.691
 5626.00    0.76434   0.71337   13.083
 5627.00    0.75456   0.71417   13.253
 5628.00    0.76438   0.71521   13.083
 5629.00    0.78608   0.71642   12.721
 5630.00    0.80887   0.71754   12.363
 5631.00    0.82721   0.71830   12.089
 5632.00    0.84084   0.71889   11.893
 5633.00    0.85075   0.71899   11.754
 5634.00    0.85601   0.71875   11.682
 5635.00    0.85389   0.71807   11.711
 5636.00    0.84207   0.71713   11.876
 5637.00    0.82032   0.71600   12.190
 5638.00    0.79064   0.71481   12.648
 5639.00    0.75741   0.71375   13.203
 5640.00    0.72751   0.71280   13.746
 5641.00    0.70960   0.71227   14.092
 5642.00    0.70891   0.71196   14.106
 5643.00    0.72356   0.71208   13.821
 5644.00    0.74526   0.71231   13.418
 5645.00    0.76476   0.71296   13.076
 5646.00    0.77560   0.71377   12.893
 5647.00    0.77436   0.71454   12.914
 5648.00    0.76118   0.71535   13.137
 5649.00    0.74011   0.71596   13.512
 5650.00    0.71850   0.71636   13.918
 5651.00    0.70337   0.71640   14.217
 5652.00    0.69903   0.71598   14.306
 5653.00    0.70686   0.71516   14.147
 5654.00    0.72433   0.71394   13.806
 5655.00    0.74450   0.71239   13.432
 5656.00    0.75743   0.71051   13.203
 5657.00    0.75872   0.70853   13.180
 5658.00    0.75444   0.70655   13.255
 5659.00    0.75868   0.70499   13.181
 5660.00    0.77919   0.70373   12.834
 5661.00    0.80920   0.70279   12.358
 5662.00    0.83040   0.70253   12.042
 5663.00    0.82990   0.70310   12.050
 5664.00    0.80960   0.70384   12.352
 5665.00    0.78374   0.70482   12.759
 5666.00    0.76517   0.70615   13.069
 5667.00    0.75804   0.70782   13.192
 5668.00    0.75904   0.70951   13.175
 5669.00    0.76446   0.71122   13.081
 5670.00    0.77376   0.71289   12.924
 5671.00    0.78871   0.71461   12.679
 5672.00    0.80871   0.71628   12.365
 5673.00    0.82854   0.71787   12.069
 5674.00    0.83988   0.71917   11.907
 5675.00    0.83876   0.72026   11.922
 5676.00    0.82905   0.72097   12.062
 5677.00    0.82026   0.72121   12.191
 5678.00    0.81790   0.72098   12.226
 5679.00    0.81898   0.72037   12.210
 5680.00    0.81438   0.71958   12.279
 5681.00    0.79907   0.71832   12.515
 5682.00    0.77659   0.71706   12.877
 5683.00    0.75692   0.71572   13.211
 5684.00    0.74764   0.71464   13.375
 5685.00    0.75001   0.71358   13.333
 5686.00    0.75999   0.71296   13.158
 5687.00    0.77207   0.71278   12.952
 5688.00    0.78092   0.71294   12.805
 5689.00    0.78214   0.71342   12.785
 5690.00    0.77516   0.71403   12.901
 5691.00    0.76431   0.71495   13.084
 5692.00    0.75702   0.71583   13.210
 5693.00    0.75722   0.71669   13.206
 5694.00    0.76279   0.71716   13.110
 5695.00    0.76742   0.71728   13.031
 5696.00    0.76696   0.71697   13.039
 5697.00    0.76186   0.71607   13.126
 5698.00    0.75605   0.71492   13.227
 5699.00    0.75321   0.71328   13.276
 5700.00    0.75552   0.71156   13.236
 5701.00    0.76342   0.70944   13.099
 5702.00    0.77525   0.70744   12.899
 5703.00    0.78707   0.70538   12.705
 5704.00    0.79409   0.70333   12.593
 5705.00    0.79493   0.70146   12.580
 5706.00    0.79306   0.69982   12.609
 5707.00    0.79447   0.69851   12.587
 5708.00    0.80102   0.69751   12.484
 5709.00    0.80826   0.69696   12.372
 5710.00    0.80805   0.69699   12.376
 5711.00    0.79597   0.69771   12.563
 5712.00    0.77366   0.69900   12.926
 5713.00    0.74728   0.70101   13.382
 5714.00    0.72343   0.70352   13.823
 5715.00    0.70782   0.70621   14.128
 5716.00    0.70442   0.70935   14.196
 5717.00    0.71310   0.71228   14.023
 5718.00    0.72903   0.71510   13.717
 5719.00    0.74472   0.71755   13.428
 5720.00    0.75544   0.71969   13.237
 5721.00    0.76065   0.72128   13.147
 5722.00    0.76316   0.72256   13.103
 5723.00    0.76687   0.72329   13.040
 5724.00    0.77614   0.72365   12.884
 5725.00    0.79417   0.72367   12.592
 5726.00    0.81928   0.72338   12.206
 5727.00    0.84399   0.72296   11.848
 5728.00    0.85888   0.72241   11.643
 5729.00    0.86156   0.72197   11.607
 5730.00    0.85873   0.72149   11.645
 5731.00    0.86153   0.72138   11.607
 5732.00    0.87502   0.72135   11.428
 5733.00    0.89584   0.72151   11.163
 5734.00    0.91551   0.72166   10.923
 5735.00    0.92768   0.72193   10.780
 5736.00    0.92978   0.72225   10.755
 5737.00    0.92202   0.72248   10.846
 5738.00    0.90536   0.72269   11.045
 5739.00    0.88110   0.72276   11.349
 5740.00    0.85131   0.72277    0.000
 5741.00    0.81974   0.72274    0.000
 5742.00    0.79193   0.72263    0.000
 5743.00    0.77333   0.72252    0.000
 5744.00    0.76562   0.72230    0.000
 5745.00    0.76600   0.72208    0.000
 5746.00    0.76941   0.72168    0.000
 5747.00    0.77252   0.72129    0.000
 5748.00    0.77451   0.72077    0.000
 5749.00    0.77601   0.72018    0.000
 5750.00    0.77721   0.71953    0.000
 5751.00    0.77757   0.71878    0.000
 5752.00    0.77651   0.71824    0.000
 5753.00    0.77475   0.71769    0.000
 5754.00    0.77449   0.71733    0.000
 5755.00    0.77822   0.71693    0.000
 5756.00    0.78672   0.71669    0.000
 5757.00    0.79880   0.71645    0.000
 5758.00    0.81199   0.71635    0.000
 5759.00    0.82382   0.71627    0.000
 5760.00    0.83201   0.71618    0.000
 5761.00    0.83489   0.71616    0.000
 5762.00    0.83202   0.71612    0.000
 5763.00    0.82426   0.71627    0.000
 5764.00    0.81299   0.71649    0.000
 5765.00    0.79891   0.71697    0.000
 5766.00    0.78199   0.71748    0.000
 5767.00    0.76261   0.71823    0.000
 5768.00    0.74343   0.71881    0.000
 5769.00    0.72946   0.71934    0.000
 5770.00    0.72545   0.71956    0.000
 5771.00    0.73213   0.71950    0.000
 5772.00    0.74580   0.71908    0.000
 5773.00    0.76057   0.71834    0.000
 5774.00    0.77141   0.71725    0.000
 5775.00    0.77459   0.71580    0.000
 5776.00    0.76869   0.71406    0.000
 5777.00    0.75596   0.71205    0.000
 5778.00    0.74224   0.70976    0.000
 5779.00    0.73429   0.70746    0.000
 5780.00    0.73628   0.70499    0.000
 5781.00    0.74936   0.70283    0.000
 5782.00    0.77195   0.70075    0.000
 5783.00    0.80002   0.69926    0.000
 5784.00    0.82731   0.69812    0.000
 5785.00    0.84710   0.69779    0.000
 5786.00    0.85441   0.69799    0.000
 5787.00    0.84630   0.69889    0.000
 5788.00    0.82221   0.70026    0.000
 5789.00    0.78447   0.70203    0.000
 5790.00    0.73822   0.70409    0.000
 5791.00    0.68937   0.70623    0.000
 5792.00    0.64249   0.70849    0.000
 5793.00    0.60069   0.71062    0.000
 5794.00    0.56728   0.71262    0.000
 5795.00    0.54766   0.71456    0.000
 5796.00    0.54894   0.71625    0.000
 5797.00    0.57481   0.71790    0.000
 5798.00    0.61997   0.71931    0.000
 5799.00    0.67036   0.72057    0.000
 5800.00    0.71060   0.72158    0.000
 5801.00    0.73150   0.72240    0.000
 5802.00    0.73082   0.72300    0.000
 5803.00    0.71340   0.72340    0.000
 5804.00    0.69134   0.72364    0.000
 5805.00    0.68286   0.72367    0.000
 5806.00    0.70004   0.72350    0.000
 5807.00    0.73736   0.72318    0.000
 5808.00    0.77265   0.72281    0.000
 5809.00    0.78544   0.72235    0.000
 5810.00    0.77365   0.72190    0.000
 5811.00    0.75324   0.72148    0.000
 5812.00    0.74292   0.72103    0.000
 5813.00    0.75064   0.72066    0.000
 5814.00    0.77331   0.72030    0.000
 5815.00    0.80293   0.72010    0.000
 5816.00    0.83178   0.71998    0.000
 5817.00    0.85304   0.72007    0.000
 5818.00    0.86264   0.72029    0.000
 5819.00    0.86074   0.72070    0.000
 5820.00    0.85136   0.72122    0.000
 5821.00    0.83793   0.72184    0.000
 5822.00    0.81987   0.72252    0.000
 5823.00    0.79330   0.72317    0.000
 5824.00    0.75824   0.72379    0.000
 5825.00    0.72416   0.72421    0.000
 5826.00    0.70831   0.72465    0.000
 5827.00    0.72076   0.72487    0.000
 5828.00    0.75340   0.72509    0.000
 5829.00    0.78203   0.72514    0.000
 5830.00    0.78651   0.72517    0.000
 5831.00    0.76509   0.72507    0.000
 5832.00    0.73309   0.72490    0.000
 5833.00    0.70811   0.72470    0.000
 5834.00    0.69987   0.72444    0.000
 5835.00    0.70989   0.72422    0.000
 5836.00    0.73302   0.72396    0.000
 5837.00    0.75851   0.72378    0.000
 5838.00    0.77181   0.72359    0.000
 5839.00    0.76581   0.72341    0.000
 5840.00    0.74801   0.72320    0.000
 5841.00    0.73776   0.72292    0.000
 5842.00    0.74745   0.72251    0.000
 5843.00    0.77072   0.72181    0.000
 5844.00    0.78580   0.72091    0.000
 5845.00    0.77782   0.71970    0.000
 5846.00    0.75219   0.71820    0.000
 5847.00    0.73107   0.71637    0.000
 5848.00    0.73037   0.71426    0.000
 5849.00    0.74640   0.71195    0.000
 5850.00    0.75934   0.70943    0.000
 5851.00    0.75501   0.70689    0.000
 5852.00    0.73702   0.70428    0.000
 5853.00    0.72353   0.70185   -2.000
 5854.00    0.72826   0.69952   -2.000
 5855.00    0.75009   0.69752   -2.000
 5856.00    0.77533   0.69579   -2.000
 5857.00    0.79046   0.69448   -2.000
 5858.00    0.78890   0.69358   -2.000
 5859.00    0.77081   0.69312   -2.000
 5860.00    0.74139   0.69315   -2.000
 5861.00    0.70999   0.69343   -2.000
 5862.00    0.68822   0.69407   -2.000
 5863.00    0.68151   0.69482   -2.000
 5864.00    0.68497   0.69588   -2.000
 5865.00    0.68604   0.69684   -2.000
 5866.00    0.67648   0.69789   -2.000
 5867.00    0.65805   0.69875   -2.000
 5868.00    0.64073   0.69952   -2.000
 5869.00    0.63440   0.70010   -2.000
 5870.00    0.64506   0.70045   -2.000
 5871.00    0.67431   0.70055   -2.000
 5872.00    0.71763   0.70034   -2.000
 5873.00    0.76358   0.69990    0.000
 5874.00    0.79660   0.69911    0.000
 5875.00    0.80794   0.69812    0.000
 5876.00    0.80028   0.69678    0.000
 5877.00    0.78495   0.69528    0.000
 5878.00    0.77132   0.69340    0.000
 5879.00    0.76231   0.69138    0.000
 5880.00    0.75578   0.68879    0.000
 5881.00    0.74958   0.68592    0.000
 5882.00    0.74361   0.68222    0.000
 5883.00    0.73872   0.67800    0.000
 5884.00    0.73306   0.67276    0.000
 5885.00    0.72063   0.66685    0.000
 5886.00    0.69467   0.66009    0.000
 5887.00    0.65926   0.65287    0.000
 5888.00    0.63342   0.64537    0.000
 5889.00    0.64224   0.63802    0.000
 5890.00    0.68766   0.63123    0.000
 5891.00    0.73833   0.62539    0.000
 5892.00    0.74657   0.62087    0.000
 5893.00    0.70238   0.61793    0.000
 5894.00    0.65162   0.61662    0.000
 5895.00    0.66873   0.61712    0.000
 5896.00    0.77322   0.61923    0.000
 5897.00    0.90265   0.62294    0.000
 5898.00    0.94908   0.62781    0.000
 5899.00    0.86636   0.63371    0.000
 5900.00    0.70381   0.63999    0.000
 5901.00    0.57006   0.64657   17.542
 5902.00    0.53034   0.65304   18.856
 5903.00    0.57532   0.65917   17.382
 5904.00    0.64485   0.66481   15.508
 5905.00    0.69357   0.66975   14.418
 5906.00    0.71018   0.67377   14.081
 5907.00    0.70796   0.67698   14.125
 5908.00    0.69954   0.67942   14.295
 5909.00    0.68970   0.68112   14.499
 5910.00    0.67804   0.68226   14.748
 5911.00    0.66584   0.68283   15.019
 5912.00    0.65787   0.68313   15.200
 5913.00    0.65996   0.68304   15.152
 5914.00    0.67297   0.68300   14.860
 5915.00    0.69123   0.68274   14.467
 5916.00    0.70567   0.68273   14.171
 5917.00    0.71103   0.68264   14.064
 5918.00    0.70766   0.68290   14.131
 5919.00    0.70003   0.68314   14.285
 5920.00    0.69314   0.68364   14.427
 5921.00    0.69164   0.68410   14.458
 5922.00    0.69820   0.68470   14.323
 5923.00    0.70987   0.68522   14.087
 5924.00    0.71738   0.68569   13.940
 5925.00    0.71036   0.68606   14.077
 5926.00    0.68839   0.68631   14.527
 5927.00    0.66326   0.68645   15.077
 5928.00    0.65145   0.68652   15.350
 5929.00    0.65850   0.68650   15.186
 5930.00    0.67593   0.68650   14.794
 5931.00    0.68857   0.68648   14.523
 5932.00    0.68926   0.68653   14.508
 5933.00    0.68171   0.68660   14.669
 5934.00    0.67517   0.68674   14.811
 5935.00    0.67416   0.68692   14.833
 5936.00    0.67650   0.68712   14.782
 5937.00    0.67705   0.68734   14.770
 5938.00    0.67459   0.68752   14.824
 5939.00    0.67304   0.68770   14.858
 5940.00    0.67756   0.68778   14.759
 5941.00    0.68773   0.68782   14.541
 5942.00    0.69649   0.68777   14.358
 5943.00    0.69558   0.68768   14.377
 5944.00    0.68493   0.68749   14.600
 5945.00    0.67409   0.68723   14.835
 5946.00    0.67518   0.68689   14.811
 5947.00    0.69132   0.68645   14.465
 5948.00    0.71484   0.68595   13.989
 5949.00    0.73358   0.68537   13.632
 5950.00    0.74091   0.68478   13.497
 5951.00    0.73725   0.68419   13.564
 5952.00    0.72617   0.68368   13.771
 5953.00    0.70840   0.68324   14.116
 5954.00    0.68116   0.68298   14.681
 5955.00    0.64343   0.68290   15.542
 5956.00    0.60401   0.68302   16.556
 5957.00    0.58200   0.68340   17.182
 5958.00    0.59401   0.68396   16.835
 5959.00    0.63558   0.68478   15.734
 5960.00    0.67956   0.68568   14.715
 5961.00    0.69585   0.68676   14.371
 5962.00    0.67896   0.68777   14.728
 5963.00    0.65071   0.68888   15.368
 5964.00    0.63998   0.68983   15.625
 5965.00    0.65534   0.69077   15.259
 5966.00    0.68230   0.69150   14.656
 5967.00    0.69921   0.69214   14.302
 5968.00    0.69795   0.69259   14.328
 5969.00    0.68599   0.69284   14.577
 5970.00    0.67699   0.69291   14.771
 5971.00    0.67894   0.69270   14.729
 5972.00    0.69280   0.69231   14.434
 5973.00    0.71403   0.69160   14.005
 5974.00    0.73453   0.69077   13.614
 5975.00    0.74330   0.68966   13.454
 5976.00    0.73244   0.68857   13.653
 5977.00    0.70429   0.68730   14.199
 5978.00    0.67158   0.68620   14.890
 5979.00    0.64905   0.68505   15.407
 5980.00    0.64387   0.68418   15.531
 5981.00    0.65482   0.68335   15.271
 5982.00    0.67444   0.68285   14.827
 5983.00    0.69145   0.68246   14.462
 5984.00    0.69171   0.68239   14.457
 5985.00    0.66722   0.68247   14.987
 5986.00    0.62558   0.68282   15.985
 5987.00    0.58954   0.68335   16.962
 5988.00    0.58063   0.68405   17.223
 5989.00    0.60233   0.68490   16.602
 5990.00    0.63971   0.68579   15.632
 5991.00    0.67310   0.68673   14.857
 5992.00    0.69177   0.68756   14.456
 5993.00    0.69464   0.68829   14.396
 5994.00    0.68558   0.68881   14.586
 5995.00    0.66883   0.68913   14.951
 5996.00    0.64861   0.68920   15.418
 5997.00    0.62923   0.68902   15.892
 5998.00    0.61519   0.68863   16.255
 5999.00    0.61089   0.68804   16.370
 6000.00    0.61842   0.68732   16.170
 6001.00    0.63542   0.68647   15.738
 6002.00    0.65543   0.68560   15.257
 6003.00    0.67206   0.68469   14.880
 6004.00    0.68267   0.68383   14.648
 6005.00    0.68831   0.68301   14.528
 6006.00    0.69106   0.68230   14.471
 6007.00    0.69168   0.68168   14.457
 6008.00    0.68979   0.68119   14.497
 6009.00    0.68582   0.68081   14.581
 6010.00    0.68270   0.68053   14.648
 6011.00    0.68542   0.68034   14.590
 6012.00    0.69632   0.68018   14.361
 6013.00    0.71146   0.68008   14.056
 6014.00    0.72131   0.67995   13.864
 6015.00    0.71775   0.67985   13.932
 6016.00    0.69935   0.67971   14.299
 6017.00    0.67125   0.67963   14.898
 6018.00    0.64168   0.67955   15.584
 6019.00    0.61947   0.67961   16.143
 6020.00    0.61324   0.67976   16.307
 6021.00    0.62708   0.68011   15.947
 6022.00    0.65738   0.68064   15.212
 6023.00    0.69360   0.68143   14.417
 6024.00    0.72405   0.68240   13.811
 6025.00    0.73986   0.68362   13.516
 6026.00    0.73569   0.68496   13.593
 6027.00    0.71267   0.68648   14.032
 6028.00    0.68039   0.68799   14.698
 6029.00    0.65503   0.68959   15.267
 6030.00    0.64751   0.69103   15.444
 6031.00    0.65583   0.69247   15.248
 6032.00    0.66689   0.69366   14.995
 6033.00    0.66944   0.69475   14.938
 6034.00    0.66204   0.69559   15.105
 6035.00    0.65179   0.69628   15.342
 6036.00    0.64479   0.69678   15.509
 6037.00    0.64056   0.69714   15.611
 6038.00    0.63321   0.69742   15.793
 6039.00    0.61955   0.69760   16.141
 6040.00    0.60378   0.69783   16.562
 6041.00    0.59586   0.69800   16.782
 6042.00    0.60209   0.69829   16.609
 6043.00    0.61990   0.69855   16.132
 6044.00    0.63958   0.69893   15.635
 6045.00    0.65419   0.69923   15.286
 6046.00    0.66484   0.69957   15.041
 6047.00    0.67896   0.69978   14.728
 6048.00    0.70078   0.69991   14.270
 6049.00    0.72638   0.69984   13.767
 6050.00    0.74542   0.69962   13.415
 6051.00    0.74996   0.69919   13.334
 6052.00    0.73888   0.69862   13.534
 6053.00    0.71692   0.69788   13.949
 6054.00    0.68978   0.69708   14.497
 6055.00    0.66169   0.69618   15.113
 6056.00    0.63560   0.69533   15.733
 6057.00    0.61401   0.69442   16.286
 6058.00    0.59939   0.69364   16.684
 6059.00    0.59393   0.69285   16.837
 6060.00    0.59843   0.69222   16.710
 6061.00    0.61180   0.69163   16.345
 6062.00    0.63130   0.69124   15.840
 6063.00    0.65358   0.69098   15.300
 6064.00    0.67512   0.69098   14.812
 6065.00    0.69239   0.69118   14.443
 6066.00    0.70234   0.69170   14.238
 6067.00    0.70260   0.69243   14.233
 6068.00    0.69232   0.69341   14.444
 6069.00    0.67530   0.69448   14.808
 6070.00    0.66120   0.69564   15.124
 6071.00    0.66242   0.69664   15.096
 6072.00    0.68273   0.69749   14.647
 6073.00    0.71281   0.69798   14.029
 6074.00    0.73492   0.69814   13.607
 6075.00    0.73913   0.69785   13.529
 6076.00    0.72949   0.69719   13.708
 6077.00    0.71934   0.69617   13.902
 6078.00    0.71526   0.69488   13.981
 6079.00    0.71133   0.69344   14.058
 6080.00    0.69406   0.69190   14.408
 6081.00    0.65863   0.69045   15.183
 6082.00    0.61460   0.68904   16.271
 6083.00    0.58082   0.68791   17.217
 6084.00    0.56977   0.68688   17.551
 6085.00    0.58215   0.68619   17.178
 6086.00    0.60960   0.68560   16.404
 6087.00    0.64289   0.68532   15.555
 6088.00    0.67463   0.68510   14.823
 6089.00    0.69956   0.68513   14.295
 6090.00    0.71553   0.68519   13.976
 6091.00    0.72368   0.68542   13.818
 6092.00    0.72715   0.68563   13.752
 6093.00    0.72739   0.68593   13.748
 6094.00    0.72305   0.68614   13.830
 6095.00    0.71161   0.68631   14.053
 6096.00    0.69380   0.68630   14.413
 6097.00    0.67486   0.68613   14.818
 6098.00    0.66222   0.68574   15.101
 6099.00    0.65955   0.68519   15.162
 6100.00    0.66507   0.68447   15.036
 6101.00    0.67348   0.68372   14.848
 6102.00    0.68072   0.68298   14.690
 6103.00    0.68526   0.68242   14.593
 6104.00    0.68719   0.68206   14.552
 6105.00    0.68597   0.68204   14.578
 6106.00    0.67991   0.68230   14.708
 6107.00    0.66804   0.68288   14.969
 6108.00    0.65458   0.68367   15.277
 6109.00    0.64986   0.68460   15.388
 6110.00    0.66472   0.68557   15.044
 6111.00    0.69781   0.68644   14.331
 6112.00    0.73267   0.68714   13.649
 6113.00    0.74674   0.68752   13.392
 6114.00    0.73083   0.68762   13.683
 6115.00    0.69346   0.68727   14.421
 6116.00    0.65368   0.68663   15.298
 6117.00    0.62588   0.68557   15.978
 6118.00    0.61635   0.68433   16.225
 6119.00    0.62466   0.68283   16.009
 6120.00    0.64624   0.68138   15.474
 6121.00    0.67305   0.67992   14.858
 6122.00    0.69607   0.67874   14.366
 6123.00    0.71017   0.67780   14.081
 6124.00    0.71510   0.67723   13.984
 6125.00    0.71370   0.67698   14.012
 6126.00    0.70865   0.67700   14.111
 6127.00    0.70184   0.67722   14.248
 6128.00    0.69464   0.67747   14.396
 6129.00    0.68844   0.67767   14.526
 6130.00    0.68474   0.67761   14.604
 6131.00    0.68428   0.67729   14.614
 6132.00    0.68554   0.67658   14.587
 6133.00    0.68452   0.67559   14.609
 6134.00    0.67714   0.67429   14.768
 6135.00    0.66322   0.67294   15.078
 6136.00    0.64711   0.67157   15.453
 6137.00    0.63488   0.67049   15.751
 6138.00    0.62974   0.66972   15.880
 6139.00    0.63134   0.66946   15.839
 6140.00    0.63739   0.66968   15.689
 6141.00    0.64619   0.67035   15.475
 6142.00    0.65700   0.67144   15.221
 6143.00    0.66948   0.67267   14.937
 6144.00    0.68261   0.67408   14.650
 6145.00    0.69459   0.67527   14.397
 6146.00    0.70280   0.67637   14.229
 6147.00    0.70366   0.67701   14.211
 6148.00    0.69285   0.67740   14.433
 6149.00    0.66799   0.67727   14.970
 6150.00    0.63254   0.67683   15.809
 6151.00    0.59621   0.67591   16.772
 6152.00    0.57087   0.67464   17.517
 6153.00    0.56499   0.67294   17.699
 6154.00    0.58278   0.67081   17.159
 6155.00    0.62215   0.66830   16.073
 6156.00    0.67201   0.66528   14.881
 6157.00    0.71252   0.66198   14.035
 6158.00    0.72539   0.65825   13.786
 6159.00    0.70712   0.65443   14.142
 6160.00    0.66998   0.65049   14.926
 6161.00    0.63233   0.64677   15.815
 6162.00    0.60631   0.64333   16.493
 6163.00    0.59650   0.64043   16.764
 6164.00    0.60139   0.63812   16.628
 6165.00    0.61512   0.63654   16.257
 6166.00    0.62813   0.63564   15.920
 6167.00    0.63249   0.63545   15.810
 6168.00    0.62819   0.63581   15.919
 6169.00    0.62324   0.63674   16.045
 6170.00    0.62636   0.63800   15.965
 6171.00    0.63871   0.63964   15.657
 6172.00    0.65346   0.64140   15.303
 6173.00    0.66171   0.64336   15.112
 6174.00    0.65900   0.64530   15.175
 6175.00    0.64580   0.64729   15.485
 6176.00    0.62625   0.64917   15.968
 6177.00    0.60677   0.65092   16.481
 6178.00    0.59555   0.65248   16.791
 6179.00    0.59839   0.65376   16.711
 6180.00    0.61446   0.65476   16.274
 6181.00    0.63637   0.65533   15.714
 6182.00    0.65548   0.65556   15.256
 6183.00    0.66708   0.65530   14.991
 6184.00    0.67071   0.65467   14.910
 6185.00    0.66849   0.65361   14.959
 6186.00    0.66348   0.65228   15.072
 6187.00    0.65936   0.65071   15.166
 6188.00    0.65816   0.64908   15.194
 6189.00    0.65821   0.64749   15.193
 6190.00    0.65449   0.64611   15.279
 6191.00    0.64372   0.64501   15.535
 6192.00    0.62880   0.64433   15.903
 6193.00    0.61837   0.64401   16.172
 6194.00    0.61899   0.64418   16.155
 6195.00    0.62857   0.64462   15.909
 6196.00    0.63708   0.64544   15.697
 6197.00    0.63742   0.64638   15.688
 6198.00    0.63448   0.64752   15.761
 6199.00    0.64375   0.64864   15.534
 6200.00    0.67497   0.64980   14.815
 6201.00    0.71904   0.65087   13.907
 6202.00    0.74997   0.65186   13.334
 6203.00    0.74738   0.65269   13.380
 6204.00    0.71401   0.65333   14.005
 6205.00    0.67393   0.65374   14.838
 6206.00    0.65112   0.65381   15.358
 6207.00    0.65331   0.65357   15.307
 6208.00    0.67258   0.65287   14.868
 6209.00    0.69621   0.65184   14.363
 6210.00    0.71473   0.65032   13.991
 6211.00    0.72222   0.64854   13.846
 6212.00    0.71582   0.64643   13.970
 6213.00    0.69543   0.64424   14.380
 6214.00    0.66371   0.64197   15.067
 6215.00    0.62652   0.63982   15.961
 6216.00    0.59323   0.63786   16.857
 6217.00    0.57550   0.63617   17.376
 6218.00    0.57958   0.63482   17.254
 6219.00    0.60122   0.63375   16.633
 6220.00    0.62740   0.63302   15.939
 6221.00    0.64784   0.63247   15.436
 6222.00    0.66244   0.63213   15.096
 6223.00    0.67959   0.63184   14.715
 6224.00    0.70473   0.63159   14.190
 6225.00    0.73341   0.63128   13.635
 6226.00    0.75290   0.63092   13.282
 6227.00    0.75380   0.63050   13.266
 6228.00    0.73672   0.63002   13.574
 6229.00    0.71105   0.62960   14.064
 6230.00    0.68653   0.62916   14.566
 6231.00    0.66842   0.62892   14.961
 6232.00    0.65777   0.62872   15.203
 6233.00    0.65363   0.62873   15.299
 6234.00    0.65430   0.62874   15.284
 6235.00    0.65762   0.62885   15.206
 6236.00    0.66234   0.62888   15.098
 6237.00    0.66880   0.62884   14.952
 6238.00    0.67833   0.62865   14.742
 6239.00    0.68994   0.62832   14.494
 6240.00    0.69872   0.62788   14.312
 6241.00    0.69732   0.62735   14.341
 6242.00    0.68353   0.62681   14.630
 6243.00    0.66387   0.62632   15.063
 6244.00    0.65117   0.62595   15.357
 6245.00    0.65286   0.62567   15.317
 6246.00    0.66534   0.62557   15.030
 6247.00    0.67683   0.62548   14.775
 6248.00    0.67983   0.62551   14.710
 6249.00    0.67696   0.62537   14.772
 6250.00    0.67815   0.62528   14.746
 6251.00    0.68823   0.62489   14.530
 6252.00    0.70150   0.62453   14.255
 6253.00    0.70446   0.62392   14.195
 6254.00    0.68723   0.62340   14.551
 6255.00    0.64858   0.62286   15.418
 6256.00    0.59544   0.62254   16.794
 6257.00    0.54107   0.62247   18.482
 6258.00    0.50407   0.62271   18.956
 6259.00    0.50494   0.62339   18.956
 6260.00    0.55290   0.62437   18.086
 6261.00    0.64069   0.62577   15.608
 6262.00    0.74746   0.62735   -2.000
 6263.00    0.84955   0.62916   -2.000
 6264.00    0.92469   0.63100   -2.000
 6265.00    0.95434   0.63282   -2.000
 6266.00    0.93159   0.63455   -2.000
 6267.00    0.86405   0.63608   -2.000
 6268.00    0.77100   0.63748   -2.000
 6269.00    0.67388   0.63860   -2.000
 6270.00    0.59273   0.63961   -2.000
 6271.00    0.54429   0.64034   -2.000
 6272.00    0.53570   0.64098   -2.000
 6273.00    0.56240   0.64136   -2.000
 6274.00    0.61037   0.64170   16.384
 6275.00    0.66300   0.64183   15.083
 6276.00    0.70349   0.64192   14.215
 6277.00    0.71805   0.64192   13.927
 6278.00    0.70538   0.64190   14.177
 6279.00    0.67958   0.64193   14.715
 6280.00    0.66311   0.64203    0.000
 6281.00    0.66653   0.64230    0.000
 6282.00    0.68229   0.64268    0.000
 6283.00    0.69156   0.64327    0.000
 6284.00    0.68323   0.64394    0.000
 6285.00    0.65956   0.64476    0.000
 6286.00    0.63225   0.64557    0.000
 6287.00    0.61186   0.64636    0.000
 6288.00    0.60475   0.64702    0.000
 6289.00    0.61352   0.64744    0.000
 6290.00    0.63827   0.64764    0.000
 6291.00    0.67692   0.64752    0.000
 6292.00    0.72437   0.64715    0.000
 6293.00    0.77043   0.64651    0.000
 6294.00    0.79936   0.64566    0.000
 6295.00    0.79622   0.64469    0.000
 6296.00    0.76190   0.64366    0.000
 6297.00    0.71685   0.64270    0.000
 6298.00    0.69041   0.64183    0.000
 6299.00    0.69633   0.64120    0.000
 6300.00    0.72679   0.64081    0.000
 6301.00    0.76032   0.64072    0.000
 6302.00    0.77932   0.64093    0.000
 6303.00    0.77430   0.64141    0.000
 6304.00    0.74373   0.64214    0.000
 6305.00    0.69380   0.64298    0.000
 6306.00    0.63819   0.64398    0.000
 6307.00    0.59344   0.64486    0.000
 6308.00    0.56930   0.64574    0.000
 6309.00    0.56665   0.64632    0.000
 6310.00    0.57982   0.64676    0.000
 6311.00    0.60113   0.64683    0.000
 6312.00    0.62202   0.64676    0.000
 6313.00    0.63518   0.64636    0.000
 6314.00    0.63871   0.64593    0.000
 6315.00    0.63695   0.64537    0.000
 6316.00    0.63714   0.64492    0.000
 6317.00    0.64332   0.64455    0.000
 6318.00    0.65522   0.64442    0.000
 6319.00    0.66991   0.64455    0.000
 6320.00    0.68494   0.64493    0.000
 6321.00    0.69896   0.64564   14.307
 6322.00    0.71181   0.64650   14.049
 6323.00    0.72483   0.64763   13.796
 6324.00    0.74074   0.64878   13.500
 6325.00    0.76089   0.65000   13.143
 6326.00    0.78049   0.65113   12.813
 6327.00    0.78812   0.65214   12.688
 6328.00    0.77225   0.65295   12.949
 6329.00    0.73188   0.65351   13.663
 6330.00    0.67801   0.65379   14.749
 6331.00    0.62654   0.65383   15.961
 6332.00    0.58712   0.65364   17.032
 6333.00    0.56148   0.65332   17.810
 6334.00    0.54702   0.65276   18.281
 6335.00    0.54219   0.65225   18.444
 6336.00    0.54725   0.65161   18.273
 6337.00    0.56276   0.65105   17.769
 6338.00    0.58735   0.65052   17.026
 6339.00    0.61741   0.65001   16.197
 6340.00    0.64813   0.64971   15.429
 6341.00    0.67475   0.64931   14.820
 6342.00    0.69295   0.64922   14.431
 6343.00    0.70054   0.64892   14.275
 6344.00    0.69993   0.64903   14.287
 6345.00    0.69810   0.64886   14.325
 6346.00    0.70149   0.64903   14.255
 6347.00    0.70930   0.64900   14.098
 6348.00    0.71299   0.64915   14.025
 6349.00    0.70386   0.64911   14.207
 6350.00    0.68260   0.64903   14.650
 6351.00    0.65997   0.64881   15.152
 6352.00    0.64870   0.64834   15.415
 6353.00    0.65340   0.64764   15.304
 6354.00    0.66972   0.64662   14.932
 6355.00    0.68949   0.64544   14.504
 6356.00    0.70681   0.64402   14.148
 6357.00    0.71875   0.64251   13.913
 6358.00    0.72464   0.64100   13.800
 6359.00    0.72520   0.63961   13.789
 6360.00    0.72240   0.63849   13.843
 6361.00    0.71844   0.63765   13.919
 6362.00    0.71460   0.63727   13.994
 6363.00    0.71114   0.63729   14.062
 6364.00    0.70750   0.63781   14.134
 6365.00    0.70261   0.63866   14.233
 6366.00    0.69492   0.63995   14.390
 6367.00    0.68341   0.64149   14.633
 6368.00    0.66856   0.64329   14.957
 6369.00    0.65242   0.64513   15.327
 6370.00    0.63772   0.64699   15.681
 6371.00    0.62699   0.64877   15.949
 6372.00    0.62242   0.65037   16.066
 6373.00    0.62453   0.65176   16.012
 6374.00    0.63098   0.65285   15.848
 6375.00    0.63678   0.65374   15.704
 6376.00    0.63792   0.65427   15.676
 6377.00    0.63477   0.65466   15.754
 6378.00    0.63194   0.65473   15.824
 6379.00    0.63356   0.65471   15.784
 6380.00    0.63911   0.65449   15.647
 6381.00    0.64359   0.65427   15.538
 6382.00    0.64235   0.65396   15.568
 6383.00    0.63532   0.65368   15.740
 6384.00    0.62695   0.65339   15.950
 6385.00    0.62212   0.65310   16.074
 6386.00    0.62272   0.65283   16.059
 6387.00    0.62762   0.65249   15.933
 6388.00    0.63436   0.65207   15.764
 6389.00    0.64055   0.65165   15.612
 6390.00    0.64406   0.65119   15.526
 6391.00    0.64408   0.65073   15.526
 6392.00    0.64186   0.65027   15.580
 6393.00    0.64046   0.64983   15.614
 6394.00    0.64240   0.64945   15.567
 6395.00    0.64772   0.64905   15.439
 6396.00    0.65421   0.64897   15.286
 6397.00    0.65933   0.64889   15.167
 6398.00    0.66166   0.64913   15.113
 6399.00    0.66093   0.64943   15.130
 6400.00    0.65731   0.64990   15.213
 6401.00    0.65103   0.65046   15.360
 6402.00    0.64248   0.65104   15.565
 6403.00    0.63365   0.65167   15.782
 6404.00    0.62910   0.65224   15.896
 6405.00    0.63519   0.65279   15.743
 6406.00    0.65463   0.65311   15.276
 6407.00    0.68292   0.65340   14.643
 6408.00    0.70928   0.65343   14.099
 6409.00    0.72402   0.65340   13.812
 6410.00    0.72335   0.65320   13.825
 6411.00    0.70915   0.65295   14.101
 6412.00    0.68663   0.65259   14.564
 6413.00    0.66283   0.65224   15.087
 6414.00    0.64588   0.65186   15.483
 6415.00    0.64144   0.65148   15.590
 6416.00    0.65050   0.65117   15.373
 6417.00    0.66962   0.65092   14.934
 6418.00    0.69314   0.65085   14.427
 6419.00    0.71440   0.65084   13.998
 6420.00    0.72647   0.65106   13.765
 6421.00    0.72569   0.65131   13.780
 6422.00    0.71364   0.65176   14.013
 6423.00    0.69637   0.65222   14.360
 6424.00    0.67983   0.65276   14.710
 6425.00    0.66737   0.65322   14.984
 6426.00    0.66008   0.65359   15.150
 6427.00    0.65897   0.65389   15.175
 6428.00    0.66609   0.65398   15.013
 6429.00    0.68370   0.65411   14.626
 6430.00    0.71018   0.65398   14.081
 6431.00    0.73800   0.65393   13.550
 6432.00    0.75558   0.65372   13.235
 6433.00    0.75639   0.65361   13.221
 6434.00    0.74332   0.65347   13.453
 6435.00    0.72668   0.65352   13.761
 6436.00    0.71455   0.65364   13.995
 6437.00    0.70823   0.65401   14.120
 6438.00    0.70348   0.65449   14.215
 6439.00    0.69655   0.65507   14.357
 6440.00    0.68687   0.65569   14.559
 6441.00    0.67672   0.65629   14.777
 6442.00    0.66912   0.65683   14.945
 6443.00    0.66704   0.65715   14.992
 6444.00    0.67281   0.65725   14.863
 6445.00    0.68603   0.65697   14.577
 6446.00    0.70268   0.65651   14.231
 6447.00    0.71630   0.65565   13.961
 6448.00    0.72268   0.65485   13.837
 6449.00    0.72167   0.65378   13.857
 6450.00    0.71657   0.65281   13.955
 6451.00    0.71149   0.65181   14.055
 6452.00    0.71024   0.65102   14.080
 6453.00    0.71530   0.65044   13.980
 6454.00    0.72384   0.65018   13.815
 6455.00    0.72628   0.65017   13.769
 6456.00    0.71048   0.65032   14.075
 6457.00    0.67593   0.65055   14.794
 6458.00    0.63892   0.65087   15.651
 6459.00    0.62528   0.65116   15.993
 6460.00    0.64600   0.65148   15.480
 6461.00    0.68877   0.65193   14.519
 6462.00    0.72598   0.65226   13.774
 6463.00    0.74056   0.65271   13.503
 6464.00    0.73478   0.65299   13.610
 6465.00    0.72456   0.65348   13.801
 6466.00    0.72188   0.65376   13.853
 6467.00    0.72891   0.65417   13.719
 6468.00    0.74014   0.65444   13.511
 6469.00    0.74867   0.65467   13.357
 6470.00    0.74831   0.65487   13.363
 6471.00    0.73506   0.65483   13.604
 6472.00    0.71150   0.65477   14.055
 6473.00    0.68798   0.65444   14.535
 6474.00    0.67799   0.65416   14.750
 6475.00    0.68536   0.65357   14.591
 6476.00    0.70064   0.65296   14.273
 6477.00    0.70704   0.65215   14.143
 6478.00    0.69654   0.65127   14.357
 6479.00    0.67429   0.65026   14.830
 6480.00    0.65353   0.64925   15.302
 6481.00    0.64225   0.64822   15.570
 6482.00    0.63967   0.64715   15.633
 6483.00    0.63978   0.64603   15.630
 6484.00    0.64016   0.64483   15.621
 6485.00    0.64429   0.64351   15.521
 6486.00    0.65790   0.64199   15.200
 6487.00    0.68038   0.64021   14.698
 6488.00    0.70263   0.63814   14.232
 6489.00    0.71174   0.63573   14.050
 6490.00    0.70150   0.63301   14.255
 6491.00    0.67490   0.62992   14.817
 6492.00    0.64113   0.62682   15.597
 6493.00    0.60886   0.62384   16.424
 6494.00    0.58461   0.62104   17.106
 6495.00    0.57244   0.61889   17.469
 6496.00    0.57340   0.61713   17.440
 6497.00    0.58535   0.61639   17.084
 6498.00    0.60396   0.61630   16.557
 6499.00    0.62464   0.61720   16.009
 6500.00    0.64307   0.61876   15.551
 6501.00    0.65575   0.62099   15.250
 6502.00    0.66126   0.62371   15.123
 6503.00    0.66050   0.62663   15.140
 6504.00    0.65653   0.62971   15.232
 6505.00    0.65427   0.63254   15.284
 6506.00    0.66028   0.63524   15.145
 6507.00    0.67918   0.63753   14.724
 6508.00    0.70694   0.63946   14.146
 6509.00    0.72988   0.64087   13.701
 6510.00    0.73268   0.64187   13.649
 6511.00    0.71276   0.64243   14.030
 6512.00    0.68256   0.64263   14.651
 6513.00    0.66023   0.64253   15.146
 6514.00    0.65347   0.64232   15.303
 6515.00    0.65689   0.64195   15.223
 6516.00    0.65902   0.64161   15.174
 6517.00    0.65400   0.64136   15.291
 6518.00    0.64340   0.64117   15.542
 6519.00    0.63184   0.64112   15.827
 6520.00    0.61991   0.64114   16.131
 6521.00    0.60320   0.64133   16.578
 6522.00    0.57754   0.64159   17.315
 6523.00    0.54697   0.64186   18.282
 6524.00    0.52467   0.64211   18.956
 6525.00    0.52433   0.64241   18.956
 6526.00    0.54723   0.64264   18.274
 6527.00    0.58077   0.64280   17.219
 6528.00    0.60856   0.64282    0.000
 6529.00    0.62511   0.64281    0.000
 6530.00    0.63750   0.64269    0.000
 6531.00    0.65665   0.64262    0.000
 6532.00    0.68522   0.64248    0.000
 6533.00    0.71618   0.64233    0.000
 6534.00    0.73963   0.64205    0.000
 6535.00    0.75194   0.64176    0.000
 6536.00    0.75664   0.64137    0.000
 6537.00    0.75897   0.64085    0.000
 6538.00    0.75861   0.64007    0.000
 6539.00    0.74923   0.63905    0.000
 6540.00    0.72520   0.63770    0.000
 6541.00    0.69018   0.63607    0.000
 6542.00    0.65751   0.63409    0.000
 6543.00    0.64159   0.63171    0.000
 6544.00    0.64713   0.62916    0.000
 6545.00    0.66832   0.62638    0.000
 6546.00    0.69456   0.62332    0.000
 6547.00    0.71720   0.62000    0.000
 6548.00    0.73044   0.61640    0.000
 6549.00    0.73188   0.61257    0.000
 6550.00    0.72330   0.60841    0.000
 6551.00    0.71073   0.60383    0.000
 6552.00    0.70434   0.59880    0.000
 6553.00    0.71830   0.59328    0.000
 6554.00    0.77008   0.58729    0.000
 6555.00    0.87175   0.58074    0.000
 6556.00    1.02060   0.57369    0.000
 6557.00    1.19906   0.56625    0.000
 6558.00    1.38373   0.55858    0.000
 6559.00    1.55466   0.55055    0.000
 6560.00    1.69621   0.54313    0.000
 6561.00    1.79649   0.53746    0.000
 6562.00    1.84683   0.53300    0.000
 6563.00    1.84178   0.53003    0.000
 6564.00    1.78085   0.52877    0.000
 6565.00    1.67013   0.52935    0.000
 6566.00    1.52209   0.53159    0.000
 6567.00    1.35280   0.53550    0.000
 6568.00    1.17928   0.54074    0.000
 6569.00    1.01892   0.54677    0.000
 6570.00    0.88620   0.55344    0.000
 6571.00    0.78970   0.56033    0.000
 6572.00    0.73194   0.56717    0.000
 6573.00    0.70972   0.57388    0.000
 6574.00    0.71449   0.58023    0.000
 6575.00    0.73302   0.58615    0.000
 6576.00    0.75348   0.59132    0.000
 6577.00    0.77050   0.59606    0.000
 6578.00    0.78503   0.60018    0.000
 6579.00    0.80022   0.60397    0.000
 6580.00    0.81804   0.60743    0.000
 6581.00    0.83896   0.61043    0.000
 6582.00    0.86132   0.61322    0.000
 6583.00    0.88086   0.61541    0.000
 6584.00    0.89114   0.61755    0.000
 6585.00    0.88701   0.61918    0.000
 6586.00    0.86729   0.62060    0.000
 6587.00    0.83466   0.62160    0.000
 6588.00    0.79379   0.62224    0.000
 6589.00    0.74990   0.62253    0.000
 6590.00    0.70849   0.62241    0.000
 6591.00    0.67330   0.62243    0.000
 6592.00    0.64496   0.62233    0.000
 6593.00    0.62145   0.62229    0.000
 6594.00    0.60145   0.62220    0.000
 6595.00    0.58678   0.62222    0.000
 6596.00    0.58168   0.62238    0.000
 6597.00    0.58764   0.62277    0.000
 6598.00    0.59996   0.62333    0.000
 6599.00    0.60893   0.62393    0.000
 6600.00    0.60840   0.62458    0.000
 6601.00    0.60117   0.62517    0.000
 6602.00    0.59749   0.62567    0.000
 6603.00    0.60438   0.62612    0.000
 6604.00    0.61893   0.62645    0.000
 6605.00    0.63013   0.62675    0.000
 6606.00    0.63056   0.62679    0.000
 6607.00    0.62340   0.62697    0.000
 6608.00    0.62067   0.62717    0.000
 6609.00    0.63133   0.62740   15.839
 6610.00    0.65455   0.62774   15.278
 6611.00    0.68111   0.62809   14.682
 6612.00    0.70276   0.62876   14.230
 6613.00    0.71737   0.62931   13.940
 6614.00    0.72788   0.63009   13.739
 6615.00    0.73595   0.63069   13.588
 6616.00    0.73848   0.63141   13.541
 6617.00    0.72909   0.63194   13.716
 6618.00    0.70582   0.63235   14.168
 6619.00    0.67518   0.63253   14.811
 6620.00    0.64995   0.63247   15.386
 6621.00    0.63857   0.63224   15.660
 6622.00    0.63967   0.63167   15.633
 6623.00    0.64431   0.63112   15.521
 6624.00    0.64649   0.63030   15.468
 6625.00    0.64831   0.62953   15.425
 6626.00    0.65776   0.62861   15.203
 6627.00    0.67857   0.62770   14.737
 6628.00    0.70536   0.62681   14.177
 6629.00    0.72590   0.62593   13.776
 6630.00    0.73076   0.62515   13.684
 6631.00    0.71775   0.62438   13.933
 6632.00    0.69115   0.62392   14.469
 6633.00    0.65856   0.62346   15.185
 6634.00    0.62939   0.62327   15.888
 6635.00    0.61342   0.62309   16.302
 6636.00    0.61519   0.62308   16.255
 6637.00    0.63160   0.62309   15.833
 6638.00    0.65342   0.62319   15.304
 6639.00    0.67111   0.62335   14.901
 6640.00    0.67719   0.62332   14.767
 6641.00    0.66747   0.62343   14.982
 6642.00    0.64541   0.62347   15.494
 6643.00    0.62374   0.62358   16.032
 6644.00    0.62016   0.62355   16.125
 6645.00    0.64196   0.62356   15.577
 6646.00    0.68033   0.62348   14.699
 6647.00    0.71525   0.62335   13.981
 6648.00    0.73234   0.62315   13.655
 6649.00    0.72899   0.62289   13.718
 6650.00    0.71210   0.62266   14.043
 6651.00    0.69044   0.62230   14.484
 6652.00    0.67188   0.62201   14.884
 6653.00    0.66240   0.62155   15.097
 6654.00    0.66294   0.62112   15.084
 6655.00    0.66833   0.62060   14.963
 6656.00    0.66993   0.62006   14.927
 6657.00    0.66336   0.61941   15.075
 6658.00    0.65102   0.61873   15.360
 6659.00    0.63985   0.61808   15.629
 6660.00    0.63454   0.61729   15.759
 6661.00    0.63541   0.61673   15.738
 6662.00    0.63993   0.61620   15.627
 6663.00    0.64686   0.61581   15.459
 6664.00    0.65750   0.61557   15.209
 6665.00    0.67454   0.61543   14.825
 6666.00    0.69870   0.61555   14.312
 6667.00    0.72778   0.61568   13.740
 6668.00    0.75651   0.61602   13.219
 6669.00    0.77611   0.61625   12.885
 6670.00    0.77430   0.61655   12.915
 6671.00    0.74067   0.61666   13.501
 6672.00    0.68023   0.61668   14.701
 6673.00    0.61688   0.61655   16.211
 6674.00    0.58142   0.61600   17.199
 6675.00    0.58259   0.61535   17.165
 6676.00    0.59982   0.61458   16.672
 6677.00    0.59953   0.61387   16.680
 6678.00    0.57357   0.61305   17.435
 6679.00    0.54846   0.61242   18.233
 6680.00    0.56476   0.61180   17.706
 6681.00    0.63024   0.61144   15.867
 6682.00    0.70913   0.61119   14.102
 6683.00    0.74626   0.61117   13.400
 6684.00    0.71976   0.61129   13.894
 6685.00    0.65281   0.61147   15.318
 6686.00    0.59277   0.61182   16.870
 6687.00    0.56684   0.61217   17.642
 6688.00    0.57244   0.61263   17.469
 6689.00    0.58888   0.61287   16.981
 6690.00    0.60114   0.61313   16.635
 6691.00    0.60491   0.61320   16.531
 6692.00    0.60373   0.61320   16.564
 6693.00    0.60320   0.61305   16.578
 6694.00    0.60967   0.61290   16.402
 6695.00    0.62756   0.61271   15.935
 6696.00    0.65426   0.61252    0.000
 6697.00    0.67929   0.61246    0.000
 6698.00    0.69015   0.61234    0.000
 6699.00    0.68291   0.61231    0.000
 6700.00    0.66411   0.61225    0.000
 6701.00    0.64557   0.61220    0.000
 6702.00    0.63520   0.61220    0.000
 6703.00    0.63538   0.61216    0.000
 6704.00    0.64406   0.61215    0.000
 6705.00    0.65669   0.61200    0.000
 6706.00    0.66674   0.61189    0.000
 6707.00    0.66915   0.61147    0.000
 6708.00    0.66608   0.61106    0.000
 6709.00    0.66761   0.61037    0.000
 6710.00    0.68593   0.60950    0.000
 6711.00    0.72603   0.60853    0.000
 6712.00    0.78430   0.60729    0.000
 6713.00    0.85128   0.60610    0.000
 6714.00    0.91590   0.60469    0.000
 6715.00    0.96633   0.60347    0.000
 6716.00    0.99378   0.60231    0.000
 6717.00    0.99811   0.60133    0.000
 6718.00    0.98829   0.60059    0.000
 6719.00    0.97505   0.60000    0.000
 6720.00    0.96018   0.59981    0.000
 6721.00    0.93558   0.59969    0.000
 6722.00    0.89273   0.59993    0.000
 6723.00    0.83600   0.60024    0.000
 6724.00    0.78378   0.60078    0.000
 6725.00    0.75645   0.60141    0.000
 6726.00    0.76036   0.60207    0.000
 6727.00    0.78626   0.60292    0.000
 6728.00    0.81863   0.60353    0.000
 6729.00    0.84797   0.60418    0.000
 6730.00    0.87204   0.60455    0.000
 6731.00    0.89177   0.60499    0.000
 6732.00    0.90609   0.60518    0.000
 6733.00    0.91151   0.60534    0.000
 6734.00    0.90436   0.60530    0.000
 6735.00    0.88372   0.60514    0.000
 6736.00    0.85156   0.60492    0.000
 6737.00    0.81168   0.60448    0.000
 6738.00    0.76827   0.60412    0.000
 6739.00    0.72584   0.60352    0.000
 6740.00    0.68883   0.60297    0.000
 6741.00    0.66128   0.60233    0.000
 6742.00    0.64663   0.60172    0.000
 6743.00    0.64540   0.60112    0.000
 6744.00    0.65259   0.60053    0.000
 6745.00    0.65805   0.59994    0.000
 6746.00    0.65314   0.59938    0.000
 6747.00    0.63791   0.59888    0.000
 6748.00    0.62106   0.59859    0.000
 6749.00    0.61208   0.59838    0.000
 6750.00    0.61310   0.59828    0.000
 6751.00    0.61878   0.59841    0.000
 6752.00    0.62270   0.59863    0.000
 6753.00    0.62372   0.59919   16.033
 6754.00    0.62597   0.59976   15.975
 6755.00    0.63280   0.60051   15.803
 6756.00    0.64111   0.60135   15.598
 6757.00    0.64161   0.60221   15.586
 6758.00    0.62730   0.60313   15.941
 6759.00    0.60119   0.60388   16.634
 6760.00    0.57593   0.60469   17.363
 6761.00    0.56377   0.60515   17.738
 6762.00    0.56765   0.60565   17.617
 6763.00    0.58128   0.60589   17.203
 6764.00    0.59629   0.60593   16.770
 6765.00    0.60836   0.60592   16.438
 6766.00    0.61730   0.60580   16.200
 6767.00    0.62393   0.60572   16.028
 6768.00    0.62734   0.60558   15.940
 6769.00    0.62522   0.60561   15.994
 6770.00    0.61756   0.60561   16.193
 6771.00    0.60957   0.60584   16.405
 6772.00    0.61078   0.60612   16.372
 6773.00    0.62551   0.60648   15.987
 6774.00    0.64554   0.60683   15.491
 6775.00    0.65181   0.60713   15.342
 6776.00    0.63104   0.60743   15.847
 6777.00    0.58832   0.60753   16.997
 6778.00    0.54518   0.60752   18.343
 6779.00    0.52021   0.60712   18.956
 6780.00    0.51502   0.60662   18.956
 6781.00    0.51575   0.60585   18.956
 6782.00    0.50989   0.60500   18.956
 6783.00    0.49799   0.60402   18.956
 6784.00    0.49241   0.60306   18.956
 6785.00    0.50412   0.60219   18.956
 6786.00    0.53380   0.60132   18.734
 6787.00    0.57299   0.60069   17.452
 6788.00    0.61448   0.60009   16.274
 6789.00    0.65913   0.59973   15.172
 6790.00    0.71414   0.59944   14.003
 6791.00    0.78019   0.59939   12.817
 6792.00    0.84329   0.59948   11.858
 6793.00    0.87801   0.59967   -1.000
 6794.00    0.86887   0.60007   -1.000
 6795.00    0.82340   0.60039   12.145
 6796.00    0.76839   0.60088   13.014
 6797.00    0.72501   0.60129   13.793
 6798.00    0.69412   0.60173   14.407
 6799.00    0.65972   0.60220   15.158
 6800.00    0.61164   0.60261   16.349
 6801.00    0.55835   0.60300   17.910
 6802.00    0.52326   0.60332   18.956
 6803.00    0.52228   0.60361   18.956
 6804.00    0.55146   0.60381   18.134
 6805.00    0.59033   0.60398   16.940
 6806.00    0.62093   0.60405   16.105
 6807.00    0.63800   0.60405   15.674
 6808.00    0.64700   0.60408   15.456
 6809.00    0.65288   0.60396   15.317
 6810.00    0.65427   0.60391   15.284
 6811.00    0.64509   0.60379   15.502
 6812.00    0.62304   0.60366   16.050
 6813.00    0.59374   0.60360   16.842
 6814.00    0.56844   0.60356   17.592
 6815.00    0.55293   0.60361   18.085
 6816.00    0.54225   0.60366   18.442
 6817.00    0.52399   0.60379   18.956
 6818.00    0.49341   0.60388   18.956
 6819.00    0.46037   0.60408   18.956
 6820.00    0.44523   0.60432   18.956
 6821.00    0.46062   0.60458   18.956
 6822.00    0.50340   0.60484   18.956
 6823.00    0.55773   0.60511   17.930
 6824.00    0.60827   0.60532   16.440
 6825.00    0.64589   0.60547   15.482
 6826.00    0.66754   0.60558   14.980
 6827.00    0.67525   0.60560   14.809
 6828.00    0.67568   0.60571   14.800
 6829.00    0.67680   0.60570   14.775
 6830.00    0.67553   0.60571   14.803
 6831.00    0.65282   0.60558   15.318
 6832.00    0.58334   0.60541   17.143
 6833.00    0.47045   0.60520   18.956
 6834.00    0.35961   0.60487   -1.000
 6835.00    0.31987   0.60452   -1.000
 6836.00    0.37920   0.60401   -1.000
 6837.00    0.50038   0.60355   18.956
 6838.00    0.60327   0.60293   16.576
 6839.00    0.64005   0.60237   15.624
 6840.00    0.62231   0.60182   16.069
 6841.00    0.60271   0.60137   16.592
 6842.00    0.61483   0.60110   16.265
 6843.00    0.65235   0.60086   15.329
 6844.00    0.68166   0.60076   14.670
 6845.00    0.68191   0.60064   14.665
 6846.00    0.65838   0.60062   15.189
 6847.00    0.63374   0.60062   15.779
 6848.00    0.62179   0.60063   16.083
 6849.00    0.61891   0.60061   16.157
 6850.00    0.61110   0.60056   16.364
 6851.00    0.59429   0.60039   16.827
 6852.00    0.58059   0.60004   17.224
 6853.00    0.58974   0.59964   16.957
 6854.00    0.62539   0.59910   15.990
 6855.00    0.66808   0.59861   14.968
 6856.00    0.68674   0.59815   14.562
 6857.00    0.66953   0.59768   14.936
 6858.00    0.63265   0.59727   15.806
 6859.00    0.60829   0.59695   16.440
 6860.00    0.61348   0.59673   16.300
 6861.00    0.64153   0.59661   15.588
 6862.00    0.67110   0.59670   14.901
 6863.00    0.68897   0.59684   14.514
 6864.00    0.69611   0.59698   14.366
 6865.00    0.70171   0.59711   14.251
 6866.00    0.70903   0.59730   14.104
 6867.00    0.71176   0.59745   14.050
 6868.00    0.69976   0.59769   14.291
 6869.00    0.67237   0.59797   14.873
 6870.00    0.64152   0.59829   15.588
 6871.00    0.62526   0.59856   15.993
 6872.00    0.63309   0.59884   15.796
 6873.00    0.66252   0.59925   15.094
 6874.00    0.70230   0.59957   14.239
 6875.00    0.73939   0.60008   13.525
 6876.00    0.76067   0.60055   13.146
 6877.00    0.75516   0.60108   13.242
 6878.00    0.71856   0.60145   13.917
 6879.00    0.65436   0.60187   15.282
 6880.00    0.57412   0.60221   17.418
 6881.00    0.49817   0.60255   18.956
 6882.00    0.45525   0.60296   18.956
 6883.00    0.46992   0.60334   18.956
 6884.00    0.53774   0.60387   18.596
 6885.00    0.62106   0.60426   16.102
 6886.00    0.67101   0.60484   14.903
 6887.00    0.66913   0.60536   14.945
 6888.00    0.63484   0.60596   15.752
 6889.00    0.60538   0.60659   16.518
 6890.00    0.59938   0.60723   16.684
 6891.00    0.61034   0.60794   16.384
 6892.00    0.61926   0.60845   16.148
 6893.00    0.61674   0.60905   16.214
 6894.00    0.60675   0.60949   16.481
 6895.00    0.59973   0.60989   16.674
 6896.00    0.60083   0.61026   16.644
 6897.00    0.60808   0.61052   16.445
 6898.00    0.61634   0.61084   16.225
 6899.00    0.62374   0.61101   16.032
 6900.00    0.63261   0.61130   15.808
 6901.00    0.64535   0.61158   15.496
 6902.00    0.65783   0.61185   15.201
 6903.00    0.65879   0.61214   15.179
 6904.00    0.63810   0.61239   15.672
 6905.00    0.59957   0.61269   16.679
 6906.00    0.56225   0.61291   17.786
 6907.00    0.54825   0.61304   18.240
 6908.00    0.56475   0.61313   17.707
 6909.00    0.60186   0.61310   16.615
 6910.00    0.64244   0.61295   15.566
 6911.00    0.67624   0.61265   14.788
 6912.00    0.70156   0.61237   14.254
 6913.00    0.71987   0.61199   13.891
 6914.00    0.72841   0.61158   13.729
 6915.00    0.71960   0.61124   13.897
 6916.00    0.68824   0.61074   14.530
 6917.00    0.64116   0.61047   15.597
 6918.00    0.59765   0.61011   16.732
 6919.00    0.57666   0.60990   17.341
 6920.00    0.58037   0.60968   17.230
 6921.00    0.59305   0.60947   16.862
 6922.00    0.59591   0.60943   16.781
 6923.00    0.58555   0.60915   17.078
 6924.00    0.57515   0.60921   17.387
 6925.00    0.58057   0.60919   17.224
 6926.00    0.60346   0.60934   16.571
 6927.00    0.63027   0.60952   15.866
 6928.00    0.64409   0.60960   15.526
 6929.00    0.63858   0.60981   15.660
 6930.00    0.61892   0.60982   16.157
 6931.00    0.59495   0.61011   16.808
 6932.00    0.57352   0.61028   17.436
 6933.00    0.55775   0.61066   17.929
 6934.00    0.54815   0.61103   18.243
 6935.00    0.54384   0.61122   18.388
 6936.00    0.54279   0.61149   18.423
 6937.00    0.54368   0.61164   18.393
 6938.00    0.54779   0.61188   18.255
 6939.00    0.55888   0.61196   17.893
 6940.00    0.57971   0.61215   17.250
 6941.00    0.60856   0.61223   16.432
 6942.00    0.63921   0.61218   15.644
 6943.00    0.66432   0.61217   15.053
 6944.00    0.67879   0.61207   14.732
 6945.00    0.68012   0.61214   14.703
 6946.00    0.66936   0.61225   14.940
 6947.00    0.65191   0.61234   15.340
 6948.00    0.63709   0.61234   15.696
 6949.00    0.63230   0.61240   15.815
 6950.00    0.63778   0.61238   15.679
 6951.00    0.64683   0.61246   15.460
 6952.00    0.65201   0.61274   15.337
 6953.00    0.65059   0.61312   15.371
 6954.00    0.64466   0.61352   15.512
 6955.00    0.63821   0.61395   15.669
 6956.00    0.63462   0.61447   15.758
 6957.00    0.63620   0.61486   15.718
 6958.00    0.64167   0.61547   15.584
 6959.00    0.64404   0.61609   15.527
 6960.00    0.63177   0.61675   15.829
 6961.00    0.59907   0.61746   16.693
 6962.00    0.55417   0.61811   18.045
 6963.00    0.51785   0.61876   18.956
 6964.00    0.50775   0.61920   18.956
 6965.00    0.52629   0.61965   18.956
 6966.00    0.56147   0.61995   17.810
 6967.00    0.59886   0.62022   16.698
 6968.00    0.63047   0.62019   15.861
 6969.00    0.65474   0.62000   15.273
 6970.00    0.67286   0.61970   14.862
 6971.00    0.68603   0.61915   14.577
 6972.00    0.69493   0.61861   14.390
 6973.00    0.69720   0.61783   14.343
 6974.00    0.68567   0.61708   14.584
 6975.00    0.65058   0.61608   15.371
 6976.00    0.59519   0.61517   16.801
 6977.00    0.54624   0.61434   18.307
 6978.00    0.54593   0.61368   18.317
 6979.00    0.59755   0.61365   16.735
 6980.00    0.63009   0.61358   15.871
 6981.00    0.52038   0.61375   18.956
 6982.00    0.23877   0.61410   -1.000
 6983.00   -0.05976   0.61457   -2.000
 6984.00   -0.09208   0.61514   -2.000
 6985.00    0.19715   0.61576   -1.000
 6986.00    0.42012   0.61670   -1.000
 6987.00   -0.12439   0.61749   -2.000
 6988.00   -1.66742   0.61803   -2.000
 6989.00   -3.51154   0.61856   -2.000
 6990.00   -4.26120   0.61887   -2.000
 6991.00   -3.17073   0.61908   -2.000
 6992.00   -0.90614   0.61916   -2.000
 6993.00    0.76886   0.61907   13.006
 6994.00    0.77902   0.61892   12.837
 6995.00   -0.28740   0.61865   -2.000
 6996.00   -0.60695   0.61834   -2.000
 6997.00    0.56018   0.61803   17.851
 6998.00    1.64825   0.61761   -1.000
 6999.00   -0.43094   0.61722   -2.000
 7000.00   -6.32353   0.61682   -2.000
 7001.00  -12.21273   0.61646   -2.000
 7002.00  -11.29249   0.61619   -2.000
 7003.00   -0.88247   0.61579   -2.000
 7004.00   14.08391   0.61554   -2.000
 7005.00   23.16345   0.61530   -2.000
 7006.00   20.20566   0.61513   -2.000
 7007.00    8.00342   0.61516   -2.000
 7008.00   -3.82532   0.61516   -2.000
 7009.00   -8.45817   0.61518   -2.000
 7010.00   -6.27666   0.61503   -2.000
 7011.00   -3.25172   0.61499   -2.000
 7012.00   -3.81679   0.61507   -2.000
 7013.00   -7.71463   0.61495   -2.000
 7014.00  -11.07096   0.61486   -2.000
 7015.00  -10.95982   0.61465   -2.000
 7016.00   -7.35354   0.61468   -2.000
 7017.00   -2.47764   0.61489   -2.000
 7018.00    1.82365   0.61504   -2.000
 7019.00    5.17276   0.61532   -2.000
 7020.00    8.21111   0.61541   -2.000
 7021.00   10.86742   0.61552   -2.000
 7022.00   11.67056   0.61549   -2.000
 7023.00    8.40689   0.61581   -2.000
 7024.00    0.49276   0.61645   -2.000
 7025.00  -10.12150   0.61699   -2.000
 7026.00  -19.42892   0.61740   -2.000
 7027.00  -23.05359   0.61776   -2.000
 7028.00  -16.89840   0.61819   -2.000
 7029.00    0.87877   0.61849   -2.000
 7030.00   23.40965   0.61894   -2.000
 7031.00   32.91227   0.61948   -2.000
 7032.00    9.98935   0.62014   -2.000
 7033.00  -36.80880   0.62075   -2.000
 7034.00  -61.12696   0.62130   -2.000
 7035.00   -6.77681   0.62195   -2.000
 7036.00  106.38373   0.62260   -2.000
 7037.00  154.94044   0.62319   -2.000
 7038.00   -8.40213   0.62402   -2.000
 7039.00 -319.05020   0.62515   -2.000
 7040.00 -427.44366   0.62625   -2.000
 7041.00  102.66434   0.62727   -2.000
 7042.00 1228.52075   0.62817   -2.000
 7043.00 2259.94824   0.62895   -2.000
 7044.00 2218.38184   0.62931   -2.000
 7045.00  826.04822   0.62969   -2.000
 7046.00 **********   0.63004   -2.000
 7047.00 **********   0.62979   -2.000
 7048.00 **********   0.62906   -2.000
 7049.00 **********   0.62769   -2.000
 7050.00   55.03076   0.62589   -2.000
 7051.00 1368.20569   0.62351   -2.000
 7052.00 2065.89502   0.62080   -2.000
 7053.00 2057.96484   0.61812   -2.000
 7054.00 1477.24927   0.61507   -2.000
 7055.00  662.19971   0.61214   -2.000
 7056.00   35.73230   0.60911   -2.000
 7057.00 -182.44862   0.60611   -2.000
 7058.00  -47.69955   0.60320   -2.000
 7059.00  199.28270   0.60043   -2.000
 7060.00  339.44473   0.59827   -2.000
 7061.00  227.89351   0.59646   -2.000
 7062.00 -155.65968   0.59509   -2.000
 7063.00 -596.26971   0.59404   -2.000
 7064.00 -625.04938   0.59321   -2.000
 7065.00  217.13965   0.59243   -2.000
 7066.00 1815.24414   0.59206   -2.000
 7067.00 3364.32739   0.59200   -2.000
 7068.00 3833.04053   0.59233   -2.000
 7069.00 2921.77734   0.59293   -2.000
 7070.00 1258.87952   0.59362   -2.000
 7071.00  -81.22681   0.59440   -2.000
 7072.00 -540.71625   0.59503   -2.000
 7073.00 -272.61456   0.59582   -2.000
 7074.00  159.53358   0.59648   -2.000
 7075.00  361.62445   0.59709   -2.000
 7076.00  224.66603   0.59753   -2.000
 7077.00 -151.42039   0.59772   -2.000
 7078.00 -600.26392   0.59757   -2.000
 7079.00 -919.69727   0.59695   -2.000
 7080.00 -942.82233   0.59606   -2.000
 7081.00 -665.65173   0.59463   -2.000
 7082.00 -266.55624   0.59288   -2.000
 7083.00   14.29078   0.59079   -2.000
 7084.00   84.43583   0.58851   -2.000
 7085.00   32.20775   0.58617   -2.000
 7086.00    0.00000   0.58360   -2.000
 7087.00    0.00000   0.58090   -2.000
 7088.00    0.00000   0.57834   -2.000
 7089.00    0.00000   0.57596   -2.000
 7090.00    0.00000   0.57375   -2.000
 7091.00    0.00000   0.57217   -2.000
 7092.00    0.00000   0.57058   -2.000
 7093.00    0.00000   0.56961   -2.000
 7094.00    0.00000   0.56863   -2.000
 7095.00    0.00000   0.56814   -2.000
 7096.00    0.00000   0.56825   -2.000
 7097.00    0.00000   0.56818   -2.000
 7098.00    0.00000   0.56901   -2.000
 7099.00    0.00000   0.56930   -2.000
 7100.00    0.00000   0.57005   -2.000
 7101.00    0.00000   0.57072   -2.000
 7102.00    0.00000   0.57136   -2.000
 7103.00    0.00000   0.57235   -2.000
 7104.00    0.00000   0.57298   -2.000
 7105.00    0.00000   0.57390   -2.000
 7106.00    0.00000   0.57436   -2.000
 7107.00    0.00000   0.57489   -2.000
 7108.00    0.00000   0.57536   -2.000
 7109.00    0.00000   0.57573   -2.000
 7110.00    0.00000   0.57609   -2.000
 7111.00    0.00000   0.57647   -2.000
 7112.00    0.00000   0.57691   -2.000
 7113.00    0.00000   0.57726   -2.000
 7114.00    0.00000   0.57750   -2.000
 7115.00    0.00000   0.57779   -2.000
 7116.00    0.00000   0.57806   -2.000
 7117.00    0.00000   0.57806   -2.000
 7118.00    0.00000   0.57811   -2.000
 7119.00    0.00000   0.57792   -2.000
 7120.00    0.00000   0.57772   -2.000
 7121.00    0.00000   0.57708   -2.000
 7122.00    0.00000   0.57632   -2.000
 7123.00    0.00000   0.57546   -2.000
 7124.00    0.00000   0.57415   -2.000
 7125.00    0.00000   0.57284   -2.000
 7126.00    0.00000   0.57146   -2.000
 7127.00    0.00000   0.57027   -2.000
 7128.00    0.00000   0.56895   -2.000
 7129.00    0.00000   0.56771   -2.000
 7130.00    0.00000   0.56657   -2.000
 7131.00    0.00000   0.56580   -2.000
 7132.00    0.00000   0.56521   -2.000
 7133.00    0.00000   0.56499   -2.000
 7134.00    0.00000   0.56503   -2.000
 7135.00    0.00000   0.56502   -2.000
 7136.00    0.00000   0.56539   -2.000
 7137.00    0.00000   0.56564   -2.000
 7138.00    0.00000   0.56623   -2.000
 7139.00    0.00000   0.56679   -2.000
 7140.00    0.00000   0.56733   -2.000
 7141.00    0.00000   0.56791   -2.000
 7142.00    0.00000   0.56826   -2.000
 7143.00    0.00000   0.56875   -2.000
 7144.00    0.00000   0.56905   -2.000
 7145.00    0.00000   0.56943   -2.000
 7146.00    0.00000   0.56979   -2.000
 7147.00    0.00000   0.56993   -2.000
 7148.00    0.00000   0.57045   -2.000
 7149.00    0.00000   0.57108   -2.000
 7150.00    0.00000   0.57165   -2.000
 7151.00    0.00000   0.57232   -2.000
 7152.00    0.00000   0.57289   -2.000
 7153.00    0.00000   0.57364   -2.000
 7154.00    0.00000   0.57426   -2.000
 7155.00    0.00000   0.57492   -2.000
 7156.00    0.00000   0.57572   -2.000
 7157.00    0.00000   0.57601   -2.000
 7158.00    0.00000   0.57629   -2.000
 7159.00    0.00000   0.57639   -2.000
 7160.00    0.00000   0.57649   -2.000
 7161.00    0.00000   0.57653   -2.000
 7162.00    0.00000   0.57631   -2.000
 7163.00    0.00000   0.57609   -2.000
 7164.00    0.00000   0.57578   -2.000
 7165.00    0.00000   0.57585   -2.000
 7166.00    0.00000   0.57604   -2.000
 7167.00    0.00000   0.57627   -2.000
 7168.00    0.00000   0.57643   -2.000
 7169.00    0.00000   0.57666   -2.000
 7170.00    0.00000   0.57717   -2.000
 7171.00    0.00000   0.57768   -2.000
 7172.00    0.00000   0.57829   -2.000
 7173.00    0.00000   0.57866   -2.000
 7174.00    0.00000   0.57897   -2.000
 7175.00    0.00000   0.57917   -2.000
 7176.00    0.00000   0.57934   -2.000
 7177.00    0.00000   0.57958   -2.000
 7178.00    0.00000   0.57950   -2.000
 7179.00    0.00000   0.57912   -2.000
 7180.00    0.00000   0.57870   -2.000
 7181.00    0.00000   0.57839   -2.000
 7182.00    0.00000   0.57833   -2.000
 7183.00    0.00000   0.57822   -2.000
 7184.00    0.00000   0.57777   -2.000
 7185.00    0.00000   0.57741   -2.000
 7186.00    0.00000   0.57681   -2.000
 7187.00    0.00000   0.57663   -2.000
 7188.00    0.00000   0.57673   -2.000
 7189.00    0.00000   0.57667   -2.000
 7190.00    0.00000   0.57703   -2.000
 7191.00    0.00000   0.57681   -2.000
 7192.00    0.00000   0.57693   -2.000
 7193.00    0.00000   0.57713   -2.000
 7194.00    0.00000   0.57732   -2.000
 7195.00    0.00000   0.57796   -2.000
 7196.00    0.00000   0.57798   -2.000
 7197.00    0.00000   0.57841   -2.000
 7198.00    0.00000   0.57863   -2.000
 7199.00    0.00000   0.57857   -2.000
 7200.00    0.00000   0.57878   -2.000
 7201.00    0.00000   0.57846   -2.000
 7202.00    0.00000   0.57868   -2.000
 7203.00    0.00000   0.57881   -2.000
 7204.00    0.00000   0.57864   -2.000
 7205.00    0.00000   0.57864   -2.000
 7206.00    0.00000   0.57804   -2.000
 7207.00    0.00000   0.57814   -2.000
 7208.00    0.00000   0.57838   -2.000
 7209.00    0.00000   0.57863   -2.000
 7210.00    0.00000   0.57940   -2.000
 7211.00    0.00000   0.57950   -2.000
 7212.00    0.00000   0.57998   -2.000
 7213.00    0.00000   0.58049   -2.000
 7214.00    0.00000   0.58123   -2.000
 7215.00    0.00000   0.58241   -2.000
 7216.00    0.00000   0.58320   -2.000
 7217.00    0.00000   0.58434   -2.000
 7218.00    0.00000   0.58508   -2.000
