###################################################################
## OUTPUT of StarlightChains_v04.for    [Cid@UFSC - 01/Apr/2007] ##
###################################################################

## Some input info
2004ge.txt                               [arq_obs]
Base.CB07.vall.4m                        [arq_base]
Masks.EmLines.NEW.gm                     [arq_masks]
StCv04.C11.config                        [arq_config]
   66                                    [N_base]
    0                                    [N_YAV_components = # of components with extra extinction!]
    0                                    [i_FitPowerLaw (1/0 = Yes/No)]
-9.99                                    [alpha_PowerLaw]
CCM                                      [red_law_option]
 1.458241                                [q_norm = A(l_norm)/A(V)]

## (Re)Sampling Parameters
 3741.00                                 [l_ini (A)]
 7218.00                                 [l_fin (A)]
    1.00                                 [dl    (A)]     (OBS: dl_cushion =    50.00 A)

## Normalization info
 4020.00                                 [l_norm (A) - for base]
 4010.00                                 [llow_norm (A) - window for f_obs]
 4060.00                                 [lupp_norm (A) - window for f_obs]
1.890164E-16                             [fobs_norm (in input units)]

## S/N
 3691.00                                 [llow_SN (A) - window for S/N]
 7268.00                                 [lupp_SN (A) - window for S/N]
   6.994                                 [S/N in S/N window]
   6.265                                 [S/N in norm. window]
  30.514                                 [S/N_err in S/N window]
  27.333                                 [S/N_err in norm. window]
  1.0000                                 [fscale_chi2]

## etc...
    -2007293                             [idum_orig]
  2384                                   [NOl_eff]
  2381                                   [Nl_eff]
     3    NSIGMA                         [Ntot_cliped & clip_method]
  2101260                                [Nglobal_steps]
   7                                     [N_chains]
  30                                     [NEX0s_base = N_base in EX0s-fits]
 0   0   1        4   2.0   5.322E+01    [Clip-Bug, RC-Crash & Burn-In warning-flags, n_censored_weights, wei_nsig_threshold & wei_limit]
    20     19.713     19.222      0.492  [idt_all, wdt_TotTime, wdt_UsrTime & wdt_SysTime (sec)]

## Synthesis Results - Best model ##

 5.94029E-01                             [chi2/Nl_eff]
     1.96356                             [adev (%)]

   103.15376                             [sum-of-x (%)]
 4.11290E-16                             [Flux_tot (units of input spectrum!)]
 7.46487E-12                             [Mini_tot (???)]
 3.96558E-12                             [Mcor_tot (???)]

-254.46                                  [v0_min  (km/s)]
 150.31                                  [vd_min  (km/s)]
 0.5557                                  [AV_min  (mag)]
 0.0000                                  [YAV_min (mag)]

# j     x_j(%)      Mini_j(%)     Mcor_j(%)     age_j(yr)     Z_j      (L/M)_j    YAV?  Mstars   component_j        a/Fe...       SSP_chi2r SSP_adev(%)   SSP_AV   SSP_x(%)
  1      0.3976     1.9412E-03    3.6541E-03    1.000000E+06  0.00400  1.094E-02    0   1.0000   age020_m42            0.0000     4.0807E+00     5.9897   3.5469    85.9636
  2      0.0000     0.0000E+00    0.0000E+00    3.160000E+06  0.00400  4.007E-02    0   0.9999   age045_m42            0.0000     3.3116E+00     4.8271   2.8064    92.5198
  3      1.4309     3.0102E-03    5.3764E-03    5.010000E+06  0.00400  2.539E-02    0   0.9488   age055_m42            0.0000     3.5163E+00     5.2495   3.1273    90.1969
  4      0.0000     0.0000E+00    0.0000E+00    6.610000E+06  0.00400  2.620E-02    0   0.9220   age061_m42            0.0000     3.1144E+00     4.7151   2.7192    93.3065
  5      0.6502     2.6269E-03    4.3822E-03    1.000000E+07  0.00400  1.322E-02    0   0.8862   age070_m42            0.0000     2.8285E+00     4.7153   2.3451    99.3770
  6      0.0000     0.0000E+00    0.0000E+00    1.445000E+07  0.00400  7.883E-03    0   0.8571   age078_m42            0.0000     3.1120E+00     5.0171   2.6858    96.2454
  7      0.0000     0.0000E+00    0.0000E+00    2.512000E+07  0.00400  5.251E-03    0   0.8174   age090_m42            0.0000     2.8574E+00     4.7818   2.1980   100.7186
  8      0.3999     5.8542E-03    8.6518E-03    4.000000E+07  0.00400  3.649E-03    0   0.7851   age104_m42            0.0000     2.5924E+00     4.5116   1.9764   101.2978
  9      0.0000     0.0000E+00    0.0000E+00    5.500000E+07  0.00400  3.098E-03    0   0.7629   age110_m42            0.0000     2.5854E+00     4.3032   2.1669    99.6257
 10      0.0000     0.0000E+00    0.0000E+00    1.015200E+08  0.00400  2.228E-03    0   0.7207   age116_m42            0.0000     2.5935E+00     4.2891   2.2113    98.7375
 11      0.0000     0.0000E+00    0.0000E+00    2.861200E+08  0.00400  1.093E-03    0   0.6648   age125_m42            0.0000     2.9709E+00     4.5524   1.5936   103.9783
 12      0.0000     0.0000E+00    0.0000E+00    5.088000E+08  0.00400  6.597E-04    0   0.6365   age130_m42            0.0000     2.4814E+00     4.2161   1.6252   102.9088
 13     19.5502     4.8978E+00    5.3456E+00    1.434000E+09  0.00400  2.132E-04    0   0.5798   age139_m42            0.0000     9.9854E-01     2.7060   0.6766   103.8971
 14      1.3063     1.1836E+00    1.1980E+00    4.250000E+09  0.00400  5.895E-05    0   0.5377   age158_m42            0.0000     9.5797E-01     2.6788   0.3056    96.7881
 15      0.0012     1.8976E-03    1.8618E-03    7.500000E+09  0.00400  3.510E-05    0   0.5212   age171_m42            0.0000     1.1348E+00     3.1175   0.1418    95.1221
 16      0.0000     0.0000E+00    0.0000E+00    1.300000E+10  0.00400  2.005E-05    0   0.5034   age193_m42            0.0000     1.4324E+00     3.6195  -0.0023    93.7320
 17      0.0000     0.0000E+00    0.0000E+00    1.800000E+10  0.00400  1.525E-05    0   0.4967   age213_m42            0.0000     1.3833E+00     3.5170  -0.0304    93.5184
 18      3.1380     1.3539E-02    2.5485E-02    1.000000E+06  0.00800  1.238E-02    0   1.0000   age020_m52            0.0000     4.0621E+00     5.9844   3.5432    86.1329
 19      0.0000     0.0000E+00    0.0000E+00    3.160000E+06  0.00800  3.074E-02    0   0.9966   age045_m52            0.0000     3.9599E+00     5.8690   3.4715    86.6990
 20      0.0000     0.0000E+00    0.0000E+00    5.010000E+06  0.00800  2.668E-02    0   0.9443   age055_m52            0.0000     3.4503E+00     5.3293   3.2084    89.4444
 21      3.3296     8.3259E-03    1.4383E-02    6.610000E+06  0.00800  2.136E-02    0   0.9177   age061_m52            0.0000     1.9767E+00     4.1184   1.8581    99.9284
 22      0.0000     0.0000E+00    0.0000E+00    1.000000E+07  0.00800  1.215E-02    0   0.8827   age070_m52            0.0000     3.1040E+00     5.0555   2.4967   100.4172
 23      3.3073     2.0265E-02    3.2624E-02    1.445000E+07  0.00800  8.717E-03    0   0.8552   age078_m52            0.0000     2.8594E+00     4.8101   2.6452    97.8615
 24      0.0000     0.0000E+00    0.0000E+00    2.512000E+07  0.00800  5.592E-03    0   0.8162   age090_m52            0.0000     2.7650E+00     4.7140   2.2514   102.4139
 25      2.8876     3.9588E-02    5.8432E-02    4.000000E+07  0.00800  3.896E-03    0   0.7841   age104_m52            0.0000     2.6885E+00     4.5174   2.1765   102.6242
 26      0.0000     0.0000E+00    0.0000E+00    1.015200E+08  0.00800  2.148E-03    0   0.7226   age116_m52            0.0000     2.4548E+00     4.1964   2.1545   100.6428
 27      0.0000     0.0000E+00    0.0000E+00    2.861200E+08  0.00800  9.925E-04    0   0.6683   age125_m52            0.0000     2.2468E+00     4.0655   1.6845   104.1255
 28      0.0000     0.0000E+00    0.0000E+00    9.047900E+08  0.00800  3.141E-04    0   0.6138   age135_m52            0.0000     1.4824E+00     3.2003   0.9330   106.2300
 29      0.0000     0.0000E+00    0.0000E+00    1.434000E+09  0.00800  1.719E-04    0   0.5853   age139_m52            0.0000     1.2453E+00     2.6731   0.3624   103.5971
 30      0.0000     0.0000E+00    0.0000E+00    2.500000E+09  0.00800  7.872E-05    0   0.5600   age150_m52            0.0000     1.1743E+00     3.3334   0.1684    97.5212
 31      0.0000     0.0000E+00    0.0000E+00    4.250000E+09  0.00800  4.336E-05    0   0.5426   age158_m52            0.0000     1.2502E+00     3.4369   0.1590    96.3498
 32      0.0000     0.0000E+00    0.0000E+00    6.250000E+09  0.00800  3.159E-05    0   0.5319   age166_m52            0.0000     1.6286E+00     4.1672  -0.0083    94.8662
 33      0.0014     5.3309E-03    5.0907E-03    1.300000E+10  0.00800  1.361E-05    0   0.5073   age193_m52            0.0000     2.2693E+00     5.1176  -0.4312    92.3575
 34      0.0000     0.0000E+00    0.0000E+00    1.800000E+10  0.00800  9.886E-06    0   0.4990   age213_m52            0.0000     2.9575E+00     5.9591  -0.4996    90.3076
 35      1.5883     5.4945E-03    1.0343E-02    1.000000E+06  0.02000  1.544E-02    0   1.0000   age020_m62            0.0000     4.0864E+00     6.0202   3.5410    86.2616
 36      0.5691     8.0795E-04    1.4993E-03    3.160000E+06  0.02000  3.762E-02    0   0.9858   age045_m62            0.0000     4.0677E+00     5.9963   3.4834    86.8774
 37      0.0000     0.0000E+00    0.0000E+00    5.010000E+06  0.02000  3.296E-02    0   0.9342   age055_m62            0.0000     3.3290E+00     5.0542   3.0959    90.9660
 38      8.9473     4.1412E-02    6.9076E-02    8.710000E+06  0.02000  1.154E-02    0   0.8861   age067_m62            0.0000     6.3564E+00     8.3044   1.7869   111.0818
 39      0.0000     0.0000E+00    0.0000E+00    1.445000E+07  0.02000  7.663E-03    0   0.8472   age078_m62            0.0000     3.7663E+00     5.7430   2.0856   105.4351
 40      0.5132     6.0484E-03    9.2212E-03    2.512000E+07  0.02000  4.532E-03    0   0.8099   age090_m62            0.0000     4.2070E+00     6.0188   2.0650   105.7691
 41      0.0000     0.0000E+00    0.0000E+00    5.500000E+07  0.02000  2.733E-03    0   0.7595   age110_m62            0.0000     2.5230E+00     4.4033   2.1610   101.7953
 42      0.0000     0.0000E+00    0.0000E+00    1.609000E+08  0.02000  1.369E-03    0   0.6985   age120_m62            0.0000     2.3357E+00     4.1900   2.0399   102.7365
 43      0.0800     4.7428E-03    5.9943E-03    2.861200E+08  0.02000  9.013E-04    0   0.6714   age125_m62            0.0000     2.0425E+00     4.0932   1.8070   104.8682
 44      0.0000     0.0000E+00    0.0000E+00    5.088000E+08  0.02000  5.028E-04    0   0.6449   age130_m62            0.0000     1.7427E+00     3.8008   1.4849   105.0250
 45      0.0000     0.0000E+00    0.0000E+00    9.047900E+08  0.02000  2.428E-04    0   0.6179   age135_m62            0.0000     1.1464E+00     3.1207   0.9285   103.0500
 46      0.0000     0.0000E+00    0.0000E+00    1.434000E+09  0.02000  1.263E-04    0   0.5908   age139_m62            0.0000     1.0316E+00     3.1045   0.5050   100.5858
 47      0.0005     4.5191E-04    4.8259E-04    2.500000E+09  0.02000  5.985E-05    0   0.5673   age150_m62            0.0000     1.5153E+00     4.0545   0.1948    96.7572
 48      4.7431     7.7451E+00    7.9721E+00    4.250000E+09  0.02000  3.271E-05    0   0.5468   age158_m62            0.0000     2.2931E+00     5.2220  -0.0534    93.5388
 49      5.1651     2.0285E+01    1.9730E+01    1.000000E+10  0.02000  1.360E-05    0   0.5167   age181_m62            0.0000     3.5294E+00     6.6305  -0.3440    90.8031
 50      3.5754     2.6807E+01    2.5296E+01    1.800000E+10  0.02000  7.124E-06    0   0.5013   age213_m62            0.0000     4.6792E+00     7.7192  -0.5049    88.1533
 51      0.4074     8.3948E-04    1.5799E-03    1.000000E+06  0.05000  2.592E-02    0   0.9998   age020_m72            0.0000     4.1465E+00     6.1251   3.5300    86.3793
 52      0.0000     0.0000E+00    0.0000E+00    3.160000E+06  0.05000  4.845E-02    0   0.9577   age045_m72            0.0000     3.8625E+00     5.6440   3.3710    87.8624
 53      0.0000     0.0000E+00    0.0000E+00    5.010000E+06  0.05000  3.072E-02    0   0.9147   age055_m72            0.0000     4.3102E+00     5.7041   2.7347    98.5754
 54      0.0000     0.0000E+00    0.0000E+00    6.610000E+06  0.05000  1.455E-02    0   0.8877   age061_m72            0.0000     1.6623E+01    11.7497   1.7480   116.6086
 55      0.0000     0.0000E+00    0.0000E+00    1.000000E+07  0.05000  9.074E-03    0   0.8524   age070_m72            0.0000     7.7375E+00     6.7494   2.9024    99.0368
 56      0.0000     0.0000E+00    0.0000E+00    2.512000E+07  0.05000  4.250E-03    0   0.7902   age090_m72            0.0000     5.3851E+00     5.8527   2.5972   101.1049
 57      0.0000     0.0000E+00    0.0000E+00    4.000000E+07  0.05000  3.087E-03    0   0.7618   age104_m72            0.0000     5.4945E+00     5.9478   2.3510   103.6456
 58      0.0000     0.0000E+00    0.0000E+00    1.015200E+08  0.05000  1.700E-03    0   0.7096   age116_m72            0.0000     2.8558E+00     4.5517   2.1514   103.7417
 59      0.0000     0.0000E+00    0.0000E+00    2.861200E+08  0.05000  7.384E-04    0   0.6633   age125_m72            0.0000     1.7518E+00     3.8406   1.7000   105.1329
 60      2.6697     3.7339E-01    4.4787E-01    5.088000E+08  0.05000  3.819E-04    0   0.6372   age130_m72            0.0000     1.1346E+00     3.1762   1.2647   104.1613
 61     27.3873     8.7280E+00    1.0039E+01    9.047900E+08  0.05000  1.676E-04    0   0.6110   age135_m72            0.0000     1.4663E+00     4.0423   0.6518    98.6133
 62      0.0002     9.9526E-05    1.1005E-04    1.434000E+09  0.05000  8.837E-05    0   0.5874   age139_m72            0.0000     1.6367E+00     4.2581   0.1980    98.0145
 63      6.0869     7.6805E+00    8.0935E+00    2.500000E+09  0.05000  4.233E-05    0   0.5598   age150_m72            0.0000     2.6590E+00     5.6552  -0.0368    93.6167
 64      4.2552     1.5838E+01    1.5650E+01    6.250000E+09  0.05000  1.435E-05    0   0.5249   age166_m72            0.0000     4.0136E+00     7.0741  -0.4226    89.6901
 65      0.7570     6.2081E+00    5.8852E+00    1.300000E+10  0.05000  6.513E-06    0   0.5036   age193_m72            0.0000     5.6316E+00     8.4631  -0.6408    88.0767
 66      0.0077     9.1165E-02    8.4861E-02    1.800000E+10  0.05000  4.527E-06    0   0.4945   age213_m72            0.0000     6.7877E+00     9.3138  -0.7635    86.4053


## Synthesis Results - Average & Chains ##

# j      x_j: min, <> & last-chain-values for 1 ...  7 chains
  1      0.3976      0.6576      0.8120      0.6474      0.7708      0.0786      1.1532      0.6690      0.9379
  2      0.0000      0.1226      0.1507      0.3171      0.0000      0.0000      0.0000      0.2274      0.0196
  3      1.4309      1.6586      1.7176      1.4841      1.9270      1.7546      1.8201      1.5914      1.9352
  4      0.0000      0.0996      0.0000      0.0000      0.0866      0.0000      0.3067      0.8103      0.0000
  5      0.6502      0.9463      0.8833      0.8188      0.9758      0.9760      0.9733      1.3886      0.9002
  6      0.0000      0.3017      0.0000      0.5853      0.0000      0.3412      0.5191      0.0000      0.2871
  7      0.0000      0.1378      0.1980      0.0284      0.6140      0.0000      0.0183      0.0000      0.1282
  8      0.3999      0.6639      0.3866      1.0355      0.4509      0.4982      1.0130      0.0000      0.7222
  9      0.0000      0.7222      0.7037      0.6972      1.3692      0.6860      0.0000      0.6023      0.0000
 10      0.0000      0.1718      0.0000      0.3045      0.0087      0.3255      0.0000      0.2973      0.1213
 11      0.0000      0.0983      0.4395      0.0000      0.0000      0.0000      0.0000      0.2546      0.0000
 12      0.0000      0.1173      0.0000      0.0290      0.1410      0.1001      0.0000      0.2119      0.0000
 13     19.5502     12.8449     12.9020     13.3456     13.2300     13.1167     15.3366     13.9210     14.9339
 14      1.3063      3.1611      3.3592      2.4077      3.0580      1.1988      2.1309      3.0604      2.0834
 15      0.0012      1.6854      2.0575      1.7392      1.3250      1.8515      1.7422      1.5666      0.7857
 16      0.0000      0.0835      0.0106      0.0000      0.0000      0.0348      0.0000      0.0000      0.5550
 17      0.0000      1.2467      0.7644      0.6106      1.2955      1.3901      0.0000      0.8228      0.4570
 18      3.1380      2.1841      2.3136      2.3518      2.1910      2.5384      1.9376      2.2499      2.4707
 19      0.0000      0.1388      0.0428      0.0000      0.2391      0.1308      0.0000      0.1448      0.0000
 20      0.0000      0.0735      0.0000      0.3361      0.4236      0.0233      0.0000      0.0000      0.0000
 21      3.3296      3.3929      3.7625      3.2774      3.3496      2.9853      3.3856      3.1727      3.7717
 22      0.0000      0.3878      0.1346      0.6388      0.6870      0.6898      0.5872      0.1445      0.3175
 23      3.3073      2.8143      3.0189      2.8021      2.1590      2.4734      2.9320      3.8962      3.3190
 24      0.0000      0.1426      0.3159      0.0000      0.0707      0.3017      0.4987      0.5412      0.0000
 25      2.8876      3.0381      3.0447      3.7457      2.6502      5.0739      2.8092      2.7834      3.1704
 26      0.0000      0.2282      0.1581      0.5153      0.8395      0.0000      0.0000      0.1964      0.0000
 27      0.0000      0.1663      0.0000      0.0000      0.1350      0.0000      0.0000      0.0000      0.0000
 28      0.0000      0.1562      0.0000      0.0000      0.2443      0.0000      0.1702      0.0000      0.0000
 29      0.0000      0.1031      0.0000      0.0000      0.0000      0.0000      0.0000      0.0000      0.0000
 30      0.0000      0.1475      0.0000      0.0000      0.2653      0.0000      0.0000      0.0000      0.0000
 31      0.0000      0.1400      0.1140      0.0000      0.0000      0.0964      0.0000      0.1356      0.0000
 32      0.0000      0.0842      0.0000      0.0000      0.1887      0.0000      0.0000      0.0000      0.0000
 33      0.0014      0.5180      0.6041      0.5387      0.4670      0.4904      0.0281      0.3298      0.5200
 34      0.0000      0.1280      0.0000      0.0212      0.7278      0.0000      0.0000      0.0000      0.0638
 35      1.5883      1.1544      1.2642      1.2549      1.4282      1.1804      1.5093      0.9316      1.4035
 36      0.5691      0.7135      0.6042      0.4262      0.8543      0.7756      0.7648      0.8562      1.4333
 37      0.0000      0.4079      0.0000      0.5125      0.3668      0.0000      0.2756      0.3756      0.0000
 38      8.9473      4.7116      5.7146      4.7801      5.1058      5.3961      4.4609      5.1309      5.2346
 39      0.0000      0.1016      0.0000      0.0000      0.1273      0.0992      0.0000      0.0000      0.1832
 40      0.5132      0.7524      1.3817      0.5817      0.0000      0.6548      0.8088      0.4791      0.8842
 41      0.0000      0.2422      0.0000      0.2070      0.0000      0.0000      0.3079      0.1343      0.0000
 42      0.0000      0.1045      0.1874      0.0000      0.0000      0.4164      0.0000      0.1788      0.0000
 43      0.0800      1.1801      1.0810      1.3841      1.2389      1.2556      1.3939      0.6056      1.9718
 44      0.0000      0.1443      0.0000      0.0000      0.1397      0.0632      0.0000      0.0000      0.0000
 45      0.0000      0.2029      0.1442      0.0000      0.0000      0.0000      0.0000      0.0000      0.1038
 46      0.0000      0.3106      0.0000      0.0000      0.0000      0.0000      0.2450      0.0000      0.0000
 47      0.0005      3.4909      2.5490      3.1989      1.1239      4.0338      3.2935      2.8853      2.3413
 48      4.7431      3.9110      4.4230      3.7059      3.7097      4.3580      3.4507      4.3925      3.9907
 49      5.1651      3.7691      3.9028      3.8137      3.9406      3.9494      4.7311      3.8643      4.0457
 50      3.5754      3.2541      3.2646      3.4266      3.4528      3.4560      3.9332      3.2734      3.1794
 51      0.4074      0.7859      0.6363      0.3699      0.7706      0.8952      0.8440      0.7795      0.7260
 52      0.0000      0.1262      0.2977      0.1660      0.0000      0.0000      0.0816      0.0000      0.0000
 53      0.0000      0.0420      0.0617      0.0000      0.0000      0.0101      0.0000      0.0000      0.0000
 54      0.0000      0.0657      0.0000      0.0000      0.0000      0.0000      0.3406      0.0000      0.0000
 55      0.0000      0.0622      0.0546      0.0000      0.0000      0.0000      0.0000      0.0000      0.0000
 56      0.0000      0.0842      0.0000      0.0000      0.0000      0.0000      0.3263      0.2315      0.0000
 57      0.0000      0.0942      0.6062      0.0000      0.0000      0.0000      0.0000      0.0000      0.0000
 58      0.0000      0.1051      0.0792      0.2661      0.0000      0.0000      0.0000      0.0000      0.0000
 59      0.0000      0.1218      0.0000      0.0358      0.5020      0.0000      0.0000      0.0756      0.0000
 60      2.6697      2.4542      1.9596      2.4508      3.6254      2.1895      2.1811      2.8784      2.1234
 61     27.3873     24.0236     24.4489     24.8695     24.4088     24.9255     24.7260     24.7215     24.4214
 62      0.0002      3.4655      3.6370      3.5111      3.4456      3.0357      3.3478      2.1519      3.8552
 63      6.0869      4.7832      4.8641      5.8351      4.9806      5.0113      4.9124      5.8160      4.7944
 64      4.2552      2.1488      2.4896      2.1404      2.2602      2.3191      2.0812      2.5627      3.1426
 65      0.7570      0.8188      0.7265      0.9608      0.9702      0.8340      1.1186      0.9605      0.8003
 66      0.0077      0.5027      0.5859      0.5703      0.5558      0.5521      0.4434      0.4359      0.7759

# j      m_j: min, <> & last-chain-values for 1 ...  7 chains
  1  3.6541E-03  5.9292E-03  7.2914E-03  5.8148E-03  6.6622E-03  6.9180E-04  1.0228E-02  6.0359E-03  8.2714E-03
  2  0.0000E+00  3.0176E-04  3.6940E-04  7.7763E-04  0.0000E+00  0.0000E+00  0.0000E+00  5.6012E-04  4.7278E-05
  3  5.3764E-03  6.1136E-03  6.3049E-03  5.4492E-03  6.8094E-03  6.3111E-03  6.5994E-03  5.8699E-03  6.9770E-03
  4  0.0000E+00  3.4556E-04  0.0000E+00  0.0000E+00  2.8820E-04  0.0000E+00  1.0473E-03  2.8148E-03  0.0000E+00
  5  4.3822E-03  6.2571E-03  5.8167E-03  5.3936E-03  6.1858E-03  6.2979E-03  6.3302E-03  9.1879E-03  5.8216E-03
  6  0.0000E+00  3.2356E-03  0.0000E+00  6.2529E-03  0.0000E+00  3.5708E-03  5.4763E-03  0.0000E+00  3.0116E-03
  7  0.0000E+00  2.1157E-03  3.0278E-03  4.3429E-04  9.0378E-03  0.0000E+00  2.7682E-04  0.0000E+00  1.9250E-03
  8  8.6518E-03  1.4090E-02  8.1711E-03  2.1891E-02  9.1748E-03  1.0317E-02  2.1147E-02  0.0000E+00  1.4990E-02
  9  0.0000E+00  1.7542E-02  1.7022E-02  1.6869E-02  3.1884E-02  1.6259E-02  0.0000E+00  1.4640E-02  0.0000E+00
 10  0.0000E+00  5.4821E-03  0.0000E+00  9.6778E-03  2.6665E-04  1.0136E-02  0.0000E+00  9.4935E-03  3.7866E-03
 11  0.0000E+00  5.8983E-03  2.6258E-02  0.0000E+00  0.0000E+00  0.0000E+00  0.0000E+00  1.5287E-02  0.0000E+00
 12  0.0000E+00  1.1167E-02  0.0000E+00  2.7450E-03  1.2864E-02  9.2946E-03  0.0000E+00  2.0185E-02  0.0000E+00
 13  5.3456E+00  3.4455E+00  3.4466E+00  3.5662E+00  3.4023E+00  3.4335E+00  4.0467E+00  3.7369E+00  3.9182E+00
 14  1.1980E+00  2.8440E+00  3.0098E+00  2.1579E+00  2.6377E+00  1.0525E+00  1.8858E+00  2.7554E+00  1.8334E+00
 15  1.8618E-03  2.4685E+00  3.0011E+00  2.5376E+00  1.8605E+00  2.6464E+00  2.5101E+00  2.2961E+00  1.1256E+00
 16  0.0000E+00  2.0673E-01  2.6056E-02  0.0000E+00  0.0000E+00  8.4162E-02  0.0000E+00  0.0000E+00  1.3443E+00
 17  0.0000E+00  4.0053E+00  2.4457E+00  1.9540E+00  3.9902E+00  4.3579E+00  0.0000E+00  2.6453E+00  1.4360E+00
 18  2.5485E-02  1.7402E-02  1.8357E-02  1.8666E-02  1.6735E-02  1.9737E-02  1.5185E-02  1.7939E-02  1.9254E-02
 19  0.0000E+00  4.4397E-04  1.3638E-04  0.0000E+00  7.3315E-04  4.0822E-04  0.0000E+00  4.6351E-04  0.0000E+00
 20  0.0000E+00  2.5656E-04  0.0000E+00  1.1688E-03  1.4177E-03  7.9350E-05  0.0000E+00  0.0000E+00  0.0000E+00
 21  1.4383E-02  1.4378E-02  1.5879E-02  1.3836E-02  1.3609E-02  1.2345E-02  1.4113E-02  1.3455E-02  1.5634E-02
 22  0.0000E+00  2.7787E-03  9.6084E-04  4.5602E-03  4.7199E-03  4.8237E-03  4.1394E-03  1.0361E-03  2.2254E-03
 23  3.2624E-02  2.7233E-02  2.9093E-02  2.7012E-02  2.0030E-02  2.3357E-02  2.7909E-02  3.7730E-02  3.1414E-02
 24  0.0000E+00  2.0527E-03  4.5297E-03  0.0000E+00  9.7650E-04  4.2390E-03  7.0626E-03  7.7965E-03  0.0000E+00
 25  5.8432E-02  6.0309E-02  6.0192E-02  7.4073E-02  5.0438E-02  9.8291E-02  5.4855E-02  5.5293E-02  6.1560E-02
 26  0.0000E+00  7.5725E-03  5.2233E-03  1.7034E-02  2.6704E-02  0.0000E+00  0.0000E+00  6.5211E-03  0.0000E+00
 27  0.0000E+00  1.1044E-02  0.0000E+00  0.0000E+00  8.5938E-03  0.0000E+00  0.0000E+00  0.0000E+00  0.0000E+00
 28  0.0000E+00  3.0099E-02  0.0000E+00  0.0000E+00  4.5137E-02  0.0000E+00  3.2278E-02  0.0000E+00  0.0000E+00
 29  0.0000E+00  3.4628E-02  0.0000E+00  0.0000E+00  0.0000E+00  0.0000E+00  0.0000E+00  0.0000E+00  0.0000E+00
 30  0.0000E+00  1.0346E-01  0.0000E+00  0.0000E+00  1.7847E-01  0.0000E+00  0.0000E+00  0.0000E+00  0.0000E+00
 31  0.0000E+00  1.7280E-01  1.4008E-01  0.0000E+00  0.0000E+00  1.1609E-01  0.0000E+00  1.6748E-01  0.0000E+00
 32  0.0000E+00  1.3981E-01  0.0000E+00  0.0000E+00  3.0052E-01  0.0000E+00  0.0000E+00  0.0000E+00  0.0000E+00
 33  5.0907E-03  1.9045E+00  2.2117E+00  1.9730E+00  1.6460E+00  1.7595E+00  1.0160E-01  1.2134E+00  1.8701E+00
 34  0.0000E+00  6.3747E-01  0.0000E+00  1.0506E-01  3.4740E+00  0.0000E+00  0.0000E+00  0.0000E+00  3.1076E-01
 35  1.0343E-02  7.3745E-03  8.0430E-03  7.9860E-03  8.7473E-03  7.3590E-03  9.4844E-03  5.9560E-03  8.7699E-03
 36  1.4993E-03  1.8442E-03  1.5552E-03  1.0975E-03  2.1170E-03  1.9562E-03  1.9446E-03  2.2145E-03  3.6235E-03
 37  0.0000E+00  1.1404E-03  0.0000E+00  1.4274E-03  9.8301E-04  0.0000E+00  7.5785E-04  1.0507E-03  0.0000E+00
 38  6.9076E-02  3.5684E-02  4.3103E-02  3.6065E-02  3.7074E-02  3.9882E-02  3.3234E-02  3.8889E-02  3.8778E-02
 39  0.0000E+00  1.1076E-03  0.0000E+00  0.0000E+00  1.3308E-03  1.0553E-03  0.0000E+00  0.0000E+00  1.9536E-03
 40  9.2212E-03  1.3263E-02  2.4256E-02  1.0214E-02  0.0000E+00  1.1263E-02  1.4024E-02  8.4504E-03  1.5244E-02
 41  0.0000E+00  6.6381E-03  0.0000E+00  5.6536E-03  0.0000E+00  0.0000E+00  8.3026E-03  3.6828E-03  0.0000E+00
 42  0.0000E+00  5.2597E-03  9.3936E-03  0.0000E+00  0.0000E+00  2.0451E-02  0.0000E+00  9.0032E-03  0.0000E+00
 43  5.9943E-03  8.6709E-02  7.9103E-02  1.0131E-01  8.7269E-02  9.0029E-02  1.0075E-01  4.4530E-02  1.4171E-01
 44  0.0000E+00  1.8252E-02  0.0000E+00  0.0000E+00  1.6949E-02  7.8019E-03  0.0000E+00  0.0000E+00  0.0000E+00
 45  0.0000E+00  5.0939E-02  3.6040E-02  0.0000E+00  0.0000E+00  0.0000E+00  0.0000E+00  0.0000E+00  2.5483E-02
 46  0.0000E+00  1.4331E-01  0.0000E+00  0.0000E+00  0.0000E+00  0.0000E+00  1.1121E-01  0.0000E+00  0.0000E+00
 47  4.8259E-04  3.2638E+00  2.3733E+00  2.9794E+00  1.0074E+00  3.6803E+00  3.0290E+00  2.6995E+00  2.1411E+00
 48  7.9721E+00  6.4487E+00  7.2628E+00  6.0872E+00  5.8642E+00  7.0123E+00  5.5967E+00  7.2479E+00  6.4361E+00
 49  1.9730E+01  1.4124E+01  1.4565E+01  1.4237E+01  1.4157E+01  1.4443E+01  1.7440E+01  1.4492E+01  1.4829E+01
 50  2.5296E+01  2.2586E+01  2.2566E+01  2.3692E+01  2.2976E+01  2.3408E+01  2.6854E+01  2.2737E+01  2.1585E+01
 51  1.5799E-03  2.9902E-03  2.4110E-03  1.4021E-03  2.8108E-03  3.3235E-03  3.1588E-03  2.9678E-03  2.7016E-03
 52  0.0000E+00  2.4596E-04  5.7806E-04  3.2237E-04  0.0000E+00  0.0000E+00  1.5646E-04  0.0000E+00  0.0000E+00
 53  0.0000E+00  1.2342E-04  1.8046E-04  0.0000E+00  0.0000E+00  2.8912E-05  0.0000E+00  0.0000E+00  0.0000E+00
 54  0.0000E+00  3.9513E-04  0.0000E+00  0.0000E+00  0.0000E+00  0.0000E+00  2.0162E-03  0.0000E+00  0.0000E+00
 55  0.0000E+00  5.7611E-04  5.0381E-04  0.0000E+00  0.0000E+00  0.0000E+00  0.0000E+00  0.0000E+00  0.0000E+00
 56  0.0000E+00  1.5445E-03  0.0000E+00  0.0000E+00  0.0000E+00  0.0000E+00  5.8856E-03  4.2480E-03  0.0000E+00
 57  0.0000E+00  2.2938E-03  1.4694E-02  0.0000E+00  0.0000E+00  0.0000E+00  0.0000E+00  0.0000E+00  0.0000E+00
 58  0.0000E+00  4.3291E-03  3.2482E-03  1.0912E-02  0.0000E+00  0.0000E+00  0.0000E+00  0.0000E+00  0.0000E+00
 59  0.0000E+00  1.0794E-02  0.0000E+00  3.1599E-03  4.2644E-02  0.0000E+00  0.0000E+00  6.7039E-03  0.0000E+00
 60  4.4787E-01  4.0389E-01  3.2117E-01  4.0180E-01  5.7200E-01  3.5163E-01  3.5310E-01  4.7405E-01  3.4180E-01
 61  1.0039E+01  8.6384E+00  8.7553E+00  8.9086E+00  8.4147E+00  8.7465E+00  8.7459E+00  8.8959E+00  8.5894E+00
 62  1.1005E-04  2.2721E+00  2.3747E+00  2.2932E+00  2.1658E+00  1.9423E+00  2.1591E+00  1.4119E+00  2.4723E+00
 63  8.0935E+00  6.2393E+00  6.3187E+00  7.5824E+00  6.2285E+00  6.3791E+00  6.3032E+00  7.5920E+00  6.1170E+00
 64  1.5650E+01  7.7527E+00  8.9454E+00  7.6928E+00  7.8180E+00  8.1653E+00  7.3863E+00  9.2528E+00  1.1090E+01
 65  5.8852E+00  6.2449E+00  5.5181E+00  7.2996E+00  7.0940E+00  6.2073E+00  8.3917E+00  7.3306E+00  5.9701E+00
 66  8.4861E-02  5.4166E+00  6.2864E+00  6.1207E+00  5.7407E+00  5.8046E+00  4.6991E+00  4.7004E+00  8.1767E+00

# AV, chi2 & Mass for <> & i_chain = 1 ...  7 solutions
AV       0.5557      0.5634      0.5590      0.5646      0.5637      0.5599      0.5639      0.5639      0.5633
chi2 5.9403E-01  6.1633E-01  6.1200E-01  6.1219E-01  6.1169E-01  6.1293E-01  6.1111E-01  6.1026E-01  6.0856E-01
Mass 3.9656E-12  4.0843E-12  4.0770E-12  4.1064E-12  4.2619E-12  4.1652E-12  4.1544E-12  4.0839E-12  4.1749E-12
-254.46                                  [v0_min (km/s) before EX0s...]
 150.31                                  [vd_min (km/s) before EX0s...]


## Synthetic spectrum (Best Model) ##l_obs f_obs f_syn wei
 3478    [Nl_obs]
 3741.00    0.53648   0.60002    0.000
 3742.00    0.51811   0.56927    0.000
 3743.00    0.49988   0.53712    0.000
 3744.00    0.48901   0.50610    0.000
 3745.00    0.48215   0.48200   11.666
 3746.00    0.48042   0.47401   11.974
 3747.00    0.49066   0.48780   12.108
 3748.00    0.50540   0.52149   11.929
 3749.00    0.50699   0.56708   11.758
 3750.00    0.51032   0.61371   11.721
 3751.00    0.55556   0.65034   11.658
 3752.00    0.63257   0.66923   11.513
 3753.00    0.68126   0.66923   11.404
 3754.00    0.67275   0.65729   11.465
 3755.00    0.62623   0.64468   11.770
 3756.00    0.58127   0.63905   12.187
 3757.00    0.57491   0.64159   12.418
 3758.00    0.60451   0.64881   12.380
 3759.00    0.63666   0.65479   12.274
 3760.00    0.65396   0.65555   12.307
 3761.00    0.65930   0.65005   12.545
 3762.00    0.65774   0.63707   12.716
 3763.00    0.65171   0.61796   12.450
 3764.00    0.64018   0.59738   11.993
 3765.00    0.62206   0.57869   11.838
 3766.00    0.60294   0.56550   12.004
 3767.00    0.59083   0.56380   12.191
 3768.00    0.58613   0.57617   12.170
 3769.00    0.58784   0.59897   11.924
 3770.00    0.60688   0.62665   11.671
 3771.00    0.65523   0.65472   11.610
 3772.00    0.72517   0.68100   11.627
 3773.00    0.79210   0.70558   11.529
 3774.00    0.82523   0.72920   11.428
 3775.00    0.81106   0.75237   11.517
 3776.00    0.78133   0.77396   11.729
 3777.00    0.77648   0.79119   11.871
 3778.00    0.79528   0.80237   11.886
 3779.00    0.81438   0.80702   11.812
 3780.00    0.81967   0.80406   11.669
 3781.00    0.80752   0.79127   11.530
 3782.00    0.78164   0.76909   11.594
 3783.00    0.74644   0.74309   11.978
 3784.00    0.70123   0.71863   12.493
 3785.00    0.64910   0.69903   12.852
 3786.00    0.60476   0.68587   13.012
 3787.00    0.58180   0.67663   13.084
 3788.00    0.58058   0.66530   13.141
 3789.00    0.58889   0.64698   13.231
 3790.00    0.58608   0.62048   13.403
 3791.00    0.56385   0.58793   13.648
 3792.00    0.53935   0.55368   13.861
 3793.00    0.53077   0.52326   14.036
 3794.00    0.53970   0.50472   14.378
 3795.00    0.55825   0.50614   14.879
 3796.00    0.57673   0.52930   15.048
 3797.00    0.59640   0.56879   14.695
 3798.00    0.63210   0.61595   14.361
 3799.00    0.68145   0.66130   14.369
 3800.00    0.71461   0.69653   14.493
 3801.00    0.71861   0.71856   14.512
 3802.00    0.71476   0.73000   14.478
 3803.00    0.72048   0.73745   14.523
 3804.00    0.73245   0.74781   14.721
 3805.00    0.74207   0.76249   15.005
 3806.00    0.74375   0.77733   15.157
 3807.00    0.73717   0.78584   15.103
 3808.00    0.72646   0.78245   15.002
 3809.00    0.71358   0.76714   14.986
 3810.00    0.69677   0.74642   15.074
 3811.00    0.67530   0.72745   15.242
 3812.00    0.65262   0.71488   15.421
 3813.00    0.64071   0.70919   15.432
 3814.00    0.65375   0.70484   15.097
 3815.00    0.68347   0.69676   14.635
 3816.00    0.70285   0.68685   14.468
 3817.00    0.70107   0.68025   14.625
 3818.00    0.68651   0.67800   14.797
 3819.00    0.66556   0.67562   14.879
 3820.00    0.64071   0.66832   15.006
 3821.00    0.62136   0.65560   15.212
 3822.00    0.61690   0.63999   15.381
 3823.00    0.61420   0.62480   15.361
 3824.00    0.59086   0.61199   15.106
 3825.00    0.55586   0.60014   14.843
 3826.00    0.53682   0.58534   14.872
 3827.00    0.53520   0.56363   15.204
 3828.00    0.53154   0.53428   15.653
 3829.00    0.51376   0.50165   16.137
 3830.00    0.48403   0.47197   16.643
 3831.00    0.46027   0.45164   17.006
 3832.00    0.45995   0.44533   17.040
 3833.00    0.47403   0.45256   16.894
 3834.00    0.48428   0.47022   16.838
 3835.00    0.49566   0.49598   16.859
 3836.00    0.52252   0.52773   16.791
 3837.00    0.56205   0.56427   16.568
 3838.00    0.60086   0.60380   16.255
 3839.00    0.62894   0.64170   16.012
 3840.00    0.64337   0.67414   15.925
 3841.00    0.65011   0.69928   15.853
 3842.00    0.65823   0.71705   15.614
 3843.00    0.67249   0.72931   15.223
 3844.00    0.69058   0.73691   14.849
 3845.00    0.70218   0.74045   14.710
 3846.00    0.70301   0.74315   14.852
 3847.00    0.70736   0.74807    0.000
 3848.00    0.72905   0.75417    0.000
 3849.00    0.76334   0.75884    0.000
 3850.00    0.79498   0.76032    0.000
 3851.00    0.80775   0.75694    0.000
 3852.00    0.79385   0.74945    0.000
 3853.00    0.76017   0.74089    0.000
 3854.00    0.72187   0.73245    0.000
 3855.00    0.69581   0.72625    0.000
 3856.00    0.69095   0.72699    0.000
 3857.00    0.70297   0.73634    0.000
 3858.00    0.72172   0.75142    0.000
 3859.00    0.73755   0.76732    0.000
 3860.00    0.74770   0.77921    0.000
 3861.00    0.75768   0.78451    0.000
 3862.00    0.76757   0.78422    0.000
 3863.00    0.76771   0.78098    0.000
 3864.00    0.75825   0.77624    0.000
 3865.00    0.75413   0.76924    0.000
 3866.00    0.75861   0.75863    0.000
 3867.00    0.75553   0.74544    0.000
 3868.00    0.73420   0.73376    0.000
 3869.00    0.70027   0.72864    0.000
 3870.00    0.67230   0.73124    0.000
 3871.00    0.67171   0.73690    0.000
 3872.00    0.69153   0.73907    0.000
 3873.00    0.69867   0.73350    0.000
 3874.00    0.68605   0.72139    0.000
 3875.00    0.67783   0.70839    0.000
 3876.00    0.68286   0.69734    0.000
 3877.00    0.68693   0.68683    0.000
 3878.00    0.67922   0.67586    0.000
 3879.00    0.66059   0.66268    0.000
 3880.00    0.64242   0.64327    0.000
 3881.00    0.63809   0.61547   17.070
 3882.00    0.64212   0.58213   17.047
 3883.00    0.63694   0.54883   17.181
 3884.00    0.62309   0.52221   17.365
 3885.00    0.61551   0.51087   17.323
 3886.00    0.61754   0.52054   17.227
 3887.00    0.62429   0.54826   17.454
 3888.00    0.64245   0.58563   17.800
 3889.00    0.67844   0.62384   17.747
 3890.00    0.70756   0.65618   17.475
 3891.00    0.70165   0.68076   17.499
 3892.00    0.68960   0.69977   17.690
 3893.00    0.71853   0.71513   17.592
 3894.00    0.76996   0.72735   17.273
 3895.00    0.79206   0.73804   17.101
 3896.00    0.77380   0.74905   17.181
 3897.00    0.73795   0.75968   17.433
 3898.00    0.71192   0.76764   17.780
 3899.00    0.71192   0.77203   18.093
 3900.00    0.72788   0.77307   18.121
 3901.00    0.74037   0.77211   17.834
 3902.00    0.74462   0.77443   17.798
 3903.00    0.74759   0.78492   18.402
 3904.00    0.76011   0.80251   18.985
 3905.00    0.78659   0.82313   18.699
 3906.00    0.81597   0.84249   18.004
 3907.00    0.83740   0.85652   17.586
 3908.00    0.85609   0.86296   17.315
 3909.00    0.87672   0.86255   16.919
 3910.00    0.88775   0.85795   16.530
 3911.00    0.88119   0.85074   16.328
 3912.00    0.86901   0.84126   16.275
 3913.00    0.85974   0.83011   16.264
 3914.00    0.84037   0.81722   16.247
 3915.00    0.80082   0.80276   16.346
 3916.00    0.75281   0.78935   16.871
 3917.00    0.71922   0.77985   17.775
 3918.00    0.72128   0.77497   18.174
 3919.00    0.75126   0.77312   17.675
 3920.00    0.76448   0.77046   17.299
 3921.00    0.74410   0.76223   17.617
 3922.00    0.72938   0.74572   18.061
 3923.00    0.73635   0.72102   18.139
 3924.00    0.72394   0.68963   18.176
 3925.00    0.67197   0.65392   18.482
 3926.00    0.61276   0.61603   18.921
 3927.00    0.56767   0.57754   19.353
 3928.00    0.52337   0.54142   19.849
 3929.00    0.47754   0.51323   20.401
 3930.00    0.45317   0.49970   20.783
 3931.00    0.46335   0.50502   20.784
 3932.00    0.49904   0.52862   20.395
 3933.00    0.54415   0.56579   19.855
 3934.00    0.58480   0.60933   19.487
 3935.00    0.61903   0.65152   19.300
 3936.00    0.65479   0.68637   19.035
 3937.00    0.69058   0.71139   18.669
 3938.00    0.71498   0.72735   18.422
 3939.00    0.72736   0.73738   18.347
 3940.00    0.73867   0.74682   18.284
 3941.00    0.75350   0.75965   18.065
 3942.00    0.76806   0.77459   17.634
 3943.00    0.78013   0.78846   17.158
 3944.00    0.79136   0.80030   16.884
 3945.00    0.80580   0.80997   16.817
 3946.00    0.82471   0.81683   16.790
 3947.00    0.83578   0.82107   16.731
 3948.00    0.82420   0.82407   16.647
 3949.00    0.80189   0.82640   16.457
 3950.00    0.79338   0.82613   16.134
 3951.00    0.79372   0.82139   16.018
 3952.00    0.78155   0.81347   16.447
 3953.00    0.76039   0.80413   16.996
 3954.00    0.74682   0.79239   16.919
 3955.00    0.73587   0.77562   16.632
 3956.00    0.71288   0.75133   16.960
 3957.00    0.68276   0.71906   17.628
 3958.00    0.65716   0.68078   17.797
 3959.00    0.62811   0.63877   17.631
 3960.00    0.58263   0.59458    0.000
 3961.00    0.52893   0.54862    0.000
 3962.00    0.48685   0.50038    0.000
 3963.00    0.46967   0.45154    0.000
 3964.00    0.47631   0.40831    0.000
 3965.00    0.48639   0.37930    0.000
 3966.00    0.48340   0.37157    0.000
 3967.00    0.48039   0.38730    0.000
 3968.00    0.49680   0.42325    0.000
 3969.00    0.53156   0.47306    0.000
 3970.00    0.57654   0.52962    0.000
 3971.00    0.63149   0.58636    0.000
 3972.00    0.69019   0.63950    0.000
 3973.00    0.72945   0.68806    0.000
 3974.00    0.73957   0.73143    0.000
 3975.00    0.74746   0.76800    0.000
 3976.00    0.77775   0.79590    0.000
 3977.00    0.82254   0.81472    0.000
 3978.00    0.86448   0.82665    0.000
 3979.00    0.89517   0.83535    0.000
 3980.00    0.90848   0.84417    0.000
 3981.00    0.89779   0.85485   13.639
 3982.00    0.87349   0.86767   13.594
 3983.00    0.86876   0.88142   13.782
 3984.00    0.90226   0.89340   14.056
 3985.00    0.95868   0.90250   14.510
 3986.00    1.01053   0.91038   15.176
 3987.00    1.03406   0.91805   15.828
 3988.00    1.02378   0.92450   16.302
 3989.00    0.99585   0.92818   16.717
 3990.00    0.96898   0.92796   17.097
 3991.00    0.95452   0.92329   17.209
 3992.00    0.95567   0.91595   17.015
 3993.00    0.96791   0.91086   16.805
 3994.00    0.98169   0.91322   16.784
 3995.00    0.98750   0.92335   16.927
 3996.00    0.99002   0.93727   16.966
 3997.00    1.00368   0.95068   16.571
 3998.00    1.01724   0.95867   16.012
 3999.00    0.99994   0.95615   15.904
 4000.00    0.96470   0.94343   16.159
 4001.00    0.96043   0.92833   16.089
 4002.00    0.98231   0.91879   15.736
 4003.00    0.97855   0.91785   15.787
 4004.00    0.95093   0.92533   16.224
 4005.00    0.94946   0.93906   16.369
 4006.00    0.97936   0.95413   16.108
 4007.00    1.00305   0.96605   15.926
 4008.00    1.00847   0.97445   15.924
 4009.00    1.01080   0.98094   15.851
 4010.00    1.01588   0.98662   15.634
 4011.00    1.01885   0.99119   15.408
 4012.00    1.01949   0.99426   15.309
 4013.00    1.02062   0.99718   15.404
 4014.00    1.01808   1.00105   15.640
 4015.00    1.00662   1.00428   15.889
 4016.00    0.99379   1.00488   16.078
 4017.00    0.98995   1.00222   16.229
 4018.00    0.98753   0.99550   16.438
 4019.00    0.97672   0.98489   16.726
 4020.00    0.97491   0.97445   16.773
 4021.00    1.00144   0.96929   16.370
 4022.00    1.03505   0.97052   16.080
 4023.00    1.04462   0.97472   16.449
 4024.00    1.03834   0.97583   17.056
 4025.00    1.03686   0.96828   17.183
 4026.00    1.03166   0.95149   17.141
 4027.00    1.00770   0.93035   17.506
 4028.00    0.97570   0.91206   17.941
 4029.00    0.95539   0.90392   17.885
 4030.00    0.95302   0.91030   17.626
 4031.00    0.96596   0.93020   17.627
 4032.00    0.98998   0.95785   17.759
 4033.00    1.01861   0.98595   17.708
 4034.00    1.04244   1.00753   17.436
 4035.00    1.05448   1.01853   17.159
 4036.00    1.05482   1.01898   17.214
 4037.00    1.04728   1.01097   17.649
 4038.00    1.03576   0.99527   17.922
 4039.00    1.01918   0.97197   17.690
 4040.00    0.99008   0.94470   17.453
 4041.00    0.95203   0.92180   17.581
 4042.00    0.92800   0.91146   17.756
 4043.00    0.92990   0.91679   17.717
 4044.00    0.94233   0.93577   17.716
 4045.00    0.95526   0.96158   17.917
 4046.00    0.97998   0.98407   18.058
 4047.00    1.01649   0.99527   17.914
 4048.00    1.03992   0.99444   17.579
 4049.00    1.03534   0.98551   17.278
 4050.00    1.01319   0.97291   17.207
 4051.00    0.98779   0.96045   17.424
 4052.00    0.96669   0.95066   17.805
 4053.00    0.95518   0.94532   18.051
 4054.00    0.95778   0.94541   17.817
 4055.00    0.97490   0.94890   17.236
 4056.00    1.00000   0.95054   16.853
 4057.00    1.01502   0.94575   16.871
 4058.00    0.99846   0.93433   17.074
 4059.00    0.96164   0.92083   17.192
 4060.00    0.94576   0.91124   17.082
 4061.00    0.96452   0.90911   16.852
 4062.00    0.99641   0.91566   16.745
 4063.00    1.02594   0.92900   16.731
 4064.00    1.05090   0.94256   16.577
 4065.00    1.06265   0.94908   16.390
 4066.00    1.04913   0.94764   16.515
 4067.00    1.01973   0.94274   16.893
 4068.00    0.99773   0.93781   17.091
 4069.00    0.98331   0.93282   16.981
 4070.00    0.95968   0.92632   16.813
 4071.00    0.93056   0.91685   16.823
 4072.00    0.91458   0.90455   17.081
 4073.00    0.91272   0.89350   17.342
 4074.00    0.91333   0.89091   17.278
 4075.00    0.91740   0.90119   17.107
 4076.00    0.93400   0.92148   17.278
 4077.00    0.96116   0.94330   17.703
 4078.00    0.98685   0.95824   17.935
 4079.00    0.99750   0.96302   17.855
 4080.00    0.98869   0.96068   17.672
 4081.00    0.97882   0.95768   17.574
 4082.00    0.98669   0.95948   17.644
 4083.00    0.99523   0.96698   17.830
 4084.00    0.97999   0.97657   18.002
 4085.00    0.95626   0.98341   18.043
 4086.00    0.95227   0.98400   17.919
 4087.00    0.96553   0.97744   17.732
 4088.00    0.97712   0.96495   17.614
 4089.00    0.97668   0.94730   17.600
 4090.00    0.96217   0.92432   17.660
 4091.00    0.93614   0.89630   17.732
 4092.00    0.90445   0.86412    0.000
 4093.00    0.87485   0.82826    0.000
 4094.00    0.85216   0.78878    0.000
 4095.00    0.83432   0.74705    0.000
 4096.00    0.82010   0.70726    0.000
 4097.00    0.81545   0.67661    0.000
 4098.00    0.82095   0.66282    0.000
 4099.00    0.82313   0.67057    0.000
 4100.00    0.81788   0.69906    0.000
 4101.00    0.82620   0.74105    0.000
 4102.00    0.86267   0.78535    0.000
 4103.00    0.91295   0.82241    0.000
 4104.00    0.95144   0.84857    0.000
 4105.00    0.95766   0.86526    0.000
 4106.00    0.93403   0.87667    0.000
 4107.00    0.91100   0.88769    0.000
 4108.00    0.90997   0.90136    0.000
 4109.00    0.92413   0.91796    0.000
 4110.00    0.94022   0.93552    0.000
 4111.00    0.95177   0.95032    0.000
 4112.00    0.95904   0.95846    0.000
 4113.00    0.96652   0.95859   18.359
 4114.00    0.97272   0.95300   18.572
 4115.00    0.96882   0.94544   18.277
 4116.00    0.95517   0.93924   18.054
 4117.00    0.94483   0.93712   19.298
 4118.00    0.94615   0.94053   20.174
 4119.00    0.95653   0.94811   16.039
 4120.00    0.96769   0.95607   11.522
 4121.00    0.97040   0.96128    9.853
 4122.00    0.96317   0.96206   10.064
 4123.00    0.95191   0.95805   10.758
 4124.00    0.93816   0.94990   10.908
 4125.00    0.91966   0.93893   10.550
 4126.00    0.90437   0.92709   10.598
 4127.00    0.90818   0.91691   12.226
 4128.00    0.93547   0.91095   15.896
 4129.00    0.97570   0.91182   18.732
 4130.00    1.00997   0.92112   18.116
 4131.00    1.02061   0.93782   17.284
 4132.00    1.00980   0.95903   17.410
 4133.00    0.99605   0.97998   17.468
 4134.00    0.99520   0.99570   17.204
 4135.00    1.01045   1.00218   17.191
 4136.00    1.02184   0.99648   17.501
 4137.00    1.00489   0.97897   17.755
 4138.00    0.97099   0.95471   17.743
 4139.00    0.95006   0.93200   17.553
 4140.00    0.94418   0.91864   17.456
 4141.00    0.93780   0.91848   17.639
 4142.00    0.92990   0.92969   17.853
 4143.00    0.92893   0.94537   17.751
 4144.00    0.93586   0.95769   17.591
 4145.00    0.94825   0.96274   17.739
 4146.00    0.96977   0.96162   17.856
 4147.00    1.00058   0.95725   17.512
 4148.00    1.02343   0.95169   17.198
 4149.00    1.02047   0.94630   17.490
 4150.00    0.99690   0.94181   18.057
 4151.00    0.97226   0.93931   18.232
 4152.00    0.96532   0.94090   18.039
 4153.00    0.97912   0.94765   17.852
 4154.00    0.98910   0.95865   17.758
 4155.00    0.97803   0.97161   17.728
 4156.00    0.96967   0.98454   17.828
 4157.00    0.98519   0.99562   18.074
 4158.00    1.00215   1.00331   18.292
 4159.00    0.99982   1.00728   18.307
 4160.00    0.99867   1.00748   18.159
 4161.00    1.01676   1.00401   18.008
 4162.00    1.03446   0.99793   18.010
 4163.00    1.03161   0.99111   18.188
 4164.00    1.01620   0.98438   18.358
 4165.00    1.00362   0.97607   18.374
 4166.00    0.99965   0.96397   18.321
 4167.00    0.99831   0.94795   18.353
 4168.00    0.98505   0.93029   18.567
 4169.00    0.96169   0.91501   18.884
 4170.00    0.95470   0.90611   19.023
 4171.00    0.97095   0.90496   18.915
 4172.00    0.98040   0.90988   18.879
 4173.00    0.96651   0.91769   19.050
 4174.00    0.94812   0.92579   19.167
 4175.00    0.94575   0.93318   19.069
 4176.00    0.96317   0.94006   18.926
 4177.00    0.98612   0.94679   18.936
 4178.00    0.99023   0.95316   19.160
 4179.00    0.97618   0.95850   19.378
 4180.00    0.97329   0.96190   19.168
 4181.00    0.99179   0.96305   18.642
 4182.00    1.01198   0.96254   18.407
 4183.00    1.01834   0.96132   18.635
 4184.00    1.01145   0.96099   18.981
 4185.00    1.00263   0.96366   19.117
 4186.00    1.00594   0.97100   18.988
 4187.00    1.01959   0.98197   18.845
 4188.00    1.02830   0.99202   19.021
 4189.00    1.02814   0.99660   19.373
 4190.00    1.02698   0.99358   19.366
 4191.00    1.02457   0.98259   18.946
 4192.00    1.01347   0.96494   18.563
 4193.00    0.99576   0.94483   18.531
 4194.00    0.98345   0.92773   18.868
 4195.00    0.98848   0.91698   19.134
 4196.00    1.01224   0.91298   18.798
 4197.00    1.02923   0.91467   18.300
 4198.00    1.00850   0.92093   18.431
 4199.00    0.96407   0.93076   19.000
 4200.00    0.93777   0.94353   19.213
 4201.00    0.94596   0.95892   19.071
 4202.00    0.97685   0.97519   19.117
 4203.00    1.00506   0.98941   19.314
 4204.00    1.01070   0.99998   19.294
 4205.00    1.00522   1.00688   19.119
 4206.00    1.01138   1.01040   19.021
 4207.00    1.02643   1.01075   18.847
 4208.00    1.03313   1.00752   18.424
 4209.00    1.02389   1.00070   18.126
 4210.00    1.00534   0.99200   18.297
 4211.00    0.99819   0.98476   18.583
 4212.00    1.01574   0.98324   18.460
 4213.00    1.03912   0.99029   18.094
 4214.00    1.04536   1.00464   17.901
 4215.00    1.04156   1.02051   17.956
 4216.00    1.04062   1.02988   18.139
 4217.00    1.03287   1.02646   18.295
 4218.00    1.00785   1.00815   18.356
 4219.00    0.97689   0.97630   18.433
 4220.00    0.95087   0.93584   18.662
 4221.00    0.92027   0.89609   19.035
 4222.00    0.88257   0.86842   19.360
 4223.00    0.86356   0.86141   19.287
 4224.00    0.88031   0.87721   18.818
 4225.00    0.91373   0.90958   18.539
 4226.00    0.94206   0.94625   18.714
 4227.00    0.96506   0.97461   18.844
 4228.00    0.98369   0.98736   18.626
 4229.00    0.98769   0.98572   18.549
 4230.00    0.97587   0.97659   18.860
 4231.00    0.96600   0.96683   19.053
 4232.00    0.96898   0.96101   18.869
 4233.00    0.97619   0.96091   18.829
 4234.00    0.97967   0.96603   19.198
 4235.00    0.98236   0.97557   19.548
 4236.00    0.98892   0.98873   19.541
 4237.00    0.99990   1.00400   19.364
 4238.00    1.00902   1.01928   19.238
 4239.00    1.00650   1.03185   19.163
 4240.00    0.99942   1.03851   18.993
 4241.00    1.01125   1.03707   18.563
 4242.00    1.04164   1.02748   18.059
 4243.00    1.05976   1.01131   17.924
 4244.00    1.04606   0.99234   18.278
 4245.00    1.00760   0.97575   18.820
 4246.00    0.97223   0.96499   19.099
 4247.00    0.97204   0.96041   18.802
 4248.00    0.99766   0.96055   18.263
 4249.00    1.00615   0.96419   18.158
 4250.00    0.99259   0.97026   18.562
 4251.00    0.99099   0.97687   18.973
 4252.00    1.01149   0.98201   19.029
 4253.00    1.03363   0.98407   18.779
 4254.00    1.03919   0.98185   18.572
 4255.00    1.02368   0.97622   18.770
 4256.00    1.00156   0.97157   19.296
 4257.00    0.99417   0.97438   19.697
 4258.00    1.00001   0.98846   19.677
 4259.00    1.00323   1.01117   19.308
 4260.00    1.00637   1.03483   18.952
 4261.00    1.02121   1.05099   18.949
 4262.00    1.03716   1.05408   19.211
 4263.00    1.03219   1.04304   19.415
 4264.00    1.00441   1.02005   19.492
 4265.00    0.96833   0.98917   19.599
 4266.00    0.93789   0.95589   19.836
 4267.00    0.92062   0.92623   20.163
 4268.00    0.91364   0.90569   20.336
 4269.00    0.91113   0.89835   20.166
 4270.00    0.91584   0.90582   19.931
 4271.00    0.93099   0.92588   19.990
 4272.00    0.94739   0.95243   20.252
 4273.00    0.95597   0.97859   20.389
 4274.00    0.96496   0.99912   20.212
 4275.00    0.98460   1.01039   19.810
 4276.00    1.00706   1.01190   19.556
 4277.00    1.01764   1.00684   19.720
 4278.00    1.01011   0.99952   20.131
 4279.00    0.98972   0.99289   20.406
 4280.00    0.97290   0.98691   20.274
 4281.00    0.97036   0.97932   -2.000
 4282.00    0.97210   0.96806   -2.000
 4283.00    0.96313   0.95276   -2.000
 4284.00    0.93915   0.93553   -2.000
 4285.00    0.90736   0.92065   -2.000
 4286.00    0.88478   0.91246   -2.000
 4287.00    0.88660   0.91351   -2.000
 4288.00    0.91617   0.92301   -2.000
 4289.00    0.95770   0.93608   -2.000
 4290.00    0.97659   0.94544   -2.000
 4291.00    0.95516   0.94524   -2.000
 4292.00    0.91219   0.93381   -2.000
 4293.00    0.87103   0.91333   -2.000
 4294.00    0.84008   0.88742   -2.000
 4295.00    0.82342   0.86024   -2.000
 4296.00    0.82549   0.83705   -2.000
 4297.00    0.83941   0.82226   19.707
 4298.00    0.84530   0.81725   20.086
 4299.00    0.83524   0.81954   20.330
 4300.00    0.82196   0.82363   20.363
 4301.00    0.81934   0.82494   20.293
 4302.00    0.83102   0.82236   20.387
 4303.00    0.84387   0.81765   20.721
 4304.00    0.83476   0.81500   21.084
 4305.00    0.80840   0.81920   21.232
 4306.00    0.79924   0.83268   21.072
 4307.00    0.82071   0.85477   20.812
 4308.00    0.85542   0.88280   20.805
 4309.00    0.88924   0.91404   20.997
 4310.00    0.92257   0.94751   20.940
 4311.00    0.96595   0.98297   20.491
 4312.00    1.02905   1.01824   19.935
 4313.00    1.09327   1.04864   19.576
 4314.00    1.12167   1.06870   19.578
 4315.00    1.10872   1.07424   19.828
 4316.00    1.07922   1.06477   20.024
 4317.00    1.04918   1.04295   20.065
 4318.00    1.02037   1.01215   20.096
 4319.00    0.99242   0.97660   20.289
 4320.00    0.96644   0.94284   20.692
 4321.00    0.94606   0.91894   20.979
 4322.00    0.93451   0.91185   20.766
 4323.00    0.92863   0.92365   20.482
 4324.00    0.92546   0.94909   20.760
 4325.00    0.93659   0.97780   21.148
 4326.00    0.97341   0.99988   20.704
 4327.00    1.01709   1.01093   19.756
 4328.00    1.03746   1.01208   19.208
 4329.00    1.03244   1.00544   19.264
 4330.00    1.01642   0.99013    0.000
 4331.00    0.99264   0.96236    0.000
 4332.00    0.95990   0.91972    0.000
 4333.00    0.92801   0.86506    0.000
 4334.00    0.91212   0.80666    0.000
 4335.00    0.92151   0.75648    0.000
 4336.00    0.94951   0.72675    0.000
 4337.00    0.96511   0.72398    0.000
 4338.00    0.94615   0.74644    0.000
 4339.00    0.91614   0.78687    0.000
 4340.00    0.91020   0.83562    0.000
 4341.00    0.93434   0.88323    0.000
 4342.00    0.97196   0.92405    0.000
 4343.00    0.99675   0.95573    0.000
 4344.00    0.99377   0.97605    0.000
 4345.00    0.97584   0.98346    0.000
 4346.00    0.96129   0.97957    0.000
 4347.00    0.95439   0.96965    0.000
 4348.00    0.95537   0.96130    0.000
 4349.00    0.96857   0.96176    0.000
 4350.00    0.99206   0.97438    0.000
 4351.00    1.01162   0.99575   19.055
 4352.00    1.01817   1.01790   20.779
 4353.00    1.01828   1.03481   17.339
 4354.00    1.02011   1.04586   11.834
 4355.00    1.02486   1.05397    9.477
 4356.00    1.03421   1.06273    9.306
 4357.00    1.05320   1.07477    9.579
 4358.00    1.07910   1.08987    9.325
 4359.00    1.09796   1.10433    9.126
 4360.00    1.10125   1.11336    9.223
 4361.00    1.09288   1.11424    8.993
 4362.00    1.07996   1.10723    8.763
 4363.00    1.06761   1.09470   10.101
 4364.00    1.05800   1.08032   14.777
 4365.00    1.05032   1.06791   21.019
 4366.00    1.04249   1.05926   20.531
 4367.00    1.03236   1.05254   18.588
 4368.00    1.01959   1.04437   19.040
 4369.00    1.00699   1.03400   19.807
 4370.00    1.00271   1.02452   19.416
 4371.00    1.01529   1.02069   18.887
 4372.00    1.03498   1.02568   18.965
 4373.00    1.03975   1.03821   19.498
 4374.00    1.03269   1.05142   19.981
 4375.00    1.03709   1.05568   19.884
 4376.00    1.04833   1.04392   19.423
 4377.00    1.03814   1.01569   19.316
 4378.00    1.00350   0.97746   19.776
 4379.00    0.96702   0.94010   20.494
 4380.00    0.94434   0.91445   21.000
 4381.00    0.93850   0.90747   20.948
 4382.00    0.94670   0.91950   20.589
 4383.00    0.96223   0.94355   20.453
 4384.00    0.97525   0.96919   20.596
 4385.00    0.97662   0.98941   20.761
 4386.00    0.96523   1.00353   20.935
 4387.00    0.94975   1.01398   21.219
 4388.00    0.94848   1.02242   21.348
 4389.00    0.97385   1.02985   21.016
 4390.00    1.00709   1.03736   20.606
 4391.00    1.02125   1.04559   20.628
 4392.00    1.02376   1.05429   20.839
 4393.00    1.03729   1.06214   20.734
 4394.00    1.06177   1.06639   20.467
 4395.00    1.08157   1.06423   20.457
 4396.00    1.08374   1.05557   20.696
 4397.00    1.06463   1.04332   20.953
 4398.00    1.03450   1.03003   21.124
 4399.00    1.00801   1.01697   21.226
 4400.00    0.99200   1.00496   21.318
 4401.00    0.98445   0.99551   21.446
 4402.00    0.97616   0.99230   21.600
 4403.00    0.96554   0.99920   21.717
 4404.00    0.97113   1.01593   21.708
 4405.00    1.00238   1.03784   21.523
 4406.00    1.03348   1.06001   21.219
 4407.00    1.03918   1.07799   21.010
 4408.00    1.02725   1.08647   21.231
 4409.00    1.01971   1.08225   21.799
 4410.00    1.03287   1.06834   21.795
 4411.00    1.06286   1.05256   20.900
 4412.00    1.08086   1.04328   20.272
 4413.00    1.07496   1.04605   20.576
 4414.00    1.07347   1.06011   21.218
 4415.00    1.09121   1.07799   21.512
 4416.00    1.10029   1.09153   21.580
 4417.00    1.08557   1.09692   21.686
 4418.00    1.07268   1.09492   21.761
 4419.00    1.07720   1.08952   21.764
 4420.00    1.08083   1.08529   21.857
 4421.00    1.07146   1.08449   21.999
 4422.00    1.06148   1.08605   21.838
 4423.00    1.06432   1.08734   21.369
 4424.00    1.08164   1.08698   21.075
 4425.00    1.10248   1.08487   21.160
 4426.00    1.10842   1.08107   21.380
 4427.00    1.09619   1.07513   21.536
 4428.00    1.08121   1.06710   21.656
 4429.00    1.07128   1.05889   21.798
 4430.00    1.06110   1.05310   21.937
 4431.00    1.05247   1.05280   21.897
 4432.00    1.05620   1.06107   21.489
 4433.00    1.07165   1.07736   20.991
 4434.00    1.08553   1.09586   20.926
 4435.00    1.09169   1.10792   21.152
 4436.00    1.09407   1.10777   21.018
 4437.00    1.09558   1.09687   20.694
 4438.00    1.09554   1.08259   20.932
 4439.00    1.09224   1.07394   21.457
 4440.00    1.08571   1.07648   21.199
 4441.00    1.08260   1.08946   20.464
 4442.00    1.09184   1.10719   20.420
 4443.00    1.11144   1.12262   21.023
 4444.00    1.13087   1.13084   21.297
 4445.00    1.14369   1.13121   20.928
 4446.00    1.14677   1.12582   20.427
 4447.00    1.13322   1.11550   20.259
 4448.00    1.09858   1.10026   20.608
 4449.00    1.05513   1.08150   21.224
 4450.00    1.02293   1.06123   21.633
 4451.00    1.00929   1.04213   21.781
 4452.00    1.00965   1.02742   21.922
 4453.00    1.01557   1.01896   22.087
 4454.00    1.01882   1.01605   22.159
 4455.00    1.01573   1.01598   22.145
 4456.00    1.00994   1.01758   22.139
 4457.00    1.01431   1.02230   22.202
 4458.00    1.03391   1.03155   22.328
 4459.00    1.04532   1.04429   22.440
 4460.00    1.03063   1.05795   22.411
 4461.00    1.01976   1.06910    0.000
 4462.00    1.04501   1.07416    0.000
 4463.00    1.08537   1.07319    0.000
 4464.00    1.10405   1.06988    0.000
 4465.00    1.09500   1.06850    0.000
 4466.00    1.07473   1.07259    0.000
 4467.00    1.06735   1.08423    0.000
 4468.00    1.08492   1.10301    0.000
 4469.00    1.11275   1.12545    0.000
 4470.00    1.13335   1.14702    0.000
 4471.00    1.14683   1.16377    0.000
 4472.00    1.15610   1.17262    0.000
 4473.00    1.15504   1.17171    0.000
 4474.00    1.14130   1.16096    0.000
 4475.00    1.12467   1.14232    0.000
 4476.00    1.11245   1.12070    0.000
 4477.00    1.10094   1.10398    0.000
 4478.00    1.09120   1.09963    0.000
 4479.00    1.09611   1.10963    0.000
 4480.00    1.11872   1.12904    0.000
 4481.00    1.14202   1.14841    0.000
 4482.00    1.14907   1.15897   23.106
 4483.00    1.13550   1.15740   23.150
 4484.00    1.11267   1.14664   22.660
 4485.00    1.10320   1.13285   22.314
 4486.00    1.11325   1.12199   22.448
 4487.00    1.12534   1.11690   22.781
 4488.00    1.12755   1.11621   23.037
 4489.00    1.12369   1.11646   23.201
 4490.00    1.11830   1.11582   23.306
 4491.00    1.11190   1.11576   23.344
 4492.00    1.10860   1.11957   23.351
 4493.00    1.11554   1.12910   23.335
 4494.00    1.13013   1.14247   22.918
 4495.00    1.14215   1.15622   21.674
 4496.00    1.15590   1.16866   20.276
 4497.00    1.18679   1.18056   19.736
 4498.00    1.22736   1.19369   19.883
 4499.00    1.25047   1.20845   19.797
 4500.00    1.24911   1.22266   19.628
 4501.00    1.23809   1.23212   20.389
 4502.00    1.22702   1.23422   22.087
 4503.00    1.21693   1.23070   23.415
 4504.00    1.21076   1.22528   23.519
 4505.00    1.21074   1.22038   22.933
 4506.00    1.20685   1.21596   22.505
 4507.00    1.18565   1.21025   22.731
 4508.00    1.15469   1.20162   23.353
 4509.00    1.13429   1.19037   23.658
 4510.00    1.13092   1.17895   23.478
 4511.00    1.13768   1.17025   23.192
 4512.00    1.14546   1.16578   23.117
 4513.00    1.14788   1.16548   23.356
 4514.00    1.14567   1.16805   23.716
 4515.00    1.14320   1.17139   23.901
 4516.00    1.14170   1.17340   23.902
 4517.00    1.13990   1.17190   23.866
 4518.00    1.13657   1.16480   23.769
 4519.00    1.13000   1.15152   23.595
 4520.00    1.11702   1.13325   23.614
 4521.00    1.09834   1.11246   23.969
 4522.00    1.08462   1.09147   24.140
 4523.00    1.08339   1.07246   23.687
 4524.00    1.08386   1.05844   23.233
 4525.00    1.07438   1.05160   23.356
 4526.00    1.06280   1.05170   23.555
 4527.00    1.06192   1.05632   23.310
 4528.00    1.07271   1.06234   23.233
 4529.00    1.09046   1.06840   23.839
 4530.00    1.11211   1.07598   24.392
 4531.00    1.13192   1.08789   24.146
 4532.00    1.13890   1.10565   23.741
 4533.00    1.13258   1.12678   23.862
 4534.00    1.13290   1.14549   24.233
 4535.00    1.14988   1.15645   24.350
 4536.00    1.16368   1.15872   24.140
 4537.00    1.16068   1.15593   23.826
 4538.00    1.15637   1.15222   23.708
 4539.00    1.16277   1.14935   23.881
 4540.00    1.16896   1.14656   24.115
 4541.00    1.16506   1.14222   24.150
 4542.00    1.15616   1.13590   23.943
 4543.00    1.14867   1.12866   23.726
 4544.00    1.14248   1.12148   23.894
 4545.00    1.13486   1.11508   24.413
 4546.00    1.12375   1.11036   24.632
 4547.00    1.11176   1.10806   24.361
 4548.00    1.10589   1.10782   24.243
 4549.00    1.10649   1.10862   24.497
 4550.00    1.10639   1.11129    0.000
 4551.00    1.10996   1.11862    0.000
 4552.00    1.13390   1.13222    0.000
 4553.00    1.17673   1.15073    0.000
 4554.00    1.21356   1.17007    0.000
 4555.00    1.22416   1.18524    0.000
 4556.00    1.20521   1.19283    0.000
 4557.00    1.17412   1.19220    0.000
 4558.00    1.15976   1.18490    0.000
 4559.00    1.16962   1.17429    0.000
 4560.00    1.18754   1.16491    0.000
 4561.00    1.19957   1.16131    0.000
 4562.00    1.20174   1.16553    0.000
 4563.00    1.19891   1.17513    0.000
 4564.00    1.19962   1.18467    0.000
 4565.00    1.20404   1.18936    0.000
 4566.00    1.20576   1.18836    0.000
 4567.00    1.20332   1.18480    0.000
 4568.00    1.20049   1.18267    0.000
 4569.00    1.20034   1.18445    0.000
 4570.00    1.20322   1.18923    0.000
 4571.00    1.20563   1.19268    0.000
 4572.00    1.20258   1.19102    0.000
 4573.00    1.19269   1.18344    0.000
 4574.00    1.17857   1.17098    0.000
 4575.00    1.16552   1.15580    0.000
 4576.00    1.15724   1.14099    0.000
 4577.00    1.14939   1.12979    0.000
 4578.00    1.13683   1.12417    0.000
 4579.00    1.12581   1.12405    0.000
 4580.00    1.12545   1.12818    0.000
 4581.00    1.13334   1.13571    0.000
 4582.00    1.14271   1.14606    0.000
 4583.00    1.15442   1.15758    0.000
 4584.00    1.16971   1.16767    0.000
 4585.00    1.18004   1.17344    0.000
 4586.00    1.17687   1.17311    0.000
 4587.00    1.16363   1.16733    0.000
 4588.00    1.14712   1.15889    0.000
 4589.00    1.12754   1.15119    0.000
 4590.00    1.10795   1.14649    0.000
 4591.00    1.10299   1.14502    0.000
 4592.00    1.11877   1.14587    0.000
 4593.00    1.13636   1.14808    0.000
 4594.00    1.14087   1.15054    0.000
 4595.00    1.14485   1.15230    0.000
 4596.00    1.15919   1.15316    0.000
 4597.00    1.17105   1.15359    0.000
 4598.00    1.16920   1.15497    0.000
 4599.00    1.16226   1.15846    0.000
 4600.00    1.16038   1.16438    0.000
 4601.00    1.16310   1.17327    0.000
 4602.00    1.17015   1.18546    0.000
 4603.00    1.18688   1.20014    0.000
 4604.00    1.21080   1.21462    0.000
 4605.00    1.22664   1.22521    0.000
 4606.00    1.22649   1.22939    0.000
 4607.00    1.21861   1.22742    0.000
 4608.00    1.21243   1.22233    0.000
 4609.00    1.21082   1.21763    0.000
 4610.00    1.21368   1.21507    0.000
 4611.00    1.21948   1.21457    0.000
 4612.00    1.22375   1.21476    0.000
 4613.00    1.22085   1.21434    0.000
 4614.00    1.21398   1.21383    0.000
 4615.00    1.21491   1.21418    0.000
 4616.00    1.22653   1.21608    0.000
 4617.00    1.23953   1.21991    0.000
 4618.00    1.24561   1.22418    0.000
 4619.00    1.24254   1.22650    0.000
 4620.00    1.23395   1.22621    0.000
 4621.00    1.22664   1.22383    0.000
 4622.00    1.22271   1.22016    0.000
 4623.00    1.21849   1.21660    0.000
 4624.00    1.20883   1.21415    0.000
 4625.00    1.19244   1.21263    0.000
 4626.00    1.18211   1.21148    0.000
 4627.00    1.19460   1.21022    0.000
 4628.00    1.21934   1.20745    0.000
 4629.00    1.22883   1.20166    0.000
 4630.00    1.22014   1.19352    0.000
 4631.00    1.20946   1.18505    0.000
 4632.00    1.19970   1.17736    0.000
 4633.00    1.18287   1.17088    0.000
 4634.00    1.15911   1.16633    0.000
 4635.00    1.13740   1.16475    0.000
 4636.00    1.12938   1.16613    0.000
 4637.00    1.14037   1.16866    0.000
 4638.00    1.15672   1.16939    0.000
 4639.00    1.15857   1.16509    0.000
 4640.00    1.14324   1.15463    0.000
 4641.00    1.12171   1.14035    0.000
 4642.00    1.10702   1.12669    0.000
 4643.00    1.10575   1.11852    0.000
 4644.00    1.10955   1.11932    0.000
 4645.00    1.10994   1.12884    0.000
 4646.00    1.11757   1.14323    0.000
 4647.00    1.14247   1.15724    0.000
 4648.00    1.16919   1.16672    0.000
 4649.00    1.17950   1.17045    0.000
 4650.00    1.17969   1.17030    0.000
 4651.00    1.18424   1.17037    0.000
 4652.00    1.19617   1.17526    0.000
 4653.00    1.21162   1.18666    0.000
 4654.00    1.22614   1.20200    0.000
 4655.00    1.23389   1.21566    0.000
 4656.00    1.22734   1.22172    0.000
 4657.00    1.20582   1.21712    0.000
 4658.00    1.18102   1.20263    0.000
 4659.00    1.16299   1.18137    0.000
 4660.00    1.14998   1.15678    0.000
 4661.00    1.13784   1.13187    0.000
 4662.00    1.12683   1.10981    0.000
 4663.00    1.11731   1.09493    0.000
 4664.00    1.10770   1.09164    0.000
 4665.00    1.10183   1.10106    0.000
 4666.00    1.11072   1.11930    0.000
 4667.00    1.13443   1.14005    0.000
 4668.00    1.15581   1.15825    0.000
 4669.00    1.16494   1.17172    0.000
 4670.00    1.16924   1.18086    0.000
 4671.00    1.17450   1.18652    0.000
 4672.00    1.17663   1.18848    0.000
 4673.00    1.17055   1.18582    0.000
 4674.00    1.15579   1.17869    0.000
 4675.00    1.14133   1.16955    0.000
 4676.00    1.14227   1.16201    0.000
 4677.00    1.15843   1.15872    0.000
 4678.00    1.17228   1.16037    0.000
 4679.00    1.17390   1.16563    0.000
 4680.00    1.16775   1.17180    0.000
 4681.00    1.16231   1.17637    0.000
 4682.00    1.16414   1.17845    0.000
 4683.00    1.17180   1.17839    0.000
 4684.00    1.17677   1.17709    0.000
 4685.00    1.17255   1.17566    0.000
 4686.00    1.15900   1.17500    0.000
 4687.00    1.14619   1.17591    0.000
 4688.00    1.14725   1.17912    0.000
 4689.00    1.15770   1.18424    0.000
 4690.00    1.16089   1.18936    0.000
 4691.00    1.15396   1.19181    0.000
 4692.00    1.14577   1.18922    0.000
 4693.00    1.13821   1.18076    0.000
 4694.00    1.12788   1.16807    0.000
 4695.00    1.11828   1.15461    0.000
 4696.00    1.11502   1.14346    0.000
 4697.00    1.11229   1.13572    0.000
 4698.00    1.10224   1.13148    0.000
 4699.00    1.09547   1.13062    0.000
 4700.00    1.10726   1.13244    0.000
 4701.00    1.12909   1.13503    0.000
 4702.00    1.14166   1.13653    0.000
 4703.00    1.14176   1.13706    0.000
 4704.00    1.13781   1.13853    0.000
 4705.00    1.13711   1.14263    0.000
 4706.00    1.14142   1.14936    0.000
 4707.00    1.14391   1.15682    0.000
 4708.00    1.13847   1.16262    0.000
 4709.00    1.13096   1.16661    0.000
 4710.00    1.12924   1.17120    0.000
 4711.00    1.13084   1.17939    0.000
 4712.00    1.13204   1.19208    0.000
 4713.00    1.13847   1.20721    0.000
 4714.00    1.15703   1.22178    0.000
 4715.00    1.18655   1.23346    0.000
 4716.00    1.21618   1.24097    0.000
 4717.00    1.22689   1.24429    0.000
 4718.00    1.21231   1.24431    0.000
 4719.00    1.19367   1.24164    0.000
 4720.00    1.19234   1.23548    0.000
 4721.00    1.20716   1.22410    0.000
 4722.00    1.22115   1.20692    0.000
 4723.00    1.21137   1.18632    0.000
 4724.00    1.17477   1.16720    0.000
 4725.00    1.14016   1.15424    0.000
 4726.00    1.12841   1.14954    0.000
 4727.00    1.13002   1.15256    0.000
 4728.00    1.13206   1.16072    0.000
 4729.00    1.13424   1.17047    0.000
 4730.00    1.14046   1.17909    0.000
 4731.00    1.15300   1.18545    0.000
 4732.00    1.16978   1.19005    0.000
 4733.00    1.18460   1.19450    0.000
 4734.00    1.19473   1.19951    0.000
 4735.00    1.20244   1.20425    0.000
 4736.00    1.20474   1.20816    0.000
 4737.00    1.19369   1.21163    0.000
 4738.00    1.17708   1.21524    0.000
 4739.00    1.17757   1.21910    0.000
 4740.00    1.19542   1.22313    0.000
 4741.00    1.20582   1.22733    0.000
 4742.00    1.20230   1.23139    0.000
 4743.00    1.20157   1.23444    0.000
 4744.00    1.20577   1.23571    0.000
 4745.00    1.20036   1.23463    0.000
 4746.00    1.18839   1.23065    0.000
 4747.00    1.18821   1.22370    0.000
 4748.00    1.19571   1.21480    0.000
 4749.00    1.19013   1.20565    0.000
 4750.00    1.17861   1.19818    0.000
 4751.00    1.18795   1.19382    0.000
 4752.00    1.21430   1.19294    0.000
 4753.00    1.22875   1.19454    0.000
 4754.00    1.21970   1.19634    0.000
 4755.00    1.19599   1.19553    0.000
 4756.00    1.17174   1.18979    0.000
 4757.00    1.15793   1.17888    0.000
 4758.00    1.15304   1.16506    0.000
 4759.00    1.14904   1.15166    0.000
 4760.00    1.14587   1.14191    0.000
 4761.00    1.14925   1.13846   26.217
 4762.00    1.16205   1.14237   26.364
 4763.00    1.18068   1.15241   25.865
 4764.00    1.19251   1.16566   25.419
 4765.00    1.18996   1.17868   25.793
 4766.00    1.19059   1.18915   26.172
 4767.00    1.21337   1.19723   25.482
 4768.00    1.24321   1.20464   24.705
 4769.00    1.25353   1.21260   25.036
 4770.00    1.24108   1.22086   25.877
 4771.00    1.21867   1.22827   26.046
 4772.00    1.20051   1.23351   25.797
 4773.00    1.19497   1.23543   25.878
 4774.00    1.19912   1.23361   26.142
 4775.00    1.20757   1.22860   26.146
 4776.00    1.22122   1.22126   25.929
 4777.00    1.23594   1.21241   25.794
 4778.00    1.23348   1.20328   25.972
 4779.00    1.20896   1.19505   26.434
 4780.00    1.19171   1.18822   26.745
 4781.00    1.20246   1.18302   26.621
 4782.00    1.21990   1.17987   26.421
 4783.00    1.21823   1.17896   26.492
 4784.00    1.19742   1.18067   26.720
 4785.00    1.17322   1.18570   26.900
 4786.00    1.16560   1.19452   27.018
 4787.00    1.18065   1.20697   27.075
 4788.00    1.20257   1.22177   26.990
 4789.00    1.21835   1.23621   26.819
 4790.00    1.23102   1.24682   26.825
 4791.00    1.24176   1.25093   27.083
 4792.00    1.24213   1.24791   27.315
 4793.00    1.23132   1.23971   27.321
 4794.00    1.22176   1.23030   27.191
 4795.00    1.21785   1.22368   27.031
 4796.00    1.20952   1.22178   26.859
 4797.00    1.19398   1.22354   26.794
 4798.00    1.18220   1.22591   27.047
 4799.00    1.18064   1.22595   27.470
 4800.00    1.18487   1.22250   27.517
 4801.00    1.18728   1.21646   27.117
 4802.00    1.18228   1.21012   26.812
 4803.00    1.17326   1.20586   26.852
 4804.00    1.17057   1.20481   27.042
 4805.00    1.17610   1.20675   27.211
 4806.00    1.18224   1.21067   27.333
 4807.00    1.18665   1.21555   27.388
 4808.00    1.19293   1.22086   27.356
 4809.00    1.19783   1.22665   27.374
 4810.00    1.19426   1.23318   27.633
 4811.00    1.18997   1.24041   28.006
 4812.00    1.20109   1.24768   28.115
 4813.00    1.22208   1.25366   27.899
 4814.00    1.23068   1.25659   27.620
 4815.00    1.21827   1.25478   27.469
 4816.00    1.19294   1.24731   27.495
 4817.00    1.16926   1.23518   27.651
 4818.00    1.16000   1.22135   27.827
 4819.00    1.16468   1.20955   27.892
 4820.00    1.17366   1.20252   27.802
 4821.00    1.18069   1.20070   27.772
 4822.00    1.18304   1.20227   28.028
 4823.00    1.17760   1.20436   28.351
 4824.00    1.16456   1.20474   28.353
 4825.00    1.15409   1.20297   28.152
 4826.00    1.15569   1.20016   28.100
 4827.00    1.16070   1.19796   28.205
 4828.00    1.15673   1.19753   28.304
 4829.00    1.15112   1.19903   28.419
 4830.00    1.15572   1.20143   28.632
 4831.00    1.16299   1.20288   28.862
 4832.00    1.16096   1.20176   28.982
 4833.00    1.15475   1.19754   29.014
 4834.00    1.15314   1.19103   29.042
 4835.00    1.15099   1.18389   29.081
 4836.00    1.14150   1.17806   29.139
 4837.00    1.13081   1.17495   29.288
 4838.00    1.12856   1.17484   29.520
 4839.00    1.13692   1.17684   29.620
 4840.00    1.15100   1.17924   29.530
 4841.00    1.16133   1.18010   29.642
 4842.00    1.16296   1.17816   30.067
 4843.00    1.16197   1.17346   30.086
 4844.00    1.16248   1.16717   29.434
 4845.00    1.15744   1.16042   29.137
 4846.00    1.14198   1.15295   29.688
 4847.00    1.12223   1.14304   30.044
 4848.00    1.10161   1.12870    0.000
 4849.00    1.07382   1.10907    0.000
 4850.00    1.04457   1.08483    0.000
 4851.00    1.04074   1.05728    0.000
 4852.00    1.07664   1.02688    0.000
 4853.00    1.13751   0.99313    0.000
 4854.00    1.20572   0.95628    0.000
 4855.00    1.27358   0.91960    0.000
 4856.00    1.32851   0.89000    0.000
 4857.00    1.34961   0.87535    0.000
 4858.00    1.33106   0.88031    0.000
 4859.00    1.28860   0.90371    0.000
 4860.00    1.23607   0.93919    0.000
 4861.00    1.17727   0.97812    0.000
 4862.00    1.11830   1.01277    0.000
 4863.00    1.07079   1.03825    0.000
 4864.00    1.04328   1.05289    0.000
 4865.00    1.03692   1.05822    0.000
 4866.00    1.04280   1.05838    0.000
 4867.00    1.04679   1.05860    0.000
 4868.00    1.04829   1.06326    0.000
 4869.00    1.05867   1.07412    0.000
 4870.00    1.07694   1.09029    0.000
 4871.00    1.08972   1.10929    0.000
 4872.00    1.09350   1.12862    0.000
 4873.00    1.09645   1.14622    0.000
 4874.00    1.10523   1.16039    0.000
 4875.00    1.12007   1.16966   29.636
 4876.00    1.13215   1.17315   29.578
 4877.00    1.13036   1.17099   29.562
 4878.00    1.11794   1.16440   29.519
 4879.00    1.10736   1.15517   29.140
 4880.00    1.10122   1.14516   28.696
 4881.00    1.09457   1.13580   28.641
 4882.00    1.08765   1.12787   28.664
 4883.00    1.08378   1.12157   28.260
 4884.00    1.08077   1.11718   28.047
 4885.00    1.07677   1.11603   28.792
 4886.00    1.08227   1.12074   29.506
 4887.00    1.10809   1.13403   28.661
 4888.00    1.14350   1.15650   27.344
 4889.00    1.16981   1.18530   27.203
 4890.00    1.18535   1.21478   27.932
 4891.00    1.19873   1.23885   28.313
 4892.00    1.21417   1.25340   27.930
 4893.00    1.22962   1.25757   27.195
 4894.00    1.23738   1.25339   26.692
 4895.00    1.23035   1.24453   26.747
 4896.00    1.20970   1.23484   27.155
 4897.00    1.18563   1.22732   27.490
 4898.00    1.17593   1.22359   27.484
 4899.00    1.19048   1.22378   27.113
 4900.00    1.21663   1.22645   26.579
 4901.00    1.23477   1.22885   26.217
 4902.00    1.23497   1.22794   26.391
 4903.00    1.21746   1.22197   27.106
 4904.00    1.19110   1.21183   27.632
 4905.00    1.16816   1.20094   27.433
 4906.00    1.15920   1.19360   27.071
 4907.00    1.16642   1.19263   27.069
 4908.00    1.18013   1.19774   27.151
 4909.00    1.18950   1.20534   27.047
 4910.00    1.19034   1.20986   27.025
 4911.00    1.18236   1.20594   27.290
 4912.00    1.16675   1.19076   27.622
 4913.00    1.14474   1.16566   27.820
 4914.00    1.11749   1.13611   27.995
 4915.00    1.09046   1.10981   28.264
 4916.00    1.07394   1.09348   28.563
 4917.00    1.07144   1.09035   28.778
 4918.00    1.07627   1.09967   28.840
 4919.00    1.08699   1.11816   28.825
 4920.00    1.11123   1.14215   28.917
 4921.00    1.14600   1.16860   29.072
 4922.00    1.17350   1.19495   28.978
 4923.00    1.18433   1.21855   28.647
 4924.00    1.18495   1.23662   28.487
 4925.00    1.18553   1.24675   28.607
 4926.00    1.19244   1.24783   28.704
 4927.00    1.19988   1.24063   28.627
 4928.00    1.19403   1.22766   28.532
 4929.00    1.17754   1.21225   28.638
 4930.00    1.16823   1.19712   29.075
 4931.00    1.16727   1.18375   29.660
 4932.00    1.15957   1.17292   29.971
 4933.00    1.14672   1.16590   29.991
 4934.00    1.14582   1.16482   30.068
 4935.00    1.15839   1.17155   30.148
 4936.00    1.17182   1.18581   29.872
 4937.00    1.18587   1.20469   29.401
 4938.00    1.20874   1.22375   29.235
 4939.00    1.23141   1.23930   29.408
 4940.00    1.23560   1.24988    0.000
 4941.00    1.22510   1.25636    0.000
 4942.00    1.21897   1.26077    0.000
 4943.00    1.22277   1.26476    0.000
 4944.00    1.22904   1.26872    0.000
 4945.00    1.23006   1.27171    0.000
 4946.00    1.22195   1.27211    0.000
 4947.00    1.20715   1.26828    0.000
 4948.00    1.19156   1.25900    0.000
 4949.00    1.17886   1.24384    0.000
 4950.00    1.16987   1.22378    0.000
 4951.00    1.16303   1.20178    0.000
 4952.00    1.15778   1.18282    0.000
 4953.00    1.15895   1.17231    0.000
 4954.00    1.17149   1.17339    0.000
 4955.00    1.19278   1.18494    0.000
 4956.00    1.21317   1.20177    0.000
 4957.00    1.21884   1.21724    0.000
 4958.00    1.20440   1.22625    0.000
 4959.00    1.18538   1.22706    0.000
 4960.00    1.17753   1.22119    0.000
 4961.00    1.17454   1.21211    0.000
 4962.00    1.16586   1.20367    0.000
 4963.00    1.15606   1.19878    0.000
 4964.00    1.15559   1.19888    0.000
 4965.00    1.16991   1.20391    0.000
 4966.00    1.19676   1.21268    0.000
 4967.00    1.22538   1.22329    0.000
 4968.00    1.24364   1.23345    0.000
 4969.00    1.24454   1.24085    0.000
 4970.00    1.23097   1.24353    0.000
 4971.00    1.21661   1.24029    0.000
 4972.00    1.20858   1.23086    0.000
 4973.00    1.19779   1.21579    0.000
 4974.00    1.17705   1.19621    0.000
 4975.00    1.15170   1.17368    0.000
 4976.00    1.12845   1.15037    0.000
 4977.00    1.10912   1.12937    0.000
 4978.00    1.09612   1.11444    0.000
 4979.00    1.09446   1.10885    0.000
 4980.00    1.10422   1.11388    0.000
 4981.00    1.11823   1.12783    0.000
 4982.00    1.13018   1.14644    0.000
 4983.00    1.13851   1.16465    0.000
 4984.00    1.14511   1.17860    0.000
 4985.00    1.15332   1.18693    0.000
 4986.00    1.16256   1.19065    0.000
 4987.00    1.16813   1.19200    0.000
 4988.00    1.16941   1.19304    0.000
 4989.00    1.17137   1.19468    0.000
 4990.00    1.17857   1.19645    0.000
 4991.00    1.19061   1.19688    0.000
 4992.00    1.19550   1.19417    0.000
 4993.00    1.17652   1.18719    0.000
 4994.00    1.14010   1.17617    0.000
 4995.00    1.11280   1.16270    0.000
 4996.00    1.10738   1.14901    0.000
 4997.00    1.11745   1.13683    0.000
 4998.00    1.13063   1.12687    0.000
 4999.00    1.13731   1.11920    0.000
 5000.00    1.14254   1.11414    0.000
 5001.00    1.15883   1.11262    0.000
 5002.00    1.18302   1.11539    0.000
 5003.00    1.20002   1.12163    0.000
 5004.00    1.20245   1.12842    0.000
 5005.00    1.19151   1.13177    0.000
 5006.00    1.17000   1.12881    0.000
 5007.00    1.14214   1.11950    0.000
 5008.00    1.11568   1.10667    0.000
 5009.00    1.09799   1.09447    0.000
 5010.00    1.08886   1.08621    0.000
 5011.00    1.08260   1.08321    0.000
 5012.00    1.07380   1.08488    0.000
 5013.00    1.06183   1.08980    0.000
 5014.00    1.05573   1.09666    0.000
 5015.00    1.06438   1.10465    0.000
 5016.00    1.08247   1.11333    0.000
 5017.00    1.09869   1.12236    0.000
 5018.00    1.10875   1.13136    0.000
 5019.00    1.11344   1.13980    0.000
 5020.00    1.11445   1.14705    0.000
 5021.00    1.11539   1.15284    0.000
 5022.00    1.12260   1.15773    0.000
 5023.00    1.13693   1.16309    0.000
 5024.00    1.14650   1.17034    0.000
 5025.00    1.14420   1.17989    0.000
 5026.00    1.14322   1.19050    0.000
 5027.00    1.15442   1.19953    0.000
 5028.00    1.16669   1.20390    0.000
 5029.00    1.16571   1.20137   32.085
 5030.00    1.15051   1.19143   32.157
 5031.00    1.12658   1.17532   31.833
 5032.00    1.09965   1.15529   32.019
 5033.00    1.07699   1.13392   33.035
 5034.00    1.06725   1.11400   33.490
 5035.00    1.07123   1.09898   32.711
 5036.00    1.07815   1.09275   32.291
 5037.00    1.08209   1.09817   33.078
 5038.00    1.09010   1.11514   33.885
 5039.00    1.10577   1.13952   33.714
 5040.00    1.12176   1.16435   33.230
 5041.00    1.13359   1.18261   33.164
 5042.00    1.14487   1.19014   33.511
 5043.00    1.15375   1.18705   33.994
 5044.00    1.14999   1.17728   34.312
 5045.00    1.13416   1.16654   34.378
 5046.00    1.12212   1.15992   34.341
 5047.00    1.12403   1.16024   34.126
 5048.00    1.13685   1.16755   33.458
 5049.00    1.15251   1.17982   32.671
 5050.00    1.16352   1.19417   32.562
 5051.00    1.17018   1.20810   33.149
 5052.00    1.18009   1.22013   33.560
 5053.00    1.19706   1.22972   33.265
 5054.00    1.21831   1.23669   32.518
 5055.00    1.23852   1.24048   31.834
 5056.00    1.25124   1.24002   31.628
 5057.00    1.24914   1.23423   31.888
 5058.00    1.22764   1.22298   32.247
 5059.00    1.19425   1.20776   32.388
 5060.00    1.16452   1.19157   32.260
 5061.00    1.14488   1.17774   32.250
 5062.00    1.13240   1.16857   32.799
 5063.00    1.12510   1.16445   33.438
 5064.00    1.12338   1.16414   33.190
 5065.00    1.12760   1.16571   32.366
 5066.00    1.13646   1.16746   32.024
 5067.00    1.14532   1.16851   32.258
 5068.00    1.14893   1.16866   32.475
 5069.00    1.14749   1.16784   32.326
 5070.00    1.14430   1.16555   31.880
 5071.00    1.13958   1.16072   31.503
 5072.00    1.13194   1.15233   31.567
 5073.00    1.12259   1.14043   32.117
 5074.00    1.11394   1.12677   32.852
 5075.00    1.10654   1.11460   33.147
 5076.00    1.10046   1.10734   32.619
 5077.00    1.09796   1.10714   31.897
 5078.00    1.10185   1.11395   31.726
 5079.00    1.11272   1.12589   31.954
 5080.00    1.12860   1.14025   32.033
 5081.00    1.14521   1.15459   31.738
 5082.00    1.15856   1.16742   31.193
 5083.00    1.16809   1.17828   30.726
 5084.00    1.17640   1.18747   30.651
 5085.00    1.18799   1.19550   31.110
 5086.00    1.20164   1.20247   31.941
 5087.00    1.20443   1.20773   32.503
 5088.00    1.18826   1.20987   32.413
 5089.00    1.16413   1.20723   32.290
 5090.00    1.14558   1.19879   32.625
 5091.00    1.13384   1.18507   32.888
 5092.00    1.12623   1.16850   32.661
 5093.00    1.12336   1.15291   32.529
 5094.00    1.12525   1.14218   32.855
 5095.00    1.12876   1.13856   32.996
 5096.00    1.13343   1.14167   32.600
 5097.00    1.14408   1.14865   32.401
 5098.00    1.15987   1.15565   32.822
 5099.00    1.16902   1.15945   33.270
 5100.00    1.16210   1.15873   33.298
 5101.00    1.14041   1.15414   33.282
 5102.00    1.11580   1.14771   33.461
 5103.00    1.10671   1.14195   33.498
 5104.00    1.11964   1.13911   33.234
 5105.00    1.14279   1.14059   33.003
 5106.00    1.16343   1.14669   33.062
 5107.00    1.17661   1.15662   33.351
 5108.00    1.18440   1.16885   33.578
 5109.00    1.19296   1.18165   33.388
 5110.00    1.20245   1.19348   32.951
 5111.00    1.20570   1.20303   32.898
 5112.00    1.19961   1.20910   33.296
 5113.00    1.18795   1.21048   33.559
 5114.00    1.17510   1.20618   33.515
 5115.00    1.16391   1.19593   33.562
 5116.00    1.15699   1.18058   33.680
 5117.00    1.15536   1.16214   33.438
 5118.00    1.15341   1.14339   33.089
 5119.00    1.14193   1.12706   33.401
 5120.00    1.12121   1.11509   34.353
 5121.00    1.10044   1.10815   35.146
 5122.00    1.08559   1.10588   35.496
 5123.00    1.07839   1.10741   35.755
 5124.00    1.08185   1.11192   35.886
 5125.00    1.09814   1.11885   35.552
 5126.00    1.12045   1.12761   35.009
 5127.00    1.13426   1.13727   34.870
 5128.00    1.12461   1.14644   35.328
 5129.00    1.08646   1.15343   36.095
 5130.00    1.04126   1.15673   -1.000
 5131.00    1.02149   1.15554   -1.000
 5132.00    1.03616   1.15022   -1.000
 5133.00    1.07124   1.14232   34.831
 5134.00    1.10258   1.13395   35.010
 5135.00    1.11238   1.12696   35.064
 5136.00    1.11104   1.12222   34.752
 5137.00    1.11899   1.11964   34.210
 5138.00    1.13526   1.11852   33.707
 5139.00    1.14698   1.11811   33.501
 5140.00    1.14894   1.11786   33.733
 5141.00    1.14195   1.11753   34.290
 5142.00    1.12735   1.11713   34.619
 5143.00    1.10891   1.11671   34.328
 5144.00    1.09524   1.11621   33.971
 5145.00    1.09173   1.11547   34.062
 5146.00    1.09208   1.11461   34.080
 5147.00    1.09053   1.11439   33.554
 5148.00    1.09420   1.11619   33.175
 5149.00    1.10936   1.12149   33.484
 5150.00    1.12811   1.13094   33.771
 5151.00    1.14217   1.14377   33.380
 5152.00    1.15503   1.15785   32.930
 5153.00    1.16837   1.17027   32.995
 5154.00    1.17183   1.17823   33.161
 5155.00    1.15972   1.17966   33.068
 5156.00    1.14250   1.17328   33.179
 5157.00    1.12909   1.15842   33.740
 5158.00    1.11469   1.13495   34.108
 5159.00    1.09081   1.10350   33.913
 5160.00    1.05347   1.06626   33.813
 5161.00    1.00806   1.02717   34.290
 5162.00    0.96951   0.99132   35.011
 5163.00    0.94638   0.96325   35.501
 5164.00    0.93400   0.94529   35.618
 5165.00    0.92812   0.93726   35.476
 5166.00    0.93085   0.93776   35.324
 5167.00    0.94098   0.94607   35.317
 5168.00    0.95154   0.96262   35.426
 5169.00    0.96262   0.98766   35.501
 5170.00    0.98359   1.01925   35.342
 5171.00    1.01628   1.05255   34.936
 5172.00    1.05007   1.08104   34.480
 5173.00    1.07308   1.09869   34.137
 5174.00    1.07830   1.10185   33.976
 5175.00    1.06860   1.09029   34.109
 5176.00    1.05407   1.06748   34.678
 5177.00    1.03673   1.04015   35.598
 5178.00    1.01126   1.01687   36.525
 5179.00    0.98466   1.00542   37.198
 5180.00    0.97498   1.00985   37.560
 5181.00    0.98810   1.02865   37.554
 5182.00    1.01529   1.05554   37.181
 5183.00    1.04639   1.08230   36.783
 5184.00    1.07392   1.10211   36.802
 5185.00    1.09332   1.11192   37.099
 5186.00    1.10318   1.11269   37.134
 5187.00    1.10529   1.10827   36.870
 5188.00    1.10345   1.10335   36.667
 5189.00    1.10091   1.10178   36.547
 5190.00    1.10036   1.10544    0.000
 5191.00    1.10518   1.11415    0.000
 5192.00    1.11789   1.12626    0.000
 5193.00    1.13682   1.13925    0.000
 5194.00    1.15622   1.15035    0.000
 5195.00    1.16787   1.15689    0.000
 5196.00    1.16536   1.15675    0.000
 5197.00    1.15056   1.14887    0.000
 5198.00    1.12968   1.13373    0.000
 5199.00    1.10579   1.11352    0.000
 5200.00    1.08081   1.09183    0.000
 5201.00    1.05999   1.07290    0.000
 5202.00    1.04977   1.06062    0.000
 5203.00    1.05393   1.05765    0.000
 5204.00    1.07131   1.06476    0.000
 5205.00    1.09404   1.08060    0.000
 5206.00    1.11398   1.10188    0.000
 5207.00    1.13006   1.12420    0.000
 5208.00    1.14263   1.14337    0.000
 5209.00    1.14738   1.15692    0.000
 5210.00    1.14326   1.16500    0.000
 5211.00    1.13995   1.16995   35.268
 5212.00    1.14485   1.17482   34.955
 5213.00    1.15160   1.18147   34.596
 5214.00    1.15412   1.18944   34.638
 5215.00    1.15829   1.19601   34.783
 5216.00    1.16890   1.19750   34.564
 5217.00    1.17917   1.19098   33.902
 5218.00    1.17862   1.17568   33.214
 5219.00    1.16071   1.15381   33.242
 5220.00    1.13039   1.13021   34.145
 5221.00    1.10625   1.11098   34.975
 5222.00    1.10126   1.10116   34.941
 5223.00    1.11158   1.10268   34.454
 5224.00    1.12683   1.11347   34.136
 5225.00    1.13763   1.12861   34.168
 5226.00    1.14021   1.14278   34.376
 5227.00    1.13793   1.15293   34.369
 5228.00    1.13644   1.15927   34.114
 5229.00    1.14055   1.16442   34.060
 5230.00    1.15176   1.17138   34.275
 5231.00    1.16765   1.18159   34.239
 5232.00    1.18422   1.19434   33.807
 5233.00    1.19743   1.20753   33.460
 5234.00    1.20481   1.21894   33.444
 5235.00    1.20651   1.22726   33.578
 5236.00    1.20656   1.23222   33.729
 5237.00    1.21074   1.23407   33.953
 5238.00    1.21756   1.23295   34.277
 5239.00    1.21843   1.22864   34.645
 5240.00    1.20964   1.22086   35.001
 5241.00    1.19467   1.20991   35.311
 5242.00    1.17829   1.19699   35.513
 5243.00    1.16397   1.18414   35.538
 5244.00    1.15204   1.17351   35.423
 5245.00    1.14088   1.16665   35.324
 5246.00    1.13169   1.16414   35.485
 5247.00    1.12774   1.16571   36.040
 5248.00    1.12942   1.17072   36.516
 5249.00    1.13550   1.17856   36.207
 5250.00    1.14883   1.18865   35.502
 5251.00    1.17316   1.19990   35.348
 5252.00    1.20357   1.21011   35.734
 5253.00    1.22843   1.21601   35.973
 5254.00    1.23740   1.21403   35.811
 5255.00    1.22456   1.20173   35.523
 5256.00    1.19105   1.17906   35.532
 5257.00    1.14501   1.14865   36.066
 5258.00    1.10042   1.11508   36.670
 5259.00    1.06899   1.08333   36.672
 5260.00    1.04806   1.05719   36.231
 5261.00    1.02949   1.03840   35.861
 5262.00    1.01540   1.02696   35.475
 5263.00    1.01210   1.02211   34.841
 5264.00    1.01883   1.02343   34.258
 5265.00    1.03192   1.03105   34.038
 5266.00    1.05189   1.04493   33.870
 5267.00    1.07809   1.06411   33.410
 5268.00    1.10197   1.08664   32.987
 5269.00    1.11679   1.11026   32.981
 5270.00    1.12865   1.13329   33.180
 5271.00    1.14580   1.15462   33.188
 5272.00    1.16673   1.17318   32.930
 5273.00    1.18496   1.18745   32.583
 5274.00    1.19509   1.19591   32.419
 5275.00    1.19462   1.19809   32.542
 5276.00    1.18538   1.19553   32.720
 5277.00    1.17382   1.19176   32.814
 5278.00    1.17038   1.19094   33.077
 5279.00    1.18112   1.19617   33.353
 5280.00    1.20231   1.20809   32.685
 5281.00    1.22814   1.22485   31.488
 5282.00    1.25592   1.24306   32.030
 5283.00    1.28104   1.25929   33.918
 5284.00    1.29498   1.27113   31.906
 5285.00    1.29616   1.27749   28.576
 5286.00    1.29428   1.27821   33.815
 5287.00    1.29409   1.27342   45.178
 5288.00    1.28824   1.26331   22.794
 5289.00    1.27153   1.24835   10.421
 5290.00    1.24751   1.22979    7.525
 5291.00    1.22073   1.20996    7.626
 5292.00    1.19363   1.19211    8.674
 5293.00    1.17165   1.17953    9.015
 5294.00    1.16343   1.17452    8.236
 5295.00    1.17105   1.17769    7.795
 5296.00    1.18774   1.18793    9.684
 5297.00    1.20622   1.20295   18.613
 5298.00    1.22241   1.22007   42.823
 5299.00    1.23577   1.23678   38.995
 5300.00    1.24816   1.25129   29.969
 5301.00    1.25969   1.26266   31.822
 5302.00    1.26803   1.27086   35.750
 5303.00    1.27099   1.27640   35.426
 5304.00    1.26851   1.27985   34.567
 5305.00    1.26579   1.28139   35.230
 5306.00    1.26981   1.28079   35.599
 5307.00    1.27743   1.27774   35.178
 5308.00    1.27843   1.27225   35.272
 5309.00    1.27198   1.26494   35.965
 5310.00    1.26513   1.25700   36.163
 5311.00    1.25891   1.24972   35.738
 5312.00    1.24937   1.24402   35.522
 5313.00    1.23742   1.24000   35.906
 5314.00    1.22789   1.23685   36.683
 5315.00    1.22296   1.23300   37.185
 5316.00    1.22119   1.22671   36.842
 5317.00    1.21855   1.21665   36.305
 5318.00    1.21023   1.20226   36.549
 5319.00    1.19344   1.18389   37.226
 5320.00    1.16965   1.16289   37.373
 5321.00    1.14695   1.14182   37.214
 5322.00    1.13380   1.12424   37.479
 5323.00    1.12902   1.11405   37.841
 5324.00    1.12765   1.11404   37.543
 5325.00    1.13118   1.12475   36.742
 5326.00    1.14245   1.14396   36.052
 5327.00    1.15724   1.16744   35.739
 5328.00    1.17089   1.19044   35.726
 5329.00    1.18731   1.20911   35.689
 5330.00    1.20942   1.22117   35.393
 5331.00    1.22785   1.22600   35.052
 5332.00    1.23209   1.22432   34.974
 5333.00    1.22349   1.21797   35.180
 5334.00    1.20988   1.20971   35.495
 5335.00    1.19841   1.20256   35.671
 5336.00    1.19218   1.19884   35.557
 5337.00    1.18825   1.19928   35.261
 5338.00    1.18334   1.20287   35.057
 5339.00    1.17859   1.20750   35.248
 5340.00    1.17613   1.21119   35.767
 5341.00    1.17630   1.21307   35.918
 5342.00    1.18043   1.21374   35.389
 5343.00    1.19218   1.21494   34.905
 5344.00    1.20975   1.21862   34.887
 5345.00    1.22260   1.22603   34.796
 5346.00    1.22576   1.23730   34.312
 5347.00    1.22748   1.25151   33.951
 5348.00    1.23620   1.26706   34.051
 5349.00    1.25250   1.28220   34.317
 5350.00    1.27023   1.29531   34.451
 5351.00    1.27968   1.30516   34.494
 5352.00    1.27924   1.31086   34.563
 5353.00    1.27847   1.31186   34.703
 5354.00    1.28303   1.30803   34.919
 5355.00    1.28887   1.29978   35.190
 5356.00    1.29010   1.28811   35.448
 5357.00    1.28305   1.27443   35.606
 5358.00    1.26735   1.26019   35.728
 5359.00    1.24602   1.24642   36.023
 5360.00    1.22427   1.23341   36.543
 5361.00    1.20759   1.22079   37.074
 5362.00    1.19665   1.20804   37.267
 5363.00    1.18744   1.19527   36.882
 5364.00    1.17784   1.18383   36.319
 5365.00    1.16946   1.17629   36.330
 5366.00    1.16588   1.17535   36.877
 5367.00    1.17095   1.18252   -2.000
 5368.00    1.18534   1.19705   -2.000
 5369.00    1.20636   1.21597   -2.000
 5370.00    1.22998   1.23517   -2.000
 5371.00    1.25223   1.25097   -2.000
 5372.00    1.27090   1.26123   -2.000
 5373.00    1.28348   1.26558   -2.000
 5374.00    1.28162   1.26517   -2.000
 5375.00    1.25859   1.26183   -2.000
 5376.00    1.22749   1.25750   -2.000
 5377.00    1.21065   1.25379   -2.000
 5378.00    1.21103   1.25164   -2.000
 5379.00    1.21641   1.25108   -2.000
 5380.00    1.21811   1.25123   -2.000
 5381.00    1.21445   1.25070   -2.000
 5382.00    1.21040   1.24810   35.743
 5383.00    1.21213   1.24271   35.943
 5384.00    1.21854   1.23475   35.607
 5385.00    1.22347   1.22511   35.211
 5386.00    1.22133   1.21485   35.201
 5387.00    1.21145   1.20470   35.698
 5388.00    1.20226   1.19514   36.200
 5389.00    1.20061   1.18640   36.158
 5390.00    1.19823   1.17887   35.879
 5391.00    1.18655   1.17345   35.846
 5392.00    1.17543   1.17117   35.823
 5393.00    1.17686   1.17228   35.457
 5394.00    1.18529   1.17569   35.014
 5395.00    1.18832   1.17906   34.933
 5396.00    1.18039   1.17964   35.338
 5397.00    1.16441   1.17555   35.998
 5398.00    1.15092   1.16671   36.325
 5399.00    1.14683   1.15503   36.171
 5400.00    1.14661   1.14367   36.434
 5401.00    1.14419   1.13582   37.521
 5402.00    1.14273   1.13344   38.115
 5403.00    1.14615   1.13695   37.290
 5404.00    1.15253   1.14556   36.320
 5405.00    1.15869   1.15790   36.227
 5406.00    1.16405   1.17259   36.501
 5407.00    1.17147   1.18838   36.460
 5408.00    1.18627   1.20409   36.143
 5409.00    1.20802   1.21863   35.950
 5410.00    1.22733   1.23105   36.272
 5411.00    1.23839   1.24058   36.972
 5412.00    1.24489   1.24681   37.233
 5413.00    1.25048   1.24966   36.923
 5414.00    1.25391   1.24929   37.060
 5415.00    1.25167   1.24634   37.975
 5416.00    1.24066   1.24202   38.694
 5417.00    1.22365   1.23767   38.726
 5418.00    1.20946   1.23431   38.790
 5419.00    1.20258   1.23211   39.114
 5420.00    1.20015   1.23036   39.026
 5421.00    1.19895   1.22796   38.558
 5422.00    1.19787   1.22383   38.611
 5423.00    1.19596   1.21723   39.175
 5424.00    1.19250   1.20849   39.208
 5425.00    1.18947   1.19880   38.631
 5426.00    1.19035   1.18970   38.432
 5427.00    1.19331   1.18270   38.610
 5428.00    1.19258   1.17913   38.269
 5429.00    1.18879   1.18019   37.703
 5430.00    1.18937   1.18668   38.002
 5431.00    1.20037   1.19873   38.538
 5432.00    1.22318   1.21537   37.551
 5433.00    1.25238   1.23446   35.841
 5434.00    1.27866   1.25293   35.494
 5435.00    1.29712   1.26740   36.342
 5436.00    1.30614   1.27499   36.713
 5437.00    1.30054   1.27404   36.421
 5438.00    1.27648   1.26491   36.495
 5439.00    1.24423   1.25015   36.816
 5440.00    1.22077   1.23367   36.586
 5441.00    1.21047   1.21968   36.187
 5442.00    1.20784   1.21151   36.434
 5443.00    1.20913   1.21032   36.772
 5444.00    1.21243   1.21450   36.220
 5445.00    1.21445   1.22047   35.521
 5446.00    1.21317   1.22419   35.814
 5447.00    1.21226   1.22342   36.489
 5448.00    1.21561   1.21858   36.353
 5449.00    1.21894   1.21214   35.953
 5450.00    1.21674   1.20732   36.286
 5451.00    1.21281   1.20652   36.784
 5452.00    1.21391   1.21010   36.501
 5453.00    1.22033   1.21621   36.008
 5454.00    1.22857   1.22195   36.109
 5455.00    1.23581   1.22512   36.320
 5456.00    1.23979   1.22517   36.061
 5457.00    1.23850   1.22300   36.029
 5458.00    1.23268   1.22059   36.844
 5459.00    1.22777   1.21985   37.693
 5460.00    1.22811   1.22145   37.675
 5461.00    1.23173   1.22471   37.430
 5462.00    1.23562   1.22827   37.726
 5463.00    1.24026   1.23064   38.217
 5464.00    1.24536   1.23053   38.401
 5465.00    1.24677   1.22736   38.471
 5466.00    1.24134   1.22120   38.739
 5467.00    1.23057   1.21220   39.145
 5468.00    1.21889   1.20090   39.453
 5469.00    1.21147   1.18895   39.446
 5470.00    1.20905   1.17853   39.112
 5471.00    1.20602   1.17121   38.694
 5472.00    1.19882   1.16767   38.376
 5473.00    1.19064   1.16806   38.140
 5474.00    1.18719   1.17192   37.915
 5475.00    1.19340   1.17846   37.674
 5476.00    1.20959   1.18678   37.483
 5477.00    1.23060   1.19608   -2.000
 5478.00    1.25166   1.20519   -2.000
 5479.00    1.27033   1.21305   -2.000
 5480.00    1.28231   1.21901   -2.000
 5481.00    1.28073   1.22277   -2.000
 5482.00    1.26165   1.22446   -2.000
 5483.00    1.23194   1.22498   -2.000
 5484.00    1.22962   1.22527   -2.000
 5485.00    1.30490   1.22576   -2.000
 5486.00    1.42533   1.22672   -2.000
 5487.00    1.48365   1.22799   -2.000
 5488.00    1.43983   1.22886   -2.000
 5489.00    1.34141   1.22891   -2.000
 5490.00    1.23318   1.22863   -2.000
 5491.00    1.13906   1.22852   -2.000
 5492.00    1.09461   1.22827   -2.000
 5493.00    1.13166   1.22736   -2.000
 5494.00    1.21300   1.22560   -2.000
 5495.00    1.25819   1.22294   -2.000
 5496.00    1.25058   1.21938   -2.000
 5497.00    1.23146   1.21499   -2.000
 5498.00    1.22308   1.21007   -2.000
 5499.00    1.22153   1.20567   -2.000
 5500.00    1.22129   1.20274   -2.000
 5501.00    1.22028   1.20123   36.240
 5502.00    1.21891   1.20070   36.412
 5503.00    1.21837   1.20033   37.243
 5504.00    1.21798   1.19910   38.171
 5505.00    1.21597   1.19676   38.343
 5506.00    1.21170   1.19388   37.673
 5507.00    1.20535   1.19154   36.698
 5508.00    1.19689   1.19119   35.871
 5509.00    1.18824   1.19412   35.432
 5510.00    1.18640   1.20098   35.441
 5511.00    1.19769   1.21107   35.843
 5512.00    1.21933   1.22275   36.518
 5513.00    1.24336   1.23416   37.250
 5514.00    1.26320   1.24367   37.712
 5515.00    1.27493   1.25013   37.708
 5516.00    1.27778   1.25289   37.473
 5517.00    1.27336   1.25169   37.397
 5518.00    1.26471   1.24666   37.699
 5519.00    1.25492   1.23824   38.385
 5520.00    1.24579   1.22752   39.224
 5521.00    1.23787   1.21680   39.829
 5522.00    1.23078   1.20857   39.829
 5523.00    1.22492   1.20428   39.200
 5524.00    1.22263   1.20411   38.435
 5525.00    1.22470   1.20724   37.980
 5526.00    1.22794   1.21200   37.880
 5527.00    1.22969   1.21662   37.916
 5528.00    1.23108   1.22030   37.747
 5529.00    1.23363   1.22306   37.217
 5530.00    1.23692   1.22539   36.585
 5531.00    1.24199   1.22822   36.514
 5532.00    1.25259   1.23229   37.741
 5533.00    1.26823   1.23743   38.395
 5534.00    1.28156   1.24261   34.339
 5535.00    1.28903   1.24658   31.248
 5536.00    1.29527   1.24867   41.431
 5537.00    1.30064   1.24905   53.225
 5538.00    1.29728   1.24830   24.774
 5539.00    1.28454   1.24759   10.268
 5540.00    1.27374   1.24830    7.342
 5541.00    1.27338   1.25110    7.397
 5542.00    1.28267   1.25564    7.989
 5543.00    1.29542   1.26092    7.871
 5544.00    1.30348   1.26559    7.615
 5545.00    1.30290   1.26828    7.652
 5546.00    1.29559   1.26824    7.703
 5547.00    1.28584   1.26577    7.711
 5548.00    1.27813   1.26189    7.945
 5549.00    1.27441   1.25763    8.080
 5550.00    1.27376   1.25373    7.482
 5551.00    1.27446   1.25070    7.240
 5552.00    1.27464   1.24858    9.674
 5553.00    1.27234   1.24678   22.524
 5554.00    1.26608   1.24451   53.225
 5555.00    1.25653   1.24124   45.819
 5556.00    1.24620   1.23700   32.663
 5557.00    1.23761   1.23215   36.827
 5558.00    1.23206   1.22691   42.540
 5559.00    1.22803   1.22174   40.564
 5560.00    1.22297   1.21732   38.619
 5561.00    1.21799   1.21390   39.340
 5562.00    1.21658   1.21148   40.055
 5563.00    1.21960   1.21039   39.672
 5564.00    1.22460   1.21046   39.109
 5565.00    1.22669   1.21083   38.770
 5566.00    1.22201   1.21180   38.584
 5567.00    1.21352   1.21417   38.862
 5568.00    1.20847   1.21753   39.809
 5569.00    1.21255   1.22150   40.386
 5570.00    1.22634   1.22618   39.417
 5571.00    1.24190   1.23102   37.894
 5572.00    1.25060   1.23541   37.252
 5573.00    1.25461   1.23892   37.291
 5574.00    1.26008   1.24065   37.153
 5575.00    1.26607   1.24010   36.645
 5576.00    1.26778   1.23719   36.047
 5577.00    1.26234   1.23128   35.647
 5578.00    1.24909   1.22171   35.581
 5579.00    1.22910   1.20844   35.747
 5580.00    1.20663   1.19262   35.951
 5581.00    1.19020   1.17668   36.073
 5582.00    1.18536   1.16327   36.050
 5583.00    1.18803   1.15466   35.853
 5584.00    1.19099   1.15180   35.619
 5585.00    1.19083   1.15412   35.709
 5586.00    1.18950   1.16018   36.247
 5587.00    1.19415   1.16849   36.750
 5588.00    1.20775   1.17818   36.833
 5589.00    1.22264   1.18803   36.814
 5590.00    1.23039   1.19555   36.988
 5591.00    1.22905   1.19918   37.089
 5592.00    1.21945   1.19939   36.805
 5593.00    1.20258   1.19692   36.185
 5594.00    1.18253   1.19248   35.560
 5595.00    1.16763   1.18810   35.357
 5596.00    1.16496   1.18658   35.667
 5597.00    1.17659   1.19033   36.076
 5598.00    1.19845   1.19968   36.205
 5599.00    1.22124   1.21328   36.037
 5600.00    1.23842   1.22890   35.741
 5601.00    1.24991   1.24413   35.547
 5602.00    1.25900   1.25690   35.725
 5603.00    1.26930   1.26588   36.502
 5604.00    1.27788   1.27052   37.585
 5605.00    1.27564   1.27063   38.083
 5606.00    1.26160   1.26576   37.840
 5607.00    1.24564   1.25535   37.740
 5608.00    1.23523   1.24029   38.126
 5609.00    1.23055   1.22446   38.475
 5610.00    1.22634   1.21176   38.399
 5611.00    1.21593   1.20356   37.994
 5612.00    1.20157   1.19985   37.551
 5613.00    1.19323   1.20032   37.349
 5614.00    1.19413   1.20386   37.465
 5615.00    1.19896   1.20830   37.749
 5616.00    1.20246   1.21096   37.895
 5617.00    1.20231   1.21035   37.620
 5618.00    1.20009   1.20770   37.093
 5619.00    1.19946   1.20564   36.757
 5620.00    1.20140   1.20594   36.711
 5621.00    1.20474   1.20935   36.765
 5622.00    1.21034   1.21616   36.804
 5623.00    1.22000   1.22540   36.798
 5624.00    1.23227   1.23511   36.625
 5625.00    1.24319   1.24322   36.289
 5626.00    1.24968   1.24819   36.342
 5627.00    1.25017   1.24930   37.263
 5628.00    1.24447   1.24675   38.116
 5629.00    1.23445   1.24132   37.590
 5630.00    1.22516   1.23418   36.773
 5631.00    1.22120   1.22692   37.296
 5632.00    1.22092   1.22088   38.280
 5633.00    1.21960   1.21634   37.966
 5634.00    1.21565   1.21301   37.337
 5635.00    1.21078   1.21118   38.078
 5636.00    1.20880   1.21127   39.397
 5637.00    1.21220   1.21300   39.595
 5638.00    1.21834   1.21597   39.233
 5639.00    1.22343   1.21987   39.589
 5640.00    1.22786   1.22424   40.218
 5641.00    1.23424   1.22850   40.087
 5642.00    1.24430   1.23198   39.294
 5643.00    1.25695   1.23453   38.544
 5644.00    1.26687   1.23652   38.333
 5645.00    1.26883   1.23799   38.708
 5646.00    1.26188   1.23816   39.129
 5647.00    1.24920   1.23592   39.167
 5648.00    1.23687   1.23092   39.159
 5649.00    1.22781   1.22381   39.394
 5650.00    1.21775   1.21482   39.465
 5651.00    1.20347   1.20371   39.165
 5652.00    1.18875   1.19241   39.096
 5653.00    1.17786   1.18445   39.490
 5654.00    1.17103   1.18089   39.539
 5655.00    1.16825   1.18044   38.941
 5656.00    1.17167   1.18268   38.690
 5657.00    1.18241   1.18799   39.034
 5658.00    1.19846   1.19553   38.685
 5659.00    1.21508   1.20322   37.500
 5660.00    1.22625   1.20946   37.256
 5661.00    1.23159   1.21405   38.188
 5662.00    1.23774   1.21785   38.034
 5663.00    1.24651   1.22177   36.453
 5664.00    1.25174   1.22642   36.095
 5665.00    1.25286   1.23234   37.649
 5666.00    1.25802   1.23960   38.778
 5667.00    1.26840   1.24730   38.065
 5668.00    1.27498   1.25400   36.998
 5669.00    1.27412   1.25900   36.682
 5670.00    1.27104   1.26235   36.934
 5671.00    1.26832   1.26358   37.197
 5672.00    1.26339   1.26202   36.967
 5673.00    1.25525   1.25803   36.402
 5674.00    1.24605   1.25233   36.135
 5675.00    1.23824   1.24502   36.190
 5676.00    1.23255   1.23654   36.059
 5677.00    1.22544   1.22865   35.798
 5678.00    1.21212   1.22262   35.975
 5679.00    1.19694   1.21824   36.634
 5680.00    1.19043   1.21497   37.313
 5681.00    1.19419   1.21315   37.901
 5682.00    1.20149   1.21381   38.663
 5683.00    1.20826   1.21746   39.566
 5684.00    1.21472   1.22366   40.243
 5685.00    1.22273   1.23135   40.458
 5686.00    1.23319   1.23943   40.230
 5687.00    1.24225   1.24641   39.751
 5688.00    1.24478   1.25108   39.221
 5689.00    1.24254   1.25312   38.636
 5690.00    1.24061   1.25246   37.977
 5691.00    1.23849   1.24876   37.550
 5692.00    1.23309   1.24231   37.649
 5693.00    1.22637   1.23460   37.985
 5694.00    1.22325   1.22651   37.947
 5695.00    1.22615   1.21848   37.222
 5696.00    1.23300   1.21176   35.990
 5697.00    1.23599   1.20693   34.849
 5698.00    1.22847   1.20298   34.294
 5699.00    1.21405   1.19815   34.319
 5700.00    1.20059   1.19172   34.712
 5701.00    1.19128   1.18425   35.373
 5702.00    1.18463   1.17649   36.219
 5703.00    1.17613   1.16993   37.036
 5704.00    1.16412   1.16679   37.597
 5705.00    1.15526   1.16773   37.863
 5706.00    1.15768   1.17314   37.887
 5707.00    1.17352   1.18349   37.696
 5708.00    1.19849   1.19684   37.432
 5709.00    1.22296   1.21089   37.442
 5710.00    1.24000   1.22452   37.813
 5711.00    1.25148   1.23666   38.039
 5712.00    1.26125   1.24692   37.865
 5713.00    1.26952   1.25576   37.891
 5714.00    1.27620   1.26321   38.407
 5715.00    1.28345   1.26934   38.650
 5716.00    1.29324   1.27429   38.271
 5717.00    1.30542   1.27756   38.233
 5718.00    1.31709   1.27873   39.022
 5719.00    1.32305   1.27775   39.716
 5720.00    1.32088   1.27459   39.631
 5721.00    1.31318   1.27003   39.352
 5722.00    1.30233   1.26598   39.300
 5723.00    1.28841   1.26323   39.095
 5724.00    1.27412   1.26094   38.695
 5725.00    1.26594   1.25880   38.716
 5726.00    1.26674   1.25812   39.189
 5727.00    1.27296   1.25972   39.236
 5728.00    1.27903   1.26257   38.501
 5729.00    1.28051   1.26543   37.645
 5730.00    1.27843   1.26751   37.356
 5731.00    1.27877   1.26857   37.879
 5732.00    1.28334   1.26878   38.439
 5733.00    1.28832   1.26837   37.599
 5734.00    1.29188   1.26758   36.015
 5735.00    1.29558   1.26661   35.799
 5736.00    1.29961   1.26560   37.086
 5737.00    1.30203   1.26487   37.996
 5738.00    1.30184   1.26490   37.558
 5739.00    1.29943   1.26548   36.652
 5740.00    1.29549   1.26542    0.000
 5741.00    1.29094   1.26359    0.000
 5742.00    1.28793   1.26033    0.000
 5743.00    1.28832   1.25714    0.000
 5744.00    1.28926   1.25438    0.000
 5745.00    1.28547   1.25096    0.000
 5746.00    1.27680   1.24626    0.000
 5747.00    1.26796   1.24118    0.000
 5748.00    1.26379   1.23785    0.000
 5749.00    1.26672   1.23805    0.000
 5750.00    1.27380   1.24150    0.000
 5751.00    1.27953   1.24605    0.000
 5752.00    1.28212   1.24969    0.000
 5753.00    1.28220   1.25103    0.000
 5754.00    1.27875   1.24969    0.000
 5755.00    1.27080   1.24651    0.000
 5756.00    1.26116   1.24322    0.000
 5757.00    1.25464   1.24216    0.000
 5758.00    1.25438   1.24514    0.000
 5759.00    1.26134   1.25159    0.000
 5760.00    1.27421   1.25938    0.000
 5761.00    1.28986   1.26679    0.000
 5762.00    1.30402   1.27263    0.000
 5763.00    1.31337   1.27605    0.000
 5764.00    1.31784   1.27683    0.000
 5765.00    1.31931   1.27534    0.000
 5766.00    1.31970   1.27230    0.000
 5767.00    1.31840   1.26876    0.000
 5768.00    1.31061   1.26538    0.000
 5769.00    1.29568   1.26223    0.000
 5770.00    1.28391   1.25923    0.000
 5771.00    1.28214   1.25557    0.000
 5772.00    1.28173   1.24994    0.000
 5773.00    1.27334   1.24149    0.000
 5774.00    1.25931   1.23005    0.000
 5775.00    1.24513   1.21682    0.000
 5776.00    1.23236   1.20461    0.000
 5777.00    1.22240   1.19576    0.000
 5778.00    1.21912   1.19060    0.000
 5779.00    1.22490   1.18894    0.000
 5780.00    1.23809   1.19150    0.000
 5781.00    1.25431   1.19839    0.000
 5782.00    1.26813   1.20774    0.000
 5783.00    1.27718   1.21735    0.000
 5784.00    1.28368   1.22579    0.000
 5785.00    1.29008   1.23261    0.000
 5786.00    1.29653   1.23868    0.000
 5787.00    1.30084   1.24468    0.000
 5788.00    1.29938   1.25024    0.000
 5789.00    1.29077   1.25497    0.000
 5790.00    1.27752   1.25854   -2.000
 5791.00    1.26491   1.26070   -2.000
 5792.00    1.25856   1.26236   -2.000
 5793.00    1.25645   1.26526   -2.000
 5794.00    1.24980   1.26957   -2.000
 5795.00    1.23835   1.27369   -2.000
 5796.00    1.23139   1.27626   -2.000
 5797.00    1.23095   1.27661   -2.000
 5798.00    1.23018   1.27456   -2.000
 5799.00    1.22748   1.27110   -2.000
 5800.00    1.22804   1.26797   -2.000
 5801.00    1.23420   1.26616   -2.000
 5802.00    1.24332   1.26581   -2.000
 5803.00    1.25027   1.26663   -2.000
 5804.00    1.25139   1.26826   -2.000
 5805.00    1.25221   1.27009   -2.000
 5806.00    1.26221   1.27123   -2.000
 5807.00    1.27760   1.27117   -2.000
 5808.00    1.28636   1.26998   -2.000
 5809.00    1.28856   1.26810   -2.000
 5810.00    1.29272   1.26649    0.000
 5811.00    1.29873   1.26670    0.000
 5812.00    1.30090   1.26973    0.000
 5813.00    1.30047   1.27473    0.000
 5814.00    1.30309   1.28000    0.000
 5815.00    1.30985   1.28453    0.000
 5816.00    1.31712   1.28788    0.000
 5817.00    1.31920   1.28992    0.000
 5818.00    1.31252   1.29104    0.000
 5819.00    1.30104   1.29181    0.000
 5820.00    1.29142   1.29241    0.000
 5821.00    1.28484   1.29274    0.000
 5822.00    1.27969   1.29290    0.000
 5823.00    1.27651   1.29305    0.000
 5824.00    1.27625   1.29299    0.000
 5825.00    1.27741   1.29228    0.000
 5826.00    1.27786   1.29080    0.000
 5827.00    1.27724   1.28882    0.000
 5828.00    1.27611   1.28650    0.000
 5829.00    1.27478   1.28414    0.000
 5830.00    1.27472   1.28268    0.000
 5831.00    1.27957   1.28254    0.000
 5832.00    1.29063   1.28312    0.000
 5833.00    1.30302   1.28425    0.000
 5834.00    1.31035   1.28649    0.000
 5835.00    1.30940   1.28938    0.000
 5836.00    1.30258   1.29166    0.000
 5837.00    1.29836   1.29242    0.000
 5838.00    1.30172   1.29133    0.000
 5839.00    1.30783   1.28836    0.000
 5840.00    1.31043   1.28387    0.000
 5841.00    1.30789   1.27838    0.000
 5842.00    1.30245   1.27253    0.000
 5843.00    1.29842   1.26701    0.000
 5844.00    1.29625   1.26178    0.000
 5845.00    1.29009   1.25611    0.000
 5846.00    1.27457   1.24935    0.000
 5847.00    1.24911   1.24144    0.000
 5848.00    1.21900   1.23342    0.000
 5849.00    1.19413   1.22673    0.000
 5850.00    1.18066   1.22128    0.000
 5851.00    1.17767   1.21616    0.000
 5852.00    1.18094   1.21215    0.000
 5853.00    1.18584   1.21155    0.000
 5854.00    1.19153   1.21488    0.000
 5855.00    1.20122   1.22039    0.000
 5856.00    1.21629   1.22627    0.000
 5857.00    1.23425   1.23145    0.000
 5858.00    1.25012   1.23632    0.000
 5859.00    1.25861   1.24121    0.000
 5860.00    1.25956   1.24529    0.000
 5861.00    1.25816   1.24821    0.000
 5862.00    1.25970   1.25123    0.000
 5863.00    1.26689   1.25526    0.000
 5864.00    1.27714   1.25939    0.000
 5865.00    1.28490   1.26249    0.000
 5866.00    1.28968   1.26398    0.000
 5867.00    1.29547   1.26377    0.000
 5868.00    1.30348   1.26226    0.000
 5869.00    1.31127   1.25993    0.000
 5870.00    1.31500   1.25671    0.000
 5871.00    1.31127   1.25249    0.000
 5872.00    1.29996   1.24778    0.000
 5873.00    1.28414   1.24289    0.000
 5874.00    1.26878   1.23771    0.000
 5875.00    1.25835   1.23248    0.000
 5876.00    1.25291   1.22758    0.000
 5877.00    1.24884   1.22162    0.000
 5878.00    1.24132   1.21185    0.000
 5879.00    1.22729   1.19699    0.000
 5880.00    1.20934   1.17718    0.000
 5881.00    1.19127   1.15212    0.000
 5882.00    1.17109   1.12189    0.000
 5883.00    1.14564   1.08780    0.000
 5884.00    1.11850   1.05351    0.000
 5885.00    1.09738   1.02729    0.000
 5886.00    1.08905   1.01571    0.000
 5887.00    1.09535   1.01506    0.000
 5888.00    1.10964   1.01872    0.000
 5889.00    1.12306   1.02432    0.000
 5890.00    1.13201   1.03109    0.000
 5891.00    1.13721   1.04318    0.000
 5892.00    1.14175   1.06540    0.000
 5893.00    1.14934   1.09355    0.000
 5894.00    1.16274   1.12142    0.000
 5895.00    1.18216   1.14774    0.000
 5896.00    1.20425   1.17163    0.000
 5897.00    1.22449   1.19131    0.000
 5898.00    1.23951   1.20638    0.000
 5899.00    1.24861   1.21708    0.000
 5900.00    1.25425   1.22399    0.000
 5901.00    1.25880   1.22877   38.592
 5902.00    1.26201   1.23266   38.298
 5903.00    1.26189   1.23551   38.871
 5904.00    1.25598   1.23670   39.456
 5905.00    1.24596   1.23639   39.213
 5906.00    1.23912   1.23498   38.178
 5907.00    1.23996   1.23216   37.000
 5908.00    1.24584   1.22789   36.460
 5909.00    1.25085   1.22358   36.792
 5910.00    1.24929   1.22133   37.549
 5911.00    1.24185   1.22169   38.198
 5912.00    1.23643   1.22438   38.459
 5913.00    1.23752   1.22838   38.315
 5914.00    1.24253   1.23265   37.974
 5915.00    1.24809   1.23681   37.725
 5916.00    1.25273   1.24013   37.819
 5917.00    1.25542   1.24230   38.255
 5918.00    1.25541   1.24381   38.775
 5919.00    1.25326   1.24465   39.235
 5920.00    1.25094   1.24463   39.679
 5921.00    1.25019   1.24379   40.044
 5922.00    1.25177   1.24192   40.149
 5923.00    1.25488   1.23916   40.077
 5924.00    1.25776   1.23625   40.111
 5925.00    1.26013   1.23426   40.144
 5926.00    1.26307   1.23430   39.816
 5927.00    1.26657   1.23570   39.380
 5928.00    1.26952   1.23686   39.456
 5929.00    1.27144   1.23741   39.938
 5930.00    1.27268   1.23847   40.148
 5931.00    1.27376   1.24072   39.965
 5932.00    1.27491   1.24300   39.805
 5933.00    1.27563   1.24431   39.866
 5934.00    1.27460   1.24474   40.052
 5935.00    1.26987   1.24419   40.149
 5936.00    1.26066   1.24306   39.992
 5937.00    1.25053   1.24252   39.698
 5938.00    1.24480   1.24285   39.495
 5939.00    1.24494   1.24354   39.355
 5940.00    1.24921   1.24405   39.072
 5941.00    1.25563   1.24364   38.499
 5942.00    1.26211   1.24168   37.798
 5943.00    1.26620   1.23846   37.657
 5944.00    1.26655   1.23534   38.510
 5945.00    1.26512   1.23359   39.425
 5946.00    1.26504   1.23262   39.223
 5947.00    1.26740   1.23107   38.641
 5948.00    1.27102   1.22963   38.829
 5949.00    1.27303   1.22996   39.362
 5950.00    1.27117   1.23163   39.406
 5951.00    1.26641   1.23328   39.342
 5952.00    1.26155   1.23523   39.819
 5953.00    1.25925   1.23857   40.541
 5954.00    1.26066   1.24333   40.936
 5955.00    1.26436   1.24852   41.016
 5956.00    1.26830   1.25313   41.032
 5957.00    1.27161   1.25657   41.017
 5958.00    1.27394   1.25880   41.028
 5959.00    1.27483   1.26016   41.324
 5960.00    1.27542   1.26090   41.865
 5961.00    1.27932   1.26163   41.962
 5962.00    1.28888   1.26326   41.319
 5963.00    1.30244   1.26549   40.685
 5964.00    1.31563   1.26738   40.477
 5965.00    1.32288   1.26837   40.133
 5966.00    1.32049   1.26795   39.558
 5967.00    1.30847   1.26572   39.694
 5968.00    1.29029   1.26179   40.740
 5969.00    1.27185   1.25656   41.319
 5970.00    1.25740   1.25059   40.653
 5971.00    1.24766   1.24488   39.780
 5972.00    1.24241   1.24051   39.520
 5973.00    1.24135   1.23770   39.692
 5974.00    1.24127   1.23607   39.777
 5975.00    1.23650   1.23506   39.364
 5976.00    1.22691   1.23363   38.796
 5977.00    1.21938   1.23112   38.982
 5978.00    1.21834   1.22781   39.838
 5979.00    1.22250   1.22496   40.104
 5980.00    1.22819   1.22439   39.634
 5981.00    1.23213   1.22653   39.718
 5982.00    1.23583   1.23004   40.539
 5983.00    1.24433   1.23411   40.912
 5984.00    1.25637   1.23861   40.634
 5985.00    1.26472   1.24282   40.737
 5986.00    1.26719   1.24582   41.282
 5987.00    1.26783   1.24775   41.324
 5988.00    1.26980   1.24928   40.925
 5989.00    1.27327   1.25004   41.056
 5990.00    1.27556   1.24916   41.704
 5991.00    1.27297   1.24662   41.984
 5992.00    1.26512   1.24311   41.818
 5993.00    1.25460   1.23987   41.869
 5994.00    1.24361   1.23785   42.257
 5995.00    1.23400   1.23673   42.507
 5996.00    1.22888   1.23545   42.121
 5997.00    1.23084   1.23310   41.045
 5998.00    1.23792   1.22995   40.103
 5999.00    1.24509   1.22740   40.114
 6000.00    1.24860   1.22561   40.621
 6001.00    1.24717   1.22353   40.594
 6002.00    1.24234   1.22105   40.125
 6003.00    1.23746   1.21915   39.920
 6004.00    1.23562   1.21941   40.010
 6005.00    1.23730   1.22179   40.000
 6006.00    1.23755   1.22373   39.681
 6007.00    1.23106   1.22354   39.154
 6008.00    1.21977   1.22200   38.810
 6009.00    1.20960   1.22055   38.965
 6010.00    1.20507   1.21949   39.461
 6011.00    1.20721   1.21792   39.847
 6012.00    1.21243   1.21586   39.698
 6013.00    1.21593   1.21442   39.087
 6014.00    1.21600   1.21364   38.865
 6015.00    1.21473   1.21330   39.495
 6016.00    1.21773   1.21411   40.030
 6017.00    1.22759   1.21668   39.752
 6018.00    1.23823   1.22079   39.875
 6019.00    1.24308   1.22588   41.191
 6020.00    1.24261   1.23175   41.999
 6021.00    1.24051   1.23807   41.074
 6022.00    1.23984   1.24408   40.481
 6023.00    1.24204   1.24981   41.709
 6024.00    1.24648   1.25542   43.316
 6025.00    1.25171   1.26026   43.398
 6026.00    1.25659   1.26406   42.242
 6027.00    1.26091   1.26720   41.044
 6028.00    1.26566   1.26985   40.539
 6029.00    1.27158   1.27158   40.698
 6030.00    1.27810   1.27215   40.763
 6031.00    1.28316   1.27191   40.401
 6032.00    1.28365   1.27116   40.190
 6033.00    1.27867   1.27015   40.348
 6034.00    1.27086   1.26899   40.301
 6035.00    1.26404   1.26795   39.867
 6036.00    1.26135   1.26767   39.611
 6037.00    1.26279   1.26849   39.562
 6038.00    1.26523   1.27033   39.012
 6039.00    1.26761   1.27287   38.068
 6040.00    1.27217   1.27536   37.760
 6041.00    1.27980   1.27731   38.330
 6042.00    1.28838   1.27855   38.985
 6043.00    1.29409   1.27877   39.170
 6044.00    1.29317   1.27775   39.042
 6045.00    1.28596   1.27570   38.961
 6046.00    1.27665   1.27268   39.185
 6047.00    1.26787   1.26867   39.590
 6048.00    1.25989   1.26411   39.812
 6049.00    1.25367   1.26002   39.986
 6050.00    1.25107   1.25711   40.623
 6051.00    1.25285   1.25532   41.500
 6052.00    1.25807   1.25454   41.757
 6053.00    1.26435   1.25473   41.301
 6054.00    1.26905   1.25504   40.829
 6055.00    1.27205   1.25432   40.770
 6056.00    1.27467   1.25236   41.087
 6057.00    1.27605   1.24985   41.299
 6058.00    1.27416   1.24751   40.901
 6059.00    1.26986   1.24612   40.284
 6060.00    1.26639   1.24637   40.151
 6061.00    1.26679   1.24940   40.266
 6062.00    1.27266   1.25607   39.944
 6063.00    1.28305   1.26462   39.286
 6064.00    1.29510   1.27235   38.855
 6065.00    1.30546   1.27828   38.851
 6066.00    1.31161   1.28239   39.148
 6067.00    1.31343   1.28452   39.485
 6068.00    1.31202   1.28414   39.614
 6069.00    1.30759   1.28117   39.519
 6070.00    1.29971   1.27636   39.397
 6071.00    1.28806   1.27020   39.567
 6072.00    1.27410   1.26293   40.121
 6073.00    1.26262   1.25529   40.524
 6074.00    1.25758   1.24838   40.305
 6075.00    1.25719   1.24328   39.958
 6076.00    1.25710   1.23976   40.116
 6077.00    1.25452   1.23692   40.663
 6078.00    1.24970   1.23522   41.187
 6079.00    1.24648   1.23516   41.532
 6080.00    1.24757   1.23556   41.711
 6081.00    1.25048   1.23557   41.778
 6082.00    1.25180   1.23562   41.907
 6083.00    1.25115   1.23582   42.417
 6084.00    1.24931   1.23578   43.116
 6085.00    1.24656   1.23541   42.885
 6086.00    1.24317   1.23559   41.506
 6087.00    1.23989   1.23714   40.563
 6088.00    1.23734   1.23960   40.892
 6089.00    1.23574   1.24241   41.535
 6090.00    1.23580   1.24546   41.520
 6091.00    1.23892   1.24739   41.080
 6092.00    1.24498   1.24608   40.613
 6093.00    1.25138   1.24159   40.078
 6094.00    1.25572   1.23603   39.542
 6095.00    1.25703   1.23063   39.361
 6096.00    1.25426   1.22506   39.627
 6097.00    1.24624   1.21903   39.978
 6098.00    1.23586   1.21448   40.058
 6099.00    1.23053   1.21534   39.796
 6100.00    1.23456   1.22199   39.477
 6101.00    1.24627   1.22966   39.566
 6102.00    1.26079   1.23553   40.061
 6103.00    1.27213   1.24033   40.408
 6104.00    1.27636   1.24524   40.323
 6105.00    1.27295   1.25009   40.104
 6106.00    1.26494   1.25295   40.290
 6107.00    1.25786   1.25349   41.313
 6108.00    1.25606   1.25367   42.643
 6109.00    1.26046   1.25382   42.947
 6110.00    1.26573   1.25222   42.472
 6111.00    1.26333   1.24764   42.785
 6112.00    1.25246   1.24053   43.631
 6113.00    1.23964   1.23290   43.269
 6114.00    1.22898   1.22594   42.215
 6115.00    1.22093   1.21924   42.458
 6116.00    1.21592   1.21326   43.583
 6117.00    1.21489   1.20923   43.355
 6118.00    1.21814   1.20848   41.801
 6119.00    1.22492   1.21211   40.691
 6120.00    1.23319   1.21792   40.422
 6121.00    1.24077   1.22283   40.332
 6122.00    1.24766   1.22673   39.884
 6123.00    1.25479   1.23017   39.009
 6124.00    1.26101   1.23284   38.243
 6125.00    1.26371   1.23397   38.236
 6126.00    1.26111   1.23215   39.129
 6127.00    1.25297   1.22601   40.618
 6128.00    1.24129   1.21629   42.038
 6129.00    1.22876   1.20567   42.652
 6130.00    1.21662   1.19563   42.364
 6131.00    1.20531   1.18634   41.576
 6132.00    1.19597   1.17907   40.617
 6133.00    1.19121   1.17755   39.605
 6134.00    1.19552   1.18465   38.440
 6135.00    1.21099   1.19666   37.168
 6136.00    1.23242   1.20740   36.254
 6137.00    1.25215   1.21540   36.069
 6138.00    1.26601   1.22306   36.502
 6139.00    1.27273   1.23098   37.297
 6140.00    1.27262   1.23630   38.402
 6141.00    1.26751   1.23763   39.697
 6142.00    1.26062   1.23662   40.676
 6143.00    1.25452   1.23488   40.973
 6144.00    1.24933   1.23276   40.968
 6145.00    1.24380   1.23047   41.165
 6146.00    1.23648   1.22859   41.611
 6147.00    1.22730   1.22751   41.944
 6148.00    1.21844   1.22629   41.581
 6149.00    1.21210   1.22361   40.681
 6150.00    1.20872   1.21846   40.411
 6151.00    1.20609   1.21077   41.111
 6152.00    1.19941   1.20040   41.445
 6153.00    1.18488   1.18726   40.663
 6154.00    1.16216   1.17312   39.875
 6155.00    1.13517   1.15988   39.654
 6156.00    1.11171   1.14766   39.172
 6157.00    1.09893   1.13753   38.125
 6158.00    1.10044   1.13315   37.374
 6159.00    1.11433   1.13547   37.509
 6160.00    1.13351   1.14090   38.402
 6161.00    1.15132   1.14641   39.537
 6162.00    1.16438   1.15197   40.213
 6163.00    1.17264   1.15782   40.314
 6164.00    1.17858   1.16220   40.472
 6165.00    1.18433   1.16508   40.861
 6166.00    1.19057   1.17010   41.000
 6167.00    1.19688   1.17846   41.019
 6168.00    1.20209   1.18673   41.710
 6169.00    1.20457   1.19304   42.921
 6170.00    1.20304   1.19876   43.402
 6171.00    1.19870   1.20421   42.898
 6172.00    1.19470   1.20891   42.412
 6173.00    1.19269   1.21318   42.280
 6174.00    1.19205   1.21736   42.092
 6175.00    1.19087   1.22053   41.835
 6176.00    1.18689   1.22201   41.846
 6177.00    1.17921   1.22224   41.937
 6178.00    1.16857   1.22087   41.636
 6179.00    1.15701   1.21728   41.313
 6180.00    1.14714   1.21192   41.740
 6181.00    1.14078   1.20476   42.634
 6182.00    1.13848   1.19542   42.913
 6183.00    1.13941   1.18663   42.179
 6184.00    1.14235   1.18110   40.847
 6185.00    1.14765   1.17851   39.398
 6186.00    1.15598   1.17758   38.203
 6187.00    1.16531   1.17861   37.561
 6188.00    1.17292   1.18412   37.655
 6189.00    1.17944   1.19292   38.445
 6190.00    1.18693   1.19993   39.734
 6191.00    1.19479   1.20394   41.268
 6192.00    1.20064   1.20702   42.684
 6193.00    1.20235   1.20977   43.443
 6194.00    1.20004   1.21117   42.987
 6195.00    1.19809   1.21132   -2.000
 6196.00    1.20260   1.21262   -2.000
 6197.00    1.21768   1.21652   -2.000
 6198.00    1.24155   1.22126   -2.000
 6199.00    1.26326   1.22474   -2.000
 6200.00    1.27235   1.22652   -2.000
 6201.00    1.26913   1.22686   -2.000
 6202.00    1.25947   1.22567   -2.000
 6203.00    1.24807   1.22218   -2.000
 6204.00    1.23635   1.21571   -2.000
 6205.00    1.22147   1.20674   -2.000
 6206.00    1.20118   1.19641   35.884
 6207.00    1.17787   1.18607   36.136
 6208.00    1.15600   1.17676   37.405
 6209.00    1.13960   1.16841   39.503
 6210.00    1.13097   1.16167   41.514
 6211.00    1.12987   1.15783   42.653
 6212.00    1.13392   1.15724   42.702
 6213.00    1.13930   1.15928   42.196
 6214.00    1.14307   1.16189   41.922
 6215.00    1.14465   1.16373   42.474
 6216.00    1.14523   1.16614   43.567
 6217.00    1.14705   1.16992   43.760
 6218.00    1.15129   1.17374   42.624
 6219.00    1.15708   1.17580   41.604
 6220.00    1.16250   1.17506   41.449
 6221.00    1.16526   1.17192   41.546
 6222.00    1.16321   1.16737   41.594
 6223.00    1.15518   1.16245   42.096
 6224.00    1.14384   1.15807   42.932
 6225.00    1.13593   1.15478   42.957
 6226.00    1.13759   1.15359   41.744
 6227.00    1.15161   1.15596   40.106
 6228.00    1.17444   1.16148   38.748
 6229.00    1.19684   1.16747   37.922
 6230.00    1.21008   1.17216   37.769
 6231.00    1.20935   1.17423   38.400
 6232.00    1.19705   1.17317   39.717
 6233.00    1.18132   1.16937   41.301
 6234.00    1.16795   1.16337   42.491
 6235.00    1.15846   1.15675   42.696
 6236.00    1.15198   1.15125   42.254
 6237.00    1.14664   1.14779   42.116
 6238.00    1.14158   1.14591   42.497
 6239.00    1.13741   1.14550   42.922
 6240.00    1.13571   1.14775   43.144
 6241.00    1.13796   1.15177   43.263
 6242.00    1.14343   1.15533   43.369
 6243.00    1.14971   1.15767   43.450
 6244.00    1.15521   1.15831   43.401
 6245.00    1.15902   1.15655   43.123
 6246.00    1.15975   1.15231   42.720
 6247.00    1.15591   1.14576   42.399
 6248.00    1.14719   1.13772   42.267
 6249.00    1.13524   1.13052   42.422
 6250.00    1.12455   1.12611   43.164
 6251.00    1.11992   1.12496   44.215
 6252.00    1.12230   1.12618   43.341
 6253.00    1.12954   1.12965   39.396
 6254.00    1.13851   1.13621   35.554
 6255.00    1.14618   1.14554   34.133
 6256.00    1.15069   1.15545   34.492
 6257.00    1.15271   1.16388   35.094
 6258.00    1.15656   1.17135   34.945
 6259.00    1.16699   1.17777   33.591
 6260.00    1.18502   1.18136   31.005
 6261.00    1.20718   1.18248   28.302
 6262.00    1.22571   1.18382   27.452
 6263.00    1.23310   1.18624   29.467
 6264.00    1.22695   1.18839   33.302
 6265.00    1.21088   1.18975   36.584
 6266.00    1.19416   1.19121   38.942
 6267.00    1.18397   1.19328   41.403
 6268.00    1.17906   1.19526   43.242
 6269.00    1.17571   1.19622   43.564
 6270.00    1.17300   1.19568   43.671
 6271.00    1.17137   1.19393   44.579
 6272.00    1.17102   1.19156   45.086
 6273.00    1.17160   1.18928   44.247
 6274.00    1.17222   1.18773   43.263
 6275.00    1.17321   1.18716   43.150
 6276.00    1.17677   1.18760   43.563
 6277.00    1.18361   1.18981   43.847
 6278.00    1.19123   1.19418   43.709
 6279.00    1.19718   1.19977   43.309
 6280.00    1.20096   1.20526    0.000
 6281.00    1.20327   1.20932    0.000
 6282.00    1.20540   1.21186    0.000
 6283.00    1.20808   1.21316    0.000
 6284.00    1.21087   1.21297    0.000
 6285.00    1.21177   1.21112    0.000
 6286.00    1.20800   1.20769    0.000
 6287.00    1.19957   1.20299    0.000
 6288.00    1.19013   1.19751    0.000
 6289.00    1.18352   1.19205    0.000
 6290.00    1.18215   1.18750    0.000
 6291.00    1.18662   1.18335    0.000
 6292.00    1.19581   1.17838    0.000
 6293.00    1.20784   1.17349    0.000
 6294.00    1.22009   1.17092    0.000
 6295.00    1.22832   1.17126    0.000
 6296.00    1.22823   1.17279    0.000
 6297.00    1.22069   1.17455    0.000
 6298.00    1.21140   1.17814    0.000
 6299.00    1.20521   1.18455    0.000
 6300.00    1.20404   1.19168    0.000
 6301.00    1.20579   1.19688    0.000
 6302.00    1.20603   1.19996    0.000
 6303.00    1.20265   1.20187    0.000
 6304.00    1.19645   1.20223    0.000
 6305.00    1.18998   1.19988    0.000
 6306.00    1.18592   1.19461    0.000
 6307.00    1.18451   1.18812    0.000
 6308.00    1.18363   1.18239    0.000
 6309.00    1.18009   1.17701    0.000
 6310.00    1.17237   1.17111    0.000
 6311.00    1.16481   1.16670    0.000
 6312.00    1.16335   1.16597    0.000
 6313.00    1.16742   1.16756    0.000
 6314.00    1.17293   1.16992    0.000
 6315.00    1.17891   1.17466    0.000
 6316.00    1.18635   1.18236    0.000
 6317.00    1.19503   1.19039    0.000
 6318.00    1.20394   1.19686    0.000
 6319.00    1.21238   1.20235    0.000
 6320.00    1.22016   1.20779    0.000
 6321.00    1.22771   1.21201    8.270
 6322.00    1.23557   1.21376    7.397
 6323.00    1.24377   1.21390    8.024
 6324.00    1.25075   1.21384    8.292
 6325.00    1.25252   1.21306    7.981
 6326.00    1.24617   1.20967    7.847
 6327.00    1.23321   1.20397    8.123
 6328.00    1.21756   1.19843    8.526
 6329.00    1.20321   1.19416    8.256
 6330.00    1.19264   1.19000    7.642
 6331.00    1.18591   1.18558    8.695
 6332.00    1.18255   1.18346   15.858
 6333.00    1.18294   1.18467   53.225
 6334.00    1.18622   1.18670   53.225
 6335.00    1.18906   1.18748   40.901
 6336.00    1.18905   1.18787   37.600
 6337.00    1.18704   1.18905   44.264
 6338.00    1.18585   1.18989   46.047
 6339.00    1.18871   1.18996   43.705
 6340.00    1.19585   1.19105   43.189
 6341.00    1.20338   1.19430   43.370
 6342.00    1.20849   1.19837   42.680
 6343.00    1.21201   1.20193   42.109
 6344.00    1.21508   1.20493   42.347
 6345.00    1.21750   1.20660   42.714
 6346.00    1.21817   1.20565   42.838
 6347.00    1.21593   1.20248   43.248
 6348.00    1.21170   1.19828   43.956
 6349.00    1.20814   1.19243   44.109
 6350.00    1.20403   1.18409   43.772
 6351.00    1.19396   1.17511   44.154
 6352.00    1.17667   1.16777   45.392
 6353.00    1.15705   1.16122   46.134
 6354.00    1.14135   1.15447   45.740
 6355.00    1.13447   1.14959   44.981
 6356.00    1.13724   1.14858   44.521
 6357.00    1.14644   1.15061   44.397
 6358.00    1.15806   1.15447   43.970
 6359.00    1.16879   1.16066   42.488
 6360.00    1.17711   1.16934   40.563
 6361.00    1.18296   1.17851   39.462
 6362.00    1.18584   1.18658   39.378
 6363.00    1.18502   1.19405   39.710
 6364.00    1.18159   1.20155   40.034
 6365.00    1.17847   1.20795   40.213
 6366.00    1.17961   1.21223   40.162
 6367.00    1.18747   1.21538   39.916
 6368.00    1.19850   1.21844   39.895
 6369.00    1.20573   1.22053   40.559
 6370.00    1.20596   1.22025   41.657
 6371.00    1.20043   1.21837   42.462
 6372.00    1.19322   1.21627   42.773
 6373.00    1.18890   1.21416   42.941
 6374.00    1.18893   1.21211   43.355
 6375.00    1.19203   1.21047   44.184
 6376.00    1.19580   1.20952   45.098
 6377.00    1.19833   1.20975   45.685
 6378.00    1.20009   1.21135   46.243
 6379.00    1.20288   1.21333   47.007
 6380.00    1.20786   1.21441   46.835
 6381.00    1.21427   1.21482   45.007
 6382.00    1.21826   1.21505   43.395
 6383.00    1.21630   1.21427   43.492
 6384.00    1.20930   1.21101   44.029
 6385.00    1.20005   1.20559   43.471
 6386.00    1.18997   1.20089   43.013
 6387.00    1.18036   1.19813   43.882
 6388.00    1.17394   1.19575   44.623
 6389.00    1.17247   1.19355   43.757
 6390.00    1.17445   1.19279   42.791
 6391.00    1.17730   1.19275   42.932
 6392.00    1.17949   1.19219   42.686
 6393.00    1.18096   1.19297   40.851
 6394.00    1.18314   1.19530   38.792
 6395.00    1.18743   1.19685   37.793
 6396.00    1.19404   1.19806   37.842
 6397.00    1.20173   1.20127   38.661
 6398.00    1.20816   1.20573   40.171
 6399.00    1.21178   1.20769   41.938
 6400.00    1.21306   1.20674   42.801
 6401.00    1.21275   1.20578   42.457
 6402.00    1.21091   1.20455   42.326
 6403.00    1.20760   1.20114   43.211
 6404.00    1.20326   1.19767   44.303
 6405.00    1.19831   1.19703   44.876
 6406.00    1.19301   1.19773   45.263
 6407.00    1.18783   1.19759   45.611
 6408.00    1.18355   1.19748   45.396
 6409.00    1.18073   1.19846   44.699
 6410.00    1.17925   1.19943   44.412
 6411.00    1.17764   1.19895   44.648
 6412.00    1.17370   1.19714   44.538
 6413.00    1.16850   1.19558   43.998
 6414.00    1.16656   1.19595   43.914
 6415.00    1.17042   1.19837   44.215
 6416.00    1.17912   1.20130   43.780
 6417.00    1.19014   1.20481   42.679
 6418.00    1.20060   1.21006   42.158
 6419.00    1.20875   1.21616   42.500
 6420.00    1.21394   1.22028   43.002
 6421.00    1.21515   1.22078   43.443
 6422.00    1.21143   1.21823   44.202
 6423.00    1.20408   1.21439   45.130
 6424.00    1.19632   1.21102   45.475
 6425.00    1.19054   1.20807   44.901
 6426.00    1.18764   1.20512   43.726
 6427.00    1.18703   1.20317   42.509
 6428.00    1.18737   1.20374   41.700
 6429.00    1.18792   1.20575   41.311
 6430.00    1.18872   1.20627   41.189
 6431.00    1.19022   1.20538   41.568
 6432.00    1.19273   1.20611   42.707
 6433.00    1.19547   1.20894   43.900
 6434.00    1.19768   1.21176   44.021
 6435.00    1.20070   1.21462   43.394
 6436.00    1.20667   1.21929   43.026
 6437.00    1.21572   1.22494   42.760
 6438.00    1.22548   1.22855   41.944
 6439.00    1.23136   1.22887   40.762
 6440.00    1.22920   1.22574   39.887
 6441.00    1.21895   1.21873   39.842
 6442.00    1.20394   1.20944   40.760
 6443.00    1.18893   1.20140   42.042
 6444.00    1.17822   1.19548   42.725
 6445.00    1.17351   1.19079   42.361
 6446.00    1.17492   1.18816   41.180
 6447.00    1.18227   1.18905   39.816
 6448.00    1.19348   1.19294   38.908
 6449.00    1.20298   1.19800   38.890
 6450.00    1.20638   1.20269   39.832
 6451.00    1.20492   1.20611   41.205
 6452.00    1.20240   1.20842   42.426
 6453.00    1.20169   1.20960   43.554
 6454.00    1.20340   1.20857   44.339
 6455.00    1.20527   1.20599   43.401
 6456.00    1.20503   1.20434   40.668
 6457.00    1.20279   1.20376   38.325
 6458.00    1.20036   1.20312   37.580
 6459.00    1.20046   1.20360   37.903
 6460.00    1.20476   1.20695   38.606
 6461.00    1.21259   1.21153   39.589
 6462.00    1.22130   1.21453   40.735
 6463.00    1.22710   1.21563   41.504
 6464.00    1.22791   1.21607   41.651
 6465.00    1.22485   1.21668   41.676
 6466.00    1.21988   1.21672   42.014
 6467.00    1.21458   1.21587   42.604
 6468.00    1.21059   1.21540   43.127
 6469.00    1.20957   1.21635   43.179
 6470.00    1.21156   1.21715   42.511
 6471.00    1.21438   1.21631   41.243
 6472.00    1.21471   1.21471   40.089
 6473.00    1.20954   1.21265   40.021
 6474.00    1.20028   1.20917   41.195
 6475.00    1.19279   1.20507   42.782
 6476.00    1.19102   1.20242   44.018
 6477.00    1.19452   1.20106   44.744
 6478.00    1.19909   1.19993   45.109
 6479.00    1.19923   1.19974   45.278
 6480.00    1.19532   1.20098   45.028
 6481.00    1.19316   1.20144   44.034
 6482.00    1.19502   1.19843   43.018
 6483.00    1.19815   1.19176   43.146
 6484.00    1.19911   1.18231   44.000
 6485.00    1.19533   1.16946   43.921
 6486.00    1.18562   1.15258   42.870
 6487.00    1.17049   1.13426   42.271
 6488.00    1.15253   1.11878   42.647
 6489.00    1.13602   1.10770   43.562
 6490.00    1.12572   1.10089   44.285
 6491.00    1.12477   1.09927   44.269
 6492.00    1.13084   1.10451   43.970
 6493.00    1.13814   1.11586   44.256
 6494.00    1.14299   1.13032   44.998
 6495.00    1.14521   1.14535   45.336
 6496.00    1.14820   1.15992   44.821
 6497.00    1.15630   1.17370   43.678
 6498.00    1.17010   1.18561   42.577
 6499.00    1.18692   1.19467   42.133
 6500.00    1.20292   1.20078   42.435
 6501.00    1.21472   1.20477   43.222
 6502.00    1.22126   1.20765   44.098
 6503.00    1.22324   1.20946   44.711
 6504.00    1.22191   1.20970   45.030
 6505.00    1.21886   1.20886   45.122
 6506.00    1.21598   1.20774   44.791
 6507.00    1.21452   1.20580   44.074
 6508.00    1.21415   1.20262   43.745
 6509.00    1.21372   1.19915   44.238
 6510.00    1.21233   1.19614   44.583
 6511.00    1.20998   1.19354   43.909
 6512.00    1.20807   1.19234   43.131
 6513.00    1.20848   1.19343   43.226
 6514.00    1.21250   1.19576   43.765
 6515.00    1.21970   1.19815   43.996
 6516.00    1.22720   1.20107   43.902
 6517.00    1.23186   1.20441   43.751
 6518.00    1.23227   1.20631   43.619
 6519.00    1.22894   1.20598   43.610
 6520.00    1.22414   1.20491   43.991
 6521.00    1.22005   1.20425   44.648
 6522.00    1.21765   1.20330   44.792
 6523.00    1.21768   1.20153   44.253
 6524.00    1.22120   1.19983   44.100
 6525.00    1.22763   1.19898   44.691
 6526.00    1.23386   1.19883   44.824
 6527.00    1.23623   1.19931   43.966
 6528.00    1.23226   1.20028    0.000
 6529.00    1.22344   1.20128    0.000
 6530.00    1.21551   1.20242    0.000
 6531.00    1.21285   1.20422    0.000
 6532.00    1.21577   1.20602    0.000
 6533.00    1.22219   1.20614    0.000
 6534.00    1.22896   1.20401    0.000
 6535.00    1.23403   1.20067    0.000
 6536.00    1.23773   1.19673    0.000
 6537.00    1.24435   1.19142    0.000
 6538.00    1.26091   1.18431    0.000
 6539.00    1.29041   1.17705    0.000
 6540.00    1.32926   1.17172    0.000
 6541.00    1.36773   1.16787    0.000
 6542.00    1.39239   1.16384    0.000
 6543.00    1.39364   1.15956    0.000
 6544.00    1.36865   1.15587    0.000
 6545.00    1.32259   1.15198    0.000
 6546.00    1.26698   1.14609    0.000
 6547.00    1.21383   1.13754    0.000
 6548.00    1.17280   1.12729    0.000
 6549.00    1.14840   1.11605    0.000
 6550.00    1.14633   1.10227    0.000
 6551.00    1.19013   1.08419    0.000
 6552.00    1.31733   1.06335    0.000
 6553.00    1.56114   1.04184    0.000
 6554.00    1.92533   1.01803    0.000
 6555.00    2.34235   0.99261    0.000
 6556.00    2.69492   0.97473    0.000
 6557.00    2.87537   0.97054    0.000
 6558.00    2.82121   0.97489    0.000
 6559.00    2.55614   0.98468    0.000
 6560.00    2.17125   1.00425    0.000
 6561.00    1.77949   1.03152    0.000
 6562.00    1.47562   1.05697    0.000
 6563.00    1.28756   1.07709    0.000
 6564.00    1.19357   1.09357    0.000
 6565.00    1.15888   1.10596    0.000
 6566.00    1.15111   1.11416    0.000
 6567.00    1.15345   1.12068    0.000
 6568.00    1.15953   1.12723    0.000
 6569.00    1.16501   1.13397    0.000
 6570.00    1.16990   1.14089    0.000
 6571.00    1.18244   1.14809    0.000
 6572.00    1.21717   1.15514    0.000
 6573.00    1.29117   1.16132    0.000
 6574.00    1.41129   1.16614    0.000
 6575.00    1.56210   1.17003    0.000
 6576.00    1.71122   1.17315    0.000
 6577.00    1.81738   1.17535    0.000
 6578.00    1.84834   1.17699    0.000
 6579.00    1.79620   1.17876    0.000
 6580.00    1.67818   1.18060    0.000
 6581.00    1.53346   1.18123    0.000
 6582.00    1.40156   1.17999    0.000
 6583.00    1.30537   1.17774    0.000
 6584.00    1.24875   1.17450    0.000
 6585.00    1.21791   1.16902    0.000
 6586.00    1.19746   1.16266    0.000
 6587.00    1.18055   1.15895    0.000
 6588.00    1.16581   1.15785    0.000
 6589.00    1.15470   1.15739    0.000
 6590.00    1.14945   1.15858    0.000
 6591.00    1.15174   1.16308    0.000
 6592.00    1.16152   1.16940    0.000
 6593.00    1.17659   1.17519    0.000
 6594.00    1.19324   1.17964    0.000
 6595.00    1.20700   1.18281    0.000
 6596.00    1.21447   1.18462    0.000
 6597.00    1.21413   1.18457    0.000
 6598.00    1.20633   1.18249    0.000
 6599.00    1.19320   1.17946    0.000
 6600.00    1.17845   1.17630    0.000
 6601.00    1.16660   1.17292    0.000
 6602.00    1.16082   1.17027    0.000
 6603.00    1.16220   1.17051    0.000
 6604.00    1.17040   1.17333    0.000
 6605.00    1.18384   1.17638    0.000
 6606.00    1.19968   1.17944    0.000
 6607.00    1.21445   1.18428    0.000
 6608.00    1.22611   1.19030    0.000
 6609.00    1.23445   1.19465   42.779
 6610.00    1.24079   1.19707   42.731
 6611.00    1.24668   1.19941   43.578
 6612.00    1.25091   1.20179   44.855
 6613.00    1.25063   1.20242   45.175
 6614.00    1.24559   1.20131   44.848
 6615.00    1.23792   1.19962   45.272
 6616.00    1.22932   1.19714   46.071
 6617.00    1.22072   1.19337   45.790
 6618.00    1.21267   1.18956   44.838
 6619.00    1.20568   1.18682   44.568
 6620.00    1.20053   1.18409   44.733
 6621.00    1.19784   1.18092   44.240
 6622.00    1.19712   1.17815   43.103
 6623.00    1.19710   1.17589   42.099
 6624.00    1.19639   1.17330   41.747
 6625.00    1.19365   1.17011   42.200
 6626.00    1.18764   1.16679   43.208
 6627.00    1.17853   1.16449   44.237
 6628.00    1.16963   1.16424   44.734
 6629.00    1.16531   1.16536   44.618
 6630.00    1.16795   1.16718   44.733
 6631.00    1.17655   1.16960   45.673
 6632.00    1.18590   1.17204   46.401
 6633.00    1.19040   1.17410   45.869
 6634.00    1.18858   1.17605   45.227
 6635.00    1.18299   1.17651   45.608
 6636.00    1.17922   1.17472   46.032
 6637.00    1.18102   1.17359   45.409
 6638.00    1.18615   1.17475   44.647
 6639.00    1.19064   1.17552   44.741
 6640.00    1.19296   1.17502   45.234
 6641.00    1.19301   1.17598   45.357
 6642.00    1.19103   1.17875   45.071
 6643.00    1.18769   1.18069   44.592
 6644.00    1.18426   1.18131   43.974
 6645.00    1.18214   1.18194   43.482
 6646.00    1.18238   1.18270   43.703
 6647.00    1.18480   1.18288   44.462
 6648.00    1.18749   1.18252   44.322
 6649.00    1.18792   1.18167   43.102
 6650.00    1.18409   1.18049   42.809
 6651.00    1.17681   1.17902   44.193
 6652.00    1.17025   1.17656   45.466
 6653.00    1.16742   1.17308   45.355
 6654.00    1.16799   1.16949   45.031
 6655.00    1.17001   1.16552   45.442
 6656.00    1.17119   1.16068   46.178
 6657.00    1.17022   1.15716   46.672
 6658.00    1.16744   1.15608   46.797
 6659.00    1.16485   1.15579   46.642
 6660.00    1.16533   1.15609   46.340
 6661.00    1.16960   1.15871   45.917
 6662.00    1.17551   1.16324   45.350
 6663.00    1.17998   1.16762   44.983
 6664.00    1.18063   1.17119   45.296
 6665.00    1.17870   1.17400   45.685
 6666.00    1.17806   1.17532   44.845
 6667.00    1.17918   1.17454   43.629
 6668.00    1.17885   1.17234   44.098
 6669.00    1.17557   1.16884   45.225
 6670.00    1.17056   1.16307   43.666
 6671.00    1.16573   1.15703   40.710
 6672.00    1.16276   1.15451   40.026
 6673.00    1.16216   1.15467   41.433
 6674.00    1.16362   1.15464   42.213
 6675.00    1.16728   1.15620   42.233
 6676.00    1.17332   1.16118   43.611
 6677.00    1.18046   1.16691   45.827
 6678.00    1.18634   1.17096   46.126
 6679.00    1.18931   1.17425   44.906
 6680.00    1.18918   1.17717   44.669
 6681.00    1.18808   1.17900   45.388
 6682.00    1.18874   1.17999   45.531
 6683.00    1.19132   1.18044   45.116
 6684.00    1.19402   1.18001   45.069
 6685.00    1.19514   1.17857   45.168
 6686.00    1.19384   1.17682   44.711
 6687.00    1.19068   1.17476   44.030
 6688.00    1.18701   1.17180   43.791
 6689.00    1.18389   1.16832   43.848
 6690.00    1.18166   1.16586   43.744
 6691.00    1.17960   1.16461   43.532
 6692.00    1.17675   1.16379   43.547
 6693.00    1.17311   1.16362   44.001
 6694.00    1.16983   1.16442   44.844
 6695.00    1.16906   1.16546   45.632
 6696.00    1.17210   1.16587    0.000
 6697.00    1.17746   1.16585    0.000
 6698.00    1.18271   1.16590    0.000
 6699.00    1.18650   1.16590    0.000
 6700.00    1.18844   1.16531    0.000
 6701.00    1.18875   1.16451    0.000
 6702.00    1.18752   1.16390    0.000
 6703.00    1.18447   1.16262    0.000
 6704.00    1.18169   1.16045    0.000
 6705.00    1.18541   1.15756    0.000
 6706.00    1.20243   1.15351    0.000
 6707.00    1.23649   1.14859    0.000
 6708.00    1.28298   1.14418    0.000
 6709.00    1.32678   1.14020    0.000
 6710.00    1.35235   1.13624    0.000
 6711.00    1.35102   1.13417    0.000
 6712.00    1.32398   1.13540    0.000
 6713.00    1.28255   1.13804    0.000
 6714.00    1.24015   1.14060    0.000
 6715.00    1.20701   1.14416    0.000
 6716.00    1.18680   1.14937    0.000
 6717.00    1.17644   1.15391    0.000
 6718.00    1.17342   1.15637    0.000
 6719.00    1.17878   1.15800    0.000
 6720.00    1.19414   1.16030    0.000
 6721.00    1.22001   1.16242    0.000
 6722.00    1.25532   1.16343    0.000
 6723.00    1.29640   1.16417    0.000
 6724.00    1.33394   1.16541    0.000
 6725.00    1.35436   1.16635    0.000
 6726.00    1.34910   1.16629    0.000
 6727.00    1.31839   1.16572    0.000
 6728.00    1.27209   1.16485    0.000
 6729.00    1.22592   1.16355    0.000
 6730.00    1.18922   1.16156    0.000
 6731.00    1.16289   1.15903    0.000
 6732.00    1.14514   1.15640    0.000
 6733.00    1.13398   1.15439    0.000
 6734.00    1.12936   1.15276    0.000
 6735.00    1.13203   1.15066    0.000
 6736.00    1.13945   1.14853    0.000
 6737.00    1.14643   1.14767    0.000
 6738.00    1.14933   1.14730    0.000
 6739.00    1.14692   1.14589    0.000
 6740.00    1.14023   1.14426    0.000
 6741.00    1.13184   1.14351    0.000
 6742.00    1.12460   1.14268    0.000
 6743.00    1.12089   1.14142    0.000
 6744.00    1.12162   1.14132    0.000
 6745.00    1.12622   1.14215    0.000
 6746.00    1.13295   1.14312    0.000
 6747.00    1.13957   1.14537    0.000
 6748.00    1.14448   1.14925    0.000
 6749.00    1.14829   1.15328    0.000
 6750.00    1.15561   1.15724    0.000
 6751.00    1.16991   1.16181    0.000
 6752.00    1.18620   1.16594    0.000
 6753.00    1.19576   1.16896   32.776
 6754.00    1.19353   1.17094   31.230
 6755.00    1.17913   1.17163   31.038
 6756.00    1.15690   1.17095   31.752
 6757.00    1.13570   1.16916   32.953
 6758.00    1.12775   1.16656   34.435
 6759.00    1.13887   1.16317   35.808
 6760.00    1.15951   1.15930   36.047
 6761.00    1.17682   1.15597   35.004
 6762.00    1.18716   1.15420   34.483
 6763.00    1.19281   1.15330   35.688
 6764.00    1.19770   1.15288   37.599
 6765.00    1.20503   1.15436   38.658
 6766.00    1.21544   1.15796   39.028
 6767.00    1.22666   1.16190   39.372
 6768.00    1.23373   1.16558   39.445
 6769.00    1.23224   1.16952   39.153
 6770.00    1.22097   1.17289   39.238
 6771.00    1.20393   1.17480   39.879
 6772.00    1.18977   1.17516   39.983
 6773.00    1.18064   1.17384   39.294
 6774.00    1.16803   1.17069   39.306
 6775.00    1.15139   1.16639   40.362
 6776.00    1.14499   1.16147   40.469
 6777.00    1.15404   1.15656   38.735
 6778.00    1.16517   1.15267   36.924
 6779.00    1.16708   1.15008   36.279
 6780.00    1.16032   1.14887   36.785
 6781.00    1.15161   1.14942   37.969
 6782.00    1.14914   1.15097   39.143
 6783.00    1.15518   1.15237   40.059
 6784.00    1.16433   1.15390   41.133
 6785.00    1.16974   1.15533   42.284
 6786.00    1.16730   1.15549   42.620
 6787.00    1.16144   1.15499   41.886
 6788.00    1.16200   1.15499   40.816
 6789.00    1.16624   1.15509   39.937
 6790.00    1.16130   1.15515   39.300
 6791.00    1.15239   1.15591   38.796
 6792.00    1.15912   1.15724   38.398
 6793.00    1.17684   1.15851   38.560
 6794.00    1.18112   1.15988   39.869
 6795.00    1.17331   1.16120   41.553
 6796.00    1.17620   1.16172   41.697
 6797.00    1.18928   1.16155   40.518
 6798.00    1.19251   1.16152   39.844
 6799.00    1.18366   1.16115   39.699
 6800.00    1.17615   1.15986   38.945
 6801.00    1.17374   1.15885   37.817
 6802.00    1.17098   1.15853   37.400
 6803.00    1.16637   1.15769   37.914
 6804.00    1.16187   1.15665   38.985
 6805.00    1.15669   1.15654   40.496
 6806.00    1.14959   1.15677   42.390
 6807.00    1.14484   1.15662   43.866
 6808.00    1.14736   1.15669   43.733
 6809.00    1.15321   1.15749   41.909
 6810.00    1.15657   1.15870   39.308
 6811.00    1.16257   1.15975   36.840
 6812.00    1.17766   1.16073   35.089
 6813.00    1.19362   1.16205   34.373
 6814.00    1.19849   1.16361   34.810
 6815.00    1.19375   1.16513   36.237
 6816.00    1.18662   1.16637   38.262
 6817.00    1.17793   1.16698   40.316
 6818.00    1.16677   1.16708   41.821
 6819.00    1.15723   1.16707   42.624
 6820.00    1.15257   1.16653   42.984
 6821.00    1.14874   1.16512   43.281
 6822.00    1.14197   1.16368   43.696
 6823.00    1.13654   1.16322   43.963
 6824.00    1.13795   1.16328   43.784
 6825.00    1.14605   1.16312   43.250
 6826.00    1.15674   1.16297   42.549
 6827.00    1.16461   1.16302   41.704
 6828.00    1.16727   1.16249   40.844
 6829.00    1.16794   1.16035   40.336
 6830.00    1.16864   1.15675   40.432
 6831.00    1.16577   1.15237   41.064
 6832.00    1.15689   1.14744   41.986
 6833.00    1.14527   1.14230   42.791
 6834.00    1.13650   1.13790   42.686
 6835.00    1.13543   1.13505   40.752
 6836.00    1.14224   1.13415   37.552
 6837.00    1.15119   1.13549   34.820
 6838.00    1.15697   1.13860   33.358
 6839.00    1.15777   1.14267   33.067
 6840.00    1.15231   1.14701   33.990
 6841.00    1.13951   1.15116   36.561
 6842.00    1.12517   1.15446   40.537
 6843.00    1.12159   1.15629   43.755
 6844.00    1.13070   1.15630   44.427
 6845.00    1.14064   1.15494   43.752
 6846.00    1.14372   1.15301   43.371
 6847.00    1.14260   1.15010   43.832
 6848.00    1.14281   1.14596   44.535
 6849.00    1.14820   1.14235   44.197
 6850.00    1.15538   1.14000   43.124
 6851.00    1.15577   1.13743   42.995
 6852.00    1.14890   1.13543   43.923
 6853.00    1.14310   1.13562   44.357
 6854.00    1.14324   1.13644   43.651
 6855.00    1.14804   1.13688   42.576
 6856.00    1.15389   1.13846   41.631
 6857.00    1.15742   1.14059   40.785
 6858.00    1.15918   1.14149   39.970
 6859.00    1.16241   1.14192   39.289
 6860.00    1.16747   1.14252   39.215
 6861.00    1.17205   1.14209   40.184
 6862.00    1.17487   1.14075   41.486
 6863.00    1.17608   1.14018   41.642
 6864.00    1.17618   1.14007   40.675
 6865.00    1.17562   1.13945   39.713
 6866.00    1.17461   1.13957   38.982
 6867.00    1.17271   1.14125   38.259
 6868.00    1.16842   1.14293   38.049
 6869.00    1.16081   1.14393   39.048
 6870.00    1.15245   1.14561   40.997
 6871.00    1.14702   1.14752   42.889
 6872.00    1.14473   1.14809   44.033
 6873.00    1.14241   1.14787   44.402
 6874.00    1.13502   1.14795   44.486
 6875.00    1.12050   1.14750   44.724
 6876.00    1.10568   1.14644   44.849
 6877.00    1.09986   1.14672   44.431
 6878.00    1.10542   1.14846   43.707
 6879.00    1.11884   1.15025   43.187
 6880.00    1.13368   1.15272   43.108
 6881.00    1.14460   1.15676   43.333
 6882.00    1.15121   1.16063   43.307
 6883.00    1.15511   1.16336   42.755
 6884.00    1.15631   1.16601   42.329
 6885.00    1.15493   1.16805   42.597
 6886.00    1.15295   1.16863   43.196
 6887.00    1.15256   1.16866   43.507
 6888.00    1.15449   1.16858   43.387
 6889.00    1.15781   1.16775   42.985
 6890.00    1.16017   1.16675   42.494
 6891.00    1.15891   1.16664   42.174
 6892.00    1.15237   1.16687   42.343
 6893.00    1.14188   1.16687   43.011
 6894.00    1.13254   1.16724   43.631
 6895.00    1.12851   1.16834   43.562
 6896.00    1.13001   1.16952   42.577
 6897.00    1.13514   1.17046   41.109
 6898.00    1.14132   1.17143   40.004
 6899.00    1.14605   1.17254   39.550
 6900.00    1.14736   1.17338   39.340
 6901.00    1.14350   1.17357   39.363
 6902.00    1.13344   1.17309   40.328
 6903.00    1.12001   1.17198   42.370
 6904.00    1.11003   1.16995   44.364
 6905.00    1.10694   1.16729   45.250
 6906.00    1.10827   1.16463   45.166
 6907.00    1.11030   1.16160   44.900
 6908.00    1.11039   1.15901   45.202
 6909.00    1.10786   1.15814   45.950
 6910.00    1.10403   1.15812   46.158
 6911.00    1.10111   1.15840   45.551
 6912.00    1.10145   1.15999   44.893
 6913.00    1.10635   1.16202   44.715
 6914.00    1.11565   1.16293   44.947
 6915.00    1.12777   1.16314   44.964
 6916.00    1.14019   1.16294   44.018
 6917.00    1.15078   1.16193   42.523
 6918.00    1.15820   1.16018   41.588
 6919.00    1.16167   1.15856   41.436
 6920.00    1.16076   1.15781   41.575
 6921.00    1.15508   1.15786   41.766
 6922.00    1.14458   1.15818   42.108
 6923.00    1.13055   1.15864   42.651
 6924.00    1.11552   1.15979   43.302
 6925.00    1.10272   1.16107   43.834
 6926.00    1.09555   1.16158   44.039
 6927.00    1.09677   1.16185   44.040
 6928.00    1.10697   1.16296   44.077
 6929.00    1.12215   1.16434   43.959
 6930.00    1.13644   1.16512   43.380
 6931.00    1.14776   1.16604   42.636
 6932.00    1.15646   1.16702   42.179
 6933.00    1.16138   1.16728   41.848
 6934.00    1.16099   1.16662   41.230
 6935.00    1.15602   1.16508   40.356
 6936.00    1.14790   1.16315   39.622
 6937.00    1.13589   1.16121   39.551
 6938.00    1.11982   1.15898   40.392
 6939.00    1.10401   1.15708   41.582
 6940.00    1.09463   1.15659   42.270
 6941.00    1.09555   1.15652   42.366
 6942.00    1.10656   1.15629   42.341
 6943.00    1.12214   1.15682   42.640
 6944.00    1.13495   1.15723   43.384
 6945.00    1.14006   1.15679   44.153
 6946.00    1.13714   1.15697   44.581
 6947.00    1.13172   1.15771   45.028
 6948.00    1.12946   1.15821   45.655
 6949.00    1.13102   1.15954   45.546
 6950.00    1.13522   1.16191   44.289
 6951.00    1.14221   1.16427   43.153
 6952.00    1.15177   1.16645   42.962
 6953.00    1.16200   1.16874   42.978
 6954.00    1.17003   1.17085   42.558
 6955.00    1.17304   1.17252   42.243
 6956.00    1.17004   1.17362   42.443
 6957.00    1.16304   1.17457   42.665
 6958.00    1.15610   1.17572   42.499
 6959.00    1.15389   1.17636   42.211
 6960.00    1.15733   1.17656   41.953
 6961.00    1.16187   1.17705   41.447
 6962.00    1.16329   1.17734   40.943
 6963.00    1.16092   1.17684   41.379
 6964.00    1.15695   1.17541   42.685
 6965.00    1.15475   1.17261   43.196
 6966.00    1.15303   1.16901   42.444
 6967.00    1.14535   1.16459   42.141
 6968.00    1.13084   1.15804   43.012
 6969.00    1.11675   1.15070   43.971
 6970.00    1.10800   1.14507   44.123
 6971.00    1.10385   1.14053   43.679
 6972.00    1.10283   1.13663   43.121
 6973.00    1.10474   1.13623   42.759
 6974.00    1.11026   1.14011   42.701
 6975.00    1.12004   1.14521   42.824
 6976.00    1.13256   1.15096   42.661
 6977.00    1.14413   1.15816   41.750
 6978.00    1.15153   1.16470   40.716
 6979.00    1.15327   1.16902   40.714
 6980.00    1.15086   1.17206   41.609
 6981.00    1.14796   1.17426   42.178
 6982.00    1.14710   1.17516   42.130
 6983.00    1.14870   1.17517   42.221
 6984.00    1.15081   1.17528   42.652
 6985.00    1.15092   1.17562   43.066
 6986.00    1.15010   1.17571   43.493
 6987.00    1.15122   1.17542   44.187
 6988.00    1.15333   1.17475   44.674
 6989.00    1.15271   1.17359   44.262
 6990.00    1.14754   1.17167   43.598
 6991.00    1.13854   1.16918   43.830
 6992.00    1.12819   1.16661   44.795
 6993.00    1.11955   1.16361   45.450
 6994.00    1.11438   1.16049   45.292
 6995.00    1.11304   1.15848   44.508
 6996.00    1.11494   1.15727   43.523
 6997.00    1.11875   1.15595   42.745
 6998.00    1.12260   1.15503   42.406
 6999.00    1.12489   1.15536   42.523
 7000.00    1.12535   1.15626   42.825
 7001.00    1.12494   1.15694   -2.000
 7002.00    1.12545   1.15770   -2.000
 7003.00    1.12767   1.15857   -2.000
 7004.00    1.12954   1.15878   -2.000
 7005.00    1.12856   1.15771   -2.000
 7006.00    1.12473   1.15565   -2.000
 7007.00    1.12025   1.15334   -2.000
 7008.00    1.11857   1.15135   -2.000
 7009.00    1.12143   1.14926   -2.000
 7010.00    1.12638   1.14720   -2.000
 7011.00    1.13030   1.14747   -2.000
 7012.00    1.13269   1.14989   -2.000
 7013.00    1.13441   1.15162   -2.000
 7014.00    1.13616   1.15287   -2.000
 7015.00    1.13705   1.15486   -2.000
 7016.00    1.13403   1.15616   -2.000
 7017.00    1.12624   1.15590   -2.000
 7018.00    1.11785   1.15569   -2.000
 7019.00    1.11486   1.15666   -2.000
 7020.00    1.12193   1.15823   -2.000
 7021.00    1.13644   1.15986   -2.000
 7022.00    1.14694   1.16197   -2.000
 7023.00    1.14590   1.16466   -2.000
 7024.00    1.13627   1.16699   -2.000
 7025.00    1.12574   1.16831   -2.000
 7026.00    1.12200   1.16923   -2.000
 7027.00    1.12654   1.17021   -2.000
 7028.00    1.13333   1.17022   -2.000
 7029.00    1.13693   1.16979   -2.000
 7030.00    1.13602   1.17121   -2.000
 7031.00    1.13133   1.17325   -2.000
 7032.00    1.12498   1.17452   -2.000
 7033.00    1.12179   1.17809   -2.000
 7034.00    1.12765   1.18404   -2.000
 7035.00    1.14135   1.18889   -2.000
 7036.00    1.15422   1.19310   -2.000
 7037.00    1.15990   1.19799   -2.000
 7038.00    1.15785   1.20151   -2.000
 7039.00    1.15322   1.20295   -2.000
 7040.00    1.15372   1.20388   -2.000
 7041.00    1.16062   1.20392   -2.000
 7042.00    1.16866   1.20192   -2.000
 7043.00    1.17349   1.19801   -2.000
 7044.00    1.17326   1.19287   -2.000
 7045.00    1.16725   1.18677   -2.000
 7046.00    1.15540   1.17927   -2.000
 7047.00    1.13834   1.17149   -2.000
 7048.00    1.11767   1.16518   -2.000
 7049.00    1.09658   1.15969   -2.000
 7050.00    1.07872   1.15478   -2.000
 7051.00    1.06569   1.15129   -2.000
 7052.00    1.05763   1.14891   -2.000
 7053.00    1.05555   1.14636   -2.000
 7054.00    1.05875   1.14392   -2.000
 7055.00    1.05983   1.14278   -2.000
 7056.00    1.05158   1.14175   -2.000
 7057.00    1.03955   1.13998   -2.000
 7058.00    1.03415   1.13884   -2.000
 7059.00    1.03562   1.13794   -2.000
 7060.00    1.03936   1.13665   -2.000
 7061.00    1.04683   1.13629   -2.000
 7062.00    1.05932   1.13671   -2.000
 7063.00    1.06843   1.13811   -2.000
 7064.00    1.06551   1.14154   -2.000
 7065.00    1.05473   1.14560   -2.000
 7066.00    1.04549   1.14914   -2.000
 7067.00    1.04186   1.15306   -2.000
 7068.00    1.04422   1.15694   -2.000
 7069.00    1.05230   1.15941   -2.000
 7070.00    1.06531   1.16065   -2.000
 7071.00    1.08150   1.16120   -2.000
 7072.00    1.09673   1.16051   -2.000
 7073.00    1.10376   1.15791   -2.000
 7074.00    1.09966   1.15369   -2.000
 7075.00    1.09122   1.14801   -2.000
 7076.00    1.08527   1.14110   -2.000
 7077.00    1.08104   1.13330   -2.000
 7078.00    1.07540   1.12461   -2.000
 7079.00    1.06720   1.11673   -2.000
 7080.00    1.05611   1.11076   -2.000
 7081.00    1.04175   1.10509   -2.000
 7082.00    1.02507   1.10038   -2.000
 7083.00    1.00918   1.09779   -2.000
 7084.00    0.99911   1.09576   -2.000
 7085.00    1.00027   1.09456   -2.000
 7086.00    1.01072   1.09493   -2.000
 7087.00    1.01924   1.09556   -2.000
 7088.00    1.01881   1.09694   -2.000
 7089.00    1.01258   1.09929   -2.000
 7090.00    1.00727   1.10214   -2.000
 7091.00    1.00897   1.10506   -2.000
 7092.00    1.01973   1.10808   -2.000
 7093.00    1.03634   1.11146   -2.000
 7094.00    1.05155   1.11402   -2.000
 7095.00    1.05727   1.11604   -2.000
 7096.00    1.05433   1.11770   -2.000
 7097.00    1.05223   1.11839   -2.000
 7098.00    1.05442   1.11850   -2.000
 7099.00    1.05579   1.11846   -2.000
 7100.00    1.05314   1.11757   -2.000
 7101.00    1.04776   1.11562   -2.000
 7102.00    1.04215   1.11381   -2.000
 7103.00    1.03793   1.11262   -2.000
 7104.00    1.03339   1.11124   -2.000
 7105.00    1.02519   1.10996   -2.000
 7106.00    1.01505   1.10992   -2.000
 7107.00    1.00862   1.11097   -2.000
 7108.00    1.00819   1.11200   -2.000
 7109.00    1.01191   1.11294   -2.000
 7110.00    1.01650   1.11419   -2.000
 7111.00    1.01890   1.11508   -2.000
 7112.00    1.01862   1.11509   -2.000
 7113.00    1.01635   1.11433   -2.000
 7114.00    1.01057   1.11355   -2.000
 7115.00    0.99860   1.11255   -2.000
 7116.00    0.98003   1.11032   -2.000
 7117.00    0.95748   1.10808   -2.000
 7118.00    0.93687   1.10630   -2.000
 7119.00    0.92572   1.10366   -2.000
 7120.00    0.93036   1.10043   -2.000
 7121.00    0.95185   1.09742   -2.000
 7122.00    0.98109   1.09518   -2.000
 7123.00    1.00502   1.09365   -2.000
 7124.00    1.01648   1.09248   -2.000
 7125.00    1.01675   1.09294   -2.000
 7126.00    1.01643   1.09529   -2.000
 7127.00    1.02636   1.09816   -2.000
 7128.00    1.04664   1.10193   -2.000
 7129.00    1.06930   1.10592   -2.000
 7130.00    1.08295   1.10889   -2.000
 7131.00    1.07681   1.11190   -2.000
 7132.00    1.04518   1.11443   -2.000
 7133.00    0.99618   1.11503   -2.000
 7134.00    0.95753   1.11522   -2.000
 7135.00    0.95147   1.11558   -2.000
 7136.00    0.97280   1.11441   -2.000
 7137.00    1.00133   1.11267   -2.000
 7138.00    1.01578   1.11087   -2.000
 7139.00    1.00850   1.10800   -2.000
 7140.00    0.99353   1.10604   -2.000
 7141.00    0.98536   1.10504   -2.000
 7142.00    0.98422   1.10362   -2.000
 7143.00    0.98652   1.10442   -2.000
 7144.00    0.99201   1.10771   -2.000
 7145.00    0.99846   1.11074   -2.000
 7146.00    0.99953   1.11405   -2.000
 7147.00    0.99345   1.11874   -2.000
 7148.00    0.98682   1.12295   -2.000
 7149.00    0.98635   1.12507   -2.000
 7150.00    0.99408   1.12659   -2.000
 7151.00    1.00703   1.12776   -2.000
 7152.00    1.01825   1.12690   -2.000
 7153.00    1.02260   1.12487   -2.000
 7154.00    1.01919   1.12247   -2.000
 7155.00    1.01006   1.11904   -2.000
 7156.00    0.99932   1.11570   -2.000
 7157.00    0.99198   1.11360   -2.000
 7158.00    0.99246   1.11211   -2.000
 7159.00    1.00068   1.11188   -2.000
 7160.00    1.01262   1.11395   -2.000
 7161.00    1.02724   1.11741   -2.000
 7162.00    1.04563   1.12157   -2.000
 7163.00    1.06039   1.12616   -2.000
 7164.00    1.06079   1.13035   -2.000
 7165.00    1.05835   1.13381   -2.000
 7166.00    1.07809   1.13609   -2.000
 7167.00    1.11294   1.13652   -2.000
 7168.00    1.12840   1.13596   -2.000
 7169.00    1.10825   1.13477   -2.000
 7170.00    1.06203   1.13203   -2.000
 7171.00    1.01285   1.12863   -2.000
 7172.00    0.98395   1.12570   -2.000
 7173.00    0.97630   1.12291   -2.000
 7174.00    0.97525   1.12037   -2.000
 7175.00    0.97501   1.11803   -2.000
 7176.00    0.98034   1.11627   -2.000
 7177.00    0.99944   1.11508   -2.000
 7178.00    1.03248   1.11293   -2.000
 7179.00    1.05496   1.11056   -2.000
 7180.00    1.04054   1.10874   -2.000
 7181.00    1.00284   1.10638   -2.000
 7182.00    0.97431   1.10467   -2.000
 7183.00    0.96297   1.10409   -2.000
 7184.00    0.96038   1.10385   -2.000
 7185.00    0.96268   1.10497   -2.000
 7186.00    0.96896   1.10748   -2.000
 7187.00    0.97513   1.10958   -2.000
 7188.00    0.97795   1.11158   -2.000
 7189.00    0.98037   1.11462   -2.000
 7190.00    0.98508   1.11712   -2.000
 7191.00    0.98670   1.11849   -2.000
 7192.00    0.98045   1.12007   -2.000
 7193.00    0.97176   1.12128   -2.000
 7194.00    0.96876   1.12167   -2.000
 7195.00    0.97380   1.12170   -2.000
 7196.00    0.98526   1.12114   -2.000
 7197.00    1.00003   1.11960   -2.000
 7198.00    1.01381   1.11722   -2.000
 7199.00    1.02163   1.11528   -2.000
 7200.00    1.02074   1.11351   -2.000
 7201.00    1.01262   1.11163   -2.000
 7202.00    1.00042   1.11160   -2.000
 7203.00    0.98721   1.11280   -2.000
 7204.00    0.97973   1.11410   -2.000
 7205.00    0.98840   1.11668   -2.000
 7206.00    1.01032   1.11984   -2.000
 7207.00    1.02298   1.12218   -2.000
 7208.00    1.01632   1.12465   -2.000
 7209.00    1.00743   1.12728   -2.000
 7210.00    1.00953   1.12889   -2.000
 7211.00    1.01671   1.13020   -2.000
 7212.00    1.02122   1.13181   -2.000
 7213.00    1.02203   1.13291   -2.000
 7214.00    1.01972   1.13345   -2.000
 7215.00    1.01419   1.13450   -2.000
 7216.00    1.00698   1.13607   -2.000
 7217.00    1.00162   1.13742   -2.000
 7218.00    1.00030   1.13953   -2.000
