###################################################################
## OUTPUT of StarlightChains_v04.for    [Cid@UFSC - 01/Apr/2007] ##
###################################################################

## Some input info
2005eo.txt                               [arq_obs]
Base.CB07.vall.4m                        [arq_base]
Masks.EmLines.NEW.gm                     [arq_masks]
StCv04.C11.config                        [arq_config]
   66                                    [N_base]
    0                                    [N_YAV_components = # of components with extra extinction!]
    0                                    [i_FitPowerLaw (1/0 = Yes/No)]
-9.99                                    [alpha_PowerLaw]
CCM                                      [red_law_option]
 1.458241                                [q_norm = A(l_norm)/A(V)]

## (Re)Sampling Parameters
 3741.00                                 [l_ini (A)]
 7218.00                                 [l_fin (A)]
    1.00                                 [dl    (A)]     (OBS: dl_cushion =    50.00 A)

## Normalization info
 4020.00                                 [l_norm (A) - for base]
 4010.00                                 [llow_norm (A) - window for f_obs]
 4060.00                                 [lupp_norm (A) - window for f_obs]
1.093385E-16                             [fobs_norm (in input units)]

## S/N
 3691.00                                 [llow_SN (A) - window for S/N]
 7268.00                                 [lupp_SN (A) - window for S/N]
  13.398                                 [S/N in S/N window]
  15.116                                 [S/N in norm. window]
   0.000                                 [S/N_err in S/N window]
   0.000                                 [S/N_err in norm. window]
  1.0000                                 [fscale_chi2]

## etc...
    -2007302                             [idum_orig]
  2323                                   [NOl_eff]
  2116                                   [Nl_eff]
   207    NSIGMA                         [Ntot_cliped & clip_method]
  2139620                                [Nglobal_steps]
   7                                     [N_chains]
  32                                     [NEX0s_base = N_base in EX0s-fits]
 0   0   1        4   2.0   1.069E+02    [Clip-Bug, RC-Crash & Burn-In warning-flags, n_censored_weights, wei_nsig_threshold & wei_limit]
    21     20.501     20.005      0.496  [idt_all, wdt_TotTime, wdt_UsrTime & wdt_SysTime (sec)]

## Synthesis Results - Best model ##

 1.80820E+00                             [chi2/Nl_eff]
     3.02360                             [adev (%)]

   100.66804                             [sum-of-x (%)]
 3.00352E-16                             [Flux_tot (units of input spectrum!)]
 6.06495E-12                             [Mini_tot (???)]
 3.03217E-12                             [Mcor_tot (???)]

 185.51                                  [v0_min  (km/s)]
 210.68                                  [vd_min  (km/s)]
 0.7474                                  [AV_min  (mag)]
 0.0000                                  [YAV_min (mag)]

# j     x_j(%)      Mini_j(%)     Mcor_j(%)     age_j(yr)     Z_j      (L/M)_j    YAV?  Mstars   component_j        a/Fe...       SSP_chi2r SSP_adev(%)   SSP_AV   SSP_x(%)
  1      2.7759     1.2482E-02    2.4967E-02    1.000000E+06  0.00400  1.094E-02    0   1.0000   age020_m42            0.0000     7.7058E+00     6.2280   2.8174    88.8083
  2      0.2811     3.4514E-04    6.9028E-04    3.160000E+06  0.00400  4.007E-02    0   0.9999   age045_m42            0.0000     6.2750E+00     5.6353   2.1368    93.0211
  3      0.0000     0.0000E+00    0.0000E+00    5.010000E+06  0.00400  2.539E-02    0   0.9488   age055_m42            0.0000     6.4016E+00     5.6503   2.4360    91.6006
  4      0.0000     0.0000E+00    0.0000E+00    6.610000E+06  0.00400  2.620E-02    0   0.9220   age061_m42            0.0000     5.7823E+00     5.4376   2.0650    93.1870
  5      1.1119     4.1377E-03    7.3344E-03    1.000000E+07  0.00400  1.322E-02    0   0.8862   age070_m42            0.0000     3.3725E+00     4.0443   1.7855    95.3436
  6      0.4598     2.8693E-03    4.9190E-03    1.445000E+07  0.00400  7.883E-03    0   0.8571   age078_m42            0.0000     3.8836E+00     4.2755   2.1006    93.3900
  7      4.3790     4.1025E-02    6.7075E-02    2.512000E+07  0.00400  5.251E-03    0   0.8174   age090_m42            0.0000     3.0676E+00     3.8267   1.6613    95.7037
  8      2.2033     2.9704E-02    4.6645E-02    4.000000E+07  0.00400  3.649E-03    0   0.7851   age104_m42            0.0000     3.1633E+00     3.9223   1.4406    96.1992
  9      1.4881     2.3630E-02    3.6058E-02    5.500000E+07  0.00400  3.098E-03    0   0.7629   age110_m42            0.0000     4.2466E+00     4.5537   1.5995    95.8122
 10      0.0000     0.0000E+00    0.0000E+00    1.015200E+08  0.00400  2.228E-03    0   0.7207   age116_m42            0.0000     5.1426E+00     4.9994   1.6261    95.6553
 11      0.0014     6.1524E-05    8.1811E-05    2.861200E+08  0.00400  1.093E-03    0   0.6648   age125_m42            0.0000     4.6648E+00     4.6178   1.0674    98.0794
 12      0.0000     0.0000E+00    0.0000E+00    5.088000E+08  0.00400  6.597E-04    0   0.6365   age130_m42            0.0000     6.1101E+00     5.2185   1.0665    98.4069
 13      0.0000     0.0000E+00    0.0000E+00    1.434000E+09  0.00400  2.132E-04    0   0.5798   age139_m42            0.0000     6.8320E+00     5.3871   0.1108    99.6709
 14      0.0000     0.0000E+00    0.0000E+00    4.250000E+09  0.00400  5.895E-05    0   0.5377   age158_m42            0.0000     8.9298E+00     6.3229  -0.3471    96.4668
 15      0.0000     0.0000E+00    0.0000E+00    7.500000E+09  0.00400  3.510E-05    0   0.5212   age171_m42            0.0000     1.0770E+01     6.8207  -0.5355    95.7615
 16      0.0000     0.0000E+00    0.0000E+00    1.300000E+10  0.00400  2.005E-05    0   0.5034   age193_m42            0.0000     1.2696E+01     7.2867  -0.7017    95.2177
 17      2.7578     8.8962E+00    8.8384E+00    1.800000E+10  0.00400  1.525E-05    0   0.4967   age213_m42            0.0000     1.2365E+01     7.1976  -0.7264    94.8826
 18      3.9138     1.5552E-02    3.1107E-02    1.000000E+06  0.00800  1.238E-02    0   1.0000   age020_m52            0.0000     7.7323E+00     6.2367   2.8137    88.9846
 19      3.1073     4.9727E-03    9.9127E-03    3.160000E+06  0.00800  3.074E-02    0   0.9966   age045_m52            0.0000     7.6664E+00     6.1950   2.7392    89.6886
 20      0.0000     0.0000E+00    0.0000E+00    5.010000E+06  0.00800  2.668E-02    0   0.9443   age055_m52            0.0000     6.4794E+00     5.6719   2.5122    91.0530
 21      0.0000     0.0000E+00    0.0000E+00    6.610000E+06  0.00800  2.136E-02    0   0.9177   age061_m52            0.0000     3.2124E+00     4.0318   1.2816    96.6684
 22      0.7978     3.2304E-03    5.7034E-03    1.000000E+07  0.00800  1.215E-02    0   0.8827   age070_m52            0.0000     3.0418E+00     3.7467   1.9586    95.4101
 23      3.9779     2.2449E-02    3.8400E-02    1.445000E+07  0.00800  8.717E-03    0   0.8552   age078_m52            0.0000     3.6440E+00     4.1520   2.0701    94.5127
 24      0.0000     0.0000E+00    0.0000E+00    2.512000E+07  0.00800  5.592E-03    0   0.8162   age090_m52            0.0000     2.9299E+00     3.7183   1.7280    96.6654
 25      3.8543     4.8667E-02    7.6328E-02    4.000000E+07  0.00800  3.896E-03    0   0.7841   age104_m52            0.0000     3.2740E+00     3.9478   1.6489    96.9616
 26      0.0000     0.0000E+00    0.0000E+00    1.015200E+08  0.00800  2.148E-03    0   0.7226   age116_m52            0.0000     4.2840E+00     4.5705   1.5941    96.4324
 27      0.0006     2.7538E-05    3.6811E-05    2.861200E+08  0.00800  9.925E-04    0   0.6683   age125_m52            0.0000     5.9370E+00     5.0870   1.1323    99.2609
 28      0.0000     0.0000E+00    0.0000E+00    9.047900E+08  0.00800  3.141E-04    0   0.6138   age135_m52            0.0000     8.7329E+00     5.9183   0.3588   102.0408
 29      0.0000     0.0000E+00    0.0000E+00    1.434000E+09  0.00800  1.719E-04    0   0.5853   age139_m52            0.0000     8.2909E+00     5.9859  -0.2344   100.5520
 30      0.0000     0.0000E+00    0.0000E+00    2.500000E+09  0.00800  7.872E-05    0   0.5600   age150_m52            0.0000     1.1636E+01     7.0836  -0.5095    98.0630
 31      0.0000     0.0000E+00    0.0000E+00    4.250000E+09  0.00800  4.336E-05    0   0.5426   age158_m52            0.0000     1.2080E+01     7.1603  -0.5259    97.2138
 32      0.0000     0.0000E+00    0.0000E+00    6.250000E+09  0.00800  3.159E-05    0   0.5319   age166_m52            0.0000     1.5251E+01     7.9142  -0.7247    96.9880
 33      1.9384     7.0064E+00    7.1094E+00    1.300000E+10  0.00800  1.361E-05    0   0.5073   age193_m52            0.0000     2.2290E+01     8.8289  -1.0000    90.5920
 34      4.3695     2.1743E+01    2.1702E+01    1.800000E+10  0.00800  9.886E-06    0   0.4990   age213_m52            0.0000     2.9100E+01     9.8695  -1.0000    86.8997
 35      5.4998     1.7523E-02    3.5050E-02    1.000000E+06  0.02000  1.544E-02    0   1.0000   age020_m62            0.0000     7.8182E+00     6.2735   2.8078    89.2695
 36      1.3362     1.7472E-03    3.4452E-03    3.160000E+06  0.02000  3.762E-02    0   0.9858   age045_m62            0.0000     7.8601E+00     6.2903   2.7457    90.1023
 37      0.0000     0.0000E+00    0.0000E+00    5.010000E+06  0.02000  3.296E-02    0   0.9342   age055_m62            0.0000     6.5072E+00     5.7656   2.4013    92.4820
 38     32.6304     1.3910E-01    2.4654E-01    8.710000E+06  0.02000  1.154E-02    0   0.8861   age067_m62            0.0000     2.9485E+00     3.7469   1.3991    99.0620
 39      0.0000     0.0000E+00    0.0000E+00    1.445000E+07  0.02000  7.663E-03    0   0.8472   age078_m62            0.0000     2.3191E+00     3.3130   1.6069    97.6444
 40      0.0000     0.0000E+00    0.0000E+00    2.512000E+07  0.02000  4.532E-03    0   0.8099   age090_m62            0.0000     2.3659E+00     3.3072   1.6023    97.2321
 41      0.0000     0.0000E+00    0.0000E+00    5.500000E+07  0.02000  2.733E-03    0   0.7595   age110_m62            0.0000     3.1421E+00     3.9184   1.6261    96.5433
 42      0.0000     0.0000E+00    0.0000E+00    1.609000E+08  0.02000  1.369E-03    0   0.6985   age120_m62            0.0000     4.9715E+00     4.7804   1.4835    98.2289
 43      6.4658     3.5291E-01    4.7393E-01    2.861200E+08  0.02000  9.013E-04    0   0.6714   age125_m62            0.0000     6.6876E+00     5.2675   1.2483   100.3033
 44      2.7944     2.7341E-01    3.5268E-01    5.088000E+08  0.02000  5.028E-04    0   0.6449   age130_m62            0.0000     9.5689E+00     6.2520   0.8887   101.9625
 45      0.0000     0.0000E+00    0.0000E+00    9.047900E+08  0.02000  2.428E-04    0   0.6179   age135_m62            0.0000     9.9704E+00     6.4888   0.3018   101.3128
 46      0.0000     0.0000E+00    0.0000E+00    1.434000E+09  0.02000  1.263E-04    0   0.5908   age139_m62            0.0000     1.1127E+01     6.8374  -0.1493   100.1132
 47      0.0000     0.0000E+00    0.0000E+00    2.500000E+09  0.02000  5.985E-05    0   0.5673   age150_m62            0.0000     1.4844E+01     7.8571  -0.5212    98.8951
 48      0.0000     0.0000E+00    0.0000E+00    4.250000E+09  0.02000  3.271E-05    0   0.5468   age158_m62            0.0000     2.0298E+01     9.0790  -0.8240    97.8170
 49      0.0165     5.9782E-02    6.1785E-02    1.000000E+10  0.02000  1.360E-05    0   0.5167   age181_m62            0.0000     2.9397E+01    10.2000  -1.0000    92.1057
 50      0.3980     2.7482E+00    2.7556E+00    1.800000E+10  0.02000  7.124E-06    0   0.5013   age213_m62            0.0000     4.1618E+01    11.6397  -1.0000    85.0836
 51      1.9103     3.6257E-03    7.2506E-03    1.000000E+06  0.05000  2.592E-02    0   0.9998   age020_m72            0.0000     8.0437E+00     6.3501   2.7959    89.4464
 52      0.0015     1.5365E-06    2.9433E-06    3.160000E+06  0.05000  4.845E-02    0   0.9577   age045_m72            0.0000     7.5055E+00     6.1277   2.6401    90.8028
 53      0.0000     0.0000E+00    0.0000E+00    5.010000E+06  0.05000  3.072E-02    0   0.9147   age055_m72            0.0000     3.8126E+00     4.2667   2.1760    94.4141
 54      0.0000     0.0000E+00    0.0000E+00    6.610000E+06  0.05000  1.455E-02    0   0.8877   age061_m72            0.0000     6.8102E+00     5.7650   1.4369   100.2553
 55      0.0000     0.0000E+00    0.0000E+00    1.000000E+07  0.05000  9.074E-03    0   0.8524   age070_m72            0.0000     4.9376E+00     4.9053   2.3592    94.0913
 56      0.0000     0.0000E+00    0.0000E+00    2.512000E+07  0.05000  4.250E-03    0   0.7902   age090_m72            0.0000     3.7716E+00     4.2518   2.0769    95.0781
 57      0.0000     0.0000E+00    0.0000E+00    4.000000E+07  0.05000  3.087E-03    0   0.7618   age104_m72            0.0000     3.5613E+00     4.1635   1.8581    96.2909
 58      0.0046     1.3432E-04    1.9065E-04    1.015200E+08  0.05000  1.700E-03    0   0.7096   age116_m72            0.0000     4.3871E+00     4.4636   1.6224    97.9832
 59      6.8466     4.5614E-01    6.0517E-01    2.861200E+08  0.05000  7.384E-04    0   0.6633   age125_m72            0.0000     8.1653E+00     5.7606   1.1258   101.1039
 60      0.0000     0.0000E+00    0.0000E+00    5.088000E+08  0.05000  3.819E-04    0   0.6372   age130_m72            0.0000     1.0013E+01     6.5278   0.6422   102.2319
 61      0.0000     0.0000E+00    0.0000E+00    9.047900E+08  0.05000  1.676E-04    0   0.6110   age135_m72            0.0000     1.4125E+01     7.7766  -0.0611   100.6601
 62      0.0000     0.0000E+00    0.0000E+00    1.434000E+09  0.05000  8.837E-05    0   0.5874   age139_m72            0.0000     1.6125E+01     8.0918  -0.5174   100.0809
 63      0.0000     0.0000E+00    0.0000E+00    2.500000E+09  0.05000  4.233E-05    0   0.5598   age150_m72            0.0000     2.2149E+01     9.4682  -0.8251    98.5986
 64      0.0000     0.0000E+00    0.0000E+00    6.250000E+09  0.05000  1.435E-05    0   0.5249   age166_m72            0.0000     3.3801E+01    10.7546  -1.0000    88.8326
 65      0.0000     0.0000E+00    0.0000E+00    1.300000E+10  0.05000  6.513E-06    0   0.5036   age193_m72            0.0000     5.3718E+01    13.1939  -1.0000    81.2222
 66      5.3459     5.8092E+01    5.7459E+01    1.800000E+10  0.05000  4.527E-06    0   0.4945   age213_m72            0.0000     6.8821E+01    14.9588  -1.0000    76.2568


## Synthesis Results - Average & Chains ##

# j      x_j: min, <> & last-chain-values for 1 ...  7 chains
  1      2.7759      1.6812      1.4738      1.7262      1.6452      1.8555      2.1899      1.7837      1.9531
  2      0.2811      0.2117      0.0000      0.0000      0.0000      0.0000      0.0000      0.8076      0.3112
  3      0.0000      0.2791      0.4100      0.0593      0.0000      0.2046      0.4292      0.0000      1.1166
  4      0.0000      0.3226      0.1697      0.3229      0.0000      0.0000      0.2384      0.0000      0.0000
  5      1.1119      1.3320      1.1166      1.8495      1.9576      2.1996      2.0139      1.2504      0.5345
  6      0.4598      0.4574      0.4171      0.2913      0.8857      0.0427      0.0000      0.6706      0.5648
  7      4.3790      1.9482      1.8634      1.9378      2.7338      3.2898      2.1589      3.6589      2.1019
  8      2.2033      2.0550      3.1301      2.1670      2.5492      1.7924      4.3661      1.7292      2.4245
  9      1.4881      1.4709      1.8688      1.5787      1.5391      1.6667      1.4392      2.2366      0.9250
 10      0.0000      0.3886      1.0227      0.1011      0.3185      0.0000      0.0000      0.0000      1.3108
 11      0.0014      0.3905      0.0000      0.0059      0.0000      0.0000      0.0000      0.6087      0.8800
 12      0.0000      0.4248      0.0000      0.8216      0.4811      0.0000      1.0520      0.1428      0.0821
 13      0.0000      0.2508      0.0000      0.0000      0.0000      0.2751      0.0000      0.3489      0.0944
 14      0.0000      0.0483      0.0000      0.0093      0.0000      0.0000      0.1321      0.0000      0.0000
 15      0.0000      0.0402      0.0000      0.0000      0.0000      0.0424      0.0000      0.0000      0.0000
 16      0.0000      0.0407      0.0000      0.0000      0.0000      0.0000      0.0000      0.0000      0.0000
 17      2.7578      5.6999      5.7997      5.5207      5.2764      5.5960      5.7521      4.9156      5.7196
 18      3.9138      3.8987      3.3094      3.5491      3.4485      4.0306      4.0227      3.2378      4.3221
 19      3.1073      2.7036      2.5684      2.6438      2.8327      3.2010      2.8175      3.5407      2.6810
 20      0.0000      0.1196      0.0399      0.4444      0.3657      0.0000      0.0000      0.2916      0.0000
 21      0.0000      0.2074      0.4466      0.3102      0.6056      0.0000      0.0000      0.3972      0.0532
 22      0.7978      0.8300      1.2178      0.9363      1.3858      0.8691      1.0324      0.9184      0.9682
 23      3.9779      4.9624      4.6623      3.9618      4.4879      4.9734      5.2446      4.3464      4.4506
 24      0.0000      1.2940      0.4351      1.2946      0.6057      0.0349      1.4674      0.0000      3.7641
 25      3.8543      2.6979      2.2268      1.6731      2.5137      2.5879      4.5037      3.9968      2.6764
 26      0.0000      0.4403      0.0289      0.0000      0.9322      0.0000      0.0000      0.0000      0.0000
 27      0.0006      0.5418      0.7818      0.0000      2.1942      0.5963      1.4402      0.9933      0.0720
 28      0.0000      0.2303      0.0000      0.9929      0.0000      0.0000      1.2935      0.1211      0.0411
 29      0.0000      0.0619      0.0000      0.0323      0.0000      0.0000      0.0000      0.0000      0.0000
 30      0.0000      0.0365      0.0000      0.0000      0.0000      0.0000      0.0472      0.0000      0.0000
 31      0.0000      0.0572      0.0000      0.0000      0.1470      0.0000      0.0000      0.0000      0.0257
 32      0.0000      0.0397      0.0000      0.0000      0.0000      0.0737      0.0000      0.0000      0.0000
 33      1.9384      1.3637      1.5347      1.3006      1.5308      1.2715      1.3256      1.3108      1.6432
 34      4.3695      4.0090      3.9263      3.9873      3.8760      4.0179      4.0749      4.2023      4.0238
 35      5.4998      4.6263      5.4444      6.3638      4.4896      4.3223      4.6616      4.7487      4.3630
 36      1.3362      1.2079      0.0000      1.7415      1.0655      1.4096      1.3593      0.6075      1.0675
 37      0.0000      0.2088      0.0000      0.6726      0.3560      0.0000      0.0279      0.0000      0.0000
 38     32.6304     19.1800     19.9744     19.5026     21.5367     19.7478     19.5941     19.5622     19.5460
 39      0.0000      0.3652      0.0151      0.1163      0.0000      0.7298      0.1058      0.1259      0.2493
 40      0.0000      0.3987      0.3089      0.3698      0.4891      0.0019      0.0000      0.8639      0.0000
 41      0.0000      0.6105      1.9953      0.8469      0.0000      1.2759      0.0000      0.0000      0.9354
 42      0.0000      0.3408      0.0000      1.2900      0.6649      0.9569      0.0000      0.0000      0.3841
 43      6.4658      2.9499      3.7186      3.4326      2.9792      4.6744      1.8986      4.3766      3.6677
 44      2.7944      3.0493      3.4187      2.9586      2.7842      2.7081      2.0236      2.2599      1.7981
 45      0.0000      0.0851      0.0000      0.1652      0.1151      0.0000      0.0000      0.0000      0.0000
 46      0.0000      0.0498      0.1290      0.0000      0.1095      0.0000      0.0000      0.0314      0.0000
 47      0.0000      0.0761      0.0000      0.0000      0.0000      0.0000      0.0000      0.0000      0.0000
 48      0.0000      0.0294      0.0000      0.0000      0.0000      0.0232      0.0000      0.1176      0.0000
 49      0.0165      0.6189      0.5326      0.6621      0.3711      0.9254      0.5732      0.6705      0.5914
 50      0.3980      0.6489      0.5795      0.7929      0.6978      0.6445      0.6947      0.7991      0.4958
 51      1.9103      2.6146      3.2374      2.4739      1.9387      2.7381      2.2361      2.2846      2.4480
 52      0.0015      0.1138      0.2228      0.2383      0.0000      0.0000      0.0000      0.4326      0.0000
 53      0.0000      0.1249      0.3327      0.0000      0.0000      0.0093      0.0805      1.2684      0.0000
 54      0.0000     10.8516     10.1751     10.2629      9.7611     10.5181      9.9103      9.8116      9.0893
 55      0.0000      0.1424      0.0000      0.0000      0.1057      0.0000      0.0000      0.0000      0.0000
 56      0.0000      0.1308      0.7256      0.0000      0.0000      0.0000      0.0000      0.0000      0.4105
 57      0.0000      0.1798      0.0000      0.0000      0.0461      0.1646      0.0000      0.0000      0.7136
 58      0.0046      0.2926      1.2246      0.3463      0.0000      0.1029      0.0000      0.6004      0.8477
 59      6.8466      5.5484      4.4875      5.8278      5.3288      5.7404      5.0354      5.3414      5.5273
 60      0.0000      0.3974      0.3575      0.0000      0.2523      0.0000      0.0000      0.2089      0.2412
 61      0.0000      0.0705      0.0000      0.0000      0.0000      0.0000      0.0905      0.0000      0.0000
 62      0.0000      0.0454      0.0000      0.0921      0.0191      0.0000      0.0000      0.0000      0.0000
 63      0.0000      0.0247      0.0832      0.0000      0.0846      0.0000      0.0000      0.0000      0.0000
 64      0.0000      0.0321      0.0000      0.0808      0.0393      0.0000      0.1361      0.0000      0.2191
 65      0.0000      0.0234      0.1871      0.0000      0.0000      0.0000      0.1373      0.0134      0.0000
 66      5.3459      5.2040      5.1775      5.0860      5.2546      5.4804      5.0602      5.0717      5.4026

# j      m_j: min, <> & last-chain-values for 1 ...  7 chains
  1  2.4967E-02  1.3889E-02  1.2172E-02  1.4459E-02  1.3837E-02  1.4959E-02  1.8147E-02  1.5095E-02  1.5865E-02
  2  6.9028E-04  4.7739E-04  0.0000E+00  0.0000E+00  0.0000E+00  0.0000E+00  0.0000E+00  1.8659E-03  6.9002E-04
  3  0.0000E+00  9.4274E-04  1.3845E-03  2.0290E-04  0.0000E+00  6.7432E-04  1.4539E-03  0.0000E+00  3.7079E-03
  4  0.0000E+00  1.0261E-03  5.3960E-04  1.0413E-03  0.0000E+00  0.0000E+00  7.6049E-04  0.0000E+00  0.0000E+00
  5  7.3344E-03  8.0702E-03  6.7632E-03  1.1361E-02  1.2075E-02  1.3004E-02  1.2239E-02  7.7604E-03  3.1843E-03
  6  4.9190E-03  4.4944E-03  4.0975E-03  2.9021E-03  8.8612E-03  4.0947E-04  0.0000E+00  6.7503E-03  5.4573E-03
  7  6.7075E-02  2.7410E-02  2.6210E-02  2.7642E-02  3.9157E-02  4.5165E-02  3.0468E-02  5.2731E-02  2.9076E-02
  8  4.6645E-02  3.9961E-02  6.0852E-02  4.2723E-02  5.0467E-02  3.4011E-02  8.5165E-02  3.4446E-02  4.6357E-02
  9  3.6058E-02  3.2738E-02  4.1583E-02  3.5624E-02  3.4875E-02  3.6197E-02  3.2130E-02  5.0992E-02  2.0243E-02
 10  0.0000E+00  1.1361E-02  2.9893E-02  2.9959E-03  9.4807E-03  0.0000E+00  0.0000E+00  0.0000E+00  3.7681E-02
 11  8.1811E-05  2.1465E-02  0.0000E+00  3.2995E-04  0.0000E+00  0.0000E+00  0.0000E+00  3.4277E-02  4.7564E-02
 12  0.0000E+00  3.7046E-02  0.0000E+00  7.2637E-02  4.2715E-02  0.0000E+00  9.2018E-02  1.2754E-02  7.0401E-03
 13  0.0000E+00  6.1636E-02  0.0000E+00  0.0000E+00  0.0000E+00  6.5983E-02  0.0000E+00  8.7839E-02  2.2811E-02
 14  0.0000E+00  3.9789E-02  0.0000E+00  7.7944E-03  0.0000E+00  0.0000E+00  1.0920E-01  0.0000E+00  0.0000E+00
 15  0.0000E+00  5.3901E-02  0.0000E+00  0.0000E+00  0.0000E+00  5.5492E-02  0.0000E+00  0.0000E+00  0.0000E+00
 16  0.0000E+00  9.2448E-02  0.0000E+00  0.0000E+00  0.0000E+00  0.0000E+00  0.0000E+00  0.0000E+00  0.0000E+00
 17  8.8384E+00  1.6779E+01  1.7069E+01  1.6477E+01  1.5813E+01  1.6075E+01  1.6985E+01  1.4823E+01  1.6555E+01
 18  3.1107E-02  2.8462E-02  2.4154E-02  2.6270E-02  2.5630E-02  2.8714E-02  2.9459E-02  2.4213E-02  3.1024E-02
 19  9.9127E-03  7.9219E-03  7.5240E-03  7.8542E-03  8.4501E-03  9.1525E-03  8.2811E-03  1.0628E-02  7.7241E-03
 20  0.0000E+00  3.8257E-04  1.2756E-04  1.4414E-03  1.1911E-03  0.0000E+00  0.0000E+00  9.5542E-04  0.0000E+00
 21  0.0000E+00  8.0528E-04  1.7336E-03  1.2213E-03  2.3940E-03  0.0000E+00  0.0000E+00  1.5800E-03  2.0307E-04
 22  5.7034E-03  5.4501E-03  7.9942E-03  6.2335E-03  9.2636E-03  5.5686E-03  6.7999E-03  6.1771E-03  6.2509E-03
 23  3.8400E-02  4.4001E-02  4.1330E-02  3.5616E-02  4.0513E-02  4.3032E-02  4.6647E-02  3.9479E-02  3.8802E-02
 24  0.0000E+00  1.7070E-02  5.7378E-03  1.7316E-02  8.1343E-03  4.4913E-04  1.9417E-02  0.0000E+00  4.8823E-02
 25  7.6328E-02  4.9074E-02  4.0496E-02  3.0856E-02  4.6550E-02  4.5934E-02  8.2175E-02  7.4473E-02  4.7867E-02
 26  0.0000E+00  1.3386E-02  8.7907E-04  0.0000E+00  2.8856E-02  0.0000E+00  0.0000E+00  0.0000E+00  0.0000E+00
 27  3.6811E-05  3.2970E-02  4.7566E-02  0.0000E+00  1.3595E-01  3.5409E-02  8.7917E-02  6.1921E-02  4.3083E-03
 28  0.0000E+00  4.0674E-02  0.0000E+00  1.7780E-01  0.0000E+00  0.0000E+00  2.2916E-01  2.1906E-02  7.1302E-03
 29  0.0000E+00  1.9059E-02  0.0000E+00  1.0074E-02  0.0000E+00  0.0000E+00  0.0000E+00  0.0000E+00  0.0000E+00
 30  0.0000E+00  2.3467E-02  0.0000E+00  0.0000E+00  0.0000E+00  0.0000E+00  3.0453E-02  0.0000E+00  0.0000E+00
 31  0.0000E+00  6.4689E-02  0.0000E+00  0.0000E+00  1.6925E-01  0.0000E+00  0.0000E+00  0.0000E+00  2.8540E-02
 32  0.0000E+00  6.0353E-02  0.0000E+00  0.0000E+00  0.0000E+00  1.0940E-01  0.0000E+00  0.0000E+00  0.0000E+00
 33  7.1094E+00  4.5940E+00  5.1690E+00  4.4425E+00  5.2502E+00  4.1797E+00  4.4797E+00  4.5235E+00  5.4431E+00
 34  2.1702E+01  1.8289E+01  1.7907E+01  1.8442E+01  1.8002E+01  1.7886E+01  1.8647E+01  1.9638E+01  1.8049E+01
 35  3.5050E-02  2.7081E-02  3.1862E-02  3.7768E-02  2.6755E-02  2.4689E-02  2.7372E-02  2.8475E-02  2.5112E-02
 36  3.4452E-03  2.8607E-03  0.0000E+00  4.1817E-03  2.5692E-03  3.2576E-03  3.2292E-03  1.4738E-03  2.4858E-03
 37  0.0000E+00  5.3484E-04  0.0000E+00  1.7469E-03  9.2838E-04  0.0000E+00  7.1679E-05  0.0000E+00  0.0000E+00
 38  2.4654E-01  1.3311E-01  1.3859E-01  1.3722E-01  1.5216E-01  1.3373E-01  1.3640E-01  1.3907E-01  1.3337E-01
 39  0.0000E+00  3.6495E-03  1.5093E-04  1.1786E-03  0.0000E+00  7.1156E-03  1.0602E-03  1.2884E-03  2.4496E-03
 40  0.0000E+00  6.4402E-03  4.9881E-03  6.0553E-03  8.0428E-03  3.0567E-05  0.0000E+00  1.4293E-02  0.0000E+00
 41  0.0000E+00  1.5333E-02  5.0103E-02  2.1567E-02  0.0000E+00  3.1270E-02  0.0000E+00  0.0000E+00  2.3100E-02
 42  0.0000E+00  1.5715E-02  0.0000E+00  6.0312E-02  3.1215E-02  4.3059E-02  0.0000E+00  0.0000E+00  1.7418E-02
 43  4.7393E-01  1.9861E-01  2.5030E-01  2.3431E-01  2.0421E-01  3.0710E-01  1.2822E-01  3.0184E-01  2.4279E-01
 44  3.5268E-01  3.5349E-01  3.9621E-01  3.4774E-01  3.2859E-01  3.0634E-01  2.3531E-01  2.6836E-01  2.0494E-01
 45  0.0000E+00  1.9584E-02  0.0000E+00  3.8529E-02  2.6947E-02  0.0000E+00  0.0000E+00  0.0000E+00  0.0000E+00
 46  0.0000E+00  2.1061E-02  5.4517E-02  0.0000E+00  4.7124E-02  0.0000E+00  0.0000E+00  1.3613E-02  0.0000E+00
 47  0.0000E+00  6.5165E-02  0.0000E+00  0.0000E+00  0.0000E+00  0.0000E+00  0.0000E+00  0.0000E+00  0.0000E+00
 48  0.0000E+00  4.4448E-02  0.0000E+00  0.0000E+00  0.0000E+00  3.4161E-02  0.0000E+00  1.8207E-01  0.0000E+00
 49  6.1785E-02  2.1250E+00  1.8283E+00  2.3051E+00  1.2973E+00  3.1007E+00  1.9742E+00  2.3585E+00  1.9966E+00
 50  2.7556E+00  4.1272E+00  3.6848E+00  5.1127E+00  4.5183E+00  3.9996E+00  4.4319E+00  5.2061E+00  3.1002E+00
 51  7.2506E-03  9.1151E-03  1.1284E-02  8.7441E-03  6.8807E-03  9.3147E-03  7.8196E-03  8.1586E-03  8.3911E-03
 52  2.9433E-06  2.0330E-04  3.9789E-04  4.3155E-04  0.0000E+00  0.0000E+00  0.0000E+00  7.9164E-04  0.0000E+00
 53  0.0000E+00  3.3624E-04  8.9521E-04  0.0000E+00  0.0000E+00  2.4517E-05  2.1722E-04  3.4967E-03  0.0000E+00
 54  0.0000E+00  5.9837E-02  5.6093E-02  5.7377E-02  5.4796E-02  5.6595E-02  5.4815E-02  5.5421E-02  4.9280E-02
 55  0.0000E+00  1.2090E-03  0.0000E+00  0.0000E+00  9.1351E-04  0.0000E+00  0.0000E+00  0.0000E+00  0.0000E+00
 56  0.0000E+00  2.1980E-03  1.2191E-02  0.0000E+00  0.0000E+00  0.0000E+00  0.0000E+00  0.0000E+00  6.7832E-03
 57  0.0000E+00  4.0109E-03  0.0000E+00  0.0000E+00  1.0472E-03  3.5829E-03  0.0000E+00  0.0000E+00  1.5648E-02
 58  1.9065E-04  1.1040E-02  4.6189E-02  1.3247E-02  0.0000E+00  3.7899E-03  0.0000E+00  2.3202E-02  3.1443E-02
 59  6.0517E-01  4.5046E-01  3.6425E-01  4.7972E-01  4.4045E-01  4.5477E-01  4.1008E-01  4.4423E-01  4.4123E-01
 60  0.0000E+00  5.9929E-02  5.3892E-02  0.0000E+00  3.8728E-02  0.0000E+00  0.0000E+00  3.2273E-02  3.5757E-02
 61  0.0000E+00  2.3213E-02  0.0000E+00  0.0000E+00  0.0000E+00  0.0000E+00  2.9914E-02  0.0000E+00  0.0000E+00
 62  0.0000E+00  2.7278E-02  0.0000E+00  5.6102E-02  1.1668E-02  0.0000E+00  0.0000E+00  0.0000E+00  0.0000E+00
 63  0.0000E+00  2.9505E-02  9.9366E-02  0.0000E+00  1.0299E-01  0.0000E+00  0.0000E+00  0.0000E+00  0.0000E+00
 64  0.0000E+00  1.0615E-01  0.0000E+00  2.7069E-01  1.3214E-01  0.0000E+00  4.5132E-01  0.0000E+00  7.1206E-01
 65  0.0000E+00  1.6319E-01  1.3070E+00  0.0000E+00  0.0000E+00  0.0000E+00  9.6277E-01  9.5785E-02  0.0000E+00
 66  5.7459E+01  5.1376E+01  5.1102E+01  5.0909E+01  5.2813E+01  5.2797E+01  5.0112E+01  5.1291E+01  5.2444E+01

# AV, chi2 & Mass for <> & i_chain = 1 ...  7 solutions
AV       0.7474      0.6554      0.6635      0.6763      0.6707      0.6537      0.6603      0.6853      0.6627
chi2 1.8082E+00  1.8514E+00  1.8470E+00  1.8458E+00  1.8431E+00  1.8470E+00  1.8478E+00  1.8422E+00  1.8443E+00
Mass 3.0322E-12  2.9175E-12  2.9499E-12  2.9595E-12  2.9252E-12  2.9830E-12  2.9278E-12  2.9647E-12  2.9965E-12
 185.51                                  [v0_min (km/s) before EX0s...]
 210.68                                  [vd_min (km/s) before EX0s...]


## Synthetic spectrum (Best Model) ##l_obs f_obs f_syn wei
 3478    [Nl_obs]
 3741.00    0.87109   0.76822    0.000
 3742.00    0.87852   0.79142    0.000
 3743.00    0.87639   0.80737    0.000
 3744.00    0.86263   0.81397    0.000
 3745.00    0.83717   0.81064   26.448
 3746.00    0.80375   0.79808   25.561
 3747.00    0.76548   0.77793   24.756
 3748.00    0.72266   0.75272   24.939
 3749.00    0.67754   0.72593   25.891
 3750.00    0.63700   0.70193   25.803
 3751.00    0.61125   0.68533   24.549
 3752.00    0.61063   0.67981   24.493
 3753.00    0.63440   0.68689   26.258
 3754.00    0.66845   0.70526   27.498
 3755.00    0.70150   0.73118   26.725
 3756.00    0.73212   0.75977   25.869
 3757.00    0.76468   0.78653   26.163
 3758.00    0.80631   0.80855   27.157
 3759.00    0.86226   0.82490   27.782
 3760.00    0.93166   0.83615   27.089
 3761.00    0.99901   0.84349   -1.000
 3762.00    1.04022   0.84780   -1.000
 3763.00    1.05259   0.84918   -1.000
 3764.00    1.05363   0.84701   -1.000
 3765.00    1.04483   0.84029   -1.000
 3766.00    1.01187   0.82813   -1.000
 3767.00    0.95802   0.81024   -1.000
 3768.00    0.90345   0.78732   -1.000
 3769.00    0.85685   0.76133   26.633
 3770.00    0.81493   0.73553   26.245
 3771.00    0.78005   0.71402   26.113
 3772.00    0.75889   0.70090   27.617
 3773.00    0.74946   0.69906   29.398
 3774.00    0.74403   0.70923   28.303
 3775.00    0.74147   0.72983   26.365
 3776.00    0.74683   0.75758   27.081
 3777.00    0.76530   0.78867   29.620
 3778.00    0.79712   0.81977   30.098
 3779.00    0.83134   0.84862   28.441
 3780.00    0.85605   0.87402   27.605
 3781.00    0.87645   0.89547   28.341
 3782.00    0.90325   0.91273   29.875
 3783.00    0.93108   0.92557   30.475
 3784.00    0.94861   0.93381   29.126
 3785.00    0.95692   0.93731   27.869
 3786.00    0.96191   0.93621   28.620
 3787.00    0.96131   0.93098   30.736
 3788.00    0.95023   0.92234   32.082
 3789.00    0.92955   0.91105   31.559
 3790.00    0.90224   0.89763   30.263
 3791.00    0.86847   0.88213   30.539
 3792.00    0.83033   0.86405   33.503
 3793.00    0.79670   0.84250   36.186
 3794.00    0.77603   0.81662   34.566
 3795.00    0.76900   0.78625   31.529
 3796.00    0.76818   0.75256   30.444
 3797.00    0.76021   0.71839   31.580
 3798.00    0.74109   0.68806   33.825
 3799.00    0.72615   0.66648   34.499
 3800.00    0.72895   0.65777   32.803
 3801.00    0.74630   0.66386   32.102
 3802.00    0.77240   0.68368   34.033
 3803.00    0.80781   0.71354   36.114
 3804.00    0.84754   0.74835   -1.000
 3805.00    0.87613   0.78329   34.292
 3806.00    0.88857   0.81492   33.873
 3807.00    0.89868   0.84185   34.330
 3808.00    0.91290   0.86429   34.792
 3809.00    0.92009   0.88320   34.313
 3810.00    0.91715   0.89934   33.390
 3811.00    0.91759   0.91281   33.822
 3812.00    0.92734   0.92310   35.897
 3813.00    0.93741   0.92951   37.389
 3814.00    0.94387   0.93171   36.734
 3815.00    0.95254   0.92981   35.259
 3816.00    0.96072   0.92423   34.634
 3817.00    0.95470   0.91563   35.658
 3818.00    0.92836   0.90478   37.515
 3819.00    0.88753   0.89271   37.717
 3820.00    0.83974   0.88085   36.175
 3821.00    0.79134   0.87095   35.386
 3822.00    0.75004   0.86445   -1.000
 3823.00    0.72287   0.86172   -1.000
 3824.00    0.70781   0.86170   -1.000
 3825.00    0.69663   0.86233   -1.000
 3826.00    0.68914   0.86129   -1.000
 3827.00    0.69048   0.85685   -1.000
 3828.00    0.69512   0.84807   -1.000
 3829.00    0.69122   0.83463   -1.000
 3830.00    0.67993   0.81636   -1.000
 3831.00    0.67004   0.79308   -1.000
 3832.00    0.65721   0.76481   -1.000
 3833.00    0.63139   0.73239   -1.000
 3834.00    0.59949   0.69801   -1.000
 3835.00    0.57816   0.66523   -1.000
 3836.00    0.57244   0.63848   36.879
 3837.00    0.57832   0.62198   36.631
 3838.00    0.59370   0.61851   36.262
 3839.00    0.61807   0.62866   35.233
 3840.00    0.64918   0.65080   34.010
 3841.00    0.68311   0.68167   33.451
 3842.00    0.71525   0.71732   34.087
 3843.00    0.74133   0.75409   35.760
 3844.00    0.75892   0.78906   36.726
 3845.00    0.76830   0.82033   35.561
 3846.00    0.77320   0.84689   34.263
 3847.00    0.77774   0.86844    0.000
 3848.00    0.78301   0.88527    0.000
 3849.00    0.78960   0.89804    0.000
 3850.00    0.80043   0.90761    0.000
 3851.00    0.81810   0.91484    0.000
 3852.00    0.84205   0.92041    0.000
 3853.00    0.86874   0.92471    0.000
 3854.00    0.89264   0.92782    0.000
 3855.00    0.91081   0.92971    0.000
 3856.00    0.92614   0.93035    0.000
 3857.00    0.94160   0.92988    0.000
 3858.00    0.95618   0.92875    0.000
 3859.00    0.96875   0.92755    0.000
 3860.00    0.98047   0.92680    0.000
 3861.00    0.99011   0.92686    0.000
 3862.00    0.99215   0.92783    0.000
 3863.00    0.98524   0.92948    0.000
 3864.00    0.97608   0.93132    0.000
 3865.00    0.97132   0.93276    0.000
 3866.00    0.97333   0.93338    0.000
 3867.00    0.98367   0.93297    0.000
 3868.00    1.00362   0.93146    0.000
 3869.00    1.02753   0.92890    0.000
 3870.00    1.04252   0.92546    0.000
 3871.00    1.04163   0.92136    0.000
 3872.00    1.02820   0.91688    0.000
 3873.00    1.00890   0.91237    0.000
 3874.00    0.99019   0.90812    0.000
 3875.00    0.97660   0.90419    0.000
 3876.00    0.96949   0.90022    0.000
 3877.00    0.96524   0.89565    0.000
 3878.00    0.95636   0.88984    0.000
 3879.00    0.93725   0.88228    0.000
 3880.00    0.90626   0.87272    0.000
 3881.00    0.86586   0.86113   43.352
 3882.00    0.82108   0.84731   42.590
 3883.00    0.77521   0.83068   40.703
 3884.00    0.73086   0.81043   41.364
 3885.00    0.69565   0.78584   -1.000
 3886.00    0.67943   0.75671   -1.000
 3887.00    0.68438   0.72416   43.484
 3888.00    0.70573   0.69105   42.603
 3889.00    0.73828   0.66156   -1.000
 3890.00    0.77498   0.64038   -1.000
 3891.00    0.80160   0.63135   -1.000
 3892.00    0.80457   0.63630   -1.000
 3893.00    0.78740   0.65431   -1.000
 3894.00    0.76524   0.68219   -1.000
 3895.00    0.75045   0.71549   44.047
 3896.00    0.74951   0.74978   46.728
 3897.00    0.76217   0.78171   48.880
 3898.00    0.78427   0.80958   47.483
 3899.00    0.81196   0.83301   45.483
 3900.00    0.84272   0.85241   46.495
 3901.00    0.87553   0.86852   49.219
 3902.00    0.90742   0.88211   49.856
 3903.00    0.92980   0.89361   47.597
 3904.00    0.93796   0.90331   44.638
 3905.00    0.94153   0.91159   43.158
 3906.00    0.95118   0.91888   43.783
 3907.00    0.96388   0.92571   44.883
 3908.00    0.97338   0.93255   44.415
 3909.00    0.98157   0.93965   42.574
 3910.00    0.99260   0.94685   40.912
 3911.00    1.00665   0.95368   40.857
 3912.00    1.02144   0.95953   42.503
 3913.00    1.03402   0.96394   -1.000
 3914.00    1.04150   0.96660   -1.000
 3915.00    1.04179   0.96746   -1.000
 3916.00    1.03602   0.96647   -1.000
 3917.00    1.02943   0.96357   -1.000
 3918.00    1.02537   0.95878   -1.000
 3919.00    1.02199   0.95244   -1.000
 3920.00    1.01830   0.94519   -1.000
 3921.00    1.01691   0.93786   -1.000
 3922.00    1.01770   0.93131   -1.000
 3923.00    1.01548   0.92604   -1.000
 3924.00    1.00799   0.92189   -1.000
 3925.00    0.99863   0.91834   -1.000
 3926.00    0.98768   0.91459   -1.000
 3927.00    0.97006   0.90990   -1.000
 3928.00    0.94475   0.90391   47.568
 3929.00    0.91695   0.89655   49.402
 3930.00    0.88827   0.88784   47.311
 3931.00    0.85453   0.87789   44.307
 3932.00    0.81366   0.86717   43.053
 3933.00    0.76826   0.85660   44.441
 3934.00    0.72338   0.84745   -1.000
 3935.00    0.68548   0.84131   -1.000
 3936.00    0.66207   0.83958   -1.000
 3937.00    0.66016   0.84300   -1.000
 3938.00    0.68233   0.85128   -1.000
 3939.00    0.72539   0.86309   -1.000
 3940.00    0.78049   0.87646   -1.000
 3941.00    0.83576   0.88934   45.252
 3942.00    0.88311   0.90020   43.261
 3943.00    0.91905   0.90841   41.334
 3944.00    0.94251   0.91418   41.086
 3945.00    0.95507   0.91815   43.147
 3946.00    0.96256   0.92118   46.125
 3947.00    0.97091   0.92403   46.745
 3948.00    0.97719   0.92710   44.404
 3949.00    0.97482   0.93029   41.632
 3950.00    0.96643   0.93317   40.759
 3951.00    0.95971   0.93530   42.791
 3952.00    0.95612   0.93634   45.925
 3953.00    0.95262   0.93599   46.487
 3954.00    0.94771   0.93409   44.949
 3955.00    0.94028   0.93064   44.362
 3956.00    0.92669   0.92582   45.615
 3957.00    0.90459   0.91965   47.920
 3958.00    0.87835   0.91184   49.247
 3959.00    0.85430   0.90185   47.972
 3960.00    0.83380   0.88915    0.000
 3961.00    0.81525   0.87326    0.000
 3962.00    0.79726   0.85361    0.000
 3963.00    0.77682   0.82999    0.000
 3964.00    0.74738   0.80253    0.000
 3965.00    0.70624   0.77142    0.000
 3966.00    0.66158   0.73699    0.000
 3967.00    0.62519   0.69995    0.000
 3968.00    0.60509   0.66189    0.000
 3969.00    0.60618   0.62564    0.000
 3970.00    0.63039   0.59486    0.000
 3971.00    0.66880   0.57337    0.000
 3972.00    0.69828   0.56449    0.000
 3973.00    0.70436   0.57001    0.000
 3974.00    0.69648   0.58948    0.000
 3975.00    0.69149   0.62034    0.000
 3976.00    0.70090   0.65873    0.000
 3977.00    0.72697   0.70033    0.000
 3978.00    0.76227   0.74135    0.000
 3979.00    0.79952   0.77896    0.000
 3980.00    0.83635   0.81151    0.000
 3981.00    0.86897   0.83858   46.250
 3982.00    0.89026   0.86055   43.056
 3983.00    0.89774   0.87819   42.974
 3984.00    0.89657   0.89249   44.124
 3985.00    0.89365   0.90452   44.849
 3986.00    0.89426   0.91522   46.944
 3987.00    0.89981   0.92508   49.997
 3988.00    0.90833   0.93423   49.223
 3989.00    0.92011   0.94265   45.013
 3990.00    0.93816   0.95017   42.905
 3991.00    0.96224   0.95657   44.343
 3992.00    0.98782   0.96161   47.304
 3993.00    1.01043   0.96522   48.294
 3994.00    1.02750   0.96752   45.094
 3995.00    1.03927   0.96868   41.240
 3996.00    1.04847   0.96892   -1.000
 3997.00    1.05859   0.96883   -1.000
 3998.00    1.07131   0.96905   -1.000
 3999.00    1.08153   0.96995   -1.000
 4000.00    1.08154   0.97171   -1.000
 4001.00    1.07392   0.97418   -1.000
 4002.00    1.06827   0.97669   -1.000
 4003.00    1.06657   0.97823   -1.000
 4004.00    1.06310   0.97805   -1.000
 4005.00    1.05153   0.97601   -1.000
 4006.00    1.02982   0.97237   43.541
 4007.00    1.00619   0.96772   39.554
 4008.00    0.99121   0.96318   40.242
 4009.00    0.98217   0.95995   44.229
 4010.00    0.97052   0.95878   47.113
 4011.00    0.95820   0.95988   47.341
 4012.00    0.95283   0.96314   46.961
 4013.00    0.95646   0.96815   46.567
 4014.00    0.96717   0.97410   45.937
 4015.00    0.98363   0.98002   46.068
 4016.00    1.00441   0.98537   47.764
 4017.00    1.02636   0.98989   49.460
 4018.00    1.04595   0.99317   48.881
 4019.00    1.06094   0.99491   -1.000
 4020.00    1.06799   0.99498   -1.000
 4021.00    1.06052   0.99311   -1.000
 4022.00    1.03794   0.98879   48.251
 4023.00    1.01388   0.98149   50.550
 4024.00    1.00194   0.97137   49.587
 4025.00    1.00187   0.95971   47.253
 4026.00    1.00724   0.94838   46.251
 4027.00    1.01333   0.93910   -1.000
 4028.00    1.01765   0.93316   -1.000
 4029.00    1.01957   0.93108   -1.000
 4030.00    1.01837   0.93240   -1.000
 4031.00    1.01219   0.93590   -1.000
 4032.00    1.00193   0.94031   46.082
 4033.00    0.99305   0.94477   47.431
 4034.00    0.98999   0.94911   49.427
 4035.00    0.99261   0.95367   50.286
 4036.00    0.99774   0.95919   49.028
 4037.00    1.00096   0.96617   46.735
 4038.00    1.00072   0.97420   45.254
 4039.00    0.99970   0.98209   46.172
 4040.00    1.00000   0.98852   49.528
 4041.00    1.00124   0.99246   52.704
 4042.00    1.00320   0.99306   52.471
 4043.00    1.00653   0.99001   48.762
 4044.00    1.00987   0.98394   45.222
 4045.00    1.00949   0.97638   45.561
 4046.00    1.00309   0.96917   49.975
 4047.00    0.99135   0.96382   54.195
 4048.00    0.97790   0.96142   54.041
 4049.00    0.96801   0.96230   50.915
 4050.00    0.96406   0.96592   48.058
 4051.00    0.96487   0.97119   47.370
 4052.00    0.96840   0.97668   48.764
 4053.00    0.97285   0.98087   50.563
 4054.00    0.97692   0.98269   50.617
 4055.00    0.97982   0.98194   48.073
 4056.00    0.98085   0.97927   45.392
 4057.00    0.97968   0.97568   45.471
 4058.00    0.97738   0.97204   48.067
 4059.00    0.97541   0.96889   50.487
 4060.00    0.97310   0.96620   51.115
 4061.00    0.96864   0.96347   50.483
 4062.00    0.96259   0.96035   49.171
 4063.00    0.95717   0.95690   47.630
 4064.00    0.95351   0.95343   46.936
 4065.00    0.95144   0.95022   48.003
 4066.00    0.95019   0.94761   50.143
 4067.00    0.94932   0.94590   51.483
 4068.00    0.95008   0.94502   51.038
 4069.00    0.95393   0.94451   49.597
 4070.00    0.96010   0.94390   49.276
 4071.00    0.96579   0.94292   51.454
 4072.00    0.96724   0.94130   54.286
 4073.00    0.96245   0.93901   54.455
 4074.00    0.95422   0.93631   52.546
 4075.00    0.94621   0.93336   51.132
 4076.00    0.93794   0.93035   51.107
 4077.00    0.92804   0.92782   52.359
 4078.00    0.91849   0.92652   54.417
 4079.00    0.91193   0.92688   56.237
 4080.00    0.90856   0.92863   56.123
 4081.00    0.90802   0.93148   53.477
 4082.00    0.91125   0.93521   50.032
 4083.00    0.91711   0.93910   47.794
 4084.00    0.91999   0.94214   47.983
 4085.00    0.91708   0.94362   50.390
 4086.00    0.91361   0.94335   52.153
 4087.00    0.91521   0.94158   50.794
 4088.00    0.92175   0.93888   48.055
 4089.00    0.92911   0.93578   46.482
 4090.00    0.93137   0.93222   47.240
 4091.00    0.92551   0.92760   49.810
 4092.00    0.91345   0.92118    0.000
 4093.00    0.89594   0.91201    0.000
 4094.00    0.86960   0.89916    0.000
 4095.00    0.83242   0.88223    0.000
 4096.00    0.78702   0.86127    0.000
 4097.00    0.74086   0.83625    0.000
 4098.00    0.70532   0.80719    0.000
 4099.00    0.69143   0.77474    0.000
 4100.00    0.70671   0.74047    0.000
 4101.00    0.75063   0.70741    0.000
 4102.00    0.81291   0.67953    0.000
 4103.00    0.87529   0.66039    0.000
 4104.00    0.91549   0.65235    0.000
 4105.00    0.91938   0.65640    0.000
 4106.00    0.88623   0.67185    0.000
 4107.00    0.83057   0.69656    0.000
 4108.00    0.77722   0.72721    0.000
 4109.00    0.74387   0.75931    0.000
 4110.00    0.73633   0.78892    0.000
 4111.00    0.75165   0.81441    0.000
 4112.00    0.78087   0.83575    0.000
 4113.00    0.81359   0.85338   54.761
 4114.00    0.84057   0.86807   54.170
 4115.00    0.85681   0.88053   52.601
 4116.00    0.86227   0.89095   51.208
 4117.00    0.86152   0.89904   51.217
 4118.00    0.86070   0.90459   53.307
 4119.00    0.86131   0.90773   55.944
 4120.00    0.86220   0.90904   55.975
 4121.00    0.86620   0.90961   53.320
 4122.00    0.87721   0.91066   50.625
 4123.00    0.89284   0.91296   49.911
 4124.00    0.90649   0.91672   51.984
 4125.00    0.91340   0.92166   55.565
 4126.00    0.91223   0.92696   57.785
 4127.00    0.90581   0.93142   57.648
 4128.00    0.89836   0.93410   56.324
 4129.00    0.89151   0.93436   54.835
 4130.00    0.88521   0.93225   53.925
 4131.00    0.87978   0.92853   54.529
 4132.00    0.87577   0.92444   56.834
 4133.00    0.87354   0.92140   58.590
 4134.00    0.87423   0.92054   57.225
 4135.00    0.88070   0.92208   53.973
 4136.00    0.89329   0.92553   51.591
 4137.00    0.90575   0.93044   51.827
 4138.00    0.91163   0.93606   54.961
 4139.00    0.91072   0.94101   58.497
 4140.00    0.90679   0.94354   59.031
 4141.00    0.90444   0.94210   56.848
 4142.00    0.90496   0.93635   54.168
 4143.00    0.90381   0.92788   52.289
 4144.00    0.89797   0.91902   52.073
 4145.00    0.89123   0.91144   54.504
 4146.00    0.88897   0.90644   59.086
 4147.00    0.89399   0.90486   61.375
 4148.00    0.90648   0.90679   58.492
 4149.00    0.92420   0.91194   54.512
 4150.00    0.94339   0.91895   52.564
 4151.00    0.95973   0.92518   52.544
 4152.00    0.97031   0.92887   53.974
 4153.00    0.97452   0.93029   56.780
 4154.00    0.97265   0.93039   59.755
 4155.00    0.96540   0.93007   59.891
 4156.00    0.95522   0.93026   57.031
 4157.00    0.94602   0.93140   54.748
 4158.00    0.93846   0.93354   54.849
 4159.00    0.92986   0.93665   56.788
 4160.00    0.92261   0.94053   59.127
 4161.00    0.92407   0.94467   59.958
 4162.00    0.93275   0.94852   58.449
 4163.00    0.93762   0.95155   55.624
 4164.00    0.93510   0.95331   53.270
 4165.00    0.93119   0.95349   52.854
 4166.00    0.92856   0.95218   54.589
 4167.00    0.92445   0.94987   57.535
 4168.00    0.91753   0.94696   60.167
 4169.00    0.90943   0.94353   60.938
 4170.00    0.90275   0.93952   59.970
 4171.00    0.89980   0.93497   58.607
 4172.00    0.90074   0.93018   56.896
 4173.00    0.90428   0.92571   54.490
 4174.00    0.91055   0.92196   53.235
 4175.00    0.92065   0.91894   55.233
 4176.00    0.93442   0.91655   58.563
 4177.00    0.94967   0.91523   58.240
 4178.00    0.96170   0.91569   54.902
 4179.00    0.96603   0.91782   52.924
 4180.00    0.96337   0.92058   53.696
 4181.00    0.95736   0.92326   56.604
 4182.00    0.94901   0.92579   59.723
 4183.00    0.93816   0.92830   60.455
 4184.00    0.92717   0.93069   58.582
 4185.00    0.91946   0.93232   56.097
 4186.00    0.91653   0.93272   54.941
 4187.00    0.91817   0.93245   55.877
 4188.00    0.92330   0.93213   57.590
 4189.00    0.93066   0.93180   58.218
 4190.00    0.93938   0.93156   58.148
 4191.00    0.94851   0.93178   58.402
 4192.00    0.95653   0.93281   58.131
 4193.00    0.96292   0.93457   56.423
 4194.00    0.96947   0.93605   54.377
 4195.00    0.97583   0.93616   53.641
 4196.00    0.97562   0.93444   55.300
 4197.00    0.96398   0.93095   59.066
 4198.00    0.94439   0.92599   61.494
 4199.00    0.92337   0.91993   59.924
 4200.00    0.90529   0.91366   57.589
 4201.00    0.89225   0.90865   57.117
 4202.00    0.88435   0.90597   57.107
 4203.00    0.88031   0.90571   56.577
 4204.00    0.87809   0.90786   57.486
 4205.00    0.87652   0.91221   60.670
 4206.00    0.87624   0.91791   62.955
 4207.00    0.87902   0.92425   -1.000
 4208.00    0.88693   0.93064   58.177
 4209.00    0.90020   0.93616   55.701
 4210.00    0.91631   0.94041   55.220
 4211.00    0.93136   0.94338   56.645
 4212.00    0.94125   0.94475   58.793
 4213.00    0.94365   0.94429   60.516
 4214.00    0.93895   0.94220   61.418
 4215.00    0.92991   0.93963   61.143
 4216.00    0.92093   0.93794   59.357
 4217.00    0.91532   0.93737   57.139
 4218.00    0.91465   0.93772   56.417
 4219.00    0.92054   0.93901   57.701
 4220.00    0.93426   0.94098   59.899
 4221.00    0.95295   0.94305   61.438
 4222.00    0.96939   0.94377   61.092
 4223.00    0.97589   0.94109   59.152
 4224.00    0.96736   0.93417   57.185
 4225.00    0.94639   0.92385   56.636
 4226.00    0.92164   0.91201   58.384
 4227.00    0.89926   0.90100   61.861
 4228.00    0.88210   0.89295   64.804
 4229.00    0.87427   0.88905   65.294
 4230.00    0.87941   0.88953   63.373
 4231.00    0.89374   0.89375   60.843
 4232.00    0.90925   0.90081   59.470
 4233.00    0.92416   0.90924   59.129
 4234.00    0.94048   0.91620   58.946
 4235.00    0.95418   0.92004   59.599
 4236.00    0.95827   0.92149   62.186
 4237.00    0.95237   0.92144   64.832
 4238.00    0.94146   0.92114   63.966
 4239.00    0.93035   0.92204   60.438
 4240.00    0.92311   0.92404   57.456
 4241.00    0.92367   0.92677   56.047
 4242.00    0.93324   0.93087   56.032
 4243.00    0.94667   0.93600   57.224
 4244.00    0.95756   0.94092   59.225
 4245.00    0.96584   0.94480   60.868
 4246.00    0.97294   0.94706   60.994
 4247.00    0.97470   0.94725   59.990
 4248.00    0.96617   0.94542   59.011
 4249.00    0.94836   0.94154   58.731
 4250.00    0.92606   0.93578   59.413
 4251.00    0.90455   0.92916   61.061
 4252.00    0.88814   0.92278   63.125
 4253.00    0.87896   0.91739   64.122
 4254.00    0.87601   0.91355   63.044
 4255.00    0.87502   0.91167   60.887
 4256.00    0.87313   0.91196   59.143
 4257.00    0.87256   0.91321   58.586
 4258.00    0.87590   0.91402   59.347
 4259.00    0.88224   0.91474   60.961
 4260.00    0.88937   0.91632   62.630
 4261.00    0.89571   0.91868   63.519
 4262.00    0.90148   0.92104   63.532
 4263.00    0.90883   0.92320   63.586
 4264.00    0.91883   0.92592   63.718
 4265.00    0.92960   0.92920   62.431
 4266.00    0.93793   0.93231   60.093
 4267.00    0.94069   0.93440   59.540
 4268.00    0.93729   0.93398   61.704
 4269.00    0.93046   0.92992   64.231
 4270.00    0.92367   0.92252   64.450
 4271.00    0.91948   0.91317   62.049
 4272.00    0.91871   0.90390   58.573
 4273.00    0.92034   0.89600   55.914
 4274.00    0.92293   0.88968   55.325
 4275.00    0.92504   0.88561   57.427
 4276.00    0.92455   0.88510   -2.000
 4277.00    0.91963   0.88870   -2.000
 4278.00    0.91301   0.89486   -2.000
 4279.00    0.91207   0.90144   -2.000
 4280.00    0.92350   0.90798   -2.000
 4281.00    0.94981   0.91402   -2.000
 4282.00    0.98469   0.91826   -2.000
 4283.00    1.01600   0.91987   -2.000
 4284.00    1.03839   0.91885   -2.000
 4285.00    1.05226   0.91640   -2.000
 4286.00    1.05158   0.91366   -2.000
 4287.00    1.02867   0.91032   -2.000
 4288.00    0.99370   0.90586   -2.000
 4289.00    0.96753   0.90072   -2.000
 4290.00    0.95519   0.89601   -2.000
 4291.00    0.94779   0.89270   -2.000
 4292.00    0.93962   0.89046   58.257
 4293.00    0.92971   0.88856   59.660
 4294.00    0.91763   0.88771   61.989
 4295.00    0.90317   0.88859   64.250
 4296.00    0.88725   0.89001   65.137
 4297.00    0.87128   0.88977   63.972
 4298.00    0.85586   0.88633   61.671
 4299.00    0.84083   0.88049   59.686
 4300.00    0.82556   0.87391   58.701
 4301.00    0.80992   0.86671   58.978
 4302.00    0.79533   0.85899   -1.000
 4303.00    0.78468   0.85191   -1.000
 4304.00    0.78172   0.84644   -1.000
 4305.00    0.78789   0.84295   64.001
 4306.00    0.79883   0.84046   62.555
 4307.00    0.80837   0.83800   63.951
 4308.00    0.81336   0.83626   65.859
 4309.00    0.81431   0.83583   65.232
 4310.00    0.81511   0.83656   64.271
 4311.00    0.81966   0.83865   65.436
 4312.00    0.82870   0.84272   66.849
 4313.00    0.84115   0.84958   66.302
 4314.00    0.85571   0.85963   65.434
 4315.00    0.87161   0.87215   65.551
 4316.00    0.88901   0.88544   64.684
 4317.00    0.90724   0.89816   62.293
 4318.00    0.92390   0.90957   61.639
 4319.00    0.93794   0.91920   64.143
 4320.00    0.95115   0.92628   66.616
 4321.00    0.96305   0.92932   66.323
 4322.00    0.96841   0.92697   65.460
 4323.00    0.96282   0.91955   65.772
 4324.00    0.94624   0.90854   65.811
 4325.00    0.92283   0.89613   64.380
 4326.00    0.89994   0.88471   62.318
 4327.00    0.88411   0.87534   60.797
 4328.00    0.87854   0.86821   60.449
 4329.00    0.88119   0.86391   61.191
 4330.00    0.88517   0.86317    0.000
 4331.00    0.88411   0.86542    0.000
 4332.00    0.87451   0.86771    0.000
 4333.00    0.85565   0.86668    0.000
 4334.00    0.82898   0.86069    0.000
 4335.00    0.79651   0.84926    0.000
 4336.00    0.76178   0.83195    0.000
 4337.00    0.73499   0.80879    0.000
 4338.00    0.73289   0.78045    0.000
 4339.00    0.77267   0.74871    0.000
 4340.00    0.86350   0.71720    0.000
 4341.00    0.98874   0.69011    0.000
 4342.00    1.10836   0.67106    0.000
 4343.00    1.18020   0.66265    0.000
 4344.00    1.17522   0.66603    0.000
 4345.00    1.09979   0.68123    0.000
 4346.00    0.98964   0.70573    0.000
 4347.00    0.88281   0.73441    0.000
 4348.00    0.80757   0.76287    0.000
 4349.00    0.77103   0.78855    0.000
 4350.00    0.76360   0.80948    0.000
 4351.00    0.77263   0.82549   -1.000
 4352.00    0.78785   0.83831   -1.000
 4353.00    0.80598   0.84874   -1.000
 4354.00    0.82797   0.85669   66.507
 4355.00    0.85296   0.86334   64.622
 4356.00    0.87824   0.87117   63.281
 4357.00    0.90078   0.88108   63.609
 4358.00    0.91718   0.89151   65.367
 4359.00    0.92354   0.90119   67.299
 4360.00    0.91904   0.91020   67.760
 4361.00    0.91043   0.91828   66.260
 4362.00    0.90651   0.92479   63.800
 4363.00    0.91068   0.93032   62.228
 4364.00    0.92217   0.93596   62.648
 4365.00    0.93850   0.94105   64.376
 4366.00    0.95532   0.94417   65.905
 4367.00    0.96628   0.94522   66.177
 4368.00    0.96664   0.94503   65.195
 4369.00    0.95663   0.94372   64.143
 4370.00    0.93906   0.94069   64.352
 4371.00    0.91713   0.93648   66.587
 4372.00    0.89594   0.93236   69.813
 4373.00    0.88318   0.92871   -1.000
 4374.00    0.88196   0.92525   65.758
 4375.00    0.88643   0.92240   63.197
 4376.00    0.89075   0.92072   64.997
 4377.00    0.89515   0.91975   68.452
 4378.00    0.90148   0.91896   69.986
 4379.00    0.90974   0.91871   69.535
 4380.00    0.91729   0.91899   68.720
 4381.00    0.91923   0.91773   68.614
 4382.00    0.91334   0.91234   69.041
 4383.00    0.90203   0.90304   68.694
 4384.00    0.88796   0.89241   67.569
 4385.00    0.87243   0.88212   67.473
 4386.00    0.85876   0.87186   68.811
 4387.00    0.85289   0.86292   69.694
 4388.00    0.85833   0.85882   68.957
 4389.00    0.87404   0.86079   67.545
 4390.00    0.89521   0.86661   66.870
 4391.00    0.91484   0.87361   67.815
 4392.00    0.92813   0.88141   69.595
 4393.00    0.93385   0.89032   69.929
 4394.00    0.93318   0.89914   68.702
 4395.00    0.92881   0.90764   68.111
 4396.00    0.92341   0.91606   68.545
 4397.00    0.91894   0.92309   68.538
 4398.00    0.91601   0.92768   68.034
 4399.00    0.91445   0.93046   68.393
 4400.00    0.91527   0.93304   69.686
 4401.00    0.92003   0.93507   70.730
 4402.00    0.92812   0.93385   71.254
 4403.00    0.93698   0.92854   71.797
 4404.00    0.94429   0.92156   71.715
 4405.00    0.94916   0.91597   69.926
 4406.00    0.95328   0.91190   67.495
 4407.00    0.95957   0.90745   -1.000
 4408.00    0.96871   0.90355   -1.000
 4409.00    0.97938   0.90374   -1.000
 4410.00    0.98997   0.90853   -1.000
 4411.00    0.99845   0.91497   -1.000
 4412.00    1.00186   0.92089   -1.000
 4413.00    0.99761   0.92572   -1.000
 4414.00    0.98578   0.92898   -1.000
 4415.00    0.96901   0.93021   68.057
 4416.00    0.95188   0.92971   67.803
 4417.00    0.93896   0.92816   66.734
 4418.00    0.93233   0.92611   66.189
 4419.00    0.93227   0.92541   67.102
 4420.00    0.93833   0.92761   67.184
 4421.00    0.94800   0.93145   64.234
 4422.00    0.95546   0.93572   60.362
 4423.00    0.95817   0.93971   58.359
 4424.00    0.96294   0.94211   59.239
 4425.00    0.97474   0.94235   62.611
 4426.00    0.98608   0.94126   65.834
 4427.00    0.98860   0.94067   66.364
 4428.00    0.98392   0.94066   65.835
 4429.00    0.97647   0.93963   66.164
 4430.00    0.96695   0.93797   66.101
 4431.00    0.95593   0.93683   64.911
 4432.00    0.94658   0.93587   64.836
 4433.00    0.94134   0.93368   66.717
 4434.00    0.93950   0.93010   67.366
 4435.00    0.93939   0.92754   64.780
 4436.00    0.93996   0.92675   61.723
 4437.00    0.94066   0.92649   60.427
 4438.00    0.94129   0.92685   60.737
 4439.00    0.94135   0.92858   61.881
 4440.00    0.93984   0.93173   63.161
 4441.00    0.93578   0.93527   64.286
 4442.00    0.92879   0.93802   65.511
 4443.00    0.92064   0.93981   66.882
 4444.00    0.91539   0.94059   67.912
 4445.00    0.91678   0.94054   68.311
 4446.00    0.92672   0.94063   68.267
 4447.00    0.94402   0.94244   67.795
 4448.00    0.96436   0.94623   66.689
 4449.00    0.98178   0.95024   65.418
 4450.00    0.99090   0.95256   64.948
 4451.00    0.99252   0.95295   65.356
 4452.00    0.99282   0.95229   65.873
 4453.00    0.99420   0.94966   66.397
 4454.00    0.99449   0.94436   -1.000
 4455.00    0.99389   0.93833   -1.000
 4456.00    0.99482   0.93234   -1.000
 4457.00    0.99550   0.92578   -1.000
 4458.00    0.99111   0.91899   -1.000
 4459.00    0.98156   0.91349   -1.000
 4460.00    0.97121   0.91033   -1.000
 4461.00    0.96322   0.90875    0.000
 4462.00    0.95841   0.90843    0.000
 4463.00    0.95565   0.90940    0.000
 4464.00    0.95293   0.91114    0.000
 4465.00    0.94914   0.91299    0.000
 4466.00    0.94356   0.91515    0.000
 4467.00    0.93439   0.91756    0.000
 4468.00    0.92098   0.91807    0.000
 4469.00    0.90789   0.91572    0.000
 4470.00    0.90151   0.91192    0.000
 4471.00    0.90345   0.90882    0.000
 4472.00    0.91214   0.90770    0.000
 4473.00    0.92673   0.90840    0.000
 4474.00    0.94491   0.91107    0.000
 4475.00    0.95959   0.91672    0.000
 4476.00    0.96390   0.92638    0.000
 4477.00    0.95797   0.93775    0.000
 4478.00    0.94586   0.94621    0.000
 4479.00    0.93093   0.95010    0.000
 4480.00    0.91571   0.95108    0.000
 4481.00    0.90221   0.95062    0.000
 4482.00    0.89220   0.94876   -1.000
 4483.00    0.88742   0.94558   -1.000
 4484.00    0.88952   0.94293   -1.000
 4485.00    0.89979   0.94336   -1.000
 4486.00    0.91713   0.94742   70.225
 4487.00    0.93674   0.95283   70.972
 4488.00    0.95398   0.95687   72.549
 4489.00    0.96721   0.95911   73.369
 4490.00    0.97508   0.95998   72.768
 4491.00    0.97497   0.95921   72.468
 4492.00    0.96729   0.95657   73.468
 4493.00    0.95749   0.95301   74.317
 4494.00    0.94961   0.95038   73.703
 4495.00    0.94268   0.94934   72.234
 4496.00    0.93527   0.94918   70.919
 4497.00    0.92803   0.94923   70.230
 4498.00    0.92263   0.94987   70.261
 4499.00    0.92074   0.95210   70.854
 4500.00    0.92281   0.95576   71.734
 4501.00    0.92770   0.96075   72.599
 4502.00    0.93415   0.96710   73.336
 4503.00    0.94155   0.97359   74.047
 4504.00    0.94973   0.97908   74.630
 4505.00    0.95872   0.98373   74.662
 4506.00    0.96751   0.98857   73.785
 4507.00    0.97412   0.99307   71.967
 4508.00    0.97707   0.99553   69.645
 4509.00    0.97595   0.99579   67.677
 4510.00    0.97139   0.99458   67.344
 4511.00    0.96539   0.99228   69.746
 4512.00    0.96253   0.98931   73.234
 4513.00    0.96774   0.98589   73.754
 4514.00    0.97905   0.98211   72.601
 4515.00    0.98936   0.97810   74.625
 4516.00    0.99614   0.97397   76.998
 4517.00    1.00056   0.97032   72.940
 4518.00    0.99914   0.96800   70.805
 4519.00    0.98883   0.96735   80.925
 4520.00    0.98253   0.96774   79.346
 4521.00    0.99625   0.96748   48.472
 4522.00    1.01615   0.96646   31.459
 4523.00    1.01551   0.96557   27.493
 4524.00    0.99934   0.96372   28.997
 4525.00    0.98711   0.95934   30.609
 4526.00    0.96836   0.95223   30.337
 4527.00    0.92940   0.94409   29.637
 4528.00    0.90720   0.93624   29.150
 4529.00    0.93944   0.92849   28.750
 4530.00    0.97982   0.92133   28.684
 4531.00    0.96171   0.91604   29.173
 4532.00    0.90240   0.91286   29.693
 4533.00    0.86426   0.91151   29.606
 4534.00    0.88443   0.91202   29.284
 4535.00    0.95441   0.91464   29.364
 4536.00    1.01183   0.91912   29.758
 4537.00    1.00868   0.92369   29.961
 4538.00    0.98230   0.92794   29.574
 4539.00    0.98457   0.93277   28.813
 4540.00    1.00469   0.93848   28.674
 4541.00    1.00748   0.94387   29.601
 4542.00    0.97852   0.94717   30.408
 4543.00    0.93754   0.94805   29.930
 4544.00    0.93819   0.94772   29.003
 4545.00    0.99434   0.94778   28.730
 4546.00    1.03392   0.94843   29.246
 4547.00    1.01454   0.94802   30.111
 4548.00    0.99720   0.94570   30.518
 4549.00    1.02304   0.94350   30.121
 4550.00    1.03847   0.94270    0.000
 4551.00    1.00012   0.94132    0.000
 4552.00    0.93845   0.93844    0.000
 4553.00    0.90654   0.93591    0.000
 4554.00    0.93928   0.93546    0.000
 4555.00    1.01251   0.93640    0.000
 4556.00    1.04294   0.93786    0.000
 4557.00    0.99800   0.94063    0.000
 4558.00    0.93378   0.94514    0.000
 4559.00    0.90287   0.95090    0.000
 4560.00    0.91324   0.95743    0.000
 4561.00    0.94764   0.96365    0.000
 4562.00    0.97837   0.96772    0.000
 4563.00    0.98832   0.96940    0.000
 4564.00    0.97663   0.96973    0.000
 4565.00    0.94789   0.96941    0.000
 4566.00    0.91201   0.96821    0.000
 4567.00    0.89791   0.96628    0.000
 4568.00    0.93981   0.96514    0.000
 4569.00    1.02071   0.96550    0.000
 4570.00    1.07817   0.96630    0.000
 4571.00    1.07321   0.96699    0.000
 4572.00    1.01066   0.96811    0.000
 4573.00    0.93666   0.96899    0.000
 4574.00    0.91054   0.96850    0.000
 4575.00    0.93923   0.96767    0.000
 4576.00    0.98477   0.96820    0.000
 4577.00    1.01918   0.96887    0.000
 4578.00    1.03369   0.96736    0.000
 4579.00    1.03025   0.96433    0.000
 4580.00    1.01645   0.96162    0.000
 4581.00    0.99914   0.95892    0.000
 4582.00    0.98375   0.95501    0.000
 4583.00    0.97503   0.95070    0.000
 4584.00    0.97255   0.94791    0.000
 4585.00    0.96410   0.94700    0.000
 4586.00    0.94446   0.94726    0.000
 4587.00    0.94352   0.94831    0.000
 4588.00    0.98397   0.95030    0.000
 4589.00    1.01888   0.95270    0.000
 4590.00    0.99068   0.95470    0.000
 4591.00    0.91777   0.95626    0.000
 4592.00    0.85848   0.95725    0.000
 4593.00    0.85189   0.95683    0.000
 4594.00    0.89669   0.95460    0.000
 4595.00    0.94033   0.95187    0.000
 4596.00    0.94027   0.94987    0.000
 4597.00    0.92435   0.94852    0.000
 4598.00    0.93402   0.94730    0.000
 4599.00    0.96577   0.94630    0.000
 4600.00    0.99405   0.94610    0.000
 4601.00    0.99844   0.94690    0.000
 4602.00    0.97899   0.94801    0.000
 4603.00    0.96274   0.94870    0.000
 4604.00    0.96799   0.94910    0.000
 4605.00    0.98014   0.95036    0.000
 4606.00    0.98091   0.95296    0.000
 4607.00    0.96927   0.95651    0.000
 4608.00    0.95181   0.96043    0.000
 4609.00    0.93565   0.96462    0.000
 4610.00    0.92848   0.96935    0.000
 4611.00    0.93660   0.97422    0.000
 4612.00    0.95207   0.97811    0.000
 4613.00    0.95454   0.98035    0.000
 4614.00    0.95842   0.98139    0.000
 4615.00    1.01333   0.98164    0.000
 4616.00    1.08901   0.98147    0.000
 4617.00    1.06655   0.98106    0.000
 4618.00    0.94659   0.98046    0.000
 4619.00    0.88278   0.97994    0.000
 4620.00    0.93468   0.97994    0.000
 4621.00    1.00935   0.98002    0.000
 4622.00    1.03438   0.97974    0.000
 4623.00    1.01315   0.97992    0.000
 4624.00    0.97887   0.98082    0.000
 4625.00    0.96397   0.98137    0.000
 4626.00    0.95897   0.98131    0.000
 4627.00    0.92898   0.98112    0.000
 4628.00    0.89975   0.98022    0.000
 4629.00    0.93500   0.97857    0.000
 4630.00    1.00646   0.97739    0.000
 4631.00    1.02231   0.97642    0.000
 4632.00    0.98760   0.97419    0.000
 4633.00    0.98323   0.97150    0.000
 4634.00    1.02225   0.96990    0.000
 4635.00    1.05754   0.96829    0.000
 4636.00    1.07118   0.96492    0.000
 4637.00    1.06909   0.96061    0.000
 4638.00    1.03245   0.95697    0.000
 4639.00    0.94633   0.95370    0.000
 4640.00    0.86696   0.95021    0.000
 4641.00    0.86911   0.94690    0.000
 4642.00    0.93817   0.94429    0.000
 4643.00    1.00139   0.94235    0.000
 4644.00    1.00693   0.94076    0.000
 4645.00    0.95124   0.93861    0.000
 4646.00    0.89639   0.93544    0.000
 4647.00    0.90302   0.93191    0.000
 4648.00    0.94157   0.92847    0.000
 4649.00    0.95391   0.92493    0.000
 4650.00    0.94170   0.92222    0.000
 4651.00    0.93121   0.92198    0.000
 4652.00    0.92262   0.92419    0.000
 4653.00    0.91459   0.92736    0.000
 4654.00    0.93259   0.93114    0.000
 4655.00    0.98722   0.93592    0.000
 4656.00    1.03549   0.94115    0.000
 4657.00    1.03393   0.94588    0.000
 4658.00    0.98853   0.95036    0.000
 4659.00    0.93609   0.95517    0.000
 4660.00    0.92024   0.95983    0.000
 4661.00    0.95436   0.96367    0.000
 4662.00    0.99981   0.96611    0.000
 4663.00    1.01184   0.96645    0.000
 4664.00    0.97725   0.96397    0.000
 4665.00    0.93353   0.95850    0.000
 4666.00    0.96032   0.95088    0.000
 4667.00    1.05477   0.94295    0.000
 4668.00    1.08847   0.93594    0.000
 4669.00    1.00872   0.92981    0.000
 4670.00    0.92147   0.92521    0.000
 4671.00    0.90190   0.92381    0.000
 4672.00    0.91395   0.92583    0.000
 4673.00    0.92811   0.92981    0.000
 4674.00    0.96402   0.93455    0.000
 4675.00    1.01027   0.93948    0.000
 4676.00    1.01183   0.94370    0.000
 4677.00    0.97305   0.94659    0.000
 4678.00    0.96597   0.94831    0.000
 4679.00    0.99496   0.94911    0.000
 4680.00    0.98573   0.94850    0.000
 4681.00    0.93386   0.94655    0.000
 4682.00    0.91465   0.94440    0.000
 4683.00    0.93983   0.94251    0.000
 4684.00    0.95127   0.94045    0.000
 4685.00    0.94586   0.93873    0.000
 4686.00    0.97062   0.93824    0.000
 4687.00    1.00331   0.93834    0.000
 4688.00    0.97367   0.93834    0.000
 4689.00    0.90244   0.93878    0.000
 4690.00    0.87791   0.93987    0.000
 4691.00    0.91541   0.94130    0.000
 4692.00    0.96155   0.94304    0.000
 4693.00    0.97848   0.94488    0.000
 4694.00    0.96399   0.94663    0.000
 4695.00    0.95188   0.94867    0.000
 4696.00    0.97723   0.95046    0.000
 4697.00    1.01428   0.95077    0.000
 4698.00    1.01661   0.94983    0.000
 4699.00    1.00357   0.94850    0.000
 4700.00    1.01320   0.94594    0.000
 4701.00    1.00724   0.94131    0.000
 4702.00    0.93994   0.93631    0.000
 4703.00    0.87570   0.93304    0.000
 4704.00    0.89769   0.93077    0.000
 4705.00    0.96502   0.92821    0.000
 4706.00    0.98866   0.92624    0.000
 4707.00    0.95067   0.92601    0.000
 4708.00    0.89201   0.92654    0.000
 4709.00    0.87576   0.92670    0.000
 4710.00    0.91921   0.92708    0.000
 4711.00    0.93645   0.92773    0.000
 4712.00    0.86908   0.92803    0.000
 4713.00    0.80900   0.92858    0.000
 4714.00    0.84777   0.93048    0.000
 4715.00    0.93634   0.93263    0.000
 4716.00    0.98751   0.93462    0.000
 4717.00    0.97466   0.93785    0.000
 4718.00    0.92911   0.94329    0.000
 4719.00    0.92073   0.94977    0.000
 4720.00    0.97266   0.95610    0.000
 4721.00    1.01473   0.96177    0.000
 4722.00    0.99491   0.96694    0.000
 4723.00    0.94758   0.97122    0.000
 4724.00    0.92317   0.97365    0.000
 4725.00    0.93894   0.97348    0.000
 4726.00    0.97004   0.97106    0.000
 4727.00    0.96130   0.96741    0.000
 4728.00    0.90970   0.96288    0.000
 4729.00    0.88550   0.95698    0.000
 4730.00    0.91446   0.94997    0.000
 4731.00    0.94015   0.94392    0.000
 4732.00    0.92800   0.94024    0.000
 4733.00    0.90138   0.93828    0.000
 4734.00    0.88363   0.93777    0.000
 4735.00    0.87654   0.93890    0.000
 4736.00    0.87692   0.94115    0.000
 4737.00    0.88296   0.94420    0.000
 4738.00    0.89162   0.94773    0.000
 4739.00    0.90143   0.95007    0.000
 4740.00    0.92485   0.95141    0.000
 4741.00    0.97674   0.95375    0.000
 4742.00    1.02781   0.95646    0.000
 4743.00    1.02241   0.95760    0.000
 4744.00    0.96762   0.95812    0.000
 4745.00    0.92439   0.96002    0.000
 4746.00    0.91769   0.96263    0.000
 4747.00    0.92837   0.96418    0.000
 4748.00    0.93246   0.96507    0.000
 4749.00    0.91803   0.96677    0.000
 4750.00    0.89981   0.96840    0.000
 4751.00    0.90417   0.96828    0.000
 4752.00    0.93236   0.96712    0.000
 4753.00    0.96321   0.96592    0.000
 4754.00    0.97353   0.96397    0.000
 4755.00    0.95406   0.96096    0.000
 4756.00    0.92902   0.95796    0.000
 4757.00    0.93177   0.95535    0.000
 4758.00    0.96053   0.95309    0.000
 4759.00    0.98836   0.95123    0.000
 4760.00    0.98971   0.94945    0.000
 4761.00    0.95560   0.94714   34.284
 4762.00    0.90782   0.94471   34.234
 4763.00    0.87755   0.94219   34.566
 4764.00    0.87556   0.93850   35.090
 4765.00    0.89457   0.93386   35.410
 4766.00    0.91738   0.93031   35.426
 4767.00    0.92959   0.92815   35.251
 4768.00    0.93152   0.92664   35.024
 4769.00    0.92602   0.92648   34.897
 4770.00    0.90626   0.92832   35.038
 4771.00    0.87067   0.93128   35.497
 4772.00    0.83711   0.93499   -1.000
 4773.00    0.83176   0.93934   -1.000
 4774.00    0.87469   0.94306   36.204
 4775.00    0.94891   0.94594   35.507
 4776.00    0.98744   0.94931   34.973
 4777.00    0.96224   0.95288   34.943
 4778.00    0.93691   0.95466   35.051
 4779.00    0.95687   0.95484   35.023
 4780.00    0.98254   0.95520   35.143
 4781.00    0.97298   0.95483   35.487
 4782.00    0.93843   0.95215   35.527
 4783.00    0.91261   0.94875   35.000
 4784.00    0.92787   0.94613   34.347
 4785.00    0.98030   0.94275   34.073
 4786.00    1.02333   0.93861   34.401
 4787.00    1.03026   0.93625   -1.000
 4788.00    1.01901   0.93526   35.364
 4789.00    1.01604   0.93382   34.985
 4790.00    1.03396   0.93361   -1.000
 4791.00    1.05315   0.93570   -1.000
 4792.00    1.03240   0.93841   34.247
 4793.00    0.98025   0.94171   34.385
 4794.00    0.95631   0.94632   34.272
 4795.00    0.97161   0.95100   34.009
 4796.00    0.97917   0.95502   34.040
 4797.00    0.96873   0.95861   34.250
 4798.00    0.97435   0.96068   34.037
 4799.00    0.99560   0.96073   33.508
 4800.00    0.99537   0.96001   33.377
 4801.00    0.96607   0.95900   33.743
 4802.00    0.93524   0.95735   34.118
 4803.00    0.92796   0.95561   34.333
 4804.00    0.94932   0.95459   34.587
 4805.00    0.96868   0.95410   34.842
 4806.00    0.94638   0.95317   34.838
 4807.00    0.90077   0.95140   34.537
 4808.00    0.88189   0.94954   34.181
 4809.00    0.88597   0.94847   34.175
 4810.00    0.87825   0.94730   34.710
 4811.00    0.87068   0.94584   35.058
 4812.00    0.89574   0.94552   34.358
 4813.00    0.93436   0.94652   33.399
 4814.00    0.94557   0.94760   33.400
 4815.00    0.93533   0.94878   34.161
 4816.00    0.93520   0.95081   34.657
 4817.00    0.95267   0.95324   34.364
 4818.00    0.97607   0.95530   33.566
 4819.00    0.99247   0.95699   33.127
 4820.00    0.99459   0.95854   33.559
 4821.00    0.98574   0.95916   34.115
 4822.00    0.97190   0.95800   33.935
 4823.00    0.95209   0.95556   33.720
 4824.00    0.93016   0.95312   34.225
 4825.00    0.92664   0.95024   34.542
 4826.00    0.94994   0.94588   33.856
 4827.00    0.96921   0.94197   33.402
 4828.00    0.95857   0.94024   34.185
 4829.00    0.93815   0.93923   35.111
 4830.00    0.93242   0.93730   34.858
 4831.00    0.93319   0.93511   34.056
 4832.00    0.92871   0.93427   33.684
 4833.00    0.92742   0.93460   33.758
 4834.00    0.93323   0.93383   33.991
 4835.00    0.92900   0.93209   34.257
 4836.00    0.90399   0.93212   34.533
 4837.00    0.87215   0.93306   34.805
 4838.00    0.85767   0.93212   34.951
 4839.00    0.87903   0.92998   34.758
 4840.00    0.91487   0.92877   34.486
 4841.00    0.90272   0.92721   34.913
 4842.00    0.84492   0.92373   -1.000
 4843.00    0.83640   0.92028   -1.000
 4844.00    0.89842   0.91856   34.559
 4845.00    0.93037   0.91692   34.240
 4846.00    0.89777   0.91398   35.240
 4847.00    0.88407   0.91139   35.611
 4848.00    0.91378   0.90974    0.000
 4849.00    0.91068   0.90730    0.000
 4850.00    0.85333   0.90277    0.000
 4851.00    0.80718   0.89659    0.000
 4852.00    0.80153   0.89022    0.000
 4853.00    0.80563   0.88296    0.000
 4854.00    0.81021   0.87221    0.000
 4855.00    0.83478   0.85892    0.000
 4856.00    0.85923   0.84490    0.000
 4857.00    0.83680   0.82778    0.000
 4858.00    0.79535   0.80678    0.000
 4859.00    0.82306   0.78480    0.000
 4860.00    0.94908   0.76284    0.000
 4861.00    1.14642   0.74124    0.000
 4862.00    1.42024   0.72283    0.000
 4863.00    1.77632   0.70849    0.000
 4864.00    2.10015   0.69998    0.000
 4865.00    2.22115   0.70172    0.000
 4866.00    2.10669   0.71213    0.000
 4867.00    1.84444   0.72565    0.000
 4868.00    1.52443   0.74300    0.000
 4869.00    1.21476   0.76377    0.000
 4870.00    0.96145   0.78249    0.000
 4871.00    0.79326   0.79781    0.000
 4872.00    0.72877   0.81239    0.000
 4873.00    0.75639   0.82451    0.000
 4874.00    0.80531   0.83273    0.000
 4875.00    0.81032   0.84141   37.798
 4876.00    0.80579   0.85212   38.488
 4877.00    0.84551   0.86152   38.019
 4878.00    0.88439   0.86999   37.087
 4879.00    0.86251   0.87982   37.005
 4880.00    0.82173   0.88870   37.387
 4881.00    0.82913   0.89498   37.329
 4882.00    0.87695   0.90088   36.939
 4883.00    0.92006   0.90504   36.725
 4884.00    0.92812   0.90527   36.770
 4885.00    0.89665   0.90453   36.955
 4886.00    0.85022   0.90427   37.218
 4887.00    0.81600   0.90222   -1.000
 4888.00    0.80083   0.89883   -1.000
 4889.00    0.80369   0.89641   -1.000
 4890.00    0.82608   0.89511   37.440
 4891.00    0.85782   0.89505   37.447
 4892.00    0.87088   0.89701   37.375
 4893.00    0.86011   0.90036   37.083
 4894.00    0.86403   0.90544   36.677
 4895.00    0.90283   0.91409   36.433
 4896.00    0.94450   0.92430   36.647
 4897.00    0.95839   0.93359   37.107
 4898.00    0.94720   0.94209   36.939
 4899.00    0.93097   0.94885   35.981
 4900.00    0.93218   0.95333   35.230
 4901.00    0.95148   0.95564   35.308
 4902.00    0.96280   0.95494   35.998
 4903.00    0.95083   0.95266   36.723
 4904.00    0.92547   0.95153   36.859
 4905.00    0.90315   0.95037   36.444
 4906.00    0.89509   0.94792   36.200
 4907.00    0.89627   0.94643   36.338
 4908.00    0.88885   0.94638   36.392
 4909.00    0.87174   0.94540   36.255
 4910.00    0.86384   0.94316   -1.000
 4911.00    0.87503   0.94139   36.511
 4912.00    0.89782   0.93977   36.332
 4913.00    0.91489   0.93764   36.103
 4914.00    0.90945   0.93636   36.697
 4915.00    0.88750   0.93587   37.674
 4916.00    0.87260   0.93428   37.516
 4917.00    0.87340   0.93109   36.605
 4918.00    0.88072   0.92667   36.647
 4919.00    0.88385   0.92001   37.443
 4920.00    0.87805   0.91063   37.422
 4921.00    0.87133   0.90043   36.834
 4922.00    0.87405   0.89135   37.125
 4923.00    0.87385   0.88400   37.968
 4924.00    0.85325   0.87977   37.881
 4925.00    0.83430   0.88141   37.041
 4926.00    0.85223   0.88724   36.664
 4927.00    0.89168   0.89504   36.866
 4928.00    0.91234   0.90571   37.091
 4929.00    0.91201   0.91856   37.241
 4930.00    0.91332   0.92964   37.443
 4931.00    0.92567   0.93841   37.352
 4932.00    0.94267   0.94531   36.680
 4933.00    0.94829   0.94853   36.050
 4934.00    0.93382   0.94897   36.131
 4935.00    0.91785   0.94736   36.600
 4936.00    0.92046   0.94254   36.830
 4937.00    0.92909   0.93677   36.910
 4938.00    0.91822   0.93257   37.047
 4939.00    0.87806   0.92871   36.731
 4940.00    0.82913   0.92518    0.000
 4941.00    0.82814   0.92356    0.000
 4942.00    0.89850   0.92465    0.000
 4943.00    0.97012   0.92843    0.000
 4944.00    0.97746   0.93329    0.000
 4945.00    0.94734   0.93811    0.000
 4946.00    0.92526   0.94438    0.000
 4947.00    0.91088   0.95112    0.000
 4948.00    0.90127   0.95563    0.000
 4949.00    0.92120   0.95909    0.000
 4950.00    0.96315   0.96300    0.000
 4951.00    0.95846   0.96537    0.000
 4952.00    0.89389   0.96529    0.000
 4953.00    0.86675   0.96411    0.000
 4954.00    0.92037   0.96190    0.000
 4955.00    0.96603   0.95725    0.000
 4956.00    0.94751   0.94987    0.000
 4957.00    0.91961   0.94196    0.000
 4958.00    0.93713   0.93531    0.000
 4959.00    0.99927   0.92888    0.000
 4960.00    1.08411   0.92223    0.000
 4961.00    1.16721   0.91938    0.000
 4962.00    1.22148   0.92106    0.000
 4963.00    1.22279   0.92272    0.000
 4964.00    1.17426   0.92376    0.000
 4965.00    1.10836   0.92618    0.000
 4966.00    1.05512   0.92863    0.000
 4967.00    1.02637   0.92855    0.000
 4968.00    1.00628   0.92702    0.000
 4969.00    0.96418   0.92646    0.000
 4970.00    0.90621   0.92656    0.000
 4971.00    0.87339   0.92667    0.000
 4972.00    0.88351   0.92801    0.000
 4973.00    0.92156   0.93066    0.000
 4974.00    0.96444   0.93363    0.000
 4975.00    0.99082   0.93635    0.000
 4976.00    0.98728   0.93825    0.000
 4977.00    0.95314   0.93873    0.000
 4978.00    0.90734   0.93711    0.000
 4979.00    0.87839   0.93368    0.000
 4980.00    0.87877   0.92862    0.000
 4981.00    0.89955   0.92120    0.000
 4982.00    0.91214   0.91309    0.000
 4983.00    0.89138   0.90611    0.000
 4984.00    0.85629   0.89925    0.000
 4985.00    0.84245   0.89312    0.000
 4986.00    0.84226   0.89045    0.000
 4987.00    0.83187   0.89086    0.000
 4988.00    0.82924   0.89238    0.000
 4989.00    0.86335   0.89560    0.000
 4990.00    0.91632   0.90060    0.000
 4991.00    0.94820   0.90549    0.000
 4992.00    0.94298   0.90941    0.000
 4993.00    0.90921   0.91236    0.000
 4994.00    0.87158   0.91467    0.000
 4995.00    0.85304   0.91669    0.000
 4996.00    0.85584   0.91710    0.000
 4997.00    0.87244   0.91632    0.000
 4998.00    0.89887   0.91577    0.000
 4999.00    0.92480   0.91373    0.000
 5000.00    0.92530   0.90990    0.000
 5001.00    0.89507   0.90577    0.000
 5002.00    0.87501   0.90072    0.000
 5003.00    0.89353   0.89504    0.000
 5004.00    0.92163   0.88986    0.000
 5005.00    0.94365   0.88494    0.000
 5006.00    1.00826   0.88119    0.000
 5007.00    1.15787   0.87901    0.000
 5008.00    1.37646   0.87731    0.000
 5009.00    1.61477   0.87628    0.000
 5010.00    1.81176   0.87668    0.000
 5011.00    1.90404   0.87704    0.000
 5012.00    1.83945   0.87587    0.000
 5013.00    1.62469   0.87402    0.000
 5014.00    1.34217   0.87159    0.000
 5015.00    1.08900   0.86793    0.000
 5016.00    0.93628   0.86409    0.000
 5017.00    0.89931   0.86067    0.000
 5018.00    0.93305   0.85837    0.000
 5019.00    0.97799   0.85867    0.000
 5020.00    0.98841   0.86012    0.000
 5021.00    0.95779   0.86204    0.000
 5022.00    0.91755   0.86610    0.000
 5023.00    0.89070   0.87114    0.000
 5024.00    0.87745   0.87504    0.000
 5025.00    0.87158   0.87882    0.000
 5026.00    0.86873   0.88339    0.000
 5027.00    0.87211   0.88728    0.000
 5028.00    0.88748   0.89057    0.000
 5029.00    0.90213   0.89438   38.272
 5030.00    0.89399   0.89779   37.825
 5031.00    0.87534   0.90118   37.862
 5032.00    0.88165   0.90535   38.317
 5033.00    0.91004   0.90841   38.914
 5034.00    0.92551   0.91004   39.310
 5035.00    0.91623   0.91095   39.460
 5036.00    0.89815   0.91023   39.500
 5037.00    0.89383   0.90689   39.207
 5038.00    0.91243   0.90105   38.431
 5039.00    0.92095   0.89423   38.080
 5040.00    0.88222   0.88732   39.137
 5041.00    0.83614   0.88026   40.684
 5042.00    0.84679   0.87480   40.751
 5043.00    0.88501   0.87185   39.726
 5044.00    0.88593   0.87137   39.289
 5045.00    0.87363   0.87477   39.594
 5046.00    0.90304   0.87997   39.896
 5047.00    0.94477   0.88447   39.840
 5048.00    0.94020   0.89013   39.594
 5049.00    0.90013   0.89561   39.664
 5050.00    0.86576   0.89757   40.410
 5051.00    0.84265   0.89773   41.465
 5052.00    0.83082   0.89826   -1.000
 5053.00    0.86580   0.89858   41.762
 5054.00    0.95506   0.89858   40.798
 5055.00    1.01208   0.89990   -1.000
 5056.00    0.97267   0.90330   40.341
 5057.00    0.90990   0.90754   40.942
 5058.00    0.90751   0.91163   41.226
 5059.00    0.93720   0.91592   41.257
 5060.00    0.94485   0.92034   41.325
 5061.00    0.93234   0.92359   41.375
 5062.00    0.92101   0.92499   41.296
 5063.00    0.91663   0.92499   41.178
 5064.00    0.91225   0.92353   41.134
 5065.00    0.89552   0.92042   41.171
 5066.00    0.87166   0.91621   41.357
 5067.00    0.87158   0.91065   41.880
 5068.00    0.90004   0.90537   42.577
 5069.00    0.91445   0.90203   42.742
 5070.00    0.90359   0.89855   42.243
 5071.00    0.91762   0.89511   41.976
 5072.00    0.96585   0.89454   42.492
 5073.00    0.98071   0.89520   -1.000
 5074.00    0.93162   0.89425   44.268
 5075.00    0.86772   0.89299   44.556
 5076.00    0.83510   0.89327   44.472
 5077.00    0.83930   0.89258   44.640
 5078.00    0.86090   0.88901   45.165
 5079.00    0.87105   0.88545   45.462
 5080.00    0.86290   0.88302   45.366
 5081.00    0.85520   0.87913   45.336
 5082.00    0.85895   0.87414   45.355
 5083.00    0.86868   0.87181   44.869
 5084.00    0.87646   0.87186   43.964
 5085.00    0.87791   0.87172   43.334
 5086.00    0.87500   0.87316   43.122
 5087.00    0.87263   0.87766   42.952
 5088.00    0.86662   0.88292   42.789
 5089.00    0.85049   0.88754   42.917
 5090.00    0.84238   0.89242   43.261
 5091.00    0.86857   0.89755   43.397
 5092.00    0.90656   0.90181   43.095
 5093.00    0.90976   0.90469   42.493
 5094.00    0.89444   0.90646   42.061
 5095.00    0.91027   0.90727   42.190
 5096.00    0.93791   0.90664   42.450
 5097.00    0.92306   0.90416   42.045
 5098.00    0.88332   0.90031   41.083
 5099.00    0.87239   0.89624   40.295
 5100.00    0.88013   0.89214   40.173
 5101.00    0.86777   0.88781   40.699
 5102.00    0.85436   0.88440   41.006
 5103.00    0.87641   0.88283   40.275
 5104.00    0.90644   0.88199   39.294
 5105.00    0.89839   0.88120   39.104
 5106.00    0.86751   0.88086   39.249
 5107.00    0.85304   0.88066   38.751
 5108.00    0.85579   0.88014   37.631
 5109.00    0.85827   0.87883   36.583
 5110.00    0.85869   0.87753   36.284
 5111.00    0.86529   0.87772   36.934
 5112.00    0.88456   0.87835   37.814
 5113.00    0.91104   0.87929   38.200
 5114.00    0.92094   0.88257   38.582
 5115.00    0.90377   0.88669   39.500
 5116.00    0.88912   0.89031   40.248
 5117.00    0.90196   0.89497   40.119
 5118.00    0.92454   0.89913   39.769
 5119.00    0.93498   0.90121   39.965
 5120.00    0.93888   0.90229   40.572
 5121.00    0.94210   0.90161   41.098
 5122.00    0.93173   0.89826   41.201
 5123.00    0.90407   0.89328   41.009
 5124.00    0.88091   0.88739   41.151
 5125.00    0.87779   0.88071   41.829
 5126.00    0.88594   0.87360   42.372
 5127.00    0.89530   0.86770   42.465
 5128.00    0.90685   0.86372   42.776
 5129.00    0.91783   0.86052   43.366
 5130.00    0.91631   0.85911   43.111
 5131.00    0.89785   0.86033   42.001
 5132.00    0.87268   0.86222   41.657
 5133.00    0.85644   0.86476   42.610
 5134.00    0.86155   0.86886   43.657
 5135.00    0.88023   0.87246   43.870
 5136.00    0.88701   0.87492   43.598
 5137.00    0.87853   0.87759   43.445
 5138.00    0.87664   0.87875   43.742
 5139.00    0.87823   0.87771   44.446
 5140.00    0.85578   0.87677   45.126
 5141.00    0.82530   0.87486   45.114
 5142.00    0.83960   0.87118   44.029
 5143.00    0.89062   0.86903   42.874
 5144.00    0.91361   0.86705   43.153
 5145.00    0.89308   0.86340   44.424
 5146.00    0.86753   0.86189   44.645
 5147.00    0.85452   0.86139   43.778
 5148.00    0.84431   0.85908   43.559
 5149.00    0.83700   0.85788   44.040
 5150.00    0.84502   0.85777   43.919
 5151.00    0.87623   0.85683   43.082
 5152.00    0.92519   0.85639   42.449
 5153.00    0.96413   0.85656   -1.000
 5154.00    0.96040   0.85719   -1.000
 5155.00    0.91408   0.85908   43.195
 5156.00    0.85540   0.86176   44.112
 5157.00    0.82499   0.86541   44.549
 5158.00    0.84954   0.87015   43.703
 5159.00    0.90843   0.87501   42.315
 5160.00    0.95818   0.87962   41.580
 5161.00    0.97911   0.88268   -1.000
 5162.00    0.97275   0.88322   -1.000
 5163.00    0.94726   0.88162   41.833
 5164.00    0.91502   0.87636   41.416
 5165.00    0.89153   0.86684   41.237
 5166.00    0.88585   0.85518   41.788
 5167.00    0.88980   0.84123   42.445
 5168.00    0.88885   0.82504   42.416
 5169.00    0.87609   0.80972   42.122
 5170.00    0.85100   0.79615   42.240
 5171.00    0.81707   0.78419   42.600
 5172.00    0.78828   0.77602   42.776
 5173.00    0.79165   0.77251   42.783
 5174.00    0.82843   0.77206   42.838
 5175.00    0.84627   0.77472   43.077
 5176.00    0.81229   0.78162   43.489
 5177.00    0.76909   0.79077   43.879
 5178.00    0.76742   0.79938   43.905
 5179.00    0.81152   0.80770   43.240
 5180.00    0.87262   0.81521   42.250
 5181.00    0.90796   0.81917   -1.000
 5182.00    0.90328   0.81895   -1.000
 5183.00    0.89112   0.81679   -1.000
 5184.00    0.88935   0.81393   -1.000
 5185.00    0.87330   0.81011   42.270
 5186.00    0.84155   0.80738   43.345
 5187.00    0.83887   0.80852   44.015
 5188.00    0.87113   0.81261   43.374
 5189.00    0.88046   0.81853   42.705
 5190.00    0.85017   0.82621    0.000
 5191.00    0.83365   0.83379    0.000
 5192.00    0.84729   0.84056    0.000
 5193.00    0.84471   0.84609    0.000
 5194.00    0.81607   0.84862    0.000
 5195.00    0.80764   0.85045    0.000
 5196.00    0.83338   0.85341    0.000
 5197.00    0.86011   0.85503    0.000
 5198.00    0.87840   0.85675    0.000
 5199.00    0.91108   0.86096    0.000
 5200.00    0.95642   0.86461    0.000
 5201.00    0.98560   0.86647    0.000
 5202.00    0.99178   0.86827    0.000
 5203.00    0.99181   0.86817    0.000
 5204.00    0.98887   0.86448    0.000
 5205.00    0.97204   0.85920    0.000
 5206.00    0.94248   0.85294    0.000
 5207.00    0.91313   0.84461    0.000
 5208.00    0.89160   0.83661    0.000
 5209.00    0.87790   0.83153    0.000
 5210.00    0.86858   0.82812    0.000
 5211.00    0.85949   0.82704   45.516
 5212.00    0.84930   0.83058   45.071
 5213.00    0.84071   0.83681   44.284
 5214.00    0.84078   0.84404   43.507
 5215.00    0.85216   0.85295   43.070
 5216.00    0.85902   0.86226   43.107
 5217.00    0.84794   0.87033   43.499
 5218.00    0.84305   0.87734   43.767
 5219.00    0.87040   0.88332   43.485
 5220.00    0.90027   0.88798   42.945
 5221.00    0.89250   0.89118   42.680
 5222.00    0.86666   0.89264   42.772
 5223.00    0.85757   0.89226   43.032
 5224.00    0.85039   0.89021   43.301
 5225.00    0.82178   0.88600   43.464
 5226.00    0.79412   0.87987   -1.000
 5227.00    0.79536   0.87388   -1.000
 5228.00    0.81207   0.86869   42.525
 5229.00    0.82411   0.86390   41.884
 5230.00    0.84129   0.86199   41.793
 5231.00    0.87315   0.86350   42.415
 5232.00    0.90053   0.86561   42.859
 5233.00    0.90236   0.86939   42.446
 5234.00    0.88052   0.87525   41.854
 5235.00    0.85551   0.88004   41.704
 5236.00    0.85698   0.88462   41.615
 5237.00    0.88877   0.89021   41.251
 5238.00    0.91185   0.89503   40.996
 5239.00    0.90327   0.89962   41.113
 5240.00    0.88880   0.90474   41.293
 5241.00    0.88647   0.90922   41.328
 5242.00    0.87817   0.91263   41.469
 5243.00    0.86188   0.91528   41.777
 5244.00    0.87174   0.91690   41.858
 5245.00    0.91502   0.91655   41.697
 5246.00    0.94948   0.91433   41.886
 5247.00    0.94466   0.91155   42.426
 5248.00    0.90959   0.90757   42.425
 5249.00    0.87372   0.90164   41.766
 5250.00    0.86847   0.89626   41.471
 5251.00    0.89040   0.89222   41.968
 5252.00    0.90147   0.88784   42.635
 5253.00    0.89024   0.88481   42.500
 5254.00    0.88155   0.88454   41.028
 5255.00    0.88326   0.88540   39.286
 5256.00    0.87756   0.88734   38.919
 5257.00    0.85771   0.89049   39.621
 5258.00    0.83505   0.89398   39.509
 5259.00    0.82146   0.89708   -1.000
 5260.00    0.82390   0.89850   38.270
 5261.00    0.84507   0.89761   38.584
 5262.00    0.88061   0.89419   38.044
 5263.00    0.91141   0.88772   37.262
 5264.00    0.91471   0.87852   38.005
 5265.00    0.89451   0.86706   39.691
 5266.00    0.87075   0.85491   39.952
 5267.00    0.83967   0.84370   39.140
 5268.00    0.78902   0.83275   39.421
 5269.00    0.74610   0.82383   -1.000
 5270.00    0.74994   0.81950   -1.000
 5271.00    0.78134   0.81704   40.073
 5272.00    0.78973   0.81642   40.878
 5273.00    0.76315   0.82115   42.396
 5274.00    0.72582   0.82825   -1.000
 5275.00    0.71307   0.83533   -1.000
 5276.00    0.74826   0.84562   -1.000
 5277.00    0.81563   0.85719   41.093
 5278.00    0.87618   0.86671   41.032
 5279.00    0.89679   0.87631   41.088
 5280.00    0.87382   0.88521   41.206
 5281.00    0.85385   0.89123   41.065
 5282.00    0.87376   0.89589   40.554
 5283.00    0.89232   0.89934   40.272
 5284.00    0.86492   0.90155   40.531
 5285.00    0.82849   0.90388   -1.000
 5286.00    0.83323   0.90642   -1.000
 5287.00    0.86733   0.90990   38.870
 5288.00    0.89506   0.91482   39.751
 5289.00    0.90037   0.91999   40.645
 5290.00    0.89399   0.92513   40.087
 5291.00    0.91045   0.93005   38.984
 5292.00    0.95889   0.93341   38.634
 5293.00    0.99207   0.93475   39.250
 5294.00    0.97687   0.93413   40.298
 5295.00    0.94143   0.93126   40.703
 5296.00    0.91776   0.92636   40.180
 5297.00    0.90400   0.92004   39.941
 5298.00    0.89392   0.91308   40.605
 5299.00    0.89454   0.90634   41.235
 5300.00    0.90807   0.90037   41.097
 5301.00    0.92280   0.89660   40.756
 5302.00    0.92599   0.89562   40.883
 5303.00    0.91229   0.89657   41.615
 5304.00    0.88794   0.90010   42.583
 5305.00    0.86955   0.90604   43.029
 5306.00    0.86946   0.91253   42.751
 5307.00    0.88845   0.91925   42.400
 5308.00    0.91500   0.92614   42.430
 5309.00    0.93071   0.93184   42.785
 5310.00    0.93177   0.93618   43.302
 5311.00    0.93064   0.93964   43.842
 5312.00    0.93067   0.94156   44.191
 5313.00    0.92444   0.94202   44.132
 5314.00    0.92005   0.94184   43.775
 5315.00    0.93587   0.94045   43.483
 5316.00    0.95699   0.93805   43.340
 5317.00    0.94733   0.93567   43.178
 5318.00    0.92288   0.93268   43.073
 5319.00    0.93514   0.92922   43.264
 5320.00    0.97215   0.92621   43.578
 5321.00    0.97412   0.92284   43.586
 5322.00    0.93655   0.91886   43.417
 5323.00    0.90325   0.91448   43.547
 5324.00    0.89219   0.90913   43.877
 5325.00    0.89447   0.90291   43.918
 5326.00    0.90760   0.89557   43.651
 5327.00    0.93023   0.88723   43.413
 5328.00    0.93886   0.87963   43.326
 5329.00    0.90740   0.87283   43.336
 5330.00    0.84878   0.86686   43.475
 5331.00    0.79915   0.86426   -1.000
 5332.00    0.77944   0.86509   -1.000
 5333.00    0.79241   0.86793   -1.000
 5334.00    0.82814   0.87360   43.144
 5335.00    0.86854   0.88123   42.581
 5336.00    0.89358   0.88874   42.152
 5337.00    0.89714   0.89571   41.899
 5338.00    0.90389   0.90127   41.834
 5339.00    0.92994   0.90448   41.942
 5340.00    0.93733   0.90594   42.179
 5341.00    0.89424   0.90609   42.388
 5342.00    0.84267   0.90452   42.261
 5343.00    0.83159   0.90276   -1.000
 5344.00    0.84468   0.90195   41.721
 5345.00    0.85087   0.90076   42.315
 5346.00    0.85623   0.90034   42.647
 5347.00    0.86976   0.90137   42.072
 5348.00    0.87280   0.90196   41.625
 5349.00    0.85527   0.90337   42.119
 5350.00    0.84227   0.90593   42.831
 5351.00    0.84994   0.90833   42.880
 5352.00    0.85686   0.91202   42.429
 5353.00    0.85278   0.91712   42.022
 5354.00    0.86568   0.92260   41.972
 5355.00    0.90094   0.92869   42.197
 5356.00    0.91318   0.93530   42.220
 5357.00    0.88592   0.94160   41.873
 5358.00    0.86647   0.94655   -1.000
 5359.00    0.88242   0.95037   -1.000
 5360.00    0.90468   0.95282   -2.000
 5361.00    0.90662   0.95284   -2.000
 5362.00    0.89234   0.95125   -2.000
 5363.00    0.87872   0.94830   -2.000
 5364.00    0.88306   0.94339   -2.000
 5365.00    0.91020   0.93784   -2.000
 5366.00    0.95120   0.93184   -2.000
 5367.00    1.00068   0.92481   -2.000
 5368.00    1.05528   0.91821   -2.000
 5369.00    1.08209   0.91192   -2.000
 5370.00    1.03261   0.90546   -2.000
 5371.00    0.92995   0.90040   -2.000
 5372.00    0.86008   0.89686   -2.000
 5373.00    0.84862   0.89452   -2.000
 5374.00    0.85147   0.89476   -2.000
 5375.00    0.84507   0.89760   41.857
 5376.00    0.84000   0.90165   42.473
 5377.00    0.84345   0.90730   -1.000
 5378.00    0.85382   0.91404   43.629
 5379.00    0.87355   0.91966   43.748
 5380.00    0.90546   0.92446   42.965
 5381.00    0.93704   0.92853   42.005
 5382.00    0.94827   0.93031   41.968
 5383.00    0.93556   0.93087   42.652
 5384.00    0.91179   0.93106   43.073
 5385.00    0.89557   0.92983   43.137
 5386.00    0.90067   0.92811   43.314
 5387.00    0.92137   0.92679   43.273
 5388.00    0.93987   0.92459   42.497
 5389.00    0.94341   0.92183   41.665
 5390.00    0.92955   0.91919   41.656
 5391.00    0.90928   0.91562   42.080
 5392.00    0.89951   0.91131   42.070
 5393.00    0.91097   0.90688   41.747
 5394.00    0.93723   0.90213   41.688
 5395.00    0.94497   0.89732   41.959
 5396.00    0.91153   0.89252   42.329
 5397.00    0.86875   0.88855   42.654
 5398.00    0.85360   0.88559   42.928
 5399.00    0.84990   0.88255   43.267
 5400.00    0.83608   0.88100   43.654
 5401.00    0.83757   0.88079   43.716
 5402.00    0.87410   0.87953   43.317
 5403.00    0.90925   0.87865   43.069
 5404.00    0.91052   0.87818   43.384
 5405.00    0.90186   0.87570   43.754
 5406.00    0.90629   0.87254   43.714
 5407.00    0.90080   0.86986   43.660
 5408.00    0.87252   0.86664   43.900
 5409.00    0.85688   0.86406   44.003
 5410.00    0.87487   0.86353   43.834
 5411.00    0.89437   0.86441   44.145
 5412.00    0.88952   0.86703   45.225
 5413.00    0.87589   0.87204   46.110
 5414.00    0.87115   0.87822   46.054
 5415.00    0.87275   0.88510   45.574
 5416.00    0.87748   0.89298   45.353
 5417.00    0.89047   0.90038   45.578
 5418.00    0.90964   0.90696   45.953
 5419.00    0.92125   0.91282   45.869
 5420.00    0.91945   0.91686   45.300
 5421.00    0.91212   0.91976   44.961
 5422.00    0.90356   0.92145   45.141
 5423.00    0.89048   0.92129   45.429
 5424.00    0.87848   0.92095   45.491
 5425.00    0.88247   0.91993   45.378
 5426.00    0.90219   0.91750   45.332
 5427.00    0.91873   0.91580   45.566
 5428.00    0.91583   0.91340   45.817
 5429.00    0.88990   0.90948   45.482
 5430.00    0.85633   0.90651   44.638
 5431.00    0.84009   0.90232   43.998
 5432.00    0.84230   0.89721   43.954
 5433.00    0.84322   0.89401   44.428
 5434.00    0.83796   0.89002   44.969
 5435.00    0.83771   0.88693   45.011
 5436.00    0.84726   0.88714   44.597
 5437.00    0.86247   0.88783   44.202
 5438.00    0.87822   0.89040   43.880
 5439.00    0.89199   0.89579   43.382
 5440.00    0.90698   0.90175   42.777
 5441.00    0.92491   0.90815   42.383
 5442.00    0.93115   0.91450   42.426
 5443.00    0.91175   0.91945   42.892
 5444.00    0.88884   0.92237   43.310
 5445.00    0.89130   0.92302   43.148
 5446.00    0.89612   0.92121   42.644
 5447.00    0.86839   0.91773   42.363
 5448.00    0.83740   0.91316   -1.000
 5449.00    0.84807   0.90793   42.342
 5450.00    0.87602   0.90382   42.485
 5451.00    0.87721   0.90040   42.958
 5452.00    0.86844   0.89740   43.676
 5453.00    0.88445   0.89618   44.300
 5454.00    0.91323   0.89499   44.401
 5455.00    0.92725   0.89346   43.945
 5456.00    0.92727   0.89287   43.697
 5457.00    0.92327   0.89189   44.140
 5458.00    0.91054   0.89111   44.473
 5459.00    0.89035   0.89158   43.999
 5460.00    0.88883   0.89190   43.549
 5461.00    0.91631   0.89299   43.795
 5462.00    0.93438   0.89476   43.903
 5463.00    0.91376   0.89596   43.286
 5464.00    0.88014   0.89732   42.965
 5465.00    0.86385   0.89818   43.466
 5466.00    0.86057   0.89890   43.498
 5467.00    0.85891   0.89992   42.334
 5468.00    0.86130   0.89992   41.303
 5469.00    0.87422   0.90020   41.217
 5470.00    0.89871   0.90078   -2.000
 5471.00    0.91776   0.89998   -2.000
 5472.00    0.89988   0.89853   -2.000
 5473.00    0.86259   0.89686   -2.000
 5474.00    0.88263   0.89429   -2.000
 5475.00    0.95291   0.89037   -2.000
 5476.00    0.94696   0.88649   -2.000
 5477.00    0.82607   0.88361   -2.000
 5478.00    0.71517   0.87982   -2.000
 5479.00    0.76964   0.87687   -2.000
 5480.00    1.07582   0.87655   -2.000
 5481.00    1.50765   0.87607   -2.000
 5482.00    1.76184   0.87639   -2.000
 5483.00    1.71807   0.87892   -2.000
 5484.00    1.50875   0.88176   -2.000
 5485.00    1.25808   0.88460   -2.000
 5486.00    1.01143   0.88770   -2.000
 5487.00    0.82309   0.89114   -2.000
 5488.00    0.75655   0.89425   -2.000
 5489.00    0.79523   0.89609   -2.000
 5490.00    0.85168   0.89792   -2.000
 5491.00    0.87050   0.89989   -2.000
 5492.00    0.85201   0.90036   -2.000
 5493.00    0.83466   0.90084   -2.000
 5494.00    0.86007   0.90213   40.133
 5495.00    0.90401   0.90200   40.188
 5496.00    0.90528   0.90182   41.131
 5497.00    0.86434   0.90259   42.719
 5498.00    0.83116   0.90225   -1.000
 5499.00    0.83531   0.90136   43.786
 5500.00    0.87278   0.90110   43.183
 5501.00    0.91020   0.90057   42.816
 5502.00    0.91412   0.89890   43.250
 5503.00    0.89823   0.89719   44.038
 5504.00    0.89104   0.89620   44.312
 5505.00    0.87347   0.89420   44.142
 5506.00    0.82376   0.89163   -1.000
 5507.00    0.79453   0.89029   -1.000
 5508.00    0.84102   0.88855   43.880
 5509.00    0.91270   0.88662   43.484
 5510.00    0.93450   0.88598   43.208
 5511.00    0.92432   0.88439   43.273
 5512.00    0.93235   0.88305   43.686
 5513.00    0.95455   0.88310   -1.000
 5514.00    0.96091   0.88198   -1.000
 5515.00    0.93760   0.88171   44.599
 5516.00    0.89408   0.88294   45.147
 5517.00    0.86305   0.88414   45.361
 5518.00    0.87103   0.88691   44.853
 5519.00    0.91199   0.89067   44.368
 5520.00    0.95937   0.89487   44.438
 5521.00    0.98159   0.89953   -1.000
 5522.00    0.96690   0.90334   43.882
 5523.00    0.93816   0.90676   43.424
 5524.00    0.91935   0.90900   43.417
 5525.00    0.91194   0.90925   43.173
 5526.00    0.91141   0.90862   42.408
 5527.00    0.91850   0.90678   41.973
 5528.00    0.93017   0.90403   42.246
 5529.00    0.93503   0.90134   42.461
 5530.00    0.92306   0.89841   42.198
 5531.00    0.89403   0.89637   42.088
 5532.00    0.87070   0.89541   42.432
 5533.00    0.89167   0.89461   42.684
 5534.00    0.94153   0.89496   42.628
 5535.00    0.94345   0.89645   42.797
 5536.00    0.88801   0.89780   43.345
 5537.00    0.85892   0.89898   43.725
 5538.00    0.88416   0.90099   43.753
 5539.00    0.90201   0.90309   43.873
 5540.00    0.88540   0.90442   44.108
 5541.00    0.87095   0.90660   43.954
 5542.00    0.88025   0.90880   43.564
 5543.00    0.90049   0.91001   43.700
 5544.00    0.91941   0.91157   44.217
 5545.00    0.93439   0.91282   44.140
 5546.00    0.94205   0.91369   43.613
 5547.00    0.93984   0.91474   43.738
 5548.00    0.93945   0.91531   44.479
 5549.00    0.95634   0.91640   44.761
 5550.00    0.97329   0.91809   44.440
 5551.00    0.95576   0.91896   44.320
 5552.00    0.91187   0.91992   44.675
 5553.00    0.88161   0.92109   45.173
 5554.00    0.88004   0.92112   45.419
 5555.00    0.89481   0.92054   45.240
 5556.00    0.90864   0.91968   44.952
 5557.00    0.90935   0.91823   45.010
 5558.00    0.89926   0.91660   45.324
 5559.00    0.88922   0.91459   45.502
 5560.00    0.88494   0.91266   45.513
 5561.00    0.88610   0.91119   45.464
 5562.00    0.88910   0.90904   45.030
 5563.00    0.89111   0.90687   43.966
 5564.00    0.89514   0.90507   42.866
 5565.00    0.90489   0.90265   42.438
 5566.00    0.91657   0.90043   42.660
 5567.00    0.91948   0.89829   43.107
 5568.00    0.89967   0.89594   43.375
 5569.00    0.85863   0.89443   43.257
 5570.00    0.83216   0.89335   42.881
 5571.00    0.85125   0.89219   42.399
 5572.00    0.89868   0.89174   41.678
 5573.00    0.93777   0.89263   40.766
 5574.00    0.94719   0.89303   40.229
 5575.00    0.92556   0.89337   40.413
 5576.00    0.89125   0.89589   40.897
 5577.00    0.86800   0.89745   41.152
 5578.00    0.87067   0.89789   41.190
 5579.00    0.89270   0.90048   41.196
 5580.00    0.90206   0.90198   41.170
 5581.00    0.88375   0.90164   41.053
 5582.00    0.86612   0.90232   40.832
 5583.00    0.87479   0.90138   40.479
 5584.00    0.90125   0.89853   39.945
 5585.00    0.91808   0.89590   39.410
 5586.00    0.89750   0.89149   39.278
 5587.00    0.85492   0.88585   39.394
 5588.00    0.85552   0.88055   38.879
 5589.00    0.90893   0.87476   37.839
 5590.00    0.93758   0.86981   37.657
 5591.00    0.91768   0.86592   38.645
 5592.00    0.92057   0.86323   39.405
 5593.00    0.95930   0.86275   -1.000
 5594.00    0.95259   0.86330   -1.000
 5595.00    0.89051   0.86525   39.510
 5596.00    0.86586   0.86813   40.622
 5597.00    0.90395   0.87063   41.663
 5598.00    0.93115   0.87364   41.846
 5599.00    0.91853   0.87558   41.243
 5600.00    0.90824   0.87622   40.774
 5601.00    0.91595   0.87769   40.964
 5602.00    0.91551   0.87818   41.685
 5603.00    0.89899   0.87791   42.300
 5604.00    0.88510   0.87932   42.106
 5605.00    0.88657   0.88149   41.675
 5606.00    0.90158   0.88467   42.197
 5607.00    0.91765   0.88904   42.986
 5608.00    0.92177   0.89379   42.166
 5609.00    0.92169   0.89920   40.613
 5610.00    0.93254   0.90412   40.591
 5611.00    0.93537   0.90782   41.873
 5612.00    0.90018   0.91004   42.525
 5613.00    0.85237   0.91070   42.284
 5614.00    0.84246   0.90956   42.358
 5615.00    0.86142   0.90684   42.930
 5616.00    0.86924   0.90315   43.306
 5617.00    0.87457   0.89819   43.069
 5618.00    0.90654   0.89380   42.344
 5619.00    0.94559   0.89035   41.679
 5620.00    0.95226   0.88641   41.588
 5621.00    0.92803   0.88399   42.055
 5622.00    0.90122   0.88333   42.734
 5623.00    0.89285   0.88274   43.290
 5624.00    0.90498   0.88253   43.544
 5625.00    0.91362   0.88271   43.622
 5626.00    0.89913   0.88292   43.779
 5627.00    0.88139   0.88365   44.152
 5628.00    0.88309   0.88515   44.665
 5629.00    0.88681   0.88648   44.975
 5630.00    0.87302   0.88834   44.915
 5631.00    0.86153   0.89153   44.924
 5632.00    0.87683   0.89437   45.285
 5633.00    0.91191   0.89666   45.444
 5634.00    0.94197   0.89877   44.962
 5635.00    0.94218   0.89982   44.367
 5636.00    0.90991   0.89989   44.204
 5637.00    0.87678   0.89903   44.348
 5638.00    0.86485   0.89721   44.512
 5639.00    0.85790   0.89502   44.620
 5640.00    0.84493   0.89269   44.591
 5641.00    0.84570   0.89049   44.243
 5642.00    0.86337   0.88863   43.723
 5643.00    0.86250   0.88704   43.598
 5644.00    0.83364   0.88658   43.861
 5645.00    0.82043   0.88672   43.620
 5646.00    0.84335   0.88682   42.767
 5647.00    0.86830   0.88803   42.446
 5648.00    0.87388   0.88950   42.961
 5649.00    0.87883   0.89094   43.191
 5650.00    0.89873   0.89279   42.597
 5651.00    0.92704   0.89414   41.948
 5652.00    0.94772   0.89530   41.649
 5653.00    0.94661   0.89638   41.355
 5654.00    0.93209   0.89648   41.016
 5655.00    0.93033   0.89574   41.054
 5656.00    0.93671   0.89428   41.539
 5657.00    0.91850   0.89180   42.055
 5658.00    0.88767   0.88904   42.335
 5659.00    0.89541   0.88561   42.451
 5660.00    0.93334   0.88117   42.585
 5661.00    0.93997   0.87818   42.829
 5662.00    0.91381   0.87647   42.896
 5663.00    0.90749   0.87430   42.380
 5664.00    0.91959   0.87340   41.679
 5665.00    0.90409   0.87454   41.548
 5666.00    0.86877   0.87620   41.651
 5667.00    0.86037   0.87806   41.013
 5668.00    0.87250   0.88039   39.821
 5669.00    0.86364   0.88298   38.970
 5670.00    0.84111   0.88577   38.575
 5671.00    0.84343   0.88865   38.331
 5672.00    0.87001   0.89120   38.519
 5673.00    0.88961   0.89393   39.621
 5674.00    0.88224   0.89711   41.270
 5675.00    0.85148   0.90014   42.470
 5676.00    0.83049   0.90272   -1.000
 5677.00    0.85030   0.90482   42.664
 5678.00    0.89055   0.90666   42.392
 5679.00    0.90615   0.90771   42.277
 5680.00    0.87734   0.90744   42.286
 5681.00    0.82161   0.90647   -1.000
 5682.00    0.79570   0.90508   -1.000
 5683.00    0.83510   0.90306   41.572
 5684.00    0.88507   0.90025   41.522
 5685.00    0.88423   0.89754   41.790
 5686.00    0.86419   0.89552   41.100
 5687.00    0.87882   0.89358   38.828
 5688.00    0.92037   0.89199   36.523
 5689.00    0.95323   0.89135   35.403
 5690.00    0.95674   0.89159   35.185
 5691.00    0.93574   0.89256   35.301
 5692.00    0.92229   0.89413   35.650
 5693.00    0.93607   0.89602   36.349
 5694.00    0.95496   0.89830   37.466
 5695.00    0.95122   0.90035   38.859
 5696.00    0.92123   0.90157   40.035
 5697.00    0.88072   0.90206   40.643
 5698.00    0.85633   0.90163   40.914
 5699.00    0.86155   0.90028   41.127
 5700.00    0.88386   0.89766   41.224
 5701.00    0.90427   0.89470   41.266
 5702.00    0.91026   0.89159   41.623
 5703.00    0.89606   0.88754   42.338
 5704.00    0.86397   0.88397   42.873
 5705.00    0.83158   0.88068   43.038
 5706.00    0.82732   0.87729   43.364
 5707.00    0.85098   0.87440   43.959
 5708.00    0.86680   0.87113   44.160
 5709.00    0.86018   0.86845   43.827
 5710.00    0.85439   0.86657   43.663
 5711.00    0.87054   0.86441   43.879
 5712.00    0.90892   0.86406   43.925
 5713.00    0.94501   0.86490   -1.000
 5714.00    0.94251   0.86616   -1.000
 5715.00    0.90308   0.87013   42.460
 5716.00    0.86714   0.87472   42.394
 5717.00    0.85882   0.87947   42.391
 5718.00    0.87424   0.88577   41.884
 5719.00    0.90234   0.89153   41.116
 5720.00    0.92938   0.89693   40.894
 5721.00    0.93341   0.90236   41.361
 5722.00    0.89844   0.90656   41.968
 5723.00    0.85295   0.91004   42.114
 5724.00    0.84780   0.91294   41.523
 5725.00    0.88188   0.91464   40.613
 5726.00    0.91313   0.91544   40.055
 5727.00    0.92156   0.91570   39.951
 5728.00    0.91541   0.91495   40.013
 5729.00    0.91438   0.91353   40.114
 5730.00    0.93355   0.91244   40.274
 5731.00    0.96096   0.91138   40.445
 5732.00    0.97220   0.91021   40.518
 5733.00    0.96253   0.90920   40.425
 5734.00    0.94246   0.90892   40.221
 5735.00    0.92198   0.90941   40.161
 5736.00    0.91149   0.90965   40.413
 5737.00    0.92578   0.91008   40.642
 5738.00    0.96627   0.91072   40.543
 5739.00    0.99830   0.91117   -1.000
 5740.00    0.98552   0.91159    0.000
 5741.00    0.93552   0.91155    0.000
 5742.00    0.88112   0.91143    0.000
 5743.00    0.85089   0.91157    0.000
 5744.00    0.85591   0.91149    0.000
 5745.00    0.88105   0.91114    0.000
 5746.00    0.90775   0.91125    0.000
 5747.00    0.93591   0.91137    0.000
 5748.00    0.96329   0.91117    0.000
 5749.00    0.96845   0.91074    0.000
 5750.00    0.94679   0.90968    0.000
 5751.00    0.93606   0.90894    0.000
 5752.00    0.95857   0.90818    0.000
 5753.00    0.98170   0.90672    0.000
 5754.00    0.98171   0.90540    0.000
 5755.00    0.98424   0.90429    0.000
 5756.00    1.00159   0.90341    0.000
 5757.00    0.99870   0.90319    0.000
 5758.00    0.96408   0.90317    0.000
 5759.00    0.94313   0.90309    0.000
 5760.00    0.96159   0.90342    0.000
 5761.00    0.98885   0.90368    0.000
 5762.00    0.99044   0.90353    0.000
 5763.00    0.95890   0.90344    0.000
 5764.00    0.91824   0.90330    0.000
 5765.00    0.91209   0.90350    0.000
 5766.00    0.94315   0.90474    0.000
 5767.00    0.96312   0.90617    0.000
 5768.00    0.94842   0.90770    0.000
 5769.00    0.92242   0.90984    0.000
 5770.00    0.91294   0.91192    0.000
 5771.00    0.93123   0.91348    0.000
 5772.00    0.95982   0.91462    0.000
 5773.00    0.96348   0.91505    0.000
 5774.00    0.93806   0.91464    0.000
 5775.00    0.90959   0.91393    0.000
 5776.00    0.88149   0.91238    0.000
 5777.00    0.83877   0.91001    0.000
 5778.00    0.80559   0.90752    0.000
 5779.00    0.82805   0.90422    0.000
 5780.00    0.88787   0.90038    0.000
 5781.00    0.91838   0.89614    0.000
 5782.00    0.89749   0.89097    0.000
 5783.00    0.85464   0.88570   -2.000
 5784.00    0.83397   0.88117   -2.000
 5785.00    0.86677   0.87726   -2.000
 5786.00    0.93420   0.87429   -2.000
 5787.00    0.99109   0.87219   -2.000
 5788.00    1.02438   0.87190   -2.000
 5789.00    1.03731   0.87374   -2.000
 5790.00    1.00439   0.87594   -2.000
 5791.00    0.91081   0.87944   -2.000
 5792.00    0.82505   0.88340   -2.000
 5793.00    0.82720   0.88715   -2.000
 5794.00    0.88834   0.89182   -2.000
 5795.00    0.92981   0.89562   -2.000
 5796.00    0.92927   0.89911   -2.000
 5797.00    0.91022   0.90272   -2.000
 5798.00    0.90746   0.90538   -2.000
 5799.00    0.93162   0.90776   -2.000
 5800.00    0.93754   0.90981   -2.000
 5801.00    0.89023   0.91195   -2.000
 5802.00    0.83526   0.91394    0.000
 5803.00    0.82675   0.91519    0.000
 5804.00    0.85119   0.91639    0.000
 5805.00    0.87834   0.91717    0.000
 5806.00    0.91213   0.91723    0.000
 5807.00    0.95349   0.91729    0.000
 5808.00    0.96947   0.91697    0.000
 5809.00    0.94260   0.91648    0.000
 5810.00    0.90699   0.91616    0.000
 5811.00    0.90057   0.91552    0.000
 5812.00    0.92786   0.91520    0.000
 5813.00    0.96615   0.91500    0.000
 5814.00    0.97814   0.91459    0.000
 5815.00    0.95450   0.91442    0.000
 5816.00    0.93068   0.91419    0.000
 5817.00    0.92460   0.91390    0.000
 5818.00    0.90907   0.91380    0.000
 5819.00    0.86965   0.91414    0.000
 5820.00    0.83151   0.91510    0.000
 5821.00    0.82806   0.91617    0.000
 5822.00    0.87793   0.91745    0.000
 5823.00    0.95707   0.91898    0.000
 5824.00    1.00426   0.92042    0.000
 5825.00    0.99870   0.92182    0.000
 5826.00    0.97705   0.92291    0.000
 5827.00    0.96563   0.92389    0.000
 5828.00    0.96091   0.92450    0.000
 5829.00    0.96085   0.92487    0.000
 5830.00    0.97289   0.92511    0.000
 5831.00    1.00009   0.92512    0.000
 5832.00    1.03290   0.92505    0.000
 5833.00    1.03934   0.92462    0.000
 5834.00    0.98640   0.92412    0.000
 5835.00    0.90737   0.92350    0.000
 5836.00    0.87646   0.92259    0.000
 5837.00    0.89149   0.92174    0.000
 5838.00    0.89279   0.92136    0.000
 5839.00    0.88516   0.92106    0.000
 5840.00    0.91725   0.92068    0.000
 5841.00    0.96782   0.92073    0.000
 5842.00    0.97330   0.92114    0.000
 5843.00    0.93839   0.92163    0.000
 5844.00    0.91460   0.92181    0.000
 5845.00    0.91449   0.92160    0.000
 5846.00    0.91881   0.92099    0.000
 5847.00    0.91913   0.91991    0.000
 5848.00    0.91777   0.91820    0.000
 5849.00    0.91495   0.91563    0.000
 5850.00    0.90761   0.91272    0.000
 5851.00    0.89150   0.90965    0.000
 5852.00    0.86998   0.90619    0.000
 5853.00    0.86448   0.90256    0.000
 5854.00    0.89203   0.89852    0.000
 5855.00    0.93545   0.89442    0.000
 5856.00    0.96120   0.89105    0.000
 5857.00    0.94689   0.88806    0.000
 5858.00    0.89836   0.88521    0.000
 5859.00    0.86116   0.88239    0.000
 5860.00    0.87241   0.88048    0.000
 5861.00    0.91290   0.88010    0.000
 5862.00    0.94349   0.88032    0.000
 5863.00    0.94479   0.88109    0.000
 5864.00    0.91916   0.88188    0.000
 5865.00    0.88731   0.88330    0.000
 5866.00    0.87020   0.88558    0.000
 5867.00    0.87489   0.88764    0.000
 5868.00    0.89903   0.88929    0.000
 5869.00    0.93497   0.89060    0.000
 5870.00    0.96825   0.89224    0.000
 5871.00    0.97920   0.89357    0.000
 5872.00    0.96147   0.89434    0.000
 5873.00    0.93243   0.89447    0.000
 5874.00    0.92171   0.89374    0.000
 5875.00    0.95659   0.89313    0.000
 5876.00    1.02199   0.89145    0.000
 5877.00    1.05631   0.88922    0.000
 5878.00    1.04396   0.88689    0.000
 5879.00    1.04209   0.88426    0.000
 5880.00    1.07771   0.88238    0.000
 5881.00    1.11172   0.87950    0.000
 5882.00    1.10308   0.87674    0.000
 5883.00    1.04186   0.87404    0.000
 5884.00    0.96239   0.87082    0.000
 5885.00    0.92408   0.86655    0.000
 5886.00    0.92423   0.85966    0.000
 5887.00    0.90092   0.85136    0.000
 5888.00    0.85476   0.84178    0.000
 5889.00    0.84971   0.83046    0.000
 5890.00    0.88125   0.81719    0.000
 5891.00    0.87768   0.80231    0.000
 5892.00    0.82832   0.78744    0.000
 5893.00    0.78812   0.77615    0.000
 5894.00    0.78580   0.76781    0.000
 5895.00    0.80825   0.76085    0.000
 5896.00    0.82660   0.75735    0.000
 5897.00    0.81680   0.75577    0.000
 5898.00    0.78981   0.75839    0.000
 5899.00    0.77638   0.76640    0.000
 5900.00    0.78067   0.77565    0.000
 5901.00    0.78945   0.78609   38.767
 5902.00    0.80925   0.79753   38.539
 5903.00    0.85511   0.80955   38.340
 5904.00    0.91717   0.82275   -1.000
 5905.00    0.96356   0.83531   -1.000
 5906.00    0.95714   0.84580   -1.000
 5907.00    0.88978   0.85469   38.552
 5908.00    0.82666   0.86223   40.168
 5909.00    0.83404   0.86829   41.268
 5910.00    0.87141   0.87289   41.865
 5911.00    0.87138   0.87592   42.491
 5912.00    0.86095   0.87774   42.789
 5913.00    0.89347   0.87884   42.347
 5914.00    0.94902   0.87931   -1.000
 5915.00    0.97740   0.87901   -1.000
 5916.00    0.96087   0.87792   -1.000
 5917.00    0.91713   0.87728   43.127
 5918.00    0.89081   0.87663   42.849
 5919.00    0.90423   0.87644   42.668
 5920.00    0.91675   0.87664   42.653
 5921.00    0.89054   0.87669   42.582
 5922.00    0.84906   0.87789   42.144
 5923.00    0.83496   0.87909   41.224
 5924.00    0.86820   0.88020   40.091
 5925.00    0.92765   0.88163   39.364
 5926.00    0.95016   0.88259   39.837
 5927.00    0.91254   0.88340   41.320
 5928.00    0.87571   0.88419   41.794
 5929.00    0.88060   0.88434   40.292
 5930.00    0.89058   0.88432   38.697
 5931.00    0.87950   0.88407   38.146
 5932.00    0.87630   0.88336   37.931
 5933.00    0.89546   0.88343   37.519
 5934.00    0.90794   0.88344   37.366
 5935.00    0.90595   0.88315   37.880
 5936.00    0.92354   0.88295   38.977
 5937.00    0.96639   0.88258   -1.000
 5938.00    0.99184   0.88322   -1.000
 5939.00    0.97606   0.88387   -1.000
 5940.00    0.93700   0.88408   41.669
 5941.00    0.90046   0.88445   41.289
 5942.00    0.88407   0.88444   41.237
 5943.00    0.89286   0.88460   41.674
 5944.00    0.91861   0.88498   42.306
 5945.00    0.94328   0.88510   42.826
 5946.00    0.94632   0.88532   43.090
 5947.00    0.92322   0.88551   43.117
 5948.00    0.88828   0.88544   43.047
 5949.00    0.86429   0.88527   42.999
 5950.00    0.86906   0.88470   43.028
 5951.00    0.88861   0.88396   43.108
 5952.00    0.89014   0.88344   43.123
 5953.00    0.87294   0.88272   42.843
 5954.00    0.86528   0.88145   42.083
 5955.00    0.88595   0.88007   41.015
 5956.00    0.92897   0.87945   40.076
 5957.00    0.95265   0.87942   -1.000
 5958.00    0.92058   0.87941   40.063
 5959.00    0.88427   0.87957   40.478
 5960.00    0.92043   0.88024   40.097
 5961.00    0.98879   0.88186   -1.000
 5962.00    0.99796   0.88391   -1.000
 5963.00    0.95960   0.88571   -1.000
 5964.00    0.93816   0.88774   39.715
 5965.00    0.93281   0.88966   39.628
 5966.00    0.91623   0.89167   40.279
 5967.00    0.91515   0.89339   41.171
 5968.00    0.95714   0.89455   41.343
 5969.00    0.98852   0.89599   -1.000
 5970.00    0.95265   0.89697   40.964
 5971.00    0.89533   0.89782   41.367
 5972.00    0.88588   0.89837   41.971
 5973.00    0.91466   0.89842   42.361
 5974.00    0.93841   0.89830   42.346
 5975.00    0.94073   0.89760   42.325
 5976.00    0.92908   0.89636   42.721
 5977.00    0.92345   0.89458   43.414
 5978.00    0.93381   0.89233   43.886
 5979.00    0.94317   0.88996   43.513
 5980.00    0.93379   0.88753   42.437
 5981.00    0.90945   0.88524   41.875
 5982.00    0.88227   0.88341   42.373
 5983.00    0.86136   0.88178   42.880
 5984.00    0.85611   0.88035   42.522
 5985.00    0.87661   0.87919   41.911
 5986.00    0.91638   0.87813   41.524
 5987.00    0.94537   0.87805   40.856
 5988.00    0.94009   0.87849   39.857
 5989.00    0.90255   0.87895   39.429
 5990.00    0.85748   0.87995   39.966
 5991.00    0.84165   0.88116   40.834
 5992.00    0.86022   0.88291   41.368
 5993.00    0.87693   0.88467   41.451
 5994.00    0.88097   0.88609   41.124
 5995.00    0.90416   0.88770   40.399
 5996.00    0.94605   0.88892   39.525
 5997.00    0.95914   0.88959   38.963
 5998.00    0.93278   0.88969   39.015
 5999.00    0.90953   0.88906   39.706
 6000.00    0.90834   0.88834   40.640
 6001.00    0.90766   0.88756   41.081
 6002.00    0.89441   0.88638   40.856
 6003.00    0.87790   0.88514   40.502
 6004.00    0.87543   0.88344   40.354
 6005.00    0.90052   0.88160   40.372
 6006.00    0.94349   0.88059   40.489
 6007.00    0.97717   0.87946   -1.000
 6008.00    0.98877   0.87825   -1.000
 6009.00    0.98141   0.87705   -1.000
 6010.00    0.95476   0.87553   -1.000
 6011.00    0.91084   0.87522   40.395
 6012.00    0.87934   0.87529   41.620
 6013.00    0.89393   0.87499   42.018
 6014.00    0.92887   0.87474   41.639
 6015.00    0.92987   0.87412   41.514
 6016.00    0.90358   0.87407   41.401
 6017.00    0.89424   0.87421   40.553
 6018.00    0.90611   0.87370   39.810
 6019.00    0.91532   0.87315   40.325
 6020.00    0.91577   0.87277   41.251
 6021.00    0.91313   0.87245   40.904
 6022.00    0.90317   0.87248   39.750
 6023.00    0.88345   0.87278   39.188
 6024.00    0.87424   0.87344   39.300
 6025.00    0.89301   0.87486   39.564
 6026.00    0.91756   0.87641   39.947
 6027.00    0.92139   0.87862   40.511
 6028.00    0.92189   0.88119   40.731
 6029.00    0.93937   0.88369   40.267
 6030.00    0.94584   0.88679   39.915
 6031.00    0.91511   0.88965   40.371
 6032.00    0.87925   0.89247   41.002
 6033.00    0.87650   0.89498   41.014
 6034.00    0.89598   0.89717   40.825
 6035.00    0.91100   0.89932   41.021
 6036.00    0.91402   0.90093   41.311
 6037.00    0.90566   0.90215   41.319
 6038.00    0.88410   0.90308   41.302
 6039.00    0.85789   0.90361   41.470
 6040.00    0.85219   0.90413   41.465
 6041.00    0.87237   0.90430   41.033
 6042.00    0.88458   0.90435   40.476
 6043.00    0.87253   0.90469   40.130
 6044.00    0.86900   0.90487   40.029
 6045.00    0.89832   0.90555   39.978
 6046.00    0.94228   0.90627   39.660
 6047.00    0.96511   0.90703   39.053
 6048.00    0.93791   0.90798   38.537
 6049.00    0.88351   0.90863   38.342
 6050.00    0.87698   0.90922   38.364
 6051.00    0.92895   0.90933   38.523
 6052.00    0.95845   0.90927   38.831
 6053.00    0.94160   0.90868   38.913
 6054.00    0.94642   0.90764   38.161
 6055.00    0.98100   0.90621   37.298
 6056.00    0.96647   0.90461   38.022
 6057.00    0.89217   0.90303   40.220
 6058.00    0.84058   0.90126   41.338
 6059.00    0.84988   0.89975   40.509
 6060.00    0.88521   0.89826   39.816
 6061.00    0.91529   0.89721   40.136
 6062.00    0.93212   0.89615   40.656
 6063.00    0.92859   0.89529   40.778
 6064.00    0.90219   0.89468   40.588
 6065.00    0.88505   0.89396   40.330
 6066.00    0.91815   0.89381   40.209
 6067.00    0.96374   0.89352   40.382
 6068.00    0.94417   0.89425   40.877
 6069.00    0.88929   0.89593   41.345
 6070.00    0.89364   0.89777   41.333
 6071.00    0.94214   0.90031   41.103
 6072.00    0.94904   0.90269   41.259
 6073.00    0.91819   0.90529   41.639
 6074.00    0.91211   0.90772   41.622
 6075.00    0.93024   0.90934   41.205
 6076.00    0.93077   0.91032   40.782
 6077.00    0.91024   0.91030   40.388
 6078.00    0.89065   0.90916   39.894
 6079.00    0.87602   0.90730   39.487
 6080.00    0.86232   0.90464   39.370
 6081.00    0.86216   0.90168   39.305
 6082.00    0.88554   0.89878   39.060
 6083.00    0.90978   0.89559   39.063
 6084.00    0.91018   0.89266   39.656
 6085.00    0.90238   0.89030   40.082
 6086.00    0.90792   0.88845   39.684
 6087.00    0.90959   0.88687   39.516
 6088.00    0.88769   0.88580   40.549
 6089.00    0.86295   0.88516   41.712
 6090.00    0.86153   0.88482   41.579
 6091.00    0.87621   0.88460   40.810
 6092.00    0.88774   0.88428   40.495
 6093.00    0.88843   0.88443   40.489
 6094.00    0.88022   0.88471   40.389
 6095.00    0.87081   0.88502   40.357
 6096.00    0.87131   0.88582   40.548
 6097.00    0.89234   0.88655   40.645
 6098.00    0.92787   0.88708   40.388
 6099.00    0.94825   0.88709   39.976
 6100.00    0.93822   0.88676   39.753
 6101.00    0.91801   0.88650   39.954
 6102.00    0.90358   0.88548   40.441
 6103.00    0.88531   0.88417   40.622
 6104.00    0.86110   0.88196   40.294
 6105.00    0.85076   0.87988   40.009
 6106.00    0.86024   0.87912   40.115
 6107.00    0.86885   0.87868   40.375
 6108.00    0.86822   0.87914   40.560
 6109.00    0.87572   0.87999   40.696
 6110.00    0.90076   0.88125   40.707
 6111.00    0.93200   0.88339   40.324
 6112.00    0.95355   0.88557   39.537
 6113.00    0.95423   0.88772   38.698
 6114.00    0.93459   0.88971   38.248
 6115.00    0.90715   0.89110   38.500
 6116.00    0.88727   0.89189   39.180
 6117.00    0.88509   0.89195   39.523
 6118.00    0.89087   0.89105   39.540
 6119.00    0.88375   0.88951   40.036
 6120.00    0.87417   0.88748   41.071
 6121.00    0.89390   0.88472   41.787
 6122.00    0.92931   0.88167   41.690
 6123.00    0.93252   0.87859   40.990
 6124.00    0.90304   0.87524   39.988
 6125.00    0.88310   0.87319   38.810
 6126.00    0.89111   0.87203   37.321
 6127.00    0.91256   0.87155   35.538
 6128.00    0.91891   0.87197   34.255
 6129.00    0.89187   0.87251   34.215
 6130.00    0.86298   0.87375   34.795
 6131.00    0.87839   0.87496   34.796
 6132.00    0.91661   0.87614   34.672
 6133.00    0.92450   0.87694   35.684
 6134.00    0.90892   0.87639   37.594
 6135.00    0.90693   0.87519   38.955
 6136.00    0.91029   0.87300   39.055
 6137.00    0.89054   0.87004   38.473
 6138.00    0.85557   0.86664   38.445
 6139.00    0.83280   0.86312   39.748
 6140.00    0.83300   0.86114   41.411
 6141.00    0.84969   0.86039   41.494
 6142.00    0.86603   0.86080   39.596
 6143.00    0.86764   0.86217   37.866
 6144.00    0.85684   0.86422   40.295
 6145.00    0.84896   0.86747   46.706
 6146.00    0.86425   0.87095   39.752
 6147.00    0.90421   0.87460   28.537
 6148.00    0.93253   0.87795   38.809
 6149.00    0.92826   0.88009   -1.000
 6150.00    0.93124   0.88114   30.644
 6151.00    0.96604   0.88132    9.845
 6152.00    0.98009   0.88106   -1.000
 6153.00    0.93543   0.88047   -2.000
 6154.00    0.87951   0.87914   10.220
 6155.00    0.86446   0.87752    1.689
 6156.00    0.88483   0.87517   -2.000
 6157.00    0.90960   0.87218   -2.000
 6158.00    0.91211   0.86864    1.134
 6159.00    0.89594   0.86415    0.228
 6160.00    0.89940   0.85923   -2.000
 6161.00    0.92463   0.85356   -2.000
 6162.00    0.91276   0.84738    0.111
 6163.00    0.85064   0.84044    0.030
 6164.00    0.80838   0.83378   -2.000
 6165.00    0.81426   0.82835   -2.000
 6166.00    0.81372   0.82403    0.011
 6167.00    0.79307   0.82135    0.004
 6168.00    0.80990   0.81993   -2.000
 6169.00    0.85724   0.81997   -2.000
 6170.00    0.84492   0.82071    0.001
 6171.00    0.77369   0.82192    0.001
 6172.00    0.75429   0.82440   -2.000
 6173.00    0.80749   0.82761   -2.000
 6174.00    0.83850   0.83117    0.000
 6175.00    0.81535   0.83463    0.000
 6176.00    0.79486   0.83836   -2.000
 6177.00    0.80145   0.84197   -2.000
 6178.00    0.80928   0.84527    0.000
 6179.00    0.80847   0.84854    0.000
 6180.00    0.81611   0.85205   -2.000
 6181.00    0.85055   0.85514   -2.000
 6182.00    0.91119   0.85731    0.000
 6183.00    0.94845   0.85914    0.000
 6184.00    0.90368   0.86031   -2.000
 6185.00    0.81611   0.86065   -2.000
 6186.00    0.78367   0.86015    0.000
 6187.00    0.82728   0.85895   -2.000
 6188.00    0.91353   0.85669   -2.000
 6189.00    1.05570   0.85380   -2.000
 6190.00    1.26319   0.85067   -2.000
 6191.00    1.41788   0.84743   -2.000
 6192.00    1.37646   0.84454   -2.000
 6193.00    1.17649   0.84163   -2.000
 6194.00    0.96312   0.83994   -2.000
 6195.00    0.82009   0.83935   -2.000
 6196.00    0.76189   0.83946   -2.000
 6197.00    0.76254   0.84091   -2.000
 6198.00    0.78389   0.84266   -2.000
 6199.00    0.80764   0.84488    0.000
 6200.00    0.83430   0.84696    0.000
 6201.00    0.87487   0.84882    0.000
 6202.00    0.92913   0.85093    0.000
 6203.00    0.96477   0.85281    0.000
 6204.00    0.95172   0.85458    0.000
 6205.00    0.89977   0.85632    0.000
 6206.00    0.84283   0.85782    0.000
 6207.00    0.81718   0.85898    0.000
 6208.00    0.83758   0.85967    0.000
 6209.00    0.88026   0.85985    0.000
 6210.00    0.91134   0.85943    0.000
 6211.00    0.91314   0.85819    0.000
 6212.00    0.89041   0.85589    0.000
 6213.00    0.86933   0.85266   -2.000
 6214.00    0.86362   0.84879   -2.000
 6215.00    0.85568   0.84414    0.000
 6216.00    0.83680   0.83937    0.000
 6217.00    0.82849   0.83476   -2.000
 6218.00    0.84065   0.83051   -2.000
 6219.00    0.85145   0.82728    0.000
 6220.00    0.84660   0.82473    0.000
 6221.00    0.83722   0.82290   -2.000
 6222.00    0.83008   0.82189   -2.000
 6223.00    0.81702   0.82140    0.000
 6224.00    0.80360   0.82165    0.000
 6225.00    0.81330   0.82221   -2.000
 6226.00    0.84257   0.82270   -2.000
 6227.00    0.85524   0.82321    0.000
 6228.00    0.84457   0.82315    0.000
 6229.00    0.84229   0.82291   -2.000
 6230.00    0.85272   0.82238   -2.000
 6231.00    0.84428   0.82155    0.000
 6232.00    0.81120   0.82045    0.000
 6233.00    0.78293   0.81944   -2.000
 6234.00    0.78190   0.81902   -2.000
 6235.00    0.80847   0.81884    0.000
 6236.00    0.84015   0.81970    0.000
 6237.00    0.84670   0.82055   -2.000
 6238.00    0.83118   0.82150   -2.000
 6239.00    0.82373   0.82215    0.001
 6240.00    0.83625   0.82209    0.001
 6241.00    0.85763   0.82180   -2.000
 6242.00    0.87115   0.82061   -2.000
 6243.00    0.86773   0.81948    0.004
 6244.00    0.86412   0.81800    0.013
 6245.00    0.87837   0.81630   -2.000
 6246.00    0.87495   0.81529   -2.000
 6247.00    0.81374   0.81428    0.030
 6248.00    0.75730   0.81397    0.135
 6249.00    0.79367   0.81426   -2.000
 6250.00    0.87439   0.81480   -2.000
 6251.00    0.89811   0.81538    0.228
 6252.00    0.88370   0.81554    1.441
 6253.00    0.90650   0.81520   -2.000
 6254.00    0.96596   0.81388   -2.000
 6255.00    1.00991   0.81225    1.658
 6256.00    0.99566   0.80998   11.549
 6257.00    0.91804   0.80791   -2.000
 6258.00    0.83032   0.80576   43.897
 6259.00    0.78895   0.80411    9.880
 6260.00    0.78917   0.80309   34.838
 6261.00    0.80157   0.80288  106.922
 6262.00    0.81792   0.80428   38.325
 6263.00    0.83323   0.80625   29.012
 6264.00    0.82630   0.80965   40.259
 6265.00    0.79206   0.81328   45.545
 6266.00    0.76791   0.81709   39.436
 6267.00    0.78362   0.82080   38.072
 6268.00    0.81980   0.82421   39.867
 6269.00    0.83984   0.82736   40.366
 6270.00    0.82143   0.82996   40.199
 6271.00    0.78182   0.83233   40.945
 6272.00    0.78173   0.83420   41.434
 6273.00    0.83230   0.83567   40.635
 6274.00    0.85232   0.83696   39.700
 6275.00    0.80474   0.83809   39.481
 6276.00    0.76246   0.83888   39.433
 6277.00    0.77453   0.83954   39.140
 6278.00    0.80243   0.83988   38.992
 6279.00    0.81464   0.84005   39.270
 6280.00    0.82781   0.83996    0.000
 6281.00    0.84541   0.83987    0.000
 6282.00    0.83920   0.83959    0.000
 6283.00    0.80935   0.83965    0.000
 6284.00    0.79611   0.83992    0.000
 6285.00    0.80941   0.84060    0.000
 6286.00    0.81642   0.84202    0.000
 6287.00    0.81196   0.84341    0.000
 6288.00    0.82716   0.84539    0.000
 6289.00    0.85961   0.84719    0.000
 6290.00    0.86822   0.84894    0.000
 6291.00    0.84121   0.85051    0.000
 6292.00    0.80822   0.85125    0.000
 6293.00    0.80544   0.85156    0.000
 6294.00    0.84978   0.85100    0.000
 6295.00    0.89992   0.84975    0.000
 6296.00    0.88812   0.84818    0.000
 6297.00    0.82885   0.84607    0.000
 6298.00    0.79691   0.84384    0.000
 6299.00    0.80732   0.84157    0.000
 6300.00    0.82904   0.83932    0.000
 6301.00    0.87920   0.83760    0.000
 6302.00    0.98991   0.83638    0.000
 6303.00    1.09981   0.83579    0.000
 6304.00    1.11771   0.83575    0.000
 6305.00    1.08085   0.83625    0.000
 6306.00    1.08270   0.83738    0.000
 6307.00    1.09798   0.83896    0.000
 6308.00    1.04748   0.84088    0.000
 6309.00    0.94984   0.84297    0.000
 6310.00    0.87838   0.84476    0.000
 6311.00    0.85992   0.84644    0.000
 6312.00    0.87244   0.84733    0.000
 6313.00    0.86639   0.84751    0.000
 6314.00    0.81862   0.84708    0.000
 6315.00    0.79101   0.84612    0.000
 6316.00    0.83763   0.84469    0.000
 6317.00    0.89435   0.84292    0.000
 6318.00    0.88539   0.84138    0.000
 6319.00    0.84657   0.83983    0.000
 6320.00    0.83721   0.83868    0.000
 6321.00    0.84230   0.83846   41.779
 6322.00    0.82731   0.83856   41.359
 6323.00    0.79682   0.83978   41.347
 6324.00    0.77584   0.84173   42.498
 6325.00    0.78653   0.84406   43.064
 6326.00    0.82738   0.84678   41.869
 6327.00    0.86353   0.84945   40.875
 6328.00    0.87186   0.85253   41.375
 6329.00    0.86885   0.85479   42.091
 6330.00    0.86258   0.85689   41.861
 6331.00    0.82812   0.85853   41.532
 6332.00    0.77490   0.85933   -1.000
 6333.00    0.77172   0.85989   -1.000
 6334.00    0.83063   0.85942   40.832
 6335.00    0.86340   0.85879   40.048
 6336.00    0.82930   0.85766   39.895
 6337.00    0.79429   0.85608   40.302
 6338.00    0.80816   0.85439   40.678
 6339.00    0.84994   0.85255   40.248
 6340.00    0.87650   0.85124   39.496
 6341.00    0.85650   0.85022   39.996
 6342.00    0.81027   0.84980   41.659
 6343.00    0.80223   0.84946   42.148
 6344.00    0.84544   0.84946   40.882
 6345.00    0.88664   0.84966   39.975
 6346.00    0.89287   0.84970   40.172
 6347.00    0.87575   0.85017   40.488
 6348.00    0.86140   0.85062   40.441
 6349.00    0.87116   0.85164   40.444
 6350.00    0.89611   0.85250   40.521
 6351.00    0.90389   0.85352   40.175
 6352.00    0.88059   0.85429   39.266
 6353.00    0.84019   0.85478   38.130
 6354.00    0.81560   0.85464   37.186
 6355.00    0.83462   0.85388   36.705
 6356.00    0.86932   0.85243   36.567
 6357.00    0.86597   0.85014   36.378
 6358.00    0.83835   0.84726   35.821
 6359.00    0.83921   0.84386   34.991
 6360.00    0.85813   0.84037   34.772
 6361.00    0.84862   0.83687   36.038
 6362.00    0.82046   0.83353   38.110
 6363.00    0.81464   0.83085   39.194
 6364.00    0.82809   0.82913   39.135
 6365.00    0.83473   0.82841   39.117
 6366.00    0.84121   0.82870   39.390
 6367.00    0.86816   0.83028   39.550
 6368.00    0.90823   0.83294   39.564
 6369.00    0.93511   0.83634   -1.000
 6370.00    0.92621   0.84032   -1.000
 6371.00    0.87974   0.84463   40.844
 6372.00    0.83032   0.84896   41.734
 6373.00    0.81546   0.85303   42.465
 6374.00    0.83363   0.85660   42.778
 6375.00    0.85656   0.85979   42.629
 6376.00    0.85110   0.86240   42.313
 6377.00    0.81022   0.86434   42.065
 6378.00    0.77744   0.86551   -1.000
 6379.00    0.79108   0.86595   -1.000
 6380.00    0.83190   0.86594   40.589
 6381.00    0.85874   0.86549   40.282
 6382.00    0.84695   0.86476   39.893
 6383.00    0.81044   0.86387   38.892
 6384.00    0.80690   0.86330   36.949
 6385.00    0.85512   0.86271   34.729
 6386.00    0.88730   0.86239   33.649
 6387.00    0.86614   0.86220   34.081
 6388.00    0.85255   0.86193   34.851
 6389.00    0.88666   0.86173   35.015
 6390.00    0.92127   0.86149   35.135
 6391.00    0.91169   0.86106   35.937
 6392.00    0.86775   0.86027   37.459
 6393.00    0.82378   0.85923   39.091
 6394.00    0.81342   0.85805   39.724
 6395.00    0.83578   0.85649   39.367
 6396.00    0.85205   0.85518   39.550
 6397.00    0.85008   0.85377   40.755
 6398.00    0.85910   0.85297   41.698
 6399.00    0.87765   0.85279   41.712
 6400.00    0.86302   0.85274   41.685
 6401.00    0.81911   0.85302   41.887
 6402.00    0.80446   0.85330   41.551
 6403.00    0.82770   0.85399   40.816
 6404.00    0.83717   0.85456   40.743
 6405.00    0.82193   0.85596   41.221
 6406.00    0.82054   0.85759   40.991
 6407.00    0.83618   0.85867   39.959
 6408.00    0.83533   0.85969   39.211
 6409.00    0.82401   0.86018   38.982
 6410.00    0.83900   0.86028   38.736
 6411.00    0.86406   0.86013   38.439
 6412.00    0.85061   0.85959   38.506
 6413.00    0.82427   0.85923   38.929
 6414.00    0.84776   0.85885   39.327
 6415.00    0.87716   0.85806   39.589
 6416.00    0.82298   0.85749   39.779
 6417.00    0.74580   0.85722   -1.000
 6418.00    0.77432   0.85697   -1.000
 6419.00    0.86773   0.85680   36.940
 6420.00    0.89493   0.85680   35.698
 6421.00    0.85946   0.85683   35.614
 6422.00    0.84484   0.85697   37.126
 6423.00    0.85619   0.85736   39.331
 6424.00    0.85357   0.85787   40.476
 6425.00    0.84301   0.85878   40.407
 6426.00    0.84614   0.86008   40.244
 6427.00    0.83972   0.86172   40.501
 6428.00    0.80336   0.86286   40.823
 6429.00    0.78842   0.86372   -1.000
 6430.00    0.83823   0.86428   37.979
 6431.00    0.88695   0.86445   36.368
 6432.00    0.86109   0.86415   36.564
 6433.00    0.80155   0.86336   37.791
 6434.00    0.77864   0.86243   -1.000
 6435.00    0.79201   0.86142   38.544
 6436.00    0.81007   0.86127   38.061
 6437.00    0.81841   0.86116   37.482
 6438.00    0.82290   0.86134   36.915
 6439.00    0.84439   0.86174   36.223
 6440.00    0.88216   0.86246   35.491
 6441.00    0.89197   0.86338   35.262
 6442.00    0.85494   0.86438   35.869
 6443.00    0.82171   0.86539   37.027
 6444.00    0.83199   0.86696   38.213
 6445.00    0.86160   0.86851   38.987
 6446.00    0.87388   0.86944   39.098
 6447.00    0.85703   0.86985   38.582
 6448.00    0.82755   0.86945   37.851
 6449.00    0.82088   0.86838   37.538
 6450.00    0.83370   0.86663   37.828
 6451.00    0.81253   0.86435   38.253
 6452.00    0.76534   0.86173   -1.000
 6453.00    0.78398   0.85910   37.959
 6454.00    0.86630   0.85682   37.617
 6455.00    0.88084   0.85612   38.020
 6456.00    0.79963   0.85610   38.938
 6457.00    0.74892   0.85665   -1.000
 6458.00    0.78057   0.85776   -1.000
 6459.00    0.81868   0.85888   37.898
 6460.00    0.82532   0.86019   38.315
 6461.00    0.83787   0.86170   38.156
 6462.00    0.87087   0.86293   36.956
 6463.00    0.89586   0.86374   35.602
 6464.00    0.89171   0.86411   35.050
 6465.00    0.86093   0.86421   35.861
 6466.00    0.82653   0.86383   37.674
 6467.00    0.81714   0.86360   39.237
 6468.00    0.83018   0.86440   40.013
 6469.00    0.84044   0.86494   40.572
 6470.00    0.84716   0.86584   41.129
 6471.00    0.86542   0.86657   41.424
 6472.00    0.87886   0.86745   41.592
 6473.00    0.85821   0.86790   41.997
 6474.00    0.82442   0.86828   42.329
 6475.00    0.82440   0.86842   41.962
 6476.00    0.85648   0.86827   41.142
 6477.00    0.88528   0.86836   40.533
 6478.00    0.89656   0.86784   40.108
 6479.00    0.89545   0.86715   39.594
 6480.00    0.88594   0.86627   39.354
 6481.00    0.87165   0.86545   39.753
 6482.00    0.86207   0.86417   40.056
 6483.00    0.86344   0.86282   39.420
 6484.00    0.86489   0.86144   38.660
 6485.00    0.85365   0.85987   38.876
 6486.00    0.83721   0.85826   39.703
 6487.00    0.83166   0.85692   40.122
 6488.00    0.84313   0.85570   39.835
 6489.00    0.86546   0.85416   39.252
 6490.00    0.88115   0.85216   39.026
 6491.00    0.87410   0.84937   39.469
 6492.00    0.84339   0.84581   40.096
 6493.00    0.80615   0.84120   40.404
 6494.00    0.79528   0.83570   40.742
 6495.00    0.82357   0.82969   41.336
 6496.00    0.85595   0.82355   41.393
 6497.00    0.85748   0.81769   40.687
 6498.00    0.83364   0.81237   40.670
 6499.00    0.80692   0.80864   41.965
 6500.00    0.79465   0.80710   42.743
 6501.00    0.79978   0.80715   42.007
 6502.00    0.80871   0.80966   41.888
 6503.00    0.81504   0.81314   42.425
 6504.00    0.83082   0.81835   39.869
 6505.00    0.85487   0.82418   37.260
 6506.00    0.85921   0.83027   44.278
 6507.00    0.82914   0.83632   56.072
 6508.00    0.78377   0.84172   32.788
 6509.00    0.75806   0.84659   23.040
 6510.00    0.78277   0.85050   -1.000
 6511.00    0.83834   0.85361   -2.000
 6512.00    0.85685   0.85570   12.619
 6513.00    0.83196   0.85715    6.061
 6514.00    0.83755   0.85802   -2.000
 6515.00    0.89404   0.85838   -2.000
 6516.00    0.93856   0.85824    1.897
 6517.00    0.93237   0.85786    0.953
 6518.00    0.89235   0.85727   -2.000
 6519.00    0.84881   0.85663   -2.000
 6520.00    0.82611   0.85606    0.221
 6521.00    0.83153   0.85583    0.136
 6522.00    0.85403   0.85577   -2.000
 6523.00    0.87138   0.85603   -2.000
 6524.00    0.86504   0.85672    0.025
 6525.00    0.85372   0.85743    0.020
 6526.00    0.87420   0.85820   -2.000
 6527.00    0.90934   0.85877   -2.000
 6528.00    0.90611   0.85923    0.000
 6529.00    0.86228   0.85951    0.000
 6530.00    0.82213   0.85944   -2.000
 6531.00    0.81983   0.85919   -2.000
 6532.00    0.85625   0.85900    0.000
 6533.00    0.88052   0.85878    0.000
 6534.00    0.84197   0.85865   -2.000
 6535.00    0.79026   0.85854   -2.000
 6536.00    0.80766   0.85850    0.000
 6537.00    0.86315   0.85861    0.000
 6538.00    0.87459   0.85885   -2.000
 6539.00    0.84619   0.85914   -2.000
 6540.00    0.82817   0.85926    0.000
 6541.00    0.82593   0.85902    0.000
 6542.00    0.82424   0.85840   -2.000
 6543.00    0.83662   0.85734   -2.000
 6544.00    0.87125   0.85572    0.000
 6545.00    0.88407   0.85347    0.000
 6546.00    0.84450   0.85067   -2.000
 6547.00    0.81378   0.84744   -2.000
 6548.00    0.87423   0.84387    0.000
 6549.00    1.04298   0.84022   -2.000
 6550.00    1.27748   0.83621   -2.000
 6551.00    1.49548   0.83242    0.000
 6552.00    1.62873   0.82843    0.000
 6553.00    1.66719   0.82428   -2.000
 6554.00    1.61579   0.81970   -2.000
 6555.00    1.46146   0.81439    0.000
 6556.00    1.23931   0.80834    0.000
 6557.00    1.06908   0.80144   -2.000
 6558.00    1.00904   0.79347   -2.000
 6559.00    0.96898   0.78455    0.000
 6560.00    0.88186   0.77473    0.000
 6561.00    0.82696   0.76445    0.000
 6562.00    1.02876   0.75397    0.000
 6563.00    1.78587   0.74398    0.000
 6564.00    3.08810   0.73512    0.000
 6565.00    4.48951   0.72807    0.000
 6566.00    5.64432   0.72326    0.000
 6567.00    6.51773   0.72141    0.000
 6568.00    6.94328   0.72371    0.000
 6569.00    6.53310   0.72881    0.000
 6570.00    5.31850   0.73666    0.000
 6571.00    3.89200   0.74594    0.000
 6572.00    2.72198   0.75578    0.000
 6573.00    1.90589   0.76541   -2.000
 6574.00    1.39513   0.77463   -2.000
 6575.00    1.10124   0.78298    0.000
 6576.00    0.93530   0.79036    0.000
 6577.00    0.83223   0.79681   -2.000
 6578.00    0.78322   0.80255   -2.000
 6579.00    0.81356   0.80757    0.000
 6580.00    0.88381   0.81240    0.000
 6581.00    0.91345   0.81673   -2.000
 6582.00    0.93383   0.82087   -2.000
 6583.00    1.07707   0.82451    0.000
 6584.00    1.43024   0.82782    0.000
 6585.00    1.98430   0.83070   -2.000
 6586.00    2.61022   0.83320   -2.000
 6587.00    3.10654   0.83550    0.000
 6588.00    3.31793   0.83713    0.000
 6589.00    3.18480   0.83863   -2.000
 6590.00    2.78569   0.83916   -2.000
 6591.00    2.28457   0.83949    0.000
 6592.00    1.81382   0.83908    0.000
 6593.00    1.44590   0.83826   -2.000
 6594.00    1.18562   0.83718   -2.000
 6595.00    1.00398   0.83575    0.000
 6596.00    0.89389   0.83446    0.000
 6597.00    0.85247   0.83324   -2.000
 6598.00    0.84255   0.83274   -2.000
 6599.00    0.82381   0.83275    0.000
 6600.00    0.80234   0.83351    0.000
 6601.00    0.79981   0.83473   -2.000
 6602.00    0.80694   0.83614   -2.000
 6603.00    0.80996   0.83756    0.000
 6604.00    0.82631   0.83892    0.000
 6605.00    0.86698   0.83996   -2.000
 6606.00    0.89469   0.84065    0.000
 6607.00    0.87529   0.84088    0.000
 6608.00    0.83140   0.84069   -2.000
 6609.00    0.80381   0.84020   -2.000
 6610.00    0.80928   0.83974    0.657
 6611.00    0.83624   0.83932    0.129
 6612.00    0.84921   0.83936   -2.000
 6613.00    0.83121   0.83968   -2.000
 6614.00    0.81173   0.84060    2.562
 6615.00    0.81461   0.84193    1.024
 6616.00    0.82306   0.84362   -2.000
 6617.00    0.82441   0.84560   -2.000
 6618.00    0.83628   0.84736   10.790
 6619.00    0.86083   0.84912    7.154
 6620.00    0.86459   0.85039   -2.000
 6621.00    0.84255   0.85151   -2.000
 6622.00    0.84139   0.85196   27.942
 6623.00    0.86975   0.85194   26.514
 6624.00    0.86835   0.85138   53.003
 6625.00    0.81746   0.85043   54.023
 6626.00    0.77330   0.84909   39.926
 6627.00    0.77419   0.84745   40.227
 6628.00    0.80339   0.84566   44.038
 6629.00    0.82777   0.84373   43.239
 6630.00    0.82146   0.84197   42.107
 6631.00    0.78786   0.84021   43.460
 6632.00    0.75928   0.83881   -1.000
 6633.00    0.76346   0.83749   -1.000
 6634.00    0.80466   0.83628   42.538
 6635.00    0.84440   0.83538   41.953
 6636.00    0.82765   0.83464   42.160
 6637.00    0.78235   0.83428   42.473
 6638.00    0.79563   0.83414   42.013
 6639.00    0.85594   0.83435   41.279
 6640.00    0.87133   0.83472   41.523
 6641.00    0.84084   0.83540   42.349
 6642.00    0.83837   0.83604   42.216
 6643.00    0.85914   0.83660   41.549
 6644.00    0.84192   0.83700   42.009
 6645.00    0.80562   0.83727   43.257
 6646.00    0.81790   0.83743   43.527
 6647.00    0.86469   0.83758   42.893
 6648.00    0.87983   0.83772   42.640
 6649.00    0.85550   0.83774   42.437
 6650.00    0.82536   0.83785   41.734
 6651.00    0.79638   0.83820   42.761
 6652.00    0.76511   0.83843   -1.000
 6653.00    0.76343   0.83864   -1.000
 6654.00    0.82316   0.83869   34.049
 6655.00    0.91232   0.83879   26.027
 6656.00    0.97130   0.83860   -1.000
 6657.00    0.97731   0.83829   -1.000
 6658.00    0.94101   0.83769   26.570
 6659.00    0.88925   0.83701   28.845
 6660.00    0.85402   0.83599   33.110
 6661.00    0.86000   0.83483   37.387
 6662.00    0.90265   0.83345   37.580
 6663.00    0.93027   0.83187   -1.000
 6664.00    0.90256   0.83041   37.724
 6665.00    0.84892   0.82888   40.815
 6666.00    0.81460   0.82766   42.771
 6667.00    0.80506   0.82665   43.229
 6668.00    0.80535   0.82619   43.396
 6669.00    0.80296   0.82602   43.503
 6670.00    0.79472   0.82639   43.385
 6671.00    0.78978   0.82732   43.190
 6672.00    0.79901   0.82814   43.104
 6673.00    0.82537   0.82910   43.130
 6674.00    0.85544   0.82969   43.220
 6675.00    0.85999   0.83010   43.360
 6676.00    0.83572   0.82984   43.385
 6677.00    0.82247   0.82909   42.958
 6678.00    0.83963   0.82776   42.132
 6679.00    0.85744   0.82615   41.500
 6680.00    0.85992   0.82448   41.412
 6681.00    0.87034   0.82288   41.714
 6682.00    0.89324   0.82179   -1.000
 6683.00    0.89598   0.82094   -1.000
 6684.00    0.86990   0.82092   42.579
 6685.00    0.84735   0.82165   42.529
 6686.00    0.84419   0.82319   42.658
 6687.00    0.84400   0.82475   43.477
 6688.00    0.84110   0.82653   44.704
 6689.00    0.84888   0.82827   45.138
 6690.00    0.86322   0.82981   44.496
 6691.00    0.86019   0.83106   43.811
 6692.00    0.83679   0.83188   43.779
 6693.00    0.81649   0.83239   44.279
 6694.00    0.82035   0.83242   44.309
 6695.00    0.85256   0.83228   42.789
 6696.00    0.88728   0.83176    0.000
 6697.00    0.88616   0.83116    0.000
 6698.00    0.85462   0.83036    0.000
 6699.00    0.83171   0.82967    0.000
 6700.00    0.82614   0.82897    0.000
 6701.00    0.82063   0.82848    0.000
 6702.00    0.81941   0.82806    0.000
 6703.00    0.83692   0.82792    0.000
 6704.00    0.85099   0.82797    0.000
 6705.00    0.82821   0.82805    0.000
 6706.00    0.79238   0.82827    0.000
 6707.00    0.79321   0.82834    0.000
 6708.00    0.82612   0.82829    0.000
 6709.00    0.86028   0.82808    0.000
 6710.00    0.90855   0.82758    0.000
 6711.00    0.98305   0.82697    0.000
 6712.00    1.01267   0.82599    0.000
 6713.00    0.93163   0.82479    0.000
 6714.00    0.81961   0.82318    0.000
 6715.00    0.81140   0.82139    0.000
 6716.00    0.95071   0.81934    0.000
 6717.00    1.20513   0.81727    0.000
 6718.00    1.51045   0.81538    0.000
 6719.00    1.79976   0.81362    0.000
 6720.00    2.02955   0.81238    0.000
 6721.00    2.16506   0.81156    0.000
 6722.00    2.16493   0.81132    0.000
 6723.00    2.01469   0.81168    0.000
 6724.00    1.75868   0.81246    0.000
 6725.00    1.47375   0.81385    0.000
 6726.00    1.23760   0.81529    0.000
 6727.00    1.08559   0.81699    0.000
 6728.00    0.98518   0.81851    0.000
 6729.00    0.90920   0.82005    0.000
 6730.00    0.88882   0.82137    0.000
 6731.00    0.96542   0.82251    0.000
 6732.00    1.15075   0.82344    0.000
 6733.00    1.41262   0.82412    0.000
 6734.00    1.67285   0.82464    0.000
 6735.00    1.84429   0.82483    0.000
 6736.00    1.86127   0.82492    0.000
 6737.00    1.71879   0.82460    0.000
 6738.00    1.48555   0.82416    0.000
 6739.00    1.25701   0.82339    0.000
 6740.00    1.11439   0.82253    0.000
 6741.00    1.05253   0.82149    0.000
 6742.00    0.98253   0.82043    0.000
 6743.00    0.89736   0.81932    0.000
 6744.00    0.89407   0.81819    0.000
 6745.00    0.95338   0.81714    0.000
 6746.00    0.92049   0.81611    0.000
 6747.00    0.78719   0.81525    0.000
 6748.00    0.72097   0.81441    0.000
 6749.00    0.77906   0.81374    0.000
 6750.00    0.86337   0.81312    0.000
 6751.00    0.91219   0.81270    0.000
 6752.00    0.93793   0.81242    0.000
 6753.00    0.94506   0.81250   -1.000
 6754.00    0.92033   0.81276   -1.000
 6755.00    0.87617   0.81343   30.704
 6756.00    0.84385   0.81444   32.795
 6757.00    0.82523   0.81579   34.599
 6758.00    0.80379   0.81752   36.202
 6759.00    0.79906   0.81930   37.264
 6760.00    0.84397   0.82137   37.153
 6761.00    0.90912   0.82314   -1.000
 6762.00    0.93291   0.82488   -1.000
 6763.00    0.91409   0.82623   -1.000
 6764.00    0.89255   0.82710   36.361
 6765.00    0.87912   0.82756   36.461
 6766.00    0.86254   0.82745   36.800
 6767.00    0.84389   0.82702   37.045
 6768.00    0.83448   0.82617   36.607
 6769.00    0.84238   0.82528   35.525
 6770.00    0.86547   0.82428   34.441
 6771.00    0.88506   0.82355   34.260
 6772.00    0.88034   0.82307   35.437
 6773.00    0.84918   0.82299   37.018
 6774.00    0.80967   0.82333   37.726
 6775.00    0.79562   0.82405   38.325
 6776.00    0.81751   0.82519   39.968
 6777.00    0.82416   0.82651   41.435
 6778.00    0.78311   0.82787   40.959
 6779.00    0.76181   0.82896   39.521
 6780.00    0.81327   0.82982   38.588
 6781.00    0.86577   0.83020   37.938
 6782.00    0.85215   0.83000   37.058
 6783.00    0.82689   0.82923   36.220
 6784.00    0.84955   0.82791   35.893
 6785.00    0.88507   0.82624   36.306
 6786.00    0.88220   0.82429   37.349
 6787.00    0.84024   0.82244   38.435
 6788.00    0.79277   0.82062   38.754
 6789.00    0.78505   0.81918   37.803
 6790.00    0.82640   0.81804   36.097
 6791.00    0.86860   0.81736   34.935
 6792.00    0.87203   0.81705   34.942
 6793.00    0.84421   0.81711   35.763
 6794.00    0.81352   0.81742   36.818
 6795.00    0.80795   0.81786   37.713
 6796.00    0.83131   0.81841   38.569
 6797.00    0.85717   0.81895   40.012
 6798.00    0.86070   0.81951   41.725
 6799.00    0.83659   0.82017   41.832
 6800.00    0.80590   0.82081   39.814
 6801.00    0.80674   0.82153   37.367
 6802.00    0.84455   0.82220   35.453
 6803.00    0.88303   0.82297   33.977
 6804.00    0.89147   0.82359   33.022
 6805.00    0.86503   0.82419   32.959
 6806.00    0.82712   0.82461   33.879
 6807.00    0.81443   0.82489   35.460
 6808.00    0.82695   0.82501   37.060
 6809.00    0.83071   0.82500   37.942
 6810.00    0.81749   0.82485   38.296
 6811.00    0.81003   0.82464   39.059
 6812.00    0.82391   0.82435   40.101
 6813.00    0.85540   0.82411   40.354
 6814.00    0.87982   0.82386   40.109
 6815.00    0.87170   0.82369   40.575
 6816.00    0.85208   0.82361   41.182
 6817.00    0.86116   0.82367   40.405
 6818.00    0.87478   0.82380   39.324
 6819.00    0.83985   0.82414   40.004
 6820.00    0.78282   0.82454   41.704
 6821.00    0.77314   0.82509   41.885
 6822.00    0.81317   0.82571   40.727
 6823.00    0.85319   0.82638   40.147
 6824.00    0.85544   0.82705   40.184
 6825.00    0.81807   0.82770   39.577
 6826.00    0.79238   0.82822   37.412
 6827.00    0.83276   0.82865   34.163
 6828.00    0.92006   0.82885   -1.000
 6829.00    0.99266   0.82896   -1.000
 6830.00    1.00655   0.82888   -1.000
 6831.00    0.95907   0.82873   -1.000
 6832.00    0.90404   0.82847   33.611
 6833.00    0.88815   0.82817   35.267
 6834.00    0.87902   0.82777   37.237
 6835.00    0.83705   0.82733   39.356
 6836.00    0.79751   0.82676   41.026
 6837.00    0.80165   0.82607   41.839
 6838.00    0.82330   0.82518   42.449
 6839.00    0.82652   0.82410   43.484
 6840.00    0.82217   0.82284   44.374
 6841.00    0.82585   0.82142   44.532
 6842.00    0.82149   0.81998   44.565
 6843.00    0.80173   0.81858   44.854
 6844.00    0.79644   0.81747   44.490
 6845.00    0.82097   0.81669   42.992
 6846.00    0.84389   0.81632   41.313
 6847.00    0.84569   0.81638   39.964
 6848.00    0.85217   0.81683   38.389
 6849.00    0.87434   0.81758   36.661
 6850.00    0.87879   0.81843   35.855
 6851.00    0.85048   0.81931   36.515
 6852.00    0.82143   0.81997   38.190
 6853.00    0.81576   0.82040   39.680
 6854.00    0.82444   0.82043   39.425
 6855.00    0.83632   0.82010   37.700
 6856.00    0.84997   0.81938   36.584
 6857.00    0.85226   0.81840   36.754
 6858.00    0.82158   0.81727   37.199
 6859.00    0.78497   0.81608   37.339
 6860.00    0.81077   0.81498   37.726
 6861.00    0.88306   0.81404   38.834
 6862.00    0.89896   0.81334   -1.000
 6863.00    0.84234   0.81290   42.084
 6864.00    0.80113   0.81272   42.276
 6865.00    0.80720   0.81276   41.657
 6866.00    0.81434   0.81298   41.988
 6867.00    0.80306   0.81333   43.120
 6868.00    0.79436   0.81367   43.089
 6869.00    0.79229   0.81401   41.780
 6870.00    0.78282   0.81428   40.881
 6871.00    0.77541   0.81446   40.825
 6872.00    0.79242   0.81465   40.957
 6873.00    0.81669   0.81484   41.099
 6874.00    0.80950   0.81511   41.527
 6875.00    0.77886   0.81544   42.047
 6876.00    0.76524   0.81594   42.183
 6877.00    0.77934   0.81652   42.109
 6878.00    0.80264   0.81725   42.393
 6879.00    0.81448   0.81801   43.104
 6880.00    0.80634   0.81883   43.762
 6881.00    0.79644   0.81954   43.594
 6882.00    0.80844   0.82023   42.405
 6883.00    0.83319   0.82076   41.559
 6884.00    0.84422   0.82128   42.248
 6885.00    0.83104   0.82176   43.347
 6886.00    0.80810   0.82232   42.820
 6887.00    0.81664   0.82300   40.911
 6888.00    0.87058   0.82383   39.180
 6889.00    0.89357   0.82491   38.580
 6890.00    0.82706   0.82611   39.225
 6891.00    0.75938   0.82752   40.137
 6892.00    0.78573   0.82888   40.278
 6893.00    0.84597   0.83032   40.083
 6894.00    0.85199   0.83153   40.371
 6895.00    0.82939   0.83265   41.047
 6896.00    0.83068   0.83349   41.715
 6897.00    0.84418   0.83416   42.390
 6898.00    0.84577   0.83456   43.203
 6899.00    0.84812   0.83485   44.034
 6900.00    0.86519   0.83505   44.642
 6901.00    0.88244   0.83522   44.843
 6902.00    0.87905   0.83543   44.665
 6903.00    0.84845   0.83571   44.389
 6904.00    0.81175   0.83609   44.179
 6905.00    0.81536   0.83655   43.909
 6906.00    0.85965   0.83709   43.629
 6907.00    0.87138   0.83765   43.731
 6908.00    0.82146   0.83817   44.185
 6909.00    0.77789   0.83861   44.241
 6910.00    0.79442   0.83888   43.544
 6911.00    0.85303   0.83895   42.636
 6912.00    0.90144   0.83876   41.977
 6913.00    0.88794   0.83837   41.604
 6914.00    0.82491   0.83774   41.545
 6915.00    0.79097   0.83699   41.919
 6916.00    0.81059   0.83612   42.530
 6917.00    0.82906   0.83530   42.824
 6918.00    0.82882   0.83453   42.677
 6919.00    0.85050   0.83394   42.534
 6920.00    0.89217   0.83348   42.571
 6921.00    0.89914   0.83319   42.559
 6922.00    0.86145   0.83302   42.438
 6923.00    0.82413   0.83289   42.380
 6924.00    0.81128   0.83278   42.319
 6925.00    0.81363   0.83260   41.913
 6926.00    0.82546   0.83237   40.868
 6927.00    0.84749   0.83210   39.298
 6928.00    0.86473   0.83179   38.128
 6929.00    0.85728   0.83156   38.309
 6930.00    0.84087   0.83137   39.315
 6931.00    0.84921   0.83135   39.699
 6932.00    0.87118   0.83144   39.679
 6933.00    0.86938   0.83171   40.562
 6934.00    0.84923   0.83210   41.877
 6935.00    0.84291   0.83257   42.037
 6936.00    0.84969   0.83316   41.669
 6937.00    0.84782   0.83373   42.471
 6938.00    0.83700   0.83435   43.866
 6939.00    0.83499   0.83489   43.982
 6940.00    0.85775   0.83540   43.070
 6941.00    0.90022   0.83577   42.609
 6942.00    0.91501   0.83600   -1.000
 6943.00    0.86696   0.83607   43.300
 6944.00    0.81076   0.83593   43.229
 6945.00    0.81538   0.83567   42.488
 6946.00    0.85377   0.83524   41.805
 6947.00    0.86455   0.83476   41.826
 6948.00    0.84311   0.83424   42.129
 6949.00    0.81737   0.83378   42.011
 6950.00    0.80752   0.83338   41.501
 6951.00    0.82160   0.83310   40.948
 6952.00    0.85497   0.83293   40.481
 6953.00    0.88424   0.83289   40.254
 6954.00    0.86748   0.83298   40.656
 6955.00    0.80157   0.83321   41.736
 6956.00    0.76192   0.83357   -1.000
 6957.00    0.79147   0.83411   42.767
 6958.00    0.82061   0.83478   42.768
 6959.00    0.79648   0.83567   43.234
 6960.00    0.77302   0.83665   43.611
 6961.00    0.79671   0.83783   43.382
 6962.00    0.83128   0.83901   42.929
 6963.00    0.83815   0.84030   42.701
 6964.00    0.82725   0.84146   42.699
 6965.00    0.81874   0.84264   42.809
 6966.00    0.81830   0.84361   42.973
 6967.00    0.82208   0.84450   43.027
 6968.00    0.82180   0.84513   42.682
 6969.00    0.81268   0.84561   41.936
 6970.00    0.79753   0.84580   41.206
 6971.00    0.78683   0.84573   41.026
 6972.00    0.79416   0.84534   41.784
 6973.00    0.81715   0.84457   42.935
 6974.00    0.83530   0.84344   42.982
 6975.00    0.83598   0.84189   42.112
 6976.00    0.82320   0.84001   42.292
 6977.00    0.80890   0.83783   43.775
 6978.00    0.80617   0.83556   44.650
 6979.00    0.81838   0.83329   44.255
 6980.00    0.83717   0.83131   43.987
 6981.00    0.84845   0.82973   44.367
 6982.00    0.84007   0.82882   44.769
 6983.00    0.81801   0.82857   45.266
 6984.00    0.80403   0.82913   46.216
 6985.00    0.81590   0.83030   45.346
 6986.00    0.85492   0.83208   41.202
 6987.00    0.88977   0.83411   40.311
 6988.00    0.87983   0.83634   49.181
 6989.00    0.83731   0.83842   49.343
 6990.00    0.81049   0.84034   30.343
 6991.00    0.81596   0.84186   31.777
 6992.00    0.83656   0.84307   -2.000
 6993.00    0.84772   0.84385  106.922
 6994.00    0.83513   0.84435    9.523
 6995.00    0.81608   0.84451   13.426
 6996.00    0.81917   0.84448   -2.000
 6997.00    0.84368   0.84420   -2.000
 6998.00    0.86569   0.84378    1.449
 6999.00    0.85973   0.84316    3.314
 7000.00    0.82166   0.84246   -2.000
 7001.00    0.79343   0.84162   -2.000
 7002.00    0.81037   0.84076   -2.000
 7003.00    0.83003   0.83987   -2.000
 7004.00    0.79934   0.83906   -2.000
 7005.00    0.74589   0.83833   -2.000
 7006.00    0.72261   0.83775   -2.000
 7007.00    0.73336   0.83733   -2.000
 7008.00    0.75956   0.83705   -2.000
 7009.00    0.79609   0.83693   -2.000
 7010.00    0.83436   0.83687   -2.000
 7011.00    0.84552   0.83688   -2.000
 7012.00    0.81608   0.83682   -2.000
 7013.00    0.77740   0.83672   -2.000
 7014.00    0.76190   0.83647   -2.000
 7015.00    0.76646   0.83613   -2.000
 7016.00    0.77611   0.83565   -2.000
 7017.00    0.78410   0.83515   -2.000
 7018.00    0.78506   0.83463   -2.000
 7019.00    0.77155   0.83424   -2.000
 7020.00    0.75188   0.83397   -2.000
 7021.00    0.75528   0.83393   -2.000
 7022.00    0.78665   0.83407   -2.000
 7023.00    0.80794   0.83440   -2.000
 7024.00    0.79596   0.83488   -2.000
 7025.00    0.77018   0.83544   -2.000
 7026.00    0.75645   0.83609   -2.000
 7027.00    0.76624   0.83675   -2.000
 7028.00    0.79526   0.83749   -2.000
 7029.00    0.82655   0.83825   -2.000
 7030.00    0.84531   0.83912   -2.000
 7031.00    0.84682   0.84003   -2.000
 7032.00    0.83998   0.84103   -2.000
 7033.00    0.84162   0.84205   -2.000
 7034.00    0.84998   0.84310   -2.000
 7035.00    0.84549   0.84412   -2.000
 7036.00    0.82997   0.84511   -2.000
 7037.00    0.82693   0.84607   -2.000
 7038.00    0.83651   0.84706   -2.000
 7039.00    0.83491   0.84810   -2.000
 7040.00    0.81847   0.84929   -2.000
 7041.00    0.80579   0.85064   -2.000
 7042.00    0.80532   0.85223   -2.000
 7043.00    0.81102   0.85401   -2.000
 7044.00    0.81524   0.85598   -2.000
 7045.00    0.81326   0.85796   -2.000
 7046.00    0.80548   0.85993   -2.000
 7047.00    0.79721   0.86160   -2.000
 7048.00    0.79675   0.86292   -2.000
 7049.00    0.80763   0.86364   -2.000
 7050.00    0.81475   0.86372   -2.000
 7051.00    0.80396   0.86298   -2.000
 7052.00    0.80201   0.86146   -2.000
 7053.00    0.84088   0.85910   -2.000
 7054.00    0.88586   0.85605   -2.000
 7055.00    0.88101   0.85238   -2.000
 7056.00    0.83972   0.84830   -2.000
 7057.00    0.81218   0.84396   -2.000
 7058.00    0.81594   0.83963   -2.000
 7059.00    0.83656   0.83540   -2.000
 7060.00    0.84461   0.83149   -2.000
 7061.00    0.82755   0.82793   -2.000
 7062.00    0.82259   0.82483   -2.000
 7063.00    0.85360   0.82215   -2.000
 7064.00    0.86010   0.81991   -2.000
 7065.00    0.79590   0.81806   -2.000
 7066.00    0.73450   0.81659   -2.000
 7067.00    0.74851   0.81547   -2.000
 7068.00    0.78752   0.81469   -2.000
 7069.00    0.78794   0.81430   -2.000
 7070.00    0.77808   0.81427   -2.000
 7071.00    0.79986   0.81468   -2.000
 7072.00    0.83705   0.81546   -2.000
 7073.00    0.85123   0.81665   -2.000
 7074.00    0.81916   0.81815   -2.000
 7075.00    0.76234   0.81989   -2.000
 7076.00    0.75260   0.82173   -2.000
 7077.00    0.80943   0.82351   -2.000
 7078.00    0.85057   0.82511   -2.000
 7079.00    0.83367   0.82632   -2.000
 7080.00    0.82487   0.82706   -2.000
 7081.00    0.85556   0.82714   -2.000
 7082.00    0.86054   0.82656   -2.000
 7083.00    0.81651   0.82519   -2.000
 7084.00    0.79317   0.82311   -2.000
 7085.00    0.81905   0.82031   -2.000
 7086.00    0.83593   0.81694   -2.000
 7087.00    0.80853   0.81310   -2.000
 7088.00    0.76427   0.80902   -2.000
 7089.00    0.73718   0.80484   -2.000
 7090.00    0.74094   0.80081   -2.000
 7091.00    0.76300   0.79705   -2.000
 7092.00    0.77550   0.79377   -2.000
 7093.00    0.78052   0.79100   -2.000
 7094.00    0.80592   0.78888   -2.000
 7095.00    0.83692   0.78736   -2.000
 7096.00    0.82310   0.78647   -2.000
 7097.00    0.77050   0.78614   -2.000
 7098.00    0.73784   0.78627   -2.000
 7099.00    0.74398   0.78685   -2.000
 7100.00    0.76067   0.78766   -2.000
 7101.00    0.76500   0.78877   -2.000
 7102.00    0.75343   0.78989   -2.000
 7103.00    0.74045   0.79113   -2.000
 7104.00    0.74362   0.79221   -2.000
 7105.00    0.75239   0.79327   -2.000
 7106.00    0.74304   0.79407   -2.000
 7107.00    0.72328   0.79477   -2.000
 7108.00    0.72186   0.79520   -2.000
 7109.00    0.75099   0.79550   -2.000
 7110.00    0.79824   0.79561   -2.000
 7111.00    0.82714   0.79563   -2.000
 7112.00    0.81580   0.79559   -2.000
 7113.00    0.81490   0.79555   -2.000
 7114.00    0.87244   0.79557   -2.000
 7115.00    0.91305   0.79568   -2.000
 7116.00    0.84917   0.79591   -2.000
 7117.00    0.75272   0.79624   -2.000
 7118.00    0.73536   0.79664   -2.000
 7119.00    0.77052   0.79705   -2.000
 7120.00    0.78959   0.79737   -2.000
 7121.00    0.81688   0.79755   -2.000
 7122.00    0.88588   0.79746   -2.000
 7123.00    0.93725   0.79709   -2.000
 7124.00    0.90991   0.79634   -2.000
 7125.00    0.83878   0.79524   -2.000
 7126.00    0.78382   0.79379   -2.000
 7127.00    0.75595   0.79204   -2.000
 7128.00    0.74173   0.79008   -2.000
 7129.00    0.73112   0.78798   -2.000
 7130.00    0.72040   0.78592   -2.000
 7131.00    0.71213   0.78396   -2.000
 7132.00    0.70978   0.78231   -2.000
 7133.00    0.71313   0.78099   -2.000
 7134.00    0.71461   0.78015   -2.000
 7135.00    0.70072   0.77979   -2.000
 7136.00    0.67639   0.77992   -2.000
 7137.00    0.67368   0.78050   -2.000
 7138.00    0.70935   0.78142   -2.000
 7139.00    0.76409   0.78262   -2.000
 7140.00    0.81226   0.78391   -2.000
 7141.00    0.83943   0.78524   -2.000
 7142.00    0.84337   0.78644   -2.000
 7143.00    0.83221   0.78750   -2.000
 7144.00    0.81572   0.78830   -2.000
 7145.00    0.80194   0.78887   -2.000
 7146.00    0.80079   0.78919   -2.000
 7147.00    0.82224   0.78931   -2.000
 7148.00    0.86262   0.78928   -2.000
 7149.00    0.89929   0.78920   -2.000
 7150.00    0.89191   0.78915   -2.000
 7151.00    0.80803   0.78925   -2.000
 7152.00    0.70465   0.78955   -2.000
 7153.00    0.69743   0.79014   -2.000
 7154.00    0.78033   0.79101   -2.000
 7155.00    0.83710   0.79215   -2.000
 7156.00    0.83933   0.79346   -2.000
 7157.00    0.84904   0.79488   -2.000
 7158.00    0.86943   0.79626   -2.000
 7159.00    0.84955   0.79749   -2.000
 7160.00    0.79580   0.79847   -2.000
 7161.00    0.76039   0.79914   -2.000
 7162.00    0.75177   0.79948   -2.000
 7163.00    0.74117   0.79948   -2.000
 7164.00    0.71970   0.79929   -2.000
 7165.00    0.69835   0.79890   -2.000
 7166.00    0.68407   0.79856   -2.000
 7167.00    0.67812   0.79828   -2.000
 7168.00    0.68166   0.79827   -2.000
 7169.00    0.69358   0.79854   -2.000
 7170.00    0.70572   0.79917   -2.000
 7171.00    0.71084   0.80012   -2.000
 7172.00    0.71525   0.80132   -2.000
 7173.00    0.72659   0.80270   -2.000
 7174.00    0.73507   0.80408   -2.000
 7175.00    0.73357   0.80538   -2.000
 7176.00    0.74472   0.80644   -2.000
 7177.00    0.78343   0.80721   -2.000
 7178.00    0.81124   0.80760   -2.000
 7179.00    0.78983   0.80763   -2.000
 7180.00    0.74340   0.80731   -2.000
 7181.00    0.71174   0.80670   -2.000
 7182.00    0.69742   0.80586   -2.000
 7183.00    0.69956   0.80488   -2.000
 7184.00    0.74525   0.80382   -2.000
 7185.00    0.82878   0.80271   -2.000
 7186.00    0.86820   0.80161   -2.000
 7187.00    0.82561   0.80052   -2.000
 7188.00    0.79135   0.79946   -2.000
 7189.00    0.83157   0.79849   -2.000
 7190.00    0.88335   0.79758   -2.000
 7191.00    0.88604   0.79685   -2.000
 7192.00    0.86692   0.79626   -2.000
 7193.00    0.85156   0.79597   -2.000
 7194.00    0.81351   0.79588   -2.000
 7195.00    0.75273   0.79611   -2.000
 7196.00    0.72832   0.79657   -2.000
 7197.00    0.76244   0.79724   -2.000
 7198.00    0.80221   0.79807   -2.000
 7199.00    0.81087   0.79894   -2.000
 7200.00    0.80599   0.79983   -2.000
 7201.00    0.80674   0.80060   -2.000
 7202.00    0.81031   0.80127   -2.000
 7203.00    0.80522   0.80172   -2.000
 7204.00    0.78289   0.80199   -2.000
 7205.00    0.75748   0.80204   -2.000
 7206.00    0.75825   0.80190   -2.000
 7207.00    0.77193   0.80159   -2.000
 7208.00    0.75216   0.80119   -2.000
 7209.00    0.72573   0.80074   -2.000
 7210.00    0.77787   0.80036   -2.000
 7211.00    0.88790   0.80013   -2.000
 7212.00    0.93873   0.80009   -2.000
 7213.00    0.90036   0.80036   -2.000
 7214.00    0.84111   0.80087   -2.000
 7215.00    0.80646   0.80173   -2.000
 7216.00    0.79814   0.80280   -2.000
 7217.00    0.80763   0.80411   -2.000
 7218.00    0.82158   0.80556   -2.000
