###################################################################
## OUTPUT of StarlightChains_v04.for    [Cid@UFSC - 01/Apr/2007] ##
###################################################################

## Some input info
2005az.txt                               [arq_obs]
Base.CB07.vall.4m                        [arq_base]
Masks.EmLines.NEW.gm                     [arq_masks]
StCv04.C11.config                        [arq_config]
   66                                    [N_base]
    0                                    [N_YAV_components = # of components with extra extinction!]
    0                                    [i_FitPowerLaw (1/0 = Yes/No)]
-9.99                                    [alpha_PowerLaw]
CCM                                      [red_law_option]
 1.458241                                [q_norm = A(l_norm)/A(V)]

## (Re)Sampling Parameters
 3741.00                                 [l_ini (A)]
 7218.00                                 [l_fin (A)]
    1.00                                 [dl    (A)]     (OBS: dl_cushion =    50.00 A)

## Normalization info
 4020.00                                 [l_norm (A) - for base]
 4010.00                                 [llow_norm (A) - window for f_obs]
 4060.00                                 [lupp_norm (A) - window for f_obs]
8.429555E-16                             [fobs_norm (in input units)]

## S/N
 3691.00                                 [llow_SN (A) - window for S/N]
 7268.00                                 [lupp_SN (A) - window for S/N]
   4.753                                 [S/N in S/N window]
   6.707                                 [S/N in norm. window]
  28.993                                 [S/N_err in S/N window]
  40.916                                 [S/N_err in norm. window]
  1.0000                                 [fscale_chi2]

## etc...
    -2007296                             [idum_orig]
  2383                                   [NOl_eff]
  2373                                   [Nl_eff]
    10    NSIGMA                         [Ntot_cliped & clip_method]
  1359260                                [Nglobal_steps]
   7                                     [N_chains]
  17                                     [NEX0s_base = N_base in EX0s-fits]
 0   0   1       11   2.0   6.919E+01    [Clip-Bug, RC-Crash & Burn-In warning-flags, n_censored_weights, wei_nsig_threshold & wei_limit]
    16     16.210     15.712      0.498  [idt_all, wdt_TotTime, wdt_UsrTime & wdt_SysTime (sec)]

## Synthesis Results - Best model ##

 3.48118E-01                             [chi2/Nl_eff]
     1.46187                             [adev (%)]

   103.36610                             [sum-of-x (%)]
 1.50778E-15                             [Flux_tot (units of input spectrum!)]
 1.98230E-12                             [Mini_tot (???)]
 1.24450E-12                             [Mcor_tot (???)]

  79.42                                  [v0_min  (km/s)]
 206.20                                  [vd_min  (km/s)]
 0.4083                                  [AV_min  (mag)]
 0.0000                                  [YAV_min (mag)]

# j     x_j(%)      Mini_j(%)     Mcor_j(%)     age_j(yr)     Z_j      (L/M)_j    YAV?  Mstars   component_j        a/Fe...       SSP_chi2r SSP_adev(%)   SSP_AV   SSP_x(%)
  1      4.5395     3.0534E-01    4.8636E-01    1.000000E+06  0.00400  1.094E-02    0   1.0000   age020_m42            0.0000     2.5640E+00     4.1541   2.0258    92.8786
  2      0.0000     0.0000E+00    0.0000E+00    3.160000E+06  0.00400  4.007E-02    0   0.9999   age045_m42            0.0000     1.5920E+00     3.3101   1.3406    97.4100
  3      0.0000     0.0000E+00    0.0000E+00    5.010000E+06  0.00400  2.539E-02    0   0.9488   age055_m42            0.0000     1.7886E+00     3.4042   1.6425    95.8467
  4      0.0000     0.0000E+00    0.0000E+00    6.610000E+06  0.00400  2.620E-02    0   0.9220   age061_m42            0.0000     1.4422E+00     3.1269   1.2698    97.5456
  5      0.0000     0.0000E+00    0.0000E+00    1.000000E+07  0.00400  1.322E-02    0   0.8862   age070_m42            0.0000     7.7308E-01     2.0110   0.9897    99.7188
  6      0.0000     0.0000E+00    0.0000E+00    1.445000E+07  0.00400  7.883E-03    0   0.8571   age078_m42            0.0000     9.6840E-01     2.2180   1.3068    97.6345
  7      0.0000     0.0000E+00    0.0000E+00    2.512000E+07  0.00400  5.251E-03    0   0.8174   age090_m42            0.0000     7.6314E-01     1.9557   0.8632   100.1338
  8      0.0000     0.0000E+00    0.0000E+00    4.000000E+07  0.00400  3.649E-03    0   0.7851   age104_m42            0.0000     7.1629E-01     1.9631   0.6408   100.7122
  9      0.0000     0.0000E+00    0.0000E+00    5.500000E+07  0.00400  3.098E-03    0   0.7629   age110_m42            0.0000     1.0327E+00     2.3937   0.8015   100.3054
 10      0.0000     0.0000E+00    0.0000E+00    1.015200E+08  0.00400  2.228E-03    0   0.7207   age116_m42            0.0000     1.4146E+00     2.7878   0.8277   100.1778
 11      0.0000     0.0000E+00    0.0000E+00    2.861200E+08  0.00400  1.093E-03    0   0.6648   age125_m42            0.0000     1.4840E+00     2.7239   0.2692   102.7846
 12      0.0000     0.0000E+00    0.0000E+00    5.088000E+08  0.00400  6.597E-04    0   0.6365   age130_m42            0.0000     2.0968E+00     3.1184   0.2651   103.2676
 13      0.0000     0.0000E+00    0.0000E+00    1.434000E+09  0.00400  2.132E-04    0   0.5798   age139_m42            0.0000     2.6611E+00     3.5161  -0.7008   104.9246
 14      0.0000     0.0000E+00    0.0000E+00    4.250000E+09  0.00400  5.895E-05    0   0.5377   age158_m42            0.0000     5.0575E+00     5.0867  -1.0000    96.5822
 15      0.0000     0.0000E+00    0.0000E+00    7.500000E+09  0.00400  3.510E-05    0   0.5212   age171_m42            0.0000     1.0696E+01     7.7184  -1.0000    89.8716
 16      0.0000     0.0000E+00    0.0000E+00    1.300000E+10  0.00400  2.005E-05    0   0.5034   age193_m42            0.0000     1.8291E+01    10.3674  -1.0000    84.1109
 17      0.0000     0.0000E+00    0.0000E+00    1.800000E+10  0.00400  1.525E-05    0   0.4967   age213_m42            0.0000     1.9171E+01    10.6706  -1.0000    83.0167
 18      6.7247     3.9970E-01    6.3667E-01    1.000000E+06  0.00800  1.238E-02    0   1.0000   age020_m52            0.0000     2.5753E+00     4.1642   2.0221    93.0615
 19      5.8707     1.4053E-01    2.2309E-01    3.160000E+06  0.00800  3.074E-02    0   0.9966   age045_m52            0.0000     2.5033E+00     4.0922   1.9476    93.7901
 20      0.0000     0.0000E+00    0.0000E+00    5.010000E+06  0.00800  2.668E-02    0   0.9443   age055_m52            0.0000     1.8631E+00     3.4556   1.7198    95.2291
 21     21.6234     7.4492E-01    1.0889E+00    6.610000E+06  0.00800  2.136E-02    0   0.9177   age061_m52            0.0000     5.0729E-01     1.7761   0.4790   101.3326
 22      0.0000     0.0000E+00    0.0000E+00    1.000000E+07  0.00800  1.215E-02    0   0.8827   age070_m52            0.0000     7.8325E-01     1.9233   1.1647    99.7437
 23      0.0000     0.0000E+00    0.0000E+00    1.445000E+07  0.00800  8.717E-03    0   0.8552   age078_m52            0.0000     8.5493E-01     2.0869   1.2748    98.8527
 24      0.0000     0.0000E+00    0.0000E+00    2.512000E+07  0.00800  5.592E-03    0   0.8162   age090_m52            0.0000     7.3452E-01     1.9294   0.9308   101.1370
 25      0.0000     0.0000E+00    0.0000E+00    4.000000E+07  0.00800  3.896E-03    0   0.7841   age104_m52            0.0000     7.8736E-01     2.0489   0.8508   101.5229
 26      0.0000     0.0000E+00    0.0000E+00    1.015200E+08  0.00800  2.148E-03    0   0.7226   age116_m52            0.0000     1.0584E+00     2.3893   0.7947   101.0550
 27      0.0000     0.0000E+00    0.0000E+00    2.861200E+08  0.00800  9.925E-04    0   0.6683   age125_m52            0.0000     2.0696E+00     2.9805   0.3318   104.1180
 28      9.9566     2.3326E+01    2.2805E+01    9.047900E+08  0.00800  3.141E-04    0   0.6138   age135_m52            0.0000     3.7662E+00     4.0385  -0.4510   107.4966
 29      0.0000     0.0000E+00    0.0000E+00    1.434000E+09  0.00800  1.719E-04    0   0.5853   age139_m52            0.0000     3.7954E+00     4.2767  -1.0000   104.5173
 30      0.0000     0.0000E+00    0.0000E+00    2.500000E+09  0.00800  7.872E-05    0   0.5600   age150_m52            0.0000     1.0344E+01     7.5024  -1.0000    92.9165
 31      0.0000     0.0000E+00    0.0000E+00    4.250000E+09  0.00800  4.336E-05    0   0.5426   age158_m52            0.0000     1.1218E+01     7.7611  -1.0000    91.5799
 32      0.0000     0.0000E+00    0.0000E+00    6.250000E+09  0.00800  3.159E-05    0   0.5319   age166_m52            0.0000     2.0791E+01    10.9474  -1.0000    84.9378
 33      0.0000     0.0000E+00    0.0000E+00    1.300000E+10  0.00800  1.361E-05    0   0.5073   age193_m52            0.0000     5.1967E+01    17.4893  -1.0000    69.7107
 34      0.0000     0.0000E+00    0.0000E+00    1.800000E+10  0.00800  9.886E-06    0   0.4990   age213_m52            0.0000     6.1704E+01    18.8673  -1.0000    66.1829
 35      4.7224     2.2506E-01    3.5849E-01    1.000000E+06  0.02000  1.544E-02    0   1.0000   age020_m62            0.0000     2.6198E+00     4.2079   2.0162    93.3547
 36      5.5862     1.0927E-01    1.7157E-01    3.160000E+06  0.02000  3.762E-02    0   0.9858   age045_m62            0.0000     2.5945E+00     4.1956   1.9563    94.1517
 37      0.0000     0.0000E+00    0.0000E+00    5.010000E+06  0.02000  3.296E-02    0   0.9342   age055_m62            0.0000     1.7531E+00     3.4682   1.6083    96.7498
 38     15.1645     9.6697E-01    1.3648E+00    8.710000E+06  0.02000  1.154E-02    0   0.8861   age067_m62            0.0000     2.7237E+00     4.3551   0.6061   103.3201
 39      0.0000     0.0000E+00    0.0000E+00    1.445000E+07  0.02000  7.663E-03    0   0.8472   age078_m62            0.0000     8.6834E-01     2.1524   0.8125   102.0779
 40      0.0000     0.0000E+00    0.0000E+00    2.512000E+07  0.02000  4.532E-03    0   0.8099   age090_m62            0.0000     1.1271E+00     2.4872   0.8090   101.6205
 41      0.0000     0.0000E+00    0.0000E+00    5.500000E+07  0.02000  2.733E-03    0   0.7595   age110_m62            0.0000     7.5431E-01     1.9749   0.8280   101.0633
 42      0.0000     0.0000E+00    0.0000E+00    1.609000E+08  0.02000  1.369E-03    0   0.6985   age120_m62            0.0000     1.5501E+00     2.6288   0.6851   102.8680
 43      0.0000     0.0000E+00    0.0000E+00    2.861200E+08  0.02000  9.013E-04    0   0.6714   age125_m62            0.0000     2.4982E+00     3.1421   0.4471   105.1343
 44      0.2466     3.6089E-01    3.7072E-01    5.088000E+08  0.02000  5.028E-04    0   0.6449   age130_m62            0.0000     3.8873E+00     4.1413   0.0817   107.1875
 45      4.5961     1.3929E+01    1.3710E+01    9.047900E+08  0.02000  2.428E-04    0   0.6179   age135_m62            0.0000     4.3175E+00     4.5500  -0.5135   106.9311
 46      1.5500     9.0306E+00    8.4984E+00    1.434000E+09  0.02000  1.263E-04    0   0.5908   age139_m62            0.0000     5.2229E+00     5.0761  -0.9687   105.8462
 47      0.0000     0.0000E+00    0.0000E+00    2.500000E+09  0.02000  5.985E-05    0   0.5673   age150_m62            0.0000     1.2767E+01     8.0869  -1.0000    93.3204
 48      0.0000     0.0000E+00    0.0000E+00    4.250000E+09  0.02000  3.271E-05    0   0.5468   age158_m62            0.0000     2.8415E+01    12.6440  -1.0000    82.4452
 49      0.0000     0.0000E+00    0.0000E+00    1.000000E+10  0.02000  1.360E-05    0   0.5167   age181_m62            0.0000     5.3496E+01    17.3556  -1.0000    71.1264
 50      0.0000     0.0000E+00    0.0000E+00    1.800000E+10  0.02000  7.124E-06    0   0.5013   age213_m62            0.0000     7.1651E+01    19.9115  -1.0000    64.3944
 51      3.5502     1.0079E-01    1.6051E-01    1.000000E+06  0.05000  2.592E-02    0   0.9998   age020_m72            0.0000     2.7868E+00     4.3310   2.0043    93.5334
 52      0.0003     5.0853E-06    7.7575E-06    3.160000E+06  0.05000  4.845E-02    0   0.9577   age045_m72            0.0000     2.3506E+00     3.9390   1.8499    94.9186
 53      0.0010     2.4403E-05    3.5555E-05    5.010000E+06  0.05000  3.072E-02    0   0.9147   age055_m72            0.0000     1.1635E+00     2.5699   1.3881    98.6636
 54      0.0000     0.0000E+00    0.0000E+00    6.610000E+06  0.05000  1.455E-02    0   0.8877   age061_m72            0.0000     6.4207E+00     6.8340   0.6610   104.3448
 55      0.0000     0.0000E+00    0.0000E+00    1.000000E+07  0.05000  9.074E-03    0   0.8524   age070_m72            0.0000     2.0105E+00     3.4620   1.5800    98.1914
 56      0.0000     0.0000E+00    0.0000E+00    2.512000E+07  0.05000  4.250E-03    0   0.7902   age090_m72            0.0000     1.3728E+00     2.7947   1.2912    99.3422
 57      0.0000     0.0000E+00    0.0000E+00    4.000000E+07  0.05000  3.087E-03    0   0.7618   age104_m72            0.0000     1.4621E+00     2.9020   1.0710   100.6409
 58      0.0000     0.0000E+00    0.0000E+00    1.015200E+08  0.05000  1.700E-03    0   0.7096   age116_m72            0.0000     1.4240E+00     2.6103   0.8263   102.5686
 59      0.0000     0.0000E+00    0.0000E+00    2.861200E+08  0.05000  7.384E-04    0   0.6633   age125_m72            0.0000     3.1897E+00     3.5881   0.3222   106.1234
 60     13.8352     2.6658E+01    2.7057E+01    5.088000E+08  0.05000  3.819E-04    0   0.6372   age130_m72            0.0000     4.1227E+00     4.5124  -0.1722   107.7721
 61      5.3987     2.3703E+01    2.3069E+01    9.047900E+08  0.05000  1.676E-04    0   0.6110   age135_m72            0.0000     6.8327E+00     6.1283  -0.8840   106.5532
 62      0.0000     0.0000E+00    0.0000E+00    1.434000E+09  0.05000  8.837E-05    0   0.5874   age139_m72            0.0000     1.3570E+01     8.2603  -1.0000    94.5901
 63      0.0000     0.0000E+00    0.0000E+00    2.500000E+09  0.05000  4.233E-05    0   0.5598   age150_m72            0.0000     2.9485E+01    12.7546  -1.0000    83.1025
 64      0.0000     0.0000E+00    0.0000E+00    6.250000E+09  0.05000  1.435E-05    0   0.5249   age166_m72            0.0000     6.1428E+01    18.5848  -1.0000    67.9376
 65      0.0000     0.0000E+00    0.0000E+00    1.300000E+10  0.05000  6.513E-06    0   0.5036   age193_m72            0.0000     8.6839E+01    21.8898  -1.0000    60.5211
 66      0.0000     0.0000E+00    0.0000E+00    1.800000E+10  0.05000  4.527E-06    0   0.4945   age213_m72            0.0000     1.0247E+02    23.6787  -1.0000    56.0684


## Synthesis Results - Average & Chains ##

# j      x_j: min, <> & last-chain-values for 1 ...  7 chains
  1      4.5395      2.5474      3.0366      2.7602      2.6452      2.6523      2.7344      3.7654      3.6579
  2      0.0000      0.3998      0.0000      0.7270      0.5138      0.2141      0.0000      0.0000      0.0000
  3      0.0000      0.1469      0.0000      0.1423      0.0000      0.6628      0.0000      0.0000      0.0000
  4      0.0000      0.2362      0.1695      0.0000      0.0000      0.0000      0.4020      0.0000      0.0000
  5      0.0000      0.2286      0.3269      0.0000      0.0730      0.0000      0.0109      0.0000      0.0000
  6      0.0000      0.2124      0.0000      0.0000      0.0000      0.0000      0.0000      0.0000      0.7395
  7      0.0000      0.2922      0.0474      0.0000      0.0000      0.2924      0.0000      0.9890      0.0000
  8      0.0000      0.4392      0.1574      0.0000      0.9884      0.0000      0.0000      0.0000      0.0000
  9      0.0000      0.1956      0.1009      0.0000      0.0000      0.3125      0.0000      0.0000      0.0000
 10      0.0000      0.1982      0.0000      0.0000      0.0000      0.0000      0.0000      0.0000      0.0341
 11      0.0000      0.2015      0.0216      0.0000      0.0000      0.1588      0.0088      0.0000      0.0000
 12      0.0000      0.2035      0.0000      0.0000      0.0000      0.0000      0.0000      0.1606      0.0076
 13      0.0000      0.1322      0.0000      0.0000      0.0000      0.1602      0.6457      0.0000      0.0000
 14      0.0000      0.0406      0.0000      0.0000      0.0000      0.2191      0.0000      0.0000      0.0000
 15      0.0000      0.0688      0.0000      0.0000      0.0000      0.0000      0.0000      0.0000      0.0335
 16      0.0000      0.0431      0.0000      0.0000      0.0000      0.0746      0.0000      0.0000      0.2157
 17      0.0000      0.1786      0.4634      0.0000      0.0000      0.5544      0.0936      0.0000      0.0000
 18      6.7247      3.9136      4.5044      4.6594      4.2144      3.7077      3.9285      4.5327      5.1914
 19      5.8707      4.9702      6.7015      5.4783      4.1317      5.3696      5.2467      5.2656      6.5736
 20      0.0000      0.5938      0.5852      0.0000      0.6628      0.5074      0.5177      0.0000      0.0000
 21     21.6234     33.6878     29.3615     34.7554     33.0918     32.7781     34.0324     32.5450     33.3052
 22      0.0000      0.4629      0.0000      0.3843      0.0000      0.0531      0.0000      0.5993      0.3619
 23      0.0000      0.2889      0.0144      0.0000      0.0000      0.0000      0.0000      0.3440      0.0000
 24      0.0000      0.3546      0.0000      1.5659      0.7085      0.9909      0.5914      0.3215      0.0000
 25      0.0000      0.2393      0.0000      0.0000      0.8289      0.1448      1.1075      0.0000      0.0000
 26      0.0000      0.2170      0.0000      0.0000      0.4818      0.0000      0.0000      0.0000      0.0382
 27      0.0000      0.1826      0.0000      0.0000      0.0000      0.0000      0.0000      0.0000      0.0000
 28      9.9566      7.5137      9.0934      8.7766      8.1866      8.3776      8.0797      9.1859      7.3469
 29      0.0000      0.0875      0.0000      0.3456      0.0000      0.0000      0.0000      0.0000      0.0000
 30      0.0000      0.0251      0.0000      0.0000      0.0000      0.0000      0.0000      0.0000      0.0000
 31      0.0000      0.0188      0.0000      0.0000      0.0000      0.0000      0.0000      0.0000      0.0000
 32      0.0000      0.0228      0.0000      0.0000      0.0000      0.0000      0.0000      0.0000      0.0000
 33      0.0000      0.0085      0.0000      0.0000      0.0000      0.0000      0.0000      0.0000      0.0907
 34      0.0000      0.0085      0.0000      0.0000      0.0000      0.0000      0.0000      0.0000      0.0000
 35      4.7224      2.1769      2.0392      2.5278      2.1080      3.2558      3.2265      2.1078      2.3277
 36      5.5862      1.8551      2.1100      2.3161      1.9928      3.7181      2.3298      2.0756      1.8560
 37      0.0000      0.2302      0.0775      0.0000      0.0000      0.0000      0.0000      1.1536      0.1192
 38     15.1645     12.2080     14.4253     13.3043     12.5049     10.7523     12.7979     12.3510     13.1505
 39      0.0000      0.7566      0.1681      0.0000      1.7375      0.4283      2.0639      1.3950      0.9632
 40      0.0000      0.2541      0.0000      0.0000      0.0000      0.0000      0.0000      0.7344      0.0000
 41      0.0000      0.1701      0.0000      0.3015      0.0000      0.0000      0.1077      0.0000      0.0000
 42      0.0000      0.1531      0.0000      0.0000      0.1214      0.0000      0.0000      0.3683      0.0000
 43      0.0000      0.2456      0.0000      0.0000      0.1053      0.0000      0.0222      0.0000      0.0000
 44      0.2466      1.3394      2.7269      0.2697      1.6979      1.6187      1.5924      0.0000      0.9694
 45      4.5961      4.1405      4.2199      4.7136      3.8069      5.0865      3.9256      4.1160      5.0833
 46      1.5500      1.2008      1.1263      1.5001      1.0611      1.0602      1.1432      1.3729      1.7735
 47      0.0000      0.0975      0.0000      0.0000      0.0000      0.0000      0.0000      0.0435      0.0000
 48      0.0000      0.0370      0.0000      0.0000      0.0000      0.0000      0.0000      0.0000      0.0000
 49      0.0000      0.0042      0.0045      0.0000      0.0000      0.0000      0.0000      0.0000      0.0000
 50      0.0000      0.0345      0.1933      0.0000      0.2650      0.0000      0.0000      0.0000      0.0000
 51      3.5502      2.2353      3.3209      2.8465      3.4043      1.8619      1.3058      2.3191      2.1589
 52      0.0003      2.5545      2.9004      1.4115      3.0374      2.8824      2.5546      2.3706      2.5964
 53      0.0010      1.8853      2.6586      2.0292      1.7671      2.1096      1.9898      0.5604      1.2195
 54      0.0000      0.4315      0.0000      0.1549      0.3059      0.9474      0.0000      0.0095      0.2968
 55      0.0000      0.2420      0.0000      0.0000      0.0000      0.0000      0.0000      0.5440      0.0000
 56      0.0000      0.0886      0.0000      0.0000      0.0000      0.0000      0.0000      0.0000      0.0000
 57      0.0000      0.1517      0.1805      0.0000      0.0000      0.0000      0.0000      0.0000      0.0000
 58      0.0000      0.1357      0.0000      0.0000      0.0000      0.0000      0.0000      0.0000      0.0000
 59      0.0000      0.4736      0.7626      0.0798      0.0000      0.0694      0.0000      0.1447      0.0000
 60     13.8352      9.0578      8.8539      9.6182      9.3308      9.4293      9.7047     10.6681     10.2583
 61      5.3987      2.2387      2.7013      2.2167      2.9275      2.3848      2.6002      2.6857      2.5673
 62      0.0000      0.1639      0.0000      0.0000      0.3388      0.0000      0.3549      0.1788      0.0000
 63      0.0000      0.0169      0.0000      0.1199      0.0000      0.1425      0.0000      0.0000      0.0000
 64      0.0000      0.0068      0.0000      0.0000      0.0000      0.0000      0.0000      0.1022      0.0000
 65      0.0000      0.0019      0.0000      0.0000      0.0000      0.0000      0.0000      0.0000      0.0000
 66      0.0000      0.0049      0.0000      0.0000      0.0000      0.0000      0.0000      0.0000      0.0000

# j      m_j: min, <> & last-chain-values for 1 ...  7 chains
  1  4.8636E-01  2.9771E-01  2.9120E-01  3.7329E-01  2.8602E-01  2.7213E-01  3.5585E-01  4.7493E-01  4.3625E-01
  2  0.0000E+00  1.2756E-02  0.0000E+00  2.6841E-02  1.5166E-02  5.9960E-03  0.0000E+00  0.0000E+00  0.0000E+00
  3  0.0000E+00  7.0164E-03  0.0000E+00  7.8685E-03  0.0000E+00  2.7804E-02  0.0000E+00  0.0000E+00  0.0000E+00
  4  0.0000E+00  1.0628E-02  6.2581E-03  0.0000E+00  0.0000E+00  0.0000E+00  2.0140E-02  0.0000E+00  0.0000E+00
  5  0.0000E+00  1.9595E-02  2.2993E-02  0.0000E+00  5.7892E-03  0.0000E+00  1.0392E-03  0.0000E+00  0.0000E+00
  6  0.0000E+00  2.9532E-02  0.0000E+00  0.0000E+00  0.0000E+00  0.0000E+00  0.0000E+00  0.0000E+00  1.0491E-01
  7  0.0000E+00  5.8151E-02  7.7406E-03  0.0000E+00  0.0000E+00  5.1091E-02  0.0000E+00  2.1244E-01  0.0000E+00
  8  0.0000E+00  1.2082E-01  3.5527E-02  0.0000E+00  2.5157E-01  0.0000E+00  0.0000E+00  0.0000E+00  0.0000E+00
  9  0.0000E+00  6.1583E-02  2.6061E-02  0.0000E+00  0.0000E+00  8.6392E-02  0.0000E+00  0.0000E+00  0.0000E+00
 10  0.0000E+00  8.1969E-02  0.0000E+00  0.0000E+00  0.0000E+00  0.0000E+00  0.0000E+00  0.0000E+00  1.4385E-02
 11  0.0000E+00  1.5671E-01  1.3788E-02  0.0000E+00  0.0000E+00  1.0841E-01  7.6605E-03  0.0000E+00  0.0000E+00
 12  0.0000E+00  2.5106E-01  0.0000E+00  0.0000E+00  0.0000E+00  0.0000E+00  0.0000E+00  2.1383E-01  9.6128E-03
 13  0.0000E+00  4.5969E-01  0.0000E+00  0.0000E+00  0.0000E+00  4.8913E-01  2.4999E+00  0.0000E+00  0.0000E+00
 14  0.0000E+00  4.7340E-01  0.0000E+00  0.0000E+00  0.0000E+00  2.2433E+00  0.0000E+00  0.0000E+00  0.0000E+00
 15  0.0000E+00  1.3061E+00  0.0000E+00  0.0000E+00  0.0000E+00  0.0000E+00  0.0000E+00  0.0000E+00  6.4894E-01
 16  0.0000E+00  1.3831E+00  0.0000E+00  0.0000E+00  0.0000E+00  2.1017E+00  0.0000E+00  0.0000E+00  7.0644E+00
 17  0.0000E+00  7.4388E+00  1.5833E+01  0.0000E+00  0.0000E+00  2.0267E+01  4.3388E+00  0.0000E+00  0.0000E+00
 18  6.3667E-01  4.0418E-01  3.8172E-01  5.5683E-01  4.0270E-01  3.3617E-01  4.5179E-01  5.0521E-01  5.4712E-01
 19  2.2309E-01  2.0602E-01  2.2794E-01  2.6277E-01  1.5846E-01  1.9541E-01  2.4217E-01  2.3556E-01  2.7806E-01
 20  0.0000E+00  2.6869E-02  2.1728E-02  0.0000E+00  2.7749E-02  2.0158E-02  2.6088E-02  0.0000E+00  0.0000E+00
 21  1.0889E+00  1.8505E+00  1.3234E+00  2.2092E+00  1.6818E+00  1.5808E+00  2.0817E+00  1.9294E+00  1.8669E+00
 22  0.0000E+00  4.2995E-02  0.0000E+00  4.1312E-02  0.0000E+00  4.3283E-03  0.0000E+00  6.0073E-02  3.4303E-02
 23  0.0000E+00  3.6242E-02  1.4777E-03  0.0000E+00  0.0000E+00  0.0000E+00  0.0000E+00  4.6575E-02  0.0000E+00
 24  0.0000E+00  6.6172E-02  0.0000E+00  3.3815E-01  1.2233E-01  1.6235E-01  1.2290E-01  6.4742E-02  0.0000E+00
 25  0.0000E+00  6.1573E-02  0.0000E+00  0.0000E+00  1.9735E-01  3.2718E-02  3.1732E-01  0.0000E+00  0.0000E+00
 26  0.0000E+00  9.3341E-02  0.0000E+00  0.0000E+00  1.9174E-01  0.0000E+00  0.0000E+00  0.0000E+00  1.6756E-02
 27  0.0000E+00  1.5720E-01  0.0000E+00  0.0000E+00  0.0000E+00  0.0000E+00  0.0000E+00  0.0000E+00  0.0000E+00
 28  2.2805E+01  1.8773E+01  1.8643E+01  2.5375E+01  1.8925E+01  1.8377E+01  2.2479E+01  2.4769E+01  1.8732E+01
 29  0.0000E+00  3.8078E-01  0.0000E+00  1.7408E+00  0.0000E+00  0.0000E+00  0.0000E+00  0.0000E+00  0.0000E+00
 30  0.0000E+00  2.2848E-01  0.0000E+00  0.0000E+00  0.0000E+00  0.0000E+00  0.0000E+00  0.0000E+00  0.0000E+00
 31  0.0000E+00  3.0040E-01  0.0000E+00  0.0000E+00  0.0000E+00  0.0000E+00  0.0000E+00  0.0000E+00  0.0000E+00
 32  0.0000E+00  4.9063E-01  0.0000E+00  0.0000E+00  0.0000E+00  0.0000E+00  0.0000E+00  0.0000E+00  0.0000E+00
 33  0.0000E+00  4.0364E-01  0.0000E+00  0.0000E+00  0.0000E+00  0.0000E+00  0.0000E+00  0.0000E+00  4.4107E+00
 34  0.0000E+00  5.4852E-01  0.0000E+00  0.0000E+00  0.0000E+00  0.0000E+00  0.0000E+00  0.0000E+00  0.0000E+00
 35  3.5849E-01  1.8027E-01  1.3856E-01  2.4222E-01  1.6150E-01  2.3670E-01  2.9752E-01  1.8837E-01  1.9670E-01
 36  1.7157E-01  6.2152E-02  5.8006E-02  8.9794E-02  6.1772E-02  1.0936E-01  8.6918E-02  7.5051E-02  6.3455E-02
 37  0.0000E+00  8.3424E-03  2.3051E-03  0.0000E+00  0.0000E+00  0.0000E+00  0.0000E+00  4.5116E-02  4.4087E-03
 38  1.3648E+00  1.1985E+00  1.1621E+00  1.5114E+00  1.1359E+00  9.2675E-01  1.3991E+00  1.3086E+00  1.3175E+00
 39  0.0000E+00  1.0694E-01  1.9499E-02  0.0000E+00  2.2724E-01  5.3150E-02  3.2486E-01  2.1282E-01  1.3894E-01
 40  0.0000E+00  5.8063E-02  0.0000E+00  0.0000E+00  0.0000E+00  0.0000E+00  0.0000E+00  1.8109E-01  0.0000E+00
 41  0.0000E+00  6.0427E-02  0.0000E+00  1.2396E-01  0.0000E+00  0.0000E+00  4.2625E-02  0.0000E+00  0.0000E+00
 42  0.0000E+00  9.9903E-02  0.0000E+00  0.0000E+00  7.3301E-02  0.0000E+00  0.0000E+00  2.5930E-01  0.0000E+00
 43  0.0000E+00  2.3388E-01  0.0000E+00  0.0000E+00  9.2791E-02  0.0000E+00  2.3523E-02  0.0000E+00  0.0000E+00
 44  3.7072E-01  2.1965E+00  3.6693E+00  5.1181E-01  2.5762E+00  2.3305E+00  2.9079E+00  0.0000E+00  1.6222E+00
 45  1.3710E+01  1.3472E+01  1.1267E+01  1.7748E+01  1.1461E+01  1.4530E+01  1.4223E+01  1.4454E+01  1.6879E+01
 46  8.4984E+00  7.1816E+00  5.5271E+00  1.0382E+01  5.8714E+00  5.5670E+00  7.6137E+00  8.8616E+00  1.0824E+01
 47  0.0000E+00  1.1815E+00  0.0000E+00  0.0000E+00  0.0000E+00  0.0000E+00  0.0000E+00  5.6867E-01  0.0000E+00
 48  0.0000E+00  7.9082E-01  0.0000E+00  0.0000E+00  0.0000E+00  0.0000E+00  0.0000E+00  0.0000E+00  0.0000E+00
 49  0.0000E+00  2.0374E-01  1.7963E-01  0.0000E+00  0.0000E+00  0.0000E+00  0.0000E+00  0.0000E+00  0.0000E+00
 50  0.0000E+00  3.1020E+00  1.4268E+01  0.0000E+00  2.2057E+01  0.0000E+00  0.0000E+00  0.0000E+00  0.0000E+00
 51  1.6051E-01  1.1024E-01  1.3439E-01  1.6244E-01  1.5533E-01  8.0614E-02  7.1708E-02  1.2343E-01  1.0865E-01
 52  7.7575E-06  6.4559E-02  6.0147E-02  4.1279E-02  7.1023E-02  6.3956E-02  7.1892E-02  6.4660E-02  6.6961E-02
 53  3.5555E-05  7.1774E-02  8.3048E-02  8.9391E-02  6.2241E-02  7.0510E-02  8.4351E-02  2.3026E-02  4.7378E-02
 54  0.0000E+00  3.3662E-02  0.0000E+00  1.3986E-02  2.2079E-02  6.4881E-02  0.0000E+00  7.9621E-04  2.3627E-02
 55  0.0000E+00  2.9068E-02  0.0000E+00  0.0000E+00  0.0000E+00  0.0000E+00  0.0000E+00  7.0512E-02  0.0000E+00
 56  0.0000E+00  2.1057E-02  0.0000E+00  0.0000E+00  0.0000E+00  0.0000E+00  0.0000E+00  0.0000E+00  0.0000E+00
 57  0.0000E+00  4.7879E-02  4.6727E-02  0.0000E+00  0.0000E+00  0.0000E+00  0.0000E+00  0.0000E+00  0.0000E+00
 58  0.0000E+00  7.2445E-02  0.0000E+00  0.0000E+00  0.0000E+00  0.0000E+00  0.0000E+00  0.0000E+00  0.0000E+00
 59  0.0000E+00  5.4397E-01  7.1867E-01  1.0602E-01  0.0000E+00  6.9934E-02  0.0000E+00  1.7934E-01  0.0000E+00
 60  2.7057E+01  1.9323E+01  1.5498E+01  2.3743E+01  1.8417E+01  1.7660E+01  2.3053E+01  2.4561E+01  2.2332E+01
 61  2.3069E+01  1.0435E+01  1.0331E+01  1.1956E+01  1.2625E+01  9.7591E+00  1.3496E+01  1.3510E+01  1.2212E+01
 62  0.0000E+00  1.3927E+00  0.0000E+00  0.0000E+00  2.6643E+00  0.0000E+00  3.3589E+00  1.6401E+00  0.0000E+00
 63  0.0000E+00  2.8639E-01  0.0000E+00  2.3466E+00  0.0000E+00  2.1158E+00  0.0000E+00  0.0000E+00  0.0000E+00
 64  0.0000E+00  3.1962E-01  0.0000E+00  0.0000E+00  0.0000E+00  0.0000E+00  0.0000E+00  5.1601E+00  0.0000E+00
 65  0.0000E+00  1.8869E-01  0.0000E+00  0.0000E+00  0.0000E+00  0.0000E+00  0.0000E+00  0.0000E+00  0.0000E+00
 66  0.0000E+00  6.8462E-01  0.0000E+00  0.0000E+00  0.0000E+00  0.0000E+00  0.0000E+00  0.0000E+00  0.0000E+00

# AV, chi2 & Mass for <> & i_chain = 1 ...  7 solutions
AV       0.4083      0.4366      0.4388      0.4332      0.4305      0.4279      0.4274      0.4321      0.4386
chi2 3.4812E-01  3.6433E-01  3.5935E-01  3.5939E-01  3.6051E-01  3.5947E-01  3.5968E-01  3.5971E-01  3.5854E-01
Mass 1.2445E-12  1.1851E-12  1.4484E-12  1.0195E-12  1.2703E-12  1.3341E-12  1.0512E-12  1.0914E-12  1.1645E-12
  79.42                                  [v0_min (km/s) before EX0s...]
 206.20                                  [vd_min (km/s) before EX0s...]


## Synthetic spectrum (Best Model) ##l_obs f_obs f_syn wei
 3478    [Nl_obs]
 3741.00    0.82444   0.84738    0.000
 3742.00    0.83569   0.85968    0.000
 3743.00    0.83709   0.86216    0.000
 3744.00    0.82908   0.85502    0.000
 3745.00    0.81219   0.83945   17.767
 3746.00    0.78765   0.81723   17.915
 3747.00    0.76037   0.79085   18.055
 3748.00    0.73764   0.76386   18.347
 3749.00    0.72519   0.74071   18.569
 3750.00    0.72615   0.72622   18.373
 3751.00    0.74059   0.72421   18.013
 3752.00    0.76561   0.73565   17.993
 3753.00    0.79581   0.75793   18.263
 3754.00    0.82550   0.78593   18.434
 3755.00    0.85254   0.81404   18.408
 3756.00    0.87665   0.83789   18.383
 3757.00    0.89517   0.85525   18.570
 3758.00    0.90449   0.86620   18.975
 3759.00    0.90377   0.87259   19.084
 3760.00    0.89542   0.87662   18.496
 3761.00    0.88471   0.87955   18.011
 3762.00    0.87732   0.88123   18.497
 3763.00    0.87558   0.88031   19.447
 3764.00    0.87692   0.87502   19.695
 3765.00    0.87293   0.86393   19.517
 3766.00    0.85596   0.84638   19.898
 3767.00    0.82871   0.82296   20.734
 3768.00    0.80036   0.79599   21.259
 3769.00    0.77903   0.76939   21.250
 3770.00    0.76929   0.74789   21.038
 3771.00    0.77042   0.73609   20.995
 3772.00    0.77953   0.73720   21.267
 3773.00    0.79591   0.75137   21.576
 3774.00    0.81888   0.77565   21.533
 3775.00    0.84465   0.80573   21.178
 3776.00    0.87028   0.83762   20.878
 3777.00    0.89841   0.86835   21.076
 3778.00    0.93153   0.89613   21.802
 3779.00    0.96527   0.92013   22.043
 3780.00    0.99400   0.94004   21.093
 3781.00    1.01769   0.95563   20.164
 3782.00    1.03700   0.96651   20.261
 3783.00    1.04761   0.97248   20.787
 3784.00    1.04551   0.97360   20.821
 3785.00    1.03274   0.97011   20.627
 3786.00    1.01413   0.96249   20.862
 3787.00    0.99333   0.95174   21.637
 3788.00    0.97222   0.93907   22.549
 3789.00    0.95078   0.92517   22.746
 3790.00    0.92843   0.90988   22.062
 3791.00    0.90524   0.89244   21.793
 3792.00    0.88099   0.87167   22.754
 3793.00    0.85451   0.84645   23.989
 3794.00    0.82532   0.81647   24.124
 3795.00    0.79519   0.78302   23.455
 3796.00    0.76770   0.74940   22.862
 3797.00    0.74741   0.72049   22.575
 3798.00    0.73670   0.70179   22.539
 3799.00    0.73389   0.69789   22.695
 3800.00    0.73783   0.71037   23.030
 3801.00    0.75094   0.73667   23.563
 3802.00    0.77393   0.77139   24.093
 3803.00    0.80252   0.80849   24.061
 3804.00    0.83287   0.84307   23.400
 3805.00    0.86490   0.87231   22.917
 3806.00    0.89790   0.89573   23.134
 3807.00    0.92778   0.91465   23.787
 3808.00    0.95140   0.93087   24.258
 3809.00    0.96917   0.94525   23.983
 3810.00    0.98239   0.95720   23.208
 3811.00    0.99164   0.96544   22.978
 3812.00    0.99710   0.96897   23.683
 3813.00    0.99889   0.96768   24.535
 3814.00    0.99752   0.96262   24.778
 3815.00    0.99404   0.95537   24.661
 3816.00    0.98950   0.94715   24.753
 3817.00    0.98465   0.93846   25.388
 3818.00    0.97976   0.92944   26.265
 3819.00    0.97474   0.92040   26.352
 3820.00    0.96998   0.91260   25.574
 3821.00    0.96641   0.90780   25.248
 3822.00    0.96293   0.90636   25.787
 3823.00    0.95587   0.90638   26.174
 3824.00    0.94219   0.90521   25.926
 3825.00    0.92127   0.90101   25.926
 3826.00    0.89545   0.89317   26.751
 3827.00    0.86930   0.88165   28.046
 3828.00    0.84519   0.86637   28.790
 3829.00    0.82193   0.84696   27.936
 3830.00    0.79738   0.82288   26.331
 3831.00    0.77060   0.79382   25.972
 3832.00    0.74547   0.76045   27.365
 3833.00    0.72958   0.72517   29.309
 3834.00    0.72440   0.69218   30.168
 3835.00    0.72361   0.66668   29.345
 3836.00    0.72224   0.65349   28.256
 3837.00    0.71999   0.65536   28.937
 3838.00    0.72053   0.67167   31.192
 3839.00    0.72957   0.69918   31.961
 3840.00    0.74983   0.73366   30.327
 3841.00    0.77989   0.77086   28.963
 3842.00    0.81660   0.80735   28.885
 3843.00    0.85592   0.84066   29.290
 3844.00    0.89264   0.86935   29.388
 3845.00    0.92148   0.89295   29.003
 3846.00    0.94076   0.91173   28.659
 3847.00    0.95278   0.92639    0.000
 3848.00    0.96176   0.93773    0.000
 3849.00    0.97165   0.94642    0.000
 3850.00    0.98216   0.95321    0.000
 3851.00    0.99011   0.95892    0.000
 3852.00    0.99647   0.96387    0.000
 3853.00    1.00513   0.96764    0.000
 3854.00    1.01467   0.96971    0.000
 3855.00    1.01951   0.97003    0.000
 3856.00    1.01882   0.96908    0.000
 3857.00    1.01614   0.96770    0.000
 3858.00    1.01281   0.96672    0.000
 3859.00    1.00812   0.96656    0.000
 3860.00    1.00366   0.96761    0.000
 3861.00    1.00299   0.97011    0.000
 3862.00    1.00836   0.97359    0.000
 3863.00    1.01925   0.97697    0.000
 3864.00    1.03101   0.97935    0.000
 3865.00    1.03832   0.98032    0.000
 3866.00    1.04309   0.97985    0.000
 3867.00    1.05100   0.97815    0.000
 3868.00    1.06143   0.97547    0.000
 3869.00    1.06815   0.97182    0.000
 3870.00    1.06503   0.96683    0.000
 3871.00    1.04900   0.96037    0.000
 3872.00    1.02339   0.95319    0.000
 3873.00    0.99546   0.94661    0.000
 3874.00    0.97078   0.94151    0.000
 3875.00    0.95208   0.93737    0.000
 3876.00    0.93911   0.93286    0.000
 3877.00    0.92990   0.92684    0.000
 3878.00    0.92271   0.91886    0.000
 3879.00    0.91591   0.90907    0.000
 3880.00    0.90710   0.89766    0.000
 3881.00    0.89348   0.88392   31.260
 3882.00    0.87268   0.86666   30.827
 3883.00    0.84445   0.84508   31.092
 3884.00    0.81310   0.81871   32.042
 3885.00    0.78695   0.78747   33.173
 3886.00    0.77665   0.75258   34.257
 3887.00    0.78800   0.71735   35.025
 3888.00    0.81287   0.68672   -1.000
 3889.00    0.83624   0.66616   -1.000
 3890.00    0.84740   0.66029   -1.000
 3891.00    0.84173   0.67060   -1.000
 3892.00    0.82104   0.69439   -1.000
 3893.00    0.79413   0.72653   35.984
 3894.00    0.77649   0.76159   35.214
 3895.00    0.77896   0.79535   35.124
 3896.00    0.79525   0.82535   35.579
 3897.00    0.81368   0.85076   35.599
 3898.00    0.83203   0.87167   35.105
 3899.00    0.85181   0.88875   34.617
 3900.00    0.87061   0.90308   34.611
 3901.00    0.88600   0.91550   35.144
 3902.00    0.90014   0.92602   35.550
 3903.00    0.91514   0.93437   35.248
 3904.00    0.92817   0.94086   34.682
 3905.00    0.93694   0.94630   34.384
 3906.00    0.94493   0.95161   34.123
 3907.00    0.95541   0.95786   33.567
 3908.00    0.96585   0.96550   32.887
 3909.00    0.97342   0.97383   32.409
 3910.00    0.97999   0.98157   32.293
 3911.00    0.98658   0.98756   32.509
 3912.00    0.98891   0.99112   32.839
 3913.00    0.98391   0.99208   33.078
 3914.00    0.97495   0.99078   33.239
 3915.00    0.96646   0.98774   33.462
 3916.00    0.95945   0.98331   33.898
 3917.00    0.95430   0.97769   34.500
 3918.00    0.95272   0.97126   34.881
 3919.00    0.95421   0.96462   34.861
 3920.00    0.95408   0.95858   34.842
 3921.00    0.95060   0.95391   35.095
 3922.00    0.94884   0.95071   35.299
 3923.00    0.95062   0.94810   35.235
 3924.00    0.94884   0.94473   35.222
 3925.00    0.93898   0.93926   35.446
 3926.00    0.92557   0.93075   35.597
 3927.00    0.91167   0.91901   35.650
 3928.00    0.89305   0.90430   36.227
 3929.00    0.86771   0.88690   37.398
 3930.00    0.84061   0.86737   38.020
 3931.00    0.81456   0.84681   37.740
 3932.00    0.78640   0.82701   38.044
 3933.00    0.75797   0.81066   -1.000
 3934.00    0.74040   0.80093   -1.000
 3935.00    0.74168   0.80040   -1.000
 3936.00    0.76051   0.80953   39.972
 3937.00    0.79207   0.82650   38.590
 3938.00    0.83103   0.84808   37.571
 3939.00    0.87010   0.87084   37.032
 3940.00    0.90045   0.89182   36.741
 3941.00    0.91813   0.90895   36.430
 3942.00    0.92601   0.92151   35.985
 3943.00    0.92809   0.93005   35.670
 3944.00    0.92698   0.93582   35.995
 3945.00    0.92585   0.94029   36.758
 3946.00    0.92818   0.94441   36.868
 3947.00    0.93266   0.94798   36.110
 3948.00    0.93322   0.95048   35.562
 3949.00    0.92899   0.95196   35.727
 3950.00    0.92595   0.95267   36.178
 3951.00    0.92643   0.95246   36.602
 3952.00    0.92659   0.95110   37.082
 3953.00    0.92380   0.94863   37.390
 3954.00    0.91874   0.94525   37.004
 3955.00    0.91180   0.94075   36.349
 3956.00    0.90239   0.93472   36.581
 3957.00    0.89149   0.92715   37.675
 3958.00    0.88124   0.91801   38.247
 3959.00    0.87024   0.90653   37.826
 3960.00    0.85368   0.89136    0.000
 3961.00    0.82942   0.87143    0.000
 3962.00    0.79932   0.84668    0.000
 3963.00    0.76706   0.81758    0.000
 3964.00    0.73618   0.78432    0.000
 3965.00    0.70664   0.74727    0.000
 3966.00    0.67742   0.70756    0.000
 3967.00    0.65692   0.66716    0.000
 3968.00    0.65868   0.62925    0.000
 3969.00    0.68049   0.59845    0.000
 3970.00    0.70535   0.57992    0.000
 3971.00    0.72057   0.57758    0.000
 3972.00    0.72275   0.59211    0.000
 3973.00    0.71640   0.62071    0.000
 3974.00    0.71108   0.65875    0.000
 3975.00    0.71519   0.70133    0.000
 3976.00    0.73310   0.74401    0.000
 3977.00    0.76222   0.78358    0.000
 3978.00    0.79497   0.81839    0.000
 3979.00    0.82496   0.84775    0.000
 3980.00    0.84864   0.87152    0.000
 3981.00    0.86544   0.88998   37.732
 3982.00    0.87714   0.90395   38.275
 3983.00    0.88654   0.91495   38.230
 3984.00    0.89655   0.92456   37.657
 3985.00    0.90886   0.93371   37.083
 3986.00    0.92361   0.94258   37.020
 3987.00    0.93918   0.95113   37.274
 3988.00    0.95307   0.95923   37.285
 3989.00    0.96375   0.96645   37.027
 3990.00    0.97121   0.97250   36.908
 3991.00    0.97738   0.97746   37.222
 3992.00    0.98420   0.98138   37.884
 3993.00    0.99017   0.98396   38.059
 3994.00    0.99231   0.98486   37.108
 3995.00    0.99044   0.98428   36.255
 3996.00    0.98672   0.98304   36.935
 3997.00    0.98362   0.98214   38.470
 3998.00    0.98320   0.98249   39.031
 3999.00    0.98645   0.98464   38.531
 4000.00    0.99271   0.98805   38.050
 4001.00    0.99899   0.99127   37.708
 4002.00    1.00214   0.99306   37.243
 4003.00    1.00198   0.99281   37.124
 4004.00    0.99999   0.99033   37.765
 4005.00    0.99684   0.98620   38.275
 4006.00    0.99332   0.98215   37.633
 4007.00    0.99194   0.97993   36.736
 4008.00    0.99494   0.97993   36.792
 4009.00    1.00142   0.98176   37.340
 4010.00    1.00818   0.98520   36.367
 4011.00    1.01145   0.98988   31.891
 4012.00    1.00968   0.99499   26.401
 4013.00    1.00634   0.99988   24.428
 4014.00    1.00557   1.00428   27.739
 4015.00    1.00697   1.00806   34.844
 4016.00    1.00858   1.01110   38.334
 4017.00    1.01090   1.01322   36.839
 4018.00    1.01507   1.01444   36.070
 4019.00    1.02043   1.01469   36.687
 4020.00    1.02487   1.01317   37.252
 4021.00    1.02555   1.00884   37.650
 4022.00    1.02110   1.00144   38.220
 4023.00    1.01346   0.99145   38.462
 4024.00    1.00577   0.97993   37.957
 4025.00    1.00000   0.96871   37.377
 4026.00    0.99704   0.96030   37.431
 4027.00    0.99677   0.95654   38.008
 4028.00    0.99751   0.95700   38.472
 4029.00    0.99589   0.95947   38.049
 4030.00    0.99026   0.96193   36.901
 4031.00    0.98343   0.96393   36.506
 4032.00    0.97957   0.96615   37.564
 4033.00    0.98125   0.96947   38.695
 4034.00    0.98857   0.97457   38.450
 4035.00    0.99878   0.98174   37.537
 4036.00    1.00858   0.99057   37.086
 4037.00    1.01592   0.99985   37.293
 4038.00    1.02006   1.00784   37.976
 4039.00    1.02133   1.01301   38.885
 4040.00    1.02008   1.01463   39.325
 4041.00    1.01607   1.01290   38.199
 4042.00    1.00924   1.00870   36.008
 4043.00    1.00032   1.00267   34.954
 4044.00    0.99048   0.99536   35.933
 4045.00    0.98127   0.98820   37.744
 4046.00    0.97515   0.98352   38.908
 4047.00    0.97527   0.98294   39.289
 4048.00    0.98159   0.98581   39.242
 4049.00    0.98948   0.99021   38.826
 4050.00    0.99530   0.99451   38.389
 4051.00    0.99918   0.99741   38.679
 4052.00    1.00148   0.99788   39.559
 4053.00    1.00097   0.99584   39.605
 4054.00    0.99669   0.99211   38.933
 4055.00    0.98908   0.98792   39.805
 4056.00    0.98020   0.98429   41.500
 4057.00    0.97330   0.98158   39.205
 4058.00    0.97056   0.97976   36.657
 4059.00    0.97191   0.97878   44.641
 4060.00    0.97561   0.97805   57.317
 4061.00    0.97875   0.97654   29.313
 4062.00    0.97830   0.97353   13.613
 4063.00    0.97257   0.96933    9.380
 4064.00    0.96533   0.96537    9.057
 4065.00    0.96493   0.96276   11.947
 4066.00    0.97237   0.96106   22.411
 4067.00    0.97926   0.95941   46.607
 4068.00    0.98142   0.95779   45.847
 4069.00    0.98223   0.95615   36.290
 4070.00    0.98270   0.95390   36.910
 4071.00    0.97926   0.95076   40.503
 4072.00    0.97116   0.94735   40.638
 4073.00    0.96188   0.94434   38.747
 4074.00    0.95320   0.94122   38.094
 4075.00    0.94408   0.93697   39.964
 4076.00    0.93490   0.93188   42.053
 4077.00    0.92800   0.92754   39.702
 4078.00    0.92412   0.92570   38.315
 4079.00    0.92208   0.92723   48.268
 4080.00    0.92183   0.93151   54.532
 4081.00    0.92437   0.93679   26.046
 4082.00    0.92847   0.94105   13.054
 4083.00    0.93086   0.94295    9.538
 4084.00    0.93012   0.94232    9.629
 4085.00    0.92700   0.93994   13.506
 4086.00    0.92200   0.93684   27.865
 4087.00    0.91515   0.93364   56.834
 4088.00    0.90736   0.93025   46.854
 4089.00    0.89994   0.92632   37.579
 4090.00    0.89196   0.92161   39.914
 4091.00    0.88094   0.91533   43.182
 4092.00    0.86643   0.90636    0.000
 4093.00    0.84992   0.89398    0.000
 4094.00    0.83236   0.87763    0.000
 4095.00    0.81402   0.85646    0.000
 4096.00    0.79573   0.83025    0.000
 4097.00    0.78037   0.79979    0.000
 4098.00    0.77556   0.76650    0.000
 4099.00    0.78996   0.73213    0.000
 4100.00    0.82403   0.69901    0.000
 4101.00    0.86838   0.67096    0.000
 4102.00    0.90542   0.65331    0.000
 4103.00    0.91714   0.65020    0.000
 4104.00    0.90029   0.66174    0.000
 4105.00    0.86481   0.68469    0.000
 4106.00    0.82448   0.71467    0.000
 4107.00    0.79229   0.74711    0.000
 4108.00    0.77530   0.77823    0.000
 4109.00    0.77422   0.80574    0.000
 4110.00    0.78452   0.82889    0.000
 4111.00    0.79942   0.84817    0.000
 4112.00    0.81471   0.86450    0.000
 4113.00    0.82893   0.87855   43.812
 4114.00    0.84222   0.89042   43.238
 4115.00    0.85491   0.89980   43.681
 4116.00    0.86574   0.90656   44.532
 4117.00    0.87300   0.91078   44.509
 4118.00    0.87674   0.91247   43.626
 4119.00    0.87849   0.91235   42.730
 4120.00    0.88013   0.91201   42.216
 4121.00    0.88317   0.91281   42.105
 4122.00    0.88786   0.91531   42.334
 4123.00    0.89356   0.91940   42.734
 4124.00    0.89941   0.92435   42.976
 4125.00    0.90460   0.92899   42.808
 4126.00    0.90863   0.93200   42.409
 4127.00    0.91102   0.93264   42.131
 4128.00    0.91092   0.93121   42.121
 4129.00    0.90859   0.92879   42.311
 4130.00    0.90704   0.92623   42.434
 4131.00    0.90899   0.92402   42.225
 4132.00    0.91328   0.92296   41.672
 4133.00    0.91728   0.92418   41.059
 4134.00    0.92026   0.92824   40.903
 4135.00    0.92330   0.93472   41.471
 4136.00    0.92869   0.94238   42.280
 4137.00    0.93766   0.94957   42.641
 4138.00    0.94815   0.95514   42.439
 4139.00    0.95626   0.95819   41.997
 4140.00    0.95825   0.95782   41.735
 4141.00    0.95301   0.95358   41.890
 4142.00    0.94411   0.94591   42.328
 4143.00    0.93627   0.93661   42.687
 4144.00    0.93179   0.92915   42.577
 4145.00    0.93124   0.92632   42.083
 4146.00    0.93421   0.92777   42.027
 4147.00    0.93923   0.93164   42.841
 4148.00    0.94381   0.93622   43.705
 4149.00    0.94664   0.94006   43.829
 4150.00    0.94917   0.94245   43.759
 4151.00    0.95210   0.94339   44.077
 4152.00    0.95291   0.94289   44.314
 4153.00    0.95003   0.94121   43.969
 4154.00    0.94578   0.93915   43.369
 4155.00    0.94237   0.93774   43.107
 4156.00    0.93910   0.93755   43.556
 4157.00    0.93589   0.93883   44.481
 4158.00    0.93551   0.94166   44.818
 4159.00    0.93948   0.94555   44.115
 4160.00    0.94557   0.94961   43.446
 4161.00    0.95093   0.95320   43.674
 4162.00    0.95446   0.95626   44.560
 4163.00    0.95670   0.95868   45.430
 4164.00    0.95941   0.96005   45.661
 4165.00    0.96325   0.96018   45.190
 4166.00    0.96663   0.95893   44.667
 4167.00    0.96757   0.95619   44.585
 4168.00    0.96481   0.95237   44.867
 4169.00    0.95816   0.94787   45.096
 4170.00    0.94849   0.94246   44.756
 4171.00    0.93737   0.93576   43.948
 4172.00    0.92678   0.92833   43.481
 4173.00    0.91863   0.92172   43.661
 4174.00    0.91422   0.91728   43.940
 4175.00    0.91278   0.91521   44.032
 4176.00    0.91145   0.91481   44.364
 4177.00    0.90947   0.91541   45.236
 4178.00    0.90927   0.91686   46.383
 4179.00    0.91200   0.91939   47.099
 4180.00    0.91595   0.92282   46.601
 4181.00    0.91964   0.92614   45.330
 4182.00    0.92303   0.92860   44.781
 4183.00    0.92600   0.93034   45.354
 4184.00    0.92800   0.93160   46.028
 4185.00    0.92941   0.93234   46.076
 4186.00    0.93158   0.93233   45.757
 4187.00    0.93461   0.93169   45.370
 4188.00    0.93714   0.93156   44.967
 4189.00    0.93901   0.93287   44.896
 4190.00    0.94174   0.93524   45.714
 4191.00    0.94606   0.93788   47.038
 4192.00    0.95111   0.94043   47.432
 4193.00    0.95498   0.94233   46.626
 4194.00    0.95540   0.94217   45.846
 4195.00    0.95153   0.93883   45.453
 4196.00    0.94415   0.93279   44.829
 4197.00    0.93417   0.92526   44.149
 4198.00    0.92286   0.91725   44.330
 4199.00    0.91398   0.91022   45.325
 4200.00    0.91247   0.90577   46.016
 4201.00    0.91813   0.90407   45.808
 4202.00    0.92580   0.90477   45.088
 4203.00    0.93178   0.90788   44.379
 4204.00    0.93513   0.91288   44.058
 4205.00    0.93569   0.91884   44.434
 4206.00    0.93401   0.92526   45.622
 4207.00    0.93268   0.93157   46.950
 4208.00    0.93502   0.93697   47.160
 4209.00    0.94057   0.94087   46.174
 4210.00    0.94612   0.94327   45.031
 4211.00    0.95137   0.94453   44.270
 4212.00    0.95767   0.94479   43.936
 4213.00    0.96162   0.94390   44.284
 4214.00    0.95783   0.94184   45.535
 4215.00    0.94913   0.93904   46.731
 4216.00    0.94394   0.93704   46.362
 4217.00    0.94512   0.93728   45.197
 4218.00    0.94952   0.93925   45.147
 4219.00    0.95320   0.94135   46.025
 4220.00    0.95338   0.94243   46.264
 4221.00    0.95027   0.94162   45.800
 4222.00    0.94549   0.93792   45.767
 4223.00    0.93833   0.93113   46.430
 4224.00    0.92674   0.92204   47.258
 4225.00    0.91088   0.91197   47.796
 4226.00    0.89396   0.90292   47.903
 4227.00    0.88226   0.89757   47.800
 4228.00    0.88121   0.89791   47.783
 4229.00    0.88867   0.90309   47.722
 4230.00    0.89834   0.91031   47.336
 4231.00    0.90779   0.91714   46.803
 4232.00    0.91694   0.92176   46.532
 4233.00    0.92328   0.92347   46.656
 4234.00    0.92410   0.92332   47.061
 4235.00    0.92101   0.92213   47.520
 4236.00    0.91822   0.92026   47.828
 4237.00    0.91853   0.91886   48.011
 4238.00    0.92288   0.91877   48.167
 4239.00    0.93054   0.91997   48.171
 4240.00    0.93957   0.92254   47.856
 4241.00    0.94746   0.92625   47.324
 4242.00    0.95200   0.93006   46.827
 4243.00    0.95236   0.93325   46.554
 4244.00    0.94878   0.93559   46.627
 4245.00    0.94194   0.93620   47.122
 4246.00    0.93339   0.93437   47.904
 4247.00    0.92602   0.93070   48.392
 4248.00    0.92176   0.92647   48.163
 4249.00    0.91898   0.92231   47.757
 4250.00    0.91560   0.91833   47.805
 4251.00    0.91300   0.91541   48.033
 4252.00    0.91310   0.91419   48.068
 4253.00    0.91474   0.91391   48.395
 4254.00    0.91600   0.91395   49.302
 4255.00    0.91714   0.91470   49.614
 4256.00    0.91908   0.91622   48.461
 4257.00    0.92161   0.91758   47.229
 4258.00    0.92373   0.91782   47.213
 4259.00    0.92429   0.91702   47.782
 4260.00    0.92343   0.91607   47.954
 4261.00    0.92369   0.91635   47.999
 4262.00    0.92738   0.91879   48.444
 4263.00    0.93422   0.92280   48.989
 4264.00    0.94248   0.92683   49.134
 4265.00    0.95034   0.92966   48.895
 4266.00    0.95519   0.93019   48.603
 4267.00    0.95334   0.92775   48.621
 4268.00    0.94375   0.92292   49.031
 4269.00    0.93051   0.91644   49.441
 4270.00    0.91757   0.90847   49.551
 4271.00    0.90477   0.89981   49.604
 4272.00    0.89270   0.89251   49.817
 4273.00    0.88586   0.88828   49.941
 4274.00    0.88705   0.88696   49.649
 4275.00    0.89337   0.88822   48.896
 4276.00    0.90091   0.89212   48.029
 4277.00    0.90816   0.89790   47.680
 4278.00    0.91439   0.90398   48.009
 4279.00    0.91855   0.90883   48.350
 4280.00    0.92034   0.91157   48.185
 4281.00    0.92070   0.91221   47.777
 4282.00    0.91994   0.91120   47.446
 4283.00    0.91688   0.90890   47.159
 4284.00    0.91137   0.90567   47.084
 4285.00    0.90552   0.90168   47.783
 4286.00    0.90113   0.89725   49.263
 4287.00    0.89825   0.89266   50.454
 4288.00    0.89604   0.88770   50.611
 4289.00    0.89347   0.88242   50.284
 4290.00    0.89028   0.87813   50.086
 4291.00    0.88731   0.87650   50.033
 4292.00    0.88549   0.87742   50.043
 4293.00    0.88511   0.87901   50.166
 4294.00    0.88517   0.87946   50.382
 4295.00    0.88350   0.87849   50.522
 4296.00    0.87913   0.87609   50.464
 4297.00    0.87301   0.87169   50.247
 4298.00    0.86540   0.86496   50.109
 4299.00    0.85533   0.85623   50.376
 4300.00    0.84390   0.84728   50.965
 4301.00    0.83463   0.84006   51.314
 4302.00    0.82882   0.83477   51.268
 4303.00    0.82441   0.83116   51.309
 4304.00    0.82022   0.82949   51.626
 4305.00    0.81710   0.82923   51.860
 4306.00    0.81520   0.82941   51.721
 4307.00    0.81349   0.82954   51.233
 4308.00    0.81257   0.82966   50.562
 4309.00    0.81486   0.83081   49.895
 4310.00    0.82118   0.83393   49.331
 4311.00    0.83012   0.83878   48.936
 4312.00    0.84059   0.84445   49.024
 4313.00    0.85243   0.85048   49.948
 4314.00    0.86537   0.85703   -2.000
 4315.00    0.87866   0.86466   -2.000
 4316.00    0.89098   0.87324   -2.000
 4317.00    0.90061   0.88113   -2.000
 4318.00    0.90584   0.88667   -2.000
 4319.00    0.90568   0.88923   -2.000
 4320.00    0.90157   0.88868   -2.000
 4321.00    0.89648   0.88524   -2.000
 4322.00    0.89092   0.87937   -2.000
 4323.00    0.88283   0.87109   -2.000
 4324.00    0.87083   0.86081   -2.000
 4325.00    0.85548   0.85019   -2.000
 4326.00    0.84015   0.84173   -2.000
 4327.00    0.82935   0.83720   -2.000
 4328.00    0.82397   0.83580   -2.000
 4329.00    0.82153   0.83521   -2.000
 4330.00    0.82009   0.83354    0.000
 4331.00    0.81844   0.82998    0.000
 4332.00    0.81431   0.82389    0.000
 4333.00    0.80541   0.81387    0.000
 4334.00    0.79303   0.79869    0.000
 4335.00    0.78321   0.77793    0.000
 4336.00    0.78723   0.75160    0.000
 4337.00    0.81889   0.72062    0.000
 4338.00    0.88832   0.68786    0.000
 4339.00    0.99439   0.65702    0.000
 4340.00    1.11254   0.63207    0.000
 4341.00    1.20217   0.61806    0.000
 4342.00    1.22685   0.61789    0.000
 4343.00    1.17018   0.62984    0.000
 4344.00    1.05717   0.65044    0.000
 4345.00    0.93666   0.67674    0.000
 4346.00    0.84156   0.70533    0.000
 4347.00    0.78420   0.73293    0.000
 4348.00    0.76172   0.75733    0.000
 4349.00    0.76190   0.77708    0.000
 4350.00    0.77147   0.79150    0.000
 4351.00    0.78072   0.80127   53.002
 4352.00    0.78861   0.80891   53.717
 4353.00    0.79878   0.81716   53.914
 4354.00    0.81217   0.82653   53.379
 4355.00    0.82725   0.83628   53.025
 4356.00    0.84235   0.84614   53.198
 4357.00    0.85614   0.85573   53.624
 4358.00    0.86792   0.86433   53.645
 4359.00    0.87768   0.87179   52.874
 4360.00    0.88610   0.87866   52.016
 4361.00    0.89369   0.88523   51.860
 4362.00    0.89965   0.89111   52.057
 4363.00    0.90323   0.89589   51.902
 4364.00    0.90553   0.89963   51.505
 4365.00    0.90740   0.90219   51.364
 4366.00    0.90675   0.90278   51.653
 4367.00    0.90191   0.90108   52.229
 4368.00    0.89575   0.89813   52.700
 4369.00    0.89207   0.89508   52.633
 4370.00    0.89099   0.89227   51.858
 4371.00    0.89067   0.88972   50.638
 4372.00    0.89002   0.88747   49.658
 4373.00    0.88899   0.88527   49.420
 4374.00    0.88855   0.88304   49.785
 4375.00    0.88968   0.88176   50.335
 4376.00    0.89232   0.88258   50.754
 4377.00    0.89555   0.88514   50.931
 4378.00    0.89776   0.88748   51.003
 4379.00    0.89724   0.88791   50.904
 4380.00    0.89272   0.88599   50.044
 4381.00    0.88346   0.88176   48.526
 4382.00    0.86945   0.87445   47.824
 4383.00    0.85220   0.86399   48.865
 4384.00    0.83535   0.85300   50.783
 4385.00    0.82297   0.84495   52.137
 4386.00    0.81786   0.84101   52.448
 4387.00    0.82032   0.83997   52.111
 4388.00    0.82756   0.84130   51.848
 4389.00    0.83610   0.84560   52.120
 4390.00    0.84387   0.85215   52.802
 4391.00    0.85005   0.85949   53.448
 4392.00    0.85479   0.86679   53.570
 4393.00    0.85843   0.87296   53.171
 4394.00    0.86100   0.87734   52.985
 4395.00    0.86294   0.88051   53.476
 4396.00    0.86542   0.88371   54.253
 4397.00    0.86898   0.88707   54.631
 4398.00    0.87280   0.88917   54.173
 4399.00    0.87575   0.88898   53.090
 4400.00    0.87722   0.88708   52.216
 4401.00    0.87665   0.88522   52.082
 4402.00    0.87347   0.88417   52.557
 4403.00    0.86846   0.88245   53.342
 4404.00    0.86413   0.87914   54.196
 4405.00    0.86210   0.87630   54.657
 4406.00    0.86192   0.87595   54.082
 4407.00    0.86288   0.87740   52.854
 4408.00    0.86496   0.87930   52.443
 4409.00    0.86835   0.88172   53.205
 4410.00    0.87287   0.88497   53.750
 4411.00    0.87729   0.88827   53.318
 4412.00    0.87936   0.89048   52.893
 4413.00    0.87809   0.89052   53.230
 4414.00    0.87458   0.88780   54.094
 4415.00    0.87009   0.88369   55.081
 4416.00    0.86544   0.88053   55.936
 4417.00    0.86247   0.87925   56.098
 4418.00    0.86399   0.88009   54.859
 4419.00    0.87037   0.88301   52.931
 4420.00    0.87860   0.88691   52.104
 4421.00    0.88534   0.89050   52.774
 4422.00    0.88845   0.89304   53.726
 4423.00    0.88789   0.89479   54.278
 4424.00    0.88561   0.89623   54.956
 4425.00    0.88352   0.89688   55.769
 4426.00    0.88251   0.89636   55.818
 4427.00    0.88194   0.89527   55.116
 4428.00    0.88022   0.89435   54.798
 4429.00    0.87787   0.89332   55.256
 4430.00    0.87727   0.89128   55.885
 4431.00    0.87834   0.88879   56.307
 4432.00    0.87829   0.88667   56.656
 4433.00    0.87657   0.88456   56.833
 4434.00    0.87537   0.88230   56.469
 4435.00    0.87570   0.88067   55.734
 4436.00    0.87680   0.88092   55.267
 4437.00    0.87817   0.88322   55.266
 4438.00    0.87977   0.88631   55.453
 4439.00    0.88050   0.88887   55.666
 4440.00    0.87869   0.89002   55.962
 4441.00    0.87479   0.88936   56.359
 4442.00    0.87092   0.88726   56.767
 4443.00    0.86771   0.88487   57.009
 4444.00    0.86475   0.88381   56.920
 4445.00    0.86442   0.88479   56.577
 4446.00    0.87034   0.88677   56.197
 4447.00    0.88086   0.88872   55.742
 4448.00    0.89012   0.89091   55.114
 4449.00    0.89515   0.89291   54.810
 4450.00    0.89638   0.89334   55.488
 4451.00    0.89470   0.89194   56.656
 4452.00    0.89095   0.88918   57.045
 4453.00    0.88653   0.88508   56.660
 4454.00    0.88289   0.87952   56.509
 4455.00    0.88033   0.87328   56.739
 4456.00    0.87839   0.86810   56.735
 4457.00    0.87724   0.86455   56.190
 4458.00    0.87737   0.86181   55.331
 4459.00    0.87845   0.85971   54.809
 4460.00    0.87928   0.85873   55.182
 4461.00    0.87833   0.85879    0.000
 4462.00    0.87487   0.85972    0.000
 4463.00    0.87096   0.86162    0.000
 4464.00    0.86922   0.86343    0.000
 4465.00    0.86823   0.86398    0.000
 4466.00    0.86489   0.86308    0.000
 4467.00    0.85982   0.86105    0.000
 4468.00    0.85651   0.85816    0.000
 4469.00    0.85810   0.85466    0.000
 4470.00    0.86619   0.85137    0.000
 4471.00    0.87984   0.84968    0.000
 4472.00    0.89612   0.85155    0.000
 4473.00    0.91140   0.85757    0.000
 4474.00    0.92224   0.86562    0.000
 4475.00    0.92664   0.87330    0.000
 4476.00    0.92459   0.87973    0.000
 4477.00    0.91844   0.88483    0.000
 4478.00    0.91041   0.88754    0.000
 4479.00    0.89919   0.88634    0.000
 4480.00    0.88383   0.88157    0.000
 4481.00    0.86929   0.87604    0.000
 4482.00    0.86166   0.87306   53.647
 4483.00    0.86142   0.87361   53.980
 4484.00    0.86600   0.87622   53.942
 4485.00    0.87412   0.87965   53.783
 4486.00    0.88427   0.88345   53.723
 4487.00    0.89263   0.88677   53.537
 4488.00    0.89584   0.88823   53.126
 4489.00    0.89448   0.88743   53.120
 4490.00    0.89114   0.88566   53.908
 4491.00    0.88796   0.88426   54.589
 4492.00    0.88624   0.88350   54.325
 4493.00    0.88627   0.88298   54.013
 4494.00    0.88721   0.88249   54.662
 4495.00    0.88712   0.88285   55.737
 4496.00    0.88541   0.88444   56.147
 4497.00    0.88482   0.88694   55.560
 4498.00    0.88736   0.89002   54.389
 4499.00    0.89058   0.89326   53.386
 4500.00    0.89192   0.89633   53.096
 4501.00    0.89257   0.89929   53.544
 4502.00    0.89429   0.90303   54.259
 4503.00    0.89651   0.90774   54.344
 4504.00    0.89874   0.91204   53.640
 4505.00    0.90252   0.91491   53.462
 4506.00    0.90856   0.91643   54.523
 4507.00    0.91456   0.91691   55.518
 4508.00    0.91825   0.91646   55.311
 4509.00    0.91964   0.91522   54.870
 4510.00    0.91968   0.91337   55.015
 4511.00    0.91900   0.91081   54.900
 4512.00    0.91733   0.90749   54.144
 4513.00    0.91343   0.90380   54.083
 4514.00    0.90721   0.90010   55.433
 4515.00    0.90091   0.89676   56.923
 4516.00    0.89677   0.89427   57.314
 4517.00    0.89549   0.89234   57.109
 4518.00    0.89636   0.89064   57.025
 4519.00    0.89768   0.88946   56.925
 4520.00    0.89760   0.88869   56.613
 4521.00    0.89503   0.88768   56.293
 4522.00    0.89130   0.88519   56.091
 4523.00    0.89028   0.88124   55.819
 4524.00    0.89323   0.87689   55.228
 4525.00    0.89646   0.87197   54.273
 4526.00    0.89567   0.86630   53.589
 4527.00    0.88890   0.86040   54.352
 4528.00    0.87876   0.85492   56.499
 4529.00    0.87199   0.85055   57.928
 4530.00    0.87113   0.84776   57.588
 4531.00    0.87181   0.84666   57.179
 4532.00    0.87061   0.84712   57.785
 4533.00    0.86854   0.84815   58.605
 4534.00    0.86779   0.84949   58.734
 4535.00    0.86988   0.85211   58.108
 4536.00    0.87459   0.85634   57.201
 4537.00    0.88004   0.86141   56.642
 4538.00    0.88459   0.86552   56.660
 4539.00    0.88761   0.86778   56.983
 4540.00    0.88909   0.86864   57.178
 4541.00    0.88939   0.86883   56.913
 4542.00    0.88943   0.86917   56.445
 4543.00    0.89033   0.86932   56.471
 4544.00    0.89160   0.86826   56.975
 4545.00    0.89119   0.86645   57.151
 4546.00    0.88781   0.86520   56.872
 4547.00    0.88151   0.86445   56.889
 4548.00    0.87246   0.86259   57.380
 4549.00    0.86103   0.85896   57.759
 4550.00    0.85013   0.85567    0.000
 4551.00    0.84427   0.85420    0.000
 4552.00    0.84415   0.85317    0.000
 4553.00    0.84649   0.85190    0.000
 4554.00    0.84960   0.85136    0.000
 4555.00    0.85424   0.85268    0.000
 4556.00    0.86051   0.85621    0.000
 4557.00    0.86740   0.86100    0.000
 4558.00    0.87450   0.86588    0.000
 4559.00    0.88135   0.87036    0.000
 4560.00    0.88419   0.87449    0.000
 4561.00    0.87850   0.87805    0.000
 4562.00    0.86823   0.88017    0.000
 4563.00    0.86333   0.87996    0.000
 4564.00    0.86628   0.87841    0.000
 4565.00    0.87141   0.87723    0.000
 4566.00    0.87263   0.87698    0.000
 4567.00    0.86747   0.87727    0.000
 4568.00    0.86183   0.87770    0.000
 4569.00    0.86503   0.87850    0.000
 4570.00    0.87594   0.87937    0.000
 4571.00    0.88495   0.87931    0.000
 4572.00    0.88615   0.87898    0.000
 4573.00    0.88003   0.87955    0.000
 4574.00    0.87297   0.88008    0.000
 4575.00    0.87192   0.87947    0.000
 4576.00    0.87406   0.87823    0.000
 4577.00    0.87197   0.87718    0.000
 4578.00    0.86804   0.87570    0.000
 4579.00    0.86958   0.87241    0.000
 4580.00    0.87381   0.86790    0.000
 4581.00    0.87330   0.86383    0.000
 4582.00    0.87130   0.86058    0.000
 4583.00    0.87555   0.85775    0.000
 4584.00    0.88241   0.85586    0.000
 4585.00    0.88287   0.85571    0.000
 4586.00    0.87769   0.85689    0.000
 4587.00    0.87355   0.85860    0.000
 4588.00    0.87223   0.86045    0.000
 4589.00    0.87145   0.86225    0.000
 4590.00    0.86895   0.86331    0.000
 4591.00    0.86372   0.86305    0.000
 4592.00    0.85690   0.86219    0.000
 4593.00    0.85122   0.86165    0.000
 4594.00    0.85021   0.86129    0.000
 4595.00    0.85655   0.86051    0.000
 4596.00    0.87006   0.85978    0.000
 4597.00    0.88683   0.85997    0.000
 4598.00    0.89873   0.86097    0.000
 4599.00    0.89991   0.86186    0.000
 4600.00    0.89495   0.86199    0.000
 4601.00    0.89119   0.86203    0.000
 4602.00    0.88820   0.86287    0.000
 4603.00    0.88330   0.86424    0.000
 4604.00    0.87973   0.86570    0.000
 4605.00    0.88183   0.86719    0.000
 4606.00    0.88848   0.86932    0.000
 4607.00    0.89590   0.87237    0.000
 4608.00    0.90173   0.87570    0.000
 4609.00    0.90530   0.87852    0.000
 4610.00    0.90744   0.88028    0.000
 4611.00    0.90861   0.88119    0.000
 4612.00    0.90729   0.88148    0.000
 4613.00    0.90260   0.88102    0.000
 4614.00    0.89683   0.87998    0.000
 4615.00    0.89278   0.87857    0.000
 4616.00    0.89091   0.87691    0.000
 4617.00    0.88991   0.87554    0.000
 4618.00    0.88785   0.87433    0.000
 4619.00    0.88479   0.87320    0.000
 4620.00    0.88448   0.87298    0.000
 4621.00    0.88836   0.87378    0.000
 4622.00    0.89086   0.87489    0.000
 4623.00    0.88681   0.87589    0.000
 4624.00    0.87750   0.87665    0.000
 4625.00    0.86756   0.87696    0.000
 4626.00    0.86164   0.87672    0.000
 4627.00    0.86219   0.87615    0.000
 4628.00    0.86809   0.87489    0.000
 4629.00    0.87623   0.87262    0.000
 4630.00    0.88295   0.87044    0.000
 4631.00    0.88593   0.86937    0.000
 4632.00    0.88521   0.86837    0.000
 4633.00    0.88222   0.86625    0.000
 4634.00    0.87895   0.86382    0.000
 4635.00    0.87759   0.86224    0.000
 4636.00    0.87979   0.86102    0.000
 4637.00    0.88317   0.85907    0.000
 4638.00    0.88070   0.85676    0.000
 4639.00    0.87060   0.85518    0.000
 4640.00    0.86083   0.85429    0.000
 4641.00    0.85784   0.85348    0.000
 4642.00    0.86033   0.85221    0.000
 4643.00    0.86314   0.85036    0.000
 4644.00    0.86074   0.84802    0.000
 4645.00    0.85264   0.84488    0.000
 4646.00    0.84473   0.84059    0.000
 4647.00    0.84081   0.83606    0.000
 4648.00    0.83918   0.83291    0.000
 4649.00    0.83904   0.83157    0.000
 4650.00    0.84291   0.83147    0.000
 4651.00    0.85124   0.83263    0.000
 4652.00    0.86068   0.83551    0.000
 4653.00    0.86895   0.83944    0.000
 4654.00    0.87655   0.84295    0.000
 4655.00    0.88447   0.84610    0.000
 4656.00    0.89293   0.84950    0.000
 4657.00    0.90138   0.85303    0.000
 4658.00    0.90852   0.85653    0.000
 4659.00    0.91247   0.85963    0.000
 4660.00    0.91128   0.86166    0.000
 4661.00    0.90467   0.86178    0.000
 4662.00    0.89445   0.85972    0.000
 4663.00    0.88345   0.85586    0.000
 4664.00    0.87448   0.85077    0.000
 4665.00    0.86792   0.84472    0.000
 4666.00    0.86173   0.83781    0.000
 4667.00    0.85443   0.83134    0.000
 4668.00    0.84632   0.82736    0.000
 4669.00    0.83970   0.82639    0.000
 4670.00    0.83805   0.82752    0.000
 4671.00    0.84316   0.83016    0.000
 4672.00    0.85398   0.83396    0.000
 4673.00    0.86592   0.83824    0.000
 4674.00    0.87299   0.84231    0.000
 4675.00    0.87444   0.84571    0.000
 4676.00    0.87462   0.84807    0.000
 4677.00    0.87621   0.84885    0.000
 4678.00    0.87876   0.84812    0.000
 4679.00    0.88025   0.84671    0.000
 4680.00    0.87861   0.84503    0.000
 4681.00    0.87429   0.84278    0.000
 4682.00    0.86995   0.84033    0.000
 4683.00    0.86782   0.83855    0.000
 4684.00    0.86849   0.83714    0.000
 4685.00    0.87002   0.83556    0.000
 4686.00    0.86951   0.83468    0.000
 4687.00    0.86731   0.83521    0.000
 4688.00    0.86580   0.83642    0.000
 4689.00    0.86414   0.83764    0.000
 4690.00    0.85978   0.83911    0.000
 4691.00    0.85438   0.84103    0.000
 4692.00    0.85209   0.84324    0.000
 4693.00    0.85294   0.84520    0.000
 4694.00    0.85362   0.84635    0.000
 4695.00    0.85219   0.84679    0.000
 4696.00    0.84889   0.84669    0.000
 4697.00    0.84595   0.84542    0.000
 4698.00    0.84614   0.84232    0.000
 4699.00    0.85014   0.83840    0.000
 4700.00    0.85581   0.83510    0.000
 4701.00    0.85790   0.83208    0.000
 4702.00    0.85187   0.82855    0.000
 4703.00    0.84056   0.82547    0.000
 4704.00    0.83053   0.82417    0.000
 4705.00    0.82414   0.82417    0.000
 4706.00    0.82107   0.82414    0.000
 4707.00    0.82296   0.82399    0.000
 4708.00    0.83078   0.82412    0.000
 4709.00    0.83975   0.82454    0.000
 4710.00    0.84393   0.82523    0.000
 4711.00    0.84405   0.82633    0.000
 4712.00    0.84401   0.82705    0.000
 4713.00    0.84401   0.82741    0.000
 4714.00    0.84242   0.82866    0.000
 4715.00    0.83967   0.83165    0.000
 4716.00    0.83784   0.83548    0.000
 4717.00    0.83901   0.83936    0.000
 4718.00    0.84351   0.84341    0.000
 4719.00    0.84799   0.84800    0.000
 4720.00    0.84925   0.85247    0.000
 4721.00    0.84912   0.85570    0.000
 4722.00    0.85120   0.85722    0.000
 4723.00    0.85617   0.85744    0.000
 4724.00    0.86104   0.85682    0.000
 4725.00    0.85945   0.85510    0.000
 4726.00    0.84825   0.85174    0.000
 4727.00    0.83418   0.84686    0.000
 4728.00    0.82602   0.84187    0.000
 4729.00    0.82543   0.83778    0.000
 4730.00    0.82912   0.83431    0.000
 4731.00    0.83223   0.83143    0.000
 4732.00    0.83102   0.83002    0.000
 4733.00    0.82525   0.83036    0.000
 4734.00    0.81874   0.83179    0.000
 4735.00    0.81900   0.83355    0.000
 4736.00    0.82944   0.83490    0.000
 4737.00    0.84312   0.83614    0.000
 4738.00    0.85181   0.83811    0.000
 4739.00    0.85430   0.84011    0.000
 4740.00    0.85328   0.84102    0.000
 4741.00    0.85177   0.84157    0.000
 4742.00    0.85062   0.84305    0.000
 4743.00    0.84735   0.84485    0.000
 4744.00    0.84151   0.84578    0.000
 4745.00    0.83829   0.84622    0.000
 4746.00    0.84156   0.84723    0.000
 4747.00    0.84885   0.84828    0.000
 4748.00    0.85614   0.84833    0.000
 4749.00    0.86154   0.84779    0.000
 4750.00    0.86436   0.84726    0.000
 4751.00    0.86431   0.84614    0.000
 4752.00    0.86190   0.84404    0.000
 4753.00    0.85843   0.84171    0.000
 4754.00    0.85420   0.83957    0.000
 4755.00    0.84766   0.83755    0.000
 4756.00    0.83837   0.83573    0.000
 4757.00    0.82854   0.83434    0.000
 4758.00    0.82113   0.83322    0.000
 4759.00    0.81821   0.83219    0.000
 4760.00    0.81893   0.83090    0.000
 4761.00    0.81910   0.82868   33.806
 4762.00    0.81554   0.82551   34.038
 4763.00    0.80850   0.82240   34.366
 4764.00    0.80085   0.81975   34.618
 4765.00    0.79705   0.81736   34.921
 4766.00    0.80021   0.81576   35.220
 4767.00    0.81047   0.81578   35.145
 4768.00    0.82484   0.81725   34.742
 4769.00    0.83807   0.81967   34.613
 4770.00    0.84696   0.82260   34.872
 4771.00    0.85199   0.82535   34.897
 4772.00    0.85471   0.82784   34.496
 4773.00    0.85637   0.83073   34.236
 4774.00    0.85741   0.83370   34.380
 4775.00    0.85733   0.83561   34.592
 4776.00    0.85516   0.83665   34.565
 4777.00    0.85007   0.83792   34.307
 4778.00    0.84303   0.83882   34.074
 4779.00    0.83685   0.83808   34.198
 4780.00    0.83377   0.83646   34.625
 4781.00    0.83420   0.83507   34.893
 4782.00    0.83637   0.83303   34.828
 4783.00    0.83708   0.82996   34.701
 4784.00    0.83500   0.82743   34.665
 4785.00    0.83142   0.82567   34.649
 4786.00    0.82816   0.82354   34.734
 4787.00    0.82668   0.82174   35.119
 4788.00    0.82761   0.82141   35.505
 4789.00    0.83062   0.82184   35.235
 4790.00    0.83451   0.82275   34.624
 4791.00    0.83765   0.82477   34.706
 4792.00    0.83921   0.82754   35.459
 4793.00    0.83953   0.83045   35.834
 4794.00    0.83994   0.83338   35.650
 4795.00    0.84180   0.83571   35.712
 4796.00    0.84382   0.83676   36.053
 4797.00    0.84283   0.83680   35.954
 4798.00    0.83806   0.83608   35.498
 4799.00    0.83176   0.83446   35.458
 4800.00    0.82764   0.83239   35.906
 4801.00    0.82862   0.83069   36.246
 4802.00    0.83267   0.82952   36.212
 4803.00    0.83460   0.82833   36.009
 4804.00    0.83321   0.82685   35.856
 4805.00    0.83103   0.82548   35.853
 4806.00    0.82928   0.82463   35.971
 4807.00    0.82731   0.82372   36.125
 4808.00    0.82403   0.82245   36.353
 4809.00    0.81930   0.82162   36.729
 4810.00    0.81603   0.82173   37.083
 4811.00    0.81754   0.82218   37.153
 4812.00    0.82128   0.82265   37.089
 4813.00    0.82160   0.82359   37.269
 4814.00    0.81797   0.82505   37.721
 4815.00    0.81372   0.82654   38.176
 4816.00    0.81009   0.82782   38.430
 4817.00    0.80659   0.82897   38.446
 4818.00    0.80380   0.82967   38.384
 4819.00    0.80323   0.82927   38.456
 4820.00    0.80619   0.82779   38.675
 4821.00    0.81285   0.82584   38.873
 4822.00    0.82102   0.82318   38.826
 4823.00    0.82761   0.81921   38.414
 4824.00    0.83139   0.81522   37.822
 4825.00    0.83260   0.81285   37.360
 4826.00    0.83162   0.81141   37.154
 4827.00    0.82903   0.80961   37.188
 4828.00    0.82594   0.80794   37.383
 4829.00    0.82313   0.80743   37.605
 4830.00    0.81972   0.80758   37.655
 4831.00    0.81471   0.80696   37.488
 4832.00    0.80957   0.80549   37.474
 4833.00    0.80655   0.80466   37.877
 4834.00    0.80601   0.80452   38.132
 4835.00    0.80639   0.80354   37.658
 4836.00    0.80486   0.80168   37.108
 4837.00    0.80026   0.80029   37.219
 4838.00    0.79635   0.79883   37.432
 4839.00    0.79616   0.79609   37.012
 4840.00    0.79510   0.79296   36.607
 4841.00    0.78826   0.79072   37.025
 4842.00    0.77970   0.78856   37.796
 4843.00    0.77598   0.78553   38.064
 4844.00    0.77769   0.78260   37.936
 4845.00    0.78155   0.78038   37.886
 4846.00    0.78385   0.77777   37.860
 4847.00    0.78227   0.77371   37.698
 4848.00    0.77721   0.76860    0.000
 4849.00    0.76951   0.76337    0.000
 4850.00    0.75836   0.75753    0.000
 4851.00    0.74432   0.74963    0.000
 4852.00    0.73205   0.73971    0.000
 4853.00    0.72444   0.72875    0.000
 4854.00    0.71773   0.71569    0.000
 4855.00    0.71115   0.69915    0.000
 4856.00    0.71681   0.68016    0.000
 4857.00    0.76498   0.65990    0.000
 4858.00    0.90312   0.63842    0.000
 4859.00    1.15075   0.61686    0.000
 4860.00    1.46401   0.59697    0.000
 4861.00    1.76317   0.58116    0.000
 4862.00    1.96147   0.57300    0.000
 4863.00    1.99703   0.57342    0.000
 4864.00    1.85733   0.57986    0.000
 4865.00    1.58422   0.59200    0.000
 4866.00    1.26916   0.61015    0.000
 4867.00    0.99868   0.63067    0.000
 4868.00    0.81469   0.64966    0.000
 4869.00    0.71878   0.66695    0.000
 4870.00    0.68124   0.68189    0.000
 4871.00    0.67020   0.69320    0.000
 4872.00    0.67034   0.70260    0.000
 4873.00    0.67618   0.71201    0.000
 4874.00    0.68639   0.72034    0.000
 4875.00    0.70040   0.72742   37.483
 4876.00    0.71641   0.73515   37.907
 4877.00    0.73107   0.74340   37.729
 4878.00    0.74028   0.75055   37.508
 4879.00    0.74439   0.75689   37.636
 4880.00    0.74955   0.76234   37.792
 4881.00    0.75803   0.76568   37.631
 4882.00    0.76457   0.76742   37.180
 4883.00    0.76638   0.76873   36.717
 4884.00    0.76709   0.76877   36.589
 4885.00    0.76881   0.76716   36.768
 4886.00    0.76879   0.76543   36.798
 4887.00    0.76466   0.76435   36.560
 4888.00    0.75696   0.76369   36.504
 4889.00    0.74867   0.76369   36.837
 4890.00    0.74414   0.76441   37.252
 4891.00    0.74567   0.76622   37.473
 4892.00    0.75254   0.77048   37.513
 4893.00    0.76336   0.77673   37.517
 4894.00    0.77682   0.78303   37.628
 4895.00    0.79023   0.78913   37.783
 4896.00    0.79970   0.79549   37.711
 4897.00    0.80364   0.80106   37.335
 4898.00    0.80348   0.80454   36.869
 4899.00    0.80052   0.80559   36.579
 4900.00    0.79526   0.80500   36.645
 4901.00    0.78957   0.80449   36.972
 4902.00    0.78663   0.80386   37.220
 4903.00    0.78730   0.80210   37.207
 4904.00    0.78946   0.80060   37.036
 4905.00    0.79016   0.80079   36.930
 4906.00    0.78724   0.80085   37.074
 4907.00    0.78196   0.79953   37.347
 4908.00    0.77839   0.79815   37.411
 4909.00    0.77845   0.79711   37.362
 4910.00    0.78107   0.79533   37.637
 4911.00    0.78454   0.79349   38.058
 4912.00    0.78721   0.79268   37.961
 4913.00    0.78736   0.79205   37.591
 4914.00    0.78394   0.79068   37.882
 4915.00    0.77905   0.78913   38.744
 4916.00    0.77621   0.78673   39.121
 4917.00    0.77407   0.78195   38.784
 4918.00    0.76785   0.77504   38.459
 4919.00    0.75775   0.76747   38.448
 4920.00    0.74854   0.75990   38.551
 4921.00    0.74275   0.75320   38.700
 4922.00    0.73997   0.74950   38.957
 4923.00    0.73925   0.74906   39.127
 4924.00    0.73972   0.75121   38.912
 4925.00    0.74054   0.75646   38.538
 4926.00    0.74192   0.76506   38.496
 4927.00    0.74712   0.77389   38.726
 4928.00    0.75925   0.78162   38.791
 4929.00    0.77345   0.78864   38.635
 4930.00    0.78115   0.79399   38.505
 4931.00    0.78223   0.79660   38.428
 4932.00    0.78270   0.79701   38.315
 4933.00    0.78469   0.79502   38.362
 4934.00    0.78628   0.79139   38.780
 4935.00    0.78511   0.78826   39.110
 4936.00    0.78028   0.78543   38.710
 4937.00    0.77437   0.78198   37.997
 4938.00    0.77107   0.77937   37.830
 4939.00    0.77047   0.77918   38.244
 4940.00    0.77062   0.78094    0.000
 4941.00    0.77170   0.78345    0.000
 4942.00    0.77509   0.78607    0.000
 4943.00    0.78060   0.78978    0.000
 4944.00    0.78684   0.79457    0.000
 4945.00    0.79254   0.79842    0.000
 4946.00    0.79698   0.80077    0.000
 4947.00    0.80042   0.80327    0.000
 4948.00    0.80311   0.80554    0.000
 4949.00    0.80406   0.80621    0.000
 4950.00    0.80264   0.80599    0.000
 4951.00    0.80109   0.80576    0.000
 4952.00    0.80274   0.80437    0.000
 4953.00    0.80923   0.80100    0.000
 4954.00    0.82085   0.79683    0.000
 4955.00    0.83761   0.79305    0.000
 4956.00    0.86022   0.78879    0.000
 4957.00    0.89066   0.78346    0.000
 4958.00    0.92809   0.78006    0.000
 4959.00    0.96395   0.78032    0.000
 4960.00    0.98640   0.78140    0.000
 4961.00    0.98658   0.78180    0.000
 4962.00    0.96229   0.78368    0.000
 4963.00    0.92103   0.78700    0.000
 4964.00    0.87496   0.78874    0.000
 4965.00    0.83478   0.78822    0.000
 4966.00    0.80661   0.78735    0.000
 4967.00    0.78965   0.78681    0.000
 4968.00    0.77970   0.78587    0.000
 4969.00    0.77304   0.78491    0.000
 4970.00    0.76840   0.78494    0.000
 4971.00    0.76793   0.78608    0.000
 4972.00    0.77264   0.78764    0.000
 4973.00    0.77847   0.78920    0.000
 4974.00    0.78101   0.79050    0.000
 4975.00    0.78001   0.79105    0.000
 4976.00    0.77719   0.79040    0.000
 4977.00    0.77398   0.78831    0.000
 4978.00    0.77064   0.78442    0.000
 4979.00    0.76593   0.77909    0.000
 4980.00    0.75943   0.77333    0.000
 4981.00    0.75329   0.76717    0.000
 4982.00    0.75066   0.76056    0.000
 4983.00    0.75397   0.75540    0.000
 4984.00    0.76203   0.75294    0.000
 4985.00    0.76872   0.75213    0.000
 4986.00    0.76929   0.75273    0.000
 4987.00    0.76468   0.75552    0.000
 4988.00    0.75906   0.75950    0.000
 4989.00    0.75724   0.76319    0.000
 4990.00    0.76062   0.76627    0.000
 4991.00    0.76532   0.76889    0.000
 4992.00    0.76798   0.77106    0.000
 4993.00    0.76888   0.77212    0.000
 4994.00    0.76854   0.77221    0.000
 4995.00    0.76589   0.77235    0.000
 4996.00    0.76152   0.77213    0.000
 4997.00    0.75886   0.77056    0.000
 4998.00    0.75940   0.76814    0.000
 4999.00    0.76059   0.76522    0.000
 5000.00    0.76009   0.76140    0.000
 5001.00    0.75958   0.75700    0.000
 5002.00    0.77218   0.75267    0.000
 5003.00    0.82221   0.74903    0.000
 5004.00    0.92421   0.74613    0.000
 5005.00    1.07120   0.74369    0.000
 5006.00    1.23118   0.74195    0.000
 5007.00    1.35311   0.74187    0.000
 5008.00    1.40152   0.74265    0.000
 5009.00    1.37074   0.74268    0.000
 5010.00    1.27377   0.74204    0.000
 5011.00    1.13594   0.74124    0.000
 5012.00    0.99137   0.73946    0.000
 5013.00    0.87584   0.73654    0.000
 5014.00    0.80463   0.73294    0.000
 5015.00    0.76815   0.72937    0.000
 5016.00    0.75250   0.72711    0.000
 5017.00    0.74778   0.72593    0.000
 5018.00    0.74706   0.72516    0.000
 5019.00    0.74613   0.72613    0.000
 5020.00    0.74444   0.72942    0.000
 5021.00    0.74420   0.73276    0.000
 5022.00    0.74613   0.73568    0.000
 5023.00    0.74844   0.73963    0.000
 5024.00    0.74915   0.74390    0.000
 5025.00    0.74760   0.74711    0.000
 5026.00    0.74678   0.74983    0.000
 5027.00    0.75151   0.75217    0.000
 5028.00    0.76065   0.75433    0.000
 5029.00    0.76752   0.75687   42.160
 5030.00    0.76909   0.75902   42.083
 5031.00    0.76732   0.76028   42.547
 5032.00    0.76474   0.76143   43.157
 5033.00    0.76253   0.76246   43.092
 5034.00    0.75929   0.76194   42.597
 5035.00    0.75264   0.75930   42.689
 5036.00    0.74470   0.75565   43.363
 5037.00    0.74062   0.75180   43.706
 5038.00    0.74108   0.74706   43.545
 5039.00    0.74257   0.74198   43.465
 5040.00    0.74321   0.73786   43.538
 5041.00    0.74360   0.73518   43.372
 5042.00    0.74532   0.73495   42.973
 5043.00    0.74934   0.73709   42.693
 5044.00    0.75348   0.73963   42.640
 5045.00    0.75407   0.74278   42.666
 5046.00    0.75087   0.74708   42.580
 5047.00    0.74656   0.75019   42.326
 5048.00    0.74327   0.75091   42.211
 5049.00    0.74172   0.75122   42.557
 5050.00    0.74121   0.75168   42.939
 5051.00    0.74075   0.75117   42.642
 5052.00    0.74120   0.75072   41.986
 5053.00    0.74442   0.75189   41.812
 5054.00    0.75066   0.75428   42.191
 5055.00    0.75856   0.75666   42.600
 5056.00    0.76598   0.75932   42.592
 5057.00    0.77064   0.76270   42.103
 5058.00    0.77096   0.76601   41.654
 5059.00    0.76706   0.76818   41.749
 5060.00    0.76202   0.76947   41.996
 5061.00    0.75942   0.77000   41.751
 5062.00    0.75910   0.76942   41.442
 5063.00    0.75899   0.76765   41.754
 5064.00    0.75895   0.76442   42.175
 5065.00    0.75921   0.76054   41.847
 5066.00    0.75743   0.75750   41.282
 5067.00    0.75132   0.75466   41.379
 5068.00    0.74305   0.75122   41.818
 5069.00    0.73726   0.74889   41.780
 5070.00    0.73728   0.74849   41.287
 5071.00    0.74376   0.74765   40.821
 5072.00    0.75349   0.74588   40.540
 5073.00    0.76161   0.74536   40.414
 5074.00    0.76466   0.74535   40.488
 5075.00    0.76182   0.74358   40.748
 5076.00    0.75577   0.74104   40.924
 5077.00    0.74992   0.73946   40.838
 5078.00    0.74500   0.73749   40.827
 5079.00    0.74018   0.73390   41.249
 5080.00    0.73493   0.73096   41.883
 5081.00    0.72968   0.73010   42.276
 5082.00    0.72633   0.72981   42.277
 5083.00    0.72632   0.72954   42.031
 5084.00    0.72870   0.73107   41.849
 5085.00    0.73205   0.73448   41.920
 5086.00    0.73637   0.73779   42.084
 5087.00    0.74157   0.74062   42.146
 5088.00    0.74590   0.74402   42.201
 5089.00    0.74810   0.74763   42.365
 5090.00    0.74935   0.75013   42.512
 5091.00    0.75177   0.75173   42.538
 5092.00    0.75659   0.75317   42.607
 5093.00    0.76282   0.75384   42.739
 5094.00    0.76656   0.75297   42.536
 5095.00    0.76478   0.75098   42.226
 5096.00    0.75830   0.74826   43.209
 5097.00    0.75009   0.74494   45.076
 5098.00    0.74335   0.74133   43.435
 5099.00    0.73973   0.73794   40.092
 5100.00    0.73835   0.73569   45.430
 5101.00    0.73853   0.73477   60.905
 5102.00    0.74150   0.73451   39.476
 5103.00    0.74687   0.73463   18.679
 5104.00    0.75061   0.73516   12.908
 5105.00    0.74973   0.73585   12.467
 5106.00    0.74542   0.73594   13.580
 5107.00    0.74107   0.73521   13.883
 5108.00    0.74020   0.73484   13.423
 5109.00    0.74301   0.73496   13.206
 5110.00    0.74512   0.73480   13.524
 5111.00    0.74362   0.73553   13.897
 5112.00    0.74031   0.73759   13.260
 5113.00    0.73787   0.73974   12.484
 5114.00    0.73734   0.74210   14.499
 5115.00    0.73897   0.74484   24.705
 5116.00    0.74254   0.74706   52.460
 5117.00    0.74687   0.74845   55.068
 5118.00    0.74976   0.74898   41.748
 5119.00    0.74967   0.74816   41.347
 5120.00    0.74653   0.74588   45.711
 5121.00    0.74127   0.74261   46.715
 5122.00    0.73536   0.73858   45.947
 5123.00    0.72987   0.73376   46.535
 5124.00    0.72522   0.72896   47.624
 5125.00    0.72203   0.72502   47.939
 5126.00    0.72130   0.72177   47.608
 5127.00    0.72317   0.71929   47.219
 5128.00    0.72641   0.71817   47.133
 5129.00    0.72880   0.71810   47.072
 5130.00    0.72797   0.71862   46.300
 5131.00    0.72414   0.72008   45.056
 5132.00    0.72051   0.72197   44.495
 5133.00    0.72020   0.72330   44.765
 5134.00    0.72439   0.72455   44.829
 5135.00    0.73065   0.72590   44.305
 5136.00    0.73364   0.72575   43.895
 5137.00    0.73044   0.72477   44.062
 5138.00    0.72211   0.72394   44.688
 5139.00    0.71196   0.72190   45.460
 5140.00    0.70399   0.71988   45.986
 5141.00    0.70029   0.71895   45.822
 5142.00    0.70062   0.71710   44.826
 5143.00    0.70427   0.71538   43.998
 5144.00    0.71033   0.71550   44.540
 5145.00    0.71634   0.71525   44.720
 5146.00    0.71891   0.71424   41.918
 5147.00    0.71725   0.71424   41.394
 5148.00    0.71329   0.71448   51.536
 5149.00    0.70883   0.71429   55.714
 5150.00    0.70430   0.71408   29.095
 5151.00    0.69795   0.71397   16.363
 5152.00    0.68762   0.71433   13.520
 5153.00    0.67626   0.71503   14.321
 5154.00    0.67040   0.71588   15.237
 5155.00    0.67222   0.71753   14.930
 5156.00    0.67926   0.71993   14.858
 5157.00    0.68906   0.72246   14.790
 5158.00    0.70013   0.72475   13.602
 5159.00    0.71083   0.72618   13.240
 5160.00    0.71977   0.72678   17.296
 5161.00    0.72700   0.72578   33.457
 5162.00    0.73253   0.72213   59.194
 5163.00    0.73233   0.71665   48.396
 5164.00    0.72115   0.70963   40.939
 5165.00    0.70059   0.70048   43.848
 5166.00    0.67794   0.69037   46.601
 5167.00    0.66002   0.68065   45.162
 5168.00    0.65073   0.67150   44.548
 5169.00    0.64901   0.66393   45.878
 5170.00    0.65091   0.65966   46.816
 5171.00    0.65453   0.65787   46.607
 5172.00    0.65997   0.65758   46.290
 5173.00    0.66723   0.66063   46.317
 5174.00    0.67599   0.66713   46.428
 5175.00    0.68579   0.67404   46.215
 5176.00    0.69605   0.68051   45.524
 5177.00    0.70605   0.68757   44.881
 5178.00    0.71476   0.69361   44.911
 5179.00    0.72062   0.69622   45.463
 5180.00    0.72193   0.69593   45.968
 5181.00    0.71759   0.69451   46.232
 5182.00    0.70798   0.69158   46.406
 5183.00    0.69601   0.68666   46.660
 5184.00    0.68596   0.68280   47.039
 5185.00    0.68159   0.68180   47.335
 5186.00    0.68449   0.68206   47.275
 5187.00    0.69238   0.68357   46.853
 5188.00    0.70079   0.68640   46.343
 5189.00    0.70592   0.68988   46.195
 5190.00    0.70614   0.69360    0.000
 5191.00    0.70341   0.69562    0.000
 5192.00    0.70078   0.69600    0.000
 5193.00    0.69902   0.69738    0.000
 5194.00    0.69779   0.69868    0.000
 5195.00    0.69756   0.69844    0.000
 5196.00    0.69963   0.69944    0.000
 5197.00    0.70570   0.70197    0.000
 5198.00    0.71626   0.70366    0.000
 5199.00    0.72885   0.70513    0.000
 5200.00    0.73985   0.70690    0.000
 5201.00    0.74648   0.70720    0.000
 5202.00    0.74699   0.70572    0.000
 5203.00    0.74067   0.70379    0.000
 5204.00    0.72900   0.70066    0.000
 5205.00    0.71654   0.69593    0.000
 5206.00    0.70750   0.69214    0.000
 5207.00    0.70245   0.68989    0.000
 5208.00    0.70001   0.68767    0.000
 5209.00    0.69889   0.68734    0.000
 5210.00    0.69868   0.68994    0.000
 5211.00    0.70025   0.69314   44.303
 5212.00    0.70395   0.69672   44.402
 5213.00    0.70818   0.70145   44.671
 5214.00    0.71080   0.70591   44.961
 5215.00    0.71056   0.70917   45.038
 5216.00    0.70838   0.71211   44.976
 5217.00    0.70773   0.71484   45.361
 5218.00    0.71129   0.71696   46.312
 5219.00    0.71827   0.71856   46.794
 5220.00    0.72547   0.71951   46.265
 5221.00    0.72871   0.71965   45.870
 5222.00    0.72574   0.71864   46.372
 5223.00    0.71812   0.71579   46.952
 5224.00    0.70856   0.71169   46.859
 5225.00    0.69913   0.70755   46.596
 5226.00    0.69132   0.70272   46.691
 5227.00    0.68631   0.69805   46.918
 5228.00    0.68518   0.69619   46.947
 5229.00    0.68871   0.69570   46.771
 5230.00    0.69550   0.69543   46.501
 5231.00    0.70141   0.69747   46.225
 5232.00    0.70398   0.70038   46.073
 5233.00    0.70467   0.70241   46.225
 5234.00    0.70609   0.70507   46.682
 5235.00    0.70998   0.70820   47.177
 5236.00    0.71579   0.71097   47.500
 5237.00    0.72055   0.71398   47.684
 5238.00    0.72226   0.71743   47.825
 5239.00    0.72155   0.72063   47.964
 5240.00    0.72050   0.72338   48.056
 5241.00    0.72144   0.72598   47.980
 5242.00    0.72420   0.72777   47.641
 5243.00    0.72578   0.72810   47.075
 5244.00    0.72498   0.72789   46.651
 5245.00    0.72376   0.72740   46.915
 5246.00    0.72303   0.72536   47.588
 5247.00    0.72121   0.72233   47.489
 5248.00    0.71702   0.72014   46.659
 5249.00    0.71075   0.71795   46.623
 5250.00    0.70441   0.71504   47.752
 5251.00    0.70097   0.71327   48.725
 5252.00    0.70152   0.71286   48.727
 5253.00    0.70457   0.71278   48.322
 5254.00    0.70792   0.71320   47.939
 5255.00    0.70991   0.71431   47.459
 5256.00    0.71104   0.71589   46.984
 5257.00    0.71350   0.71709   46.895
 5258.00    0.71769   0.71710   47.094
 5259.00    0.72156   0.71594   47.002
 5260.00    0.72291   0.71323   46.518
 5261.00    0.72038   0.70846   46.105
 5262.00    0.71363   0.70181   46.001
 5263.00    0.70349   0.69393   46.073
 5264.00    0.69195   0.68606   46.118
 5265.00    0.68152   0.67828   46.012
 5266.00    0.67333   0.67058   45.869
 5267.00    0.66706   0.66535   45.927
 5268.00    0.66257   0.66276   46.120
 5269.00    0.66031   0.66021   46.143
 5270.00    0.66123   0.65964   46.043
 5271.00    0.66602   0.66283   46.151
 5272.00    0.67341   0.66610   46.447
 5273.00    0.68066   0.66942   46.578
 5274.00    0.68613   0.67551   46.404
 5275.00    0.68971   0.68158   46.066
 5276.00    0.69231   0.68646   45.762
 5277.00    0.69512   0.69233   45.643
 5278.00    0.69835   0.69762   45.734
 5279.00    0.70136   0.70112   45.943
 5280.00    0.70363   0.70409   46.133
 5281.00    0.70522   0.70638   46.224
 5282.00    0.70712   0.70803   46.404
 5283.00    0.71085   0.70947   46.856
 5284.00    0.71732   0.71096   47.057
 5285.00    0.72602   0.71355   46.367
 5286.00    0.73404   0.71699   45.564
 5287.00    0.73789   0.72039   45.835
 5288.00    0.73760   0.72409   46.634
 5289.00    0.73576   0.72779   46.537
 5290.00    0.73399   0.73039   45.911
 5291.00    0.73257   0.73172   46.080
 5292.00    0.73085   0.73184   46.913
 5293.00    0.72796   0.73041   47.350
 5294.00    0.72371   0.72763   47.188
 5295.00    0.71842   0.72398   46.977
 5296.00    0.71239   0.71988   47.079
 5297.00    0.70622   0.71552   47.470
 5298.00    0.70152   0.71156   47.669
 5299.00    0.70014   0.70911   47.239
 5300.00    0.70261   0.70799   46.586
 5301.00    0.70799   0.70780   46.231
 5302.00    0.71396   0.70926   45.709
 5303.00    0.71810   0.71209   44.577
 5304.00    0.71961   0.71521   43.815
 5305.00    0.71922   0.71851   44.310
 5306.00    0.71840   0.72192   44.929
 5307.00    0.71827   0.72477   44.142
 5308.00    0.71824   0.72701   42.859
 5309.00    0.71729   0.72876   42.532
 5310.00    0.71585   0.72954   42.820
 5311.00    0.71479   0.72966   42.793
 5312.00    0.71393   0.72935   42.589
 5313.00    0.71255   0.72789   42.817
 5314.00    0.71018   0.72603   43.592
 5315.00    0.70703   0.72438   44.574
 5316.00    0.70413   0.72191   45.130
 5317.00    0.70232   0.71942   44.941
 5318.00    0.70116   0.71788   44.653
 5319.00    0.70008   0.71606   44.877
 5320.00    0.69974   0.71383   45.195
 5321.00    0.70049   0.71168   45.089
 5322.00    0.70075   0.70918   44.990
 5323.00    0.69893   0.70586   45.323
 5324.00    0.69540   0.70128   45.529
 5325.00    0.69085   0.69618   45.114
 5326.00    0.68479   0.69188   44.692
 5327.00    0.67768   0.68747   44.815
 5328.00    0.67286   0.68323   44.987
 5329.00    0.67317   0.68168   44.703
 5330.00    0.67810   0.68231   44.384
 5331.00    0.68532   0.68370   44.475
 5332.00    0.69241   0.68688   44.709
 5333.00    0.69794   0.69136   44.680
 5334.00    0.70212   0.69557   44.377
 5335.00    0.70512   0.69930   43.983
 5336.00    0.70586   0.70195   43.677
 5337.00    0.70370   0.70316   43.643
 5338.00    0.69972   0.70377   44.069
 5339.00    0.69621   0.70355   44.862
 5340.00    0.69579   0.70223   45.466
 5341.00    0.69946   0.70157   45.534
 5342.00    0.70533   0.70152   45.437
 5343.00    0.71058   0.70107   45.571
 5344.00    0.71297   0.70156   45.898
 5345.00    0.71192   0.70257   46.252
 5346.00    0.70892   0.70304   46.572
 5347.00    0.70620   0.70422   46.880
 5348.00    0.70555   0.70570   47.251
 5349.00    0.70696   0.70673   47.709
 5350.00    0.70822   0.70862   48.178
 5351.00    0.70791   0.71145   48.543
 5352.00    0.70691   0.71427   48.703
 5353.00    0.70749   0.71735   48.602
 5354.00    0.71217   0.72112   48.273
 5355.00    0.72165   0.72466   47.932
 5356.00    0.73378   0.72726   47.941
 5357.00    0.74445   0.72940   48.382
 5358.00    0.74888   0.73067   48.929
 5359.00    0.74531   0.73034   49.335
 5360.00    0.73632   0.72908   49.655
 5361.00    0.72609   0.72681   49.912
 5362.00    0.71847   0.72320   49.975
 5363.00    0.71447   0.71936   49.830
 5364.00    0.71170   0.71513   49.641
 5365.00    0.70761   0.71033   49.387
 5366.00    0.70095   0.70613   48.867
 5367.00    0.69220   0.70205   48.340
 5368.00    0.68351   0.69803   48.475
 5369.00    0.67801   0.69527   49.185
 5370.00    0.67866   0.69324   49.462
 5371.00    0.68532   0.69190   48.897
 5372.00    0.69448   0.69255   48.098
 5373.00    0.70299   0.69452   47.495
 5374.00    0.70950   0.69696   47.072
 5375.00    0.71399   0.70066   46.888
 5376.00    0.71726   0.70471   47.104
 5377.00    0.71968   0.70767   47.407
 5378.00    0.72099   0.71031   47.140
 5379.00    0.72123   0.71228   46.541
 5380.00    0.72081   0.71256   46.571
 5381.00    0.71993   0.71248   47.222
 5382.00    0.71848   0.71238   47.505
 5383.00    0.71622   0.71128   47.216
 5384.00    0.71311   0.71042   47.101
 5385.00    0.71009   0.71019   47.343
 5386.00    0.70872   0.70923   47.473
 5387.00    0.70944   0.70813   47.385
 5388.00    0.71135   0.70731   47.386
 5389.00    0.71301   0.70566   47.425
 5390.00    0.71297   0.70330   47.152
 5391.00    0.71044   0.70094   46.655
 5392.00    0.70559   0.69839   46.381
 5393.00    0.69963   0.69527   46.471
 5394.00    0.69420   0.69217   46.783
 5395.00    0.68979   0.68994   47.295
 5396.00    0.68607   0.68773   48.045
 5397.00    0.68364   0.68522   48.697
 5398.00    0.68343   0.68408   48.788
 5399.00    0.68415   0.68349   48.655
 5400.00    0.68351   0.68189   49.043
 5401.00    0.68196   0.68077   49.796
 5402.00    0.68155   0.68004   50.103
 5403.00    0.68165   0.67792   49.820
 5404.00    0.67982   0.67541   49.457
 5405.00    0.67550   0.67337   49.415
 5406.00    0.66996   0.67093   49.814
 5407.00    0.66489   0.66879   50.446
 5408.00    0.66205   0.66787   -2.000
 5409.00    0.66336   0.66767   -2.000
 5410.00    0.66903   0.66834   -2.000
 5411.00    0.67451   0.67041   -2.000
 5412.00    0.67412   0.67329   -2.000
 5413.00    0.66831   0.67675   -2.000
 5414.00    0.66191   0.68079   -2.000
 5415.00    0.65917   0.68490   -2.000
 5416.00    0.66239   0.68904   -2.000
 5417.00    0.67137   0.69258   -2.000
 5418.00    0.68327   0.69515   -2.000
 5419.00    0.69293   0.69745   -2.000
 5420.00    0.69598   0.69866   -2.000
 5421.00    0.69343   0.69859   -2.000
 5422.00    0.68922   0.69868   -2.000
 5423.00    0.68580   0.69806   47.958
 5424.00    0.68381   0.69655   48.020
 5425.00    0.68272   0.69574   47.998
 5426.00    0.68196   0.69441   48.134
 5427.00    0.68218   0.69250   48.181
 5428.00    0.68386   0.69130   47.912
 5429.00    0.68526   0.68913   47.830
 5430.00    0.68433   0.68678   48.351
 5431.00    0.68132   0.68560   48.781
 5432.00    0.67770   0.68366   48.388
 5433.00    0.67461   0.68227   47.887
 5434.00    0.67293   0.68278   48.089
 5435.00    0.67356   0.68351   48.391
 5436.00    0.67642   0.68513   48.003
 5437.00    0.67962   0.68825   47.472
 5438.00    0.68180   0.69171   47.561
 5439.00    0.68447   0.69523   48.046
 5440.00    0.68905   0.69854   48.337
 5441.00    0.69371   0.70093   48.248
 5442.00    0.69525   0.70214   48.029
 5443.00    0.69150   0.70193   48.207
 5444.00    0.68286   0.70036   48.963
 5445.00    0.67338   0.69817   49.597
 5446.00    0.66761   0.69536   49.564
 5447.00    0.66759   0.69246   49.499
 5448.00    0.67242   0.69069   49.966
 5449.00    0.67845   0.68928   50.381
 5450.00    0.68264   0.68824   50.155
 5451.00    0.68515   0.68827   49.740
 5452.00    0.68702   0.68797   49.720
 5453.00    0.68811   0.68742   50.077
 5454.00    0.68809   0.68722   50.573
 5455.00    0.68723   0.68633   51.072
 5456.00    0.68589   0.68564   51.502
 5457.00    0.68406   0.68575   51.817
 5458.00    0.68198   0.68565   51.973
 5459.00    0.68049   0.68584   51.935
 5460.00    0.68019   0.68647   51.845
 5461.00    0.68091   0.68695   52.039
 5462.00    0.68231   0.68716   52.444
 5463.00    0.68420   0.68690   52.306
 5464.00    0.68602   0.68703   51.467
 5465.00    0.68671   0.68735   50.915
 5466.00    0.68636   0.68694   51.172
 5467.00    0.68674   0.68710   51.589
 5468.00    0.68856   0.68778   51.554
 5469.00    0.69021   0.68745   51.200
 5470.00    0.69065   0.68657   50.757
 5471.00    0.69078   0.68585   50.214
 5472.00    0.69105   0.68434   49.731
 5473.00    0.69031   0.68141   49.727
 5474.00    0.68743   0.67869   50.208
 5475.00    0.68215   0.67654   50.555
 5476.00    0.67554   0.67339   50.424
 5477.00    0.66990   0.67093   50.137
 5478.00    0.66758   0.67039   49.959
 5479.00    0.67010   0.66986   49.808
 5480.00    0.67716   0.66989   49.675
 5481.00    0.68636   0.67149   49.741
 5482.00    0.69450   0.67358   50.010
 5483.00    0.69883   0.67553   50.199
 5484.00    0.69933   0.67753   50.091
 5485.00    0.69890   0.67988   49.698
 5486.00    0.69922   0.68178   49.224
 5487.00    0.69953   0.68265   48.967
 5488.00    0.69875   0.68375   49.087
 5489.00    0.69653   0.68480   49.536
 5490.00    0.69362   0.68468   50.078
 5491.00    0.69156   0.68483   50.375
 5492.00    0.69094   0.68548   50.370
 5493.00    0.69114   0.68513   50.328
 5494.00    0.69197   0.68476   50.391
 5495.00    0.69377   0.68503   50.463
 5496.00    0.69573   0.68463   50.391
 5497.00    0.69583   0.68372   50.124
 5498.00    0.69283   0.68329   49.992
 5499.00    0.68697   0.68279   50.504
 5500.00    0.68035   0.68146   51.453
 5501.00    0.67591   0.68024   51.973
 5502.00    0.67414   0.67942   51.946
 5503.00    0.67297   0.67793   52.087
 5504.00    0.67057   0.67644   52.570
 5505.00    0.66640   0.67561   52.934
 5506.00    0.66153   0.67432   53.083
 5507.00    0.65828   0.67329   53.303
 5508.00    0.65876   0.67302   53.388
 5509.00    0.66382   0.67208   52.844
 5510.00    0.67149   0.67156   52.065
 5511.00    0.67810   0.67184   51.944
 5512.00    0.68220   0.67149   52.387
 5513.00    0.68442   0.67168   52.497
 5514.00    0.68454   0.67281   51.923
 5515.00    0.68205   0.67388   51.018
 5516.00    0.67895   0.67551   50.226
 5517.00    0.67878   0.67769   49.823
 5518.00    0.68267   0.67994   49.712
 5519.00    0.68923   0.68204   -2.000
 5520.00    0.69620   0.68370   -2.000
 5521.00    0.70183   0.68492   -2.000
 5522.00    0.70664   0.68524   -2.000
 5523.00    0.71177   0.68466   -2.000
 5524.00    0.71478   0.68349   -2.000
 5525.00    0.70705   0.68147   -2.000
 5526.00    0.67091   0.67927   -2.000
 5527.00    0.59064   0.67722   -2.000
 5528.00    0.47383   0.67492   -2.000
 5529.00    0.35252   0.67349   -2.000
 5530.00    0.27670   0.67301   -2.000
 5531.00    0.28712   0.67245   -2.000
 5532.00    0.37183   0.67265   -2.000
 5533.00    0.48464   0.67382   -2.000
 5534.00    0.58845   0.67460   -2.000
 5535.00    0.66232   0.67527   -2.000
 5536.00    0.70072   0.67674   -2.000
 5537.00    0.71035   0.67796   -2.000
 5538.00    0.70515   0.67870   -2.000
 5539.00    0.69932   0.68006   -2.000
 5540.00    0.69827   0.68122   -2.000
 5541.00    0.70053   0.68180   -2.000
 5542.00    0.70244   0.68250   -2.000
 5543.00    0.70098   0.68282   51.146
 5544.00    0.69654   0.68302   51.388
 5545.00    0.69181   0.68339   52.592
 5546.00    0.68955   0.68342   53.744
 5547.00    0.69110   0.68390   53.629
 5548.00    0.69504   0.68480   52.969
 5549.00    0.69869   0.68525   52.918
 5550.00    0.70029   0.68581   53.081
 5551.00    0.69963   0.68645   52.739
 5552.00    0.69848   0.68642   52.446
 5553.00    0.69865   0.68609   52.810
 5554.00    0.69993   0.68553   53.064
 5555.00    0.70093   0.68464   52.382
 5556.00    0.70044   0.68375   51.462
 5557.00    0.69835   0.68259   51.157
 5558.00    0.69639   0.68147   51.146
 5559.00    0.69625   0.68060   50.835
 5560.00    0.69765   0.67928   50.304
 5561.00    0.69893   0.67799   50.017
 5562.00    0.69795   0.67677   50.416
 5563.00    0.69354   0.67507   51.462
 5564.00    0.68672   0.67366   52.214
 5565.00    0.67984   0.67226   51.984
 5566.00    0.67547   0.67054   51.505
 5567.00    0.67476   0.66950   51.471
 5568.00    0.67629   0.66882   51.398
 5569.00    0.67850   0.66773   50.959
 5570.00    0.68159   0.66726   50.947
 5571.00    0.68523   0.66775   51.541
 5572.00    0.68699   0.66754   51.190
 5573.00    0.68531   0.66748   49.738
 5574.00    0.68169   0.66898   49.944
 5575.00    0.67865   0.66963   51.791
 5576.00    0.67784   0.66980   49.556
 5577.00    0.67877   0.67148   45.588
 5578.00    0.67856   0.67236   52.662
 5579.00    0.67581   0.67220   69.195
 5580.00    0.67288   0.67279   44.129
 5581.00    0.67229   0.67237   20.491
 5582.00    0.67425   0.67074   14.257
 5583.00    0.67759   0.66914   13.827
 5584.00    0.68052   0.66651   14.905
 5585.00    0.68157   0.66305   15.023
 5586.00    0.68005   0.65958   14.626
 5587.00    0.67586   0.65595   14.674
 5588.00    0.66938   0.65268   14.971
 5589.00    0.66204   0.64998   15.151
 5590.00    0.65618   0.64821   15.227
 5591.00    0.65300   0.64756   15.297
 5592.00    0.65164   0.64763   15.351
 5593.00    0.65120   0.64869   15.363
 5594.00    0.65159   0.65010   15.344
 5595.00    0.65290   0.65139   15.311
 5596.00    0.65489   0.65314   15.273
 5597.00    0.65691   0.65420   15.232
 5598.00    0.65804   0.65444   15.189
 5599.00    0.65837   0.65526   15.167
 5600.00    0.65916   0.65560   15.193
 5601.00    0.66092   0.65547   15.190
 5602.00    0.66290   0.65636   15.022
 5603.00    0.66457   0.65781   14.887
 5604.00    0.66625   0.65983   15.194
 5605.00    0.66855   0.66253   15.409
 5606.00    0.67190   0.66555   14.377
 5607.00    0.67558   0.66887   13.665
 5608.00    0.67789   0.67179   16.870
 5609.00    0.67845   0.67387   31.980
 5610.00    0.67854   0.67514   69.195
 5611.00    0.67900   0.67534   64.002
 5612.00    0.67958   0.67425   47.998
 5613.00    0.67949   0.67243   48.651
 5614.00    0.67794   0.67001   53.176
 5615.00    0.67508   0.66676   52.774
 5616.00    0.67219   0.66405   50.112
 5617.00    0.67099   0.66207   48.524
 5618.00    0.67289   0.65985   48.116
 5619.00    0.67732   0.65865   48.104
 5620.00    0.68182   0.65857   47.722
 5621.00    0.68420   0.65830   47.402
 5622.00    0.68315   0.65830   48.339
 5623.00    0.67833   0.65865   50.373
 5624.00    0.67057   0.65866   51.814
 5625.00    0.66257   0.65896   51.802
 5626.00    0.65784   0.65981   51.092
 5627.00    0.65746   0.66045   50.730
 5628.00    0.65989   0.66143   51.338
 5629.00    0.66291   0.66320   52.453
 5630.00    0.66468   0.66467   52.839
 5631.00    0.66500   0.66574   52.159
 5632.00    0.66463   0.66679   51.062
 5633.00    0.66297   0.66712   49.965
 5634.00    0.65871   0.66671   48.956
 5635.00    0.65269   0.66591   48.214
 5636.00    0.64753   0.66464   47.910
 5637.00    0.64540   0.66301   47.848
 5638.00    0.64713   0.66144   47.636
 5639.00    0.65144   0.66019   47.209
 5640.00    0.65582   0.65906   46.790
 5641.00    0.65870   0.65813   46.566
 5642.00    0.65974   0.65806   46.667
 5643.00    0.65954   0.65828   47.221
 5644.00    0.65913   0.65843   48.162
 5645.00    0.65904   0.65927   48.794
 5646.00    0.65901   0.66020   48.426
 5647.00    0.65793   0.66090   47.823
 5648.00    0.65516   0.66176   48.190
 5649.00    0.65278   0.66225   49.221
 5650.00    0.65364   0.66243   49.767
 5651.00    0.65738   0.66240   49.730
 5652.00    0.66135   0.66175   49.762
 5653.00    0.66327   0.66068   50.015
 5654.00    0.66173   0.65911   50.352
 5655.00    0.65626   0.65685   51.008
 5656.00    0.64764   0.65475   52.202
 5657.00    0.63813   0.65238   53.323
 5658.00    0.63069   0.64937   53.514
 5659.00    0.62766   0.64749   53.002
 5660.00    0.62965   0.64651   52.606
 5661.00    0.63445   0.64523   52.698
 5662.00    0.63904   0.64487   53.201
 5663.00    0.64238   0.64579   53.712
 5664.00    0.64487   0.64690   53.824
 5665.00    0.64697   0.64810   53.592
 5666.00    0.64894   0.64971   53.392
 5667.00    0.65064   0.65144   53.623
 5668.00    0.65194   0.65316   54.340
 5669.00    0.65326   0.65491   54.850
 5670.00    0.65489   0.65654   54.612
 5671.00    0.65628   0.65820   54.356
 5672.00    0.65708   0.65993   54.822
 5673.00    0.65818   0.66152   55.364
 5674.00    0.66039   0.66282   55.125
 5675.00    0.66280   0.66368   54.532
 5676.00    0.66366   0.66429   54.311
 5677.00    0.66154   0.66445   54.399
 5678.00    0.65631   0.66379   54.432
 5679.00    0.64986   0.66267   54.310
 5680.00    0.64498   0.66142   54.183
 5681.00    0.64412   0.65975   54.341
 5682.00    0.64757   0.65762   54.716
 5683.00    0.65229   0.65573   54.525
 5684.00    0.65495   0.65424   53.529
 5685.00    0.65469   0.65272   52.924
 5686.00    0.65275   0.65164   53.447
 5687.00    0.65153   0.65122   54.095
 5688.00    0.65229   0.65122   53.708
 5689.00    0.65355   0.65178   52.554
 5690.00    0.65365   0.65275   51.832
 5691.00    0.65292   0.65386   52.834
 5692.00    0.65264   0.65527   54.323
 5693.00    0.65399   0.65657   51.409
 5694.00    0.65673   0.65739   47.518
 5695.00    0.65861   0.65786   55.317
 5696.00    0.65830   0.65791   69.195
 5697.00    0.65706   0.65732   45.655
 5698.00    0.65595   0.65608   21.094
 5699.00    0.65403   0.65473   14.730
 5700.00    0.65078   0.65313   14.424
 5701.00    0.64743   0.65102   15.629
 5702.00    0.64538   0.64912   15.710
 5703.00    0.64511   0.64729   15.518
 5704.00    0.64591   0.64528   15.811
 5705.00    0.64606   0.64332   15.217
 5706.00    0.64458   0.64126   14.346
 5707.00    0.64211   0.63954   16.711
 5708.00    0.64021   0.63798   28.896
 5709.00    0.64060   0.63639   62.839
 5710.00    0.64302   0.63599   65.004
 5711.00    0.64489   0.63620   49.173
 5712.00    0.64543   0.63667   49.647
 5713.00    0.64699   0.63881   55.304
 5714.00    0.65044   0.64130   55.121
 5715.00    0.65355   0.64379   52.598
 5716.00    0.65463   0.64726   51.896
 5717.00    0.65403   0.65043   51.080
 5718.00    0.65263   0.65313   49.025
 5719.00    0.65109   0.65603   47.315
 5720.00    0.65010   0.65829   46.753
 5721.00    0.65038   0.65999   46.767
 5722.00    0.65212   0.66155   47.019
 5723.00    0.65485   0.66247   47.805
 5724.00    0.65810   0.66285   49.106
 5725.00    0.66152   0.66308   50.271
 5726.00    0.66457   0.66277   50.832
 5727.00    0.66628   0.66206   50.910
 5728.00    0.66521   0.66149   50.923
 5729.00    0.66021   0.66086   51.289
 5730.00    0.65310   0.66015   51.958
 5731.00    0.64826   0.65955   52.421
 5732.00    0.64751   0.65931   52.492
 5733.00    0.64917   0.65936   52.436
 5734.00    0.65128   0.65929   52.248
 5735.00    0.65285   0.65940   51.661
 5736.00    0.65427   0.65962   50.948
 5737.00    0.65665   0.65970   50.688
 5738.00    0.65921   0.65969   50.479
 5739.00    0.65951   0.65955   49.287
 5740.00    0.65658   0.65934    0.000
 5741.00    0.65152   0.65911    0.000
 5742.00    0.64658   0.65887    0.000
 5743.00    0.64412   0.65848    0.000
 5744.00    0.64448   0.65824    0.000
 5745.00    0.64635   0.65799    0.000
 5746.00    0.64910   0.65752    0.000
 5747.00    0.65288   0.65693    0.000
 5748.00    0.65720   0.65608    0.000
 5749.00    0.66089   0.65530    0.000
 5750.00    0.66322   0.65438    0.000
 5751.00    0.66390   0.65317    0.000
 5752.00    0.66275   0.65215    0.000
 5753.00    0.65984   0.65129    0.000
 5754.00    0.65627   0.65054    0.000
 5755.00    0.65383   0.65020    0.000
 5756.00    0.65413   0.65012    0.000
 5757.00    0.65754   0.65003    0.000
 5758.00    0.66160   0.65022    0.000
 5759.00    0.66266   0.65038    0.000
 5760.00    0.66002   0.65025    0.000
 5761.00    0.65568   0.65024    0.000
 5762.00    0.65229   0.65015    0.000
 5763.00    0.65181   0.65010    0.000
 5764.00    0.65396   0.65069    0.000
 5765.00    0.65696   0.65137    0.000
 5766.00    0.65943   0.65209    0.000
 5767.00    0.66081   0.65325    0.000
 5768.00    0.66129   0.65428    0.000
 5769.00    0.66151   0.65493    0.000
 5770.00    0.66185   0.65540    0.000
 5771.00    0.66216   0.65547    0.000
 5772.00    0.66152   0.65504    0.000
 5773.00    0.65933   0.65450    0.000
 5774.00    0.65694   0.65357    0.000
 5775.00    0.65617   0.65224    0.000
 5776.00    0.65674   0.65095    0.000
 5777.00    0.65687   0.64924    0.000
 5778.00    0.65492   0.64716    0.000
 5779.00    0.65025   0.64499    0.000
 5780.00    0.64424   0.64241    0.000
 5781.00    0.63908   0.63969    0.000
 5782.00    0.63602   0.63732    0.000
 5783.00    0.63536   0.63530    0.000
 5784.00    0.63670   0.63369    0.000
 5785.00    0.63911   0.63269    0.000
 5786.00    0.64141   0.63268    0.000
 5787.00    0.64310   0.63347    0.000
 5788.00    0.64524   0.63441    0.000
 5789.00    0.64878   0.63602    0.000
 5790.00    0.65247   0.63789    0.000
 5791.00    0.65448   0.63950    0.000
 5792.00    0.65426   0.64145    0.000
 5793.00    0.65276   0.64305    0.000
 5794.00    0.65218   0.64438    0.000
 5795.00    0.65394   0.64585    0.000
 5796.00    0.65674   0.64697    0.000
 5797.00    0.65865   0.64781    0.000
 5798.00    0.65919   0.64863    0.000
 5799.00    0.65881   0.64949    0.000
 5800.00    0.65814   0.65014    0.000
 5801.00    0.65784   0.65051    0.000
 5802.00    0.65839   0.65096    0.000
 5803.00    0.65969   0.65125    0.000
 5804.00    0.66073   0.65109    0.000
 5805.00    0.66063   0.65095    0.000
 5806.00    0.65959   0.65078    0.000
 5807.00    0.65809   0.65048    0.000
 5808.00    0.65641   0.65034    0.000
 5809.00    0.65466   0.65014    0.000
 5810.00    0.65293   0.65006    0.000
 5811.00    0.65131   0.65006    0.000
 5812.00    0.64987   0.64993    0.000
 5813.00    0.64860   0.64985    0.000
 5814.00    0.64737   0.64984    0.000
 5815.00    0.64611   0.64974    0.000
 5816.00    0.64499   0.64971    0.000
 5817.00    0.64504   0.65000    0.000
 5818.00    0.64817   0.65052    0.000
 5819.00    0.65522   0.65107    0.000
 5820.00    0.66470   0.65182    0.000
 5821.00    0.67330   0.65271    0.000
 5822.00    0.67690   0.65348    0.000
 5823.00    0.67436   0.65414    0.000
 5824.00    0.66916   0.65466    0.000
 5825.00    0.66503   0.65509    0.000
 5826.00    0.66344   0.65532    0.000
 5827.00    0.66383   0.65540    0.000
 5828.00    0.66425   0.65540    0.000
 5829.00    0.66314   0.65529    0.000
 5830.00    0.66023   0.65508    0.000
 5831.00    0.65603   0.65472    0.000
 5832.00    0.65141   0.65435    0.000
 5833.00    0.64745   0.65396    0.000
 5834.00    0.64518   0.65342   -2.000
 5835.00    0.64490   0.65291   -2.000
 5836.00    0.64573   0.65263   -2.000
 5837.00    0.64514   0.65239   -2.000
 5838.00    0.63986   0.65209   -2.000
 5839.00    0.63093   0.65207   -2.000
 5840.00    0.62428   0.65218   -2.000
 5841.00    0.62344   0.65217   -2.000
 5842.00    0.62699   0.65206   -2.000
 5843.00    0.63112   0.65183   -2.000
 5844.00    0.63191   0.65135   -2.000
 5845.00    0.62934   0.65059   -2.000
 5846.00    0.62762   0.64952   -2.000
 5847.00    0.62994   0.64811   -2.000
 5848.00    0.63640   0.64650   -2.000
 5849.00    0.64371   0.64478   -2.000
 5850.00    0.64681   0.64281   -2.000
 5851.00    0.64429   0.64073   -2.000
 5852.00    0.63900   0.63849   -2.000
 5853.00    0.63372   0.63612   -2.000
 5854.00    0.62957   0.63398    0.000
 5855.00    0.62586   0.63207    0.000
 5856.00    0.62117   0.63024    0.000
 5857.00    0.61656   0.62857    0.000
 5858.00    0.61520   0.62762    0.000
 5859.00    0.61812   0.62734    0.000
 5860.00    0.62364   0.62734    0.000
 5861.00    0.62937   0.62787    0.000
 5862.00    0.63332   0.62868    0.000
 5863.00    0.63535   0.62986    0.000
 5864.00    0.63685   0.63137    0.000
 5865.00    0.63898   0.63258    0.000
 5866.00    0.64189   0.63368    0.000
 5867.00    0.64413   0.63470    0.000
 5868.00    0.64373   0.63566    0.000
 5869.00    0.64128   0.63618    0.000
 5870.00    0.63986   0.63621    0.000
 5871.00    0.64286   0.63596    0.000
 5872.00    0.65326   0.63515    0.000
 5873.00    0.67292   0.63429    0.000
 5874.00    0.70164   0.63277    0.000
 5875.00    0.73527   0.63095    0.000
 5876.00    0.76617   0.62956    0.000
 5877.00    0.78515   0.62806    0.000
 5878.00    0.78476   0.62719    0.000
 5879.00    0.76491   0.62601    0.000
 5880.00    0.73238   0.62502    0.000
 5881.00    0.69731   0.62436    0.000
 5882.00    0.66917   0.62303    0.000
 5883.00    0.65057   0.62118    0.000
 5884.00    0.63884   0.61808    0.000
 5885.00    0.63087   0.61411    0.000
 5886.00    0.62413   0.60933    0.000
 5887.00    0.61697   0.60321    0.000
 5888.00    0.60856   0.59638    0.000
 5889.00    0.59868   0.58895    0.000
 5890.00    0.58813   0.58147    0.000
 5891.00    0.57933   0.57582    0.000
 5892.00    0.57482   0.57138    0.000
 5893.00    0.57487   0.56777    0.000
 5894.00    0.57768   0.56658    0.000
 5895.00    0.58024   0.56650    0.000
 5896.00    0.58048   0.56785    0.000
 5897.00    0.57984   0.57177    0.000
 5898.00    0.58167   0.57619    0.000
 5899.00    0.58821   0.58132    0.000
 5900.00    0.59917   0.58761    0.000
 5901.00    0.61046   0.59388   48.800
 5902.00    0.61800   0.60013   47.744
 5903.00    0.62248   0.60596   47.399
 5904.00    0.62622   0.61087   47.345
 5905.00    0.62875   0.61513   47.862
 5906.00    0.62898   0.61870   49.220
 5907.00    0.62812   0.62130   50.673
 5908.00    0.62790   0.62313   51.231
 5909.00    0.62811   0.62428   51.065
 5910.00    0.62737   0.62491   50.919
 5911.00    0.62428   0.62516   51.127
 5912.00    0.61883   0.62507   51.671
 5913.00    0.61347   0.62458   52.329
 5914.00    0.61066   0.62384   52.848
 5915.00    0.61036   0.62341   53.125
 5916.00    0.61123   0.62302   53.168
 5917.00    0.61199   0.62277   53.036
 5918.00    0.61205   0.62290   52.892
 5919.00    0.61176   0.62310   53.023
 5920.00    0.61195   0.62373   53.508
 5921.00    0.61322   0.62444   53.942
 5922.00    0.61540   0.62492   53.943
 5923.00    0.61713   0.62555   53.620
 5924.00    0.61772   0.62598   53.222
 5925.00    0.61833   0.62610   52.814
 5926.00    0.61987   0.62622   52.394
 5927.00    0.62128   0.62596   51.996
 5928.00    0.62107   0.62554   51.698
 5929.00    0.61865   0.62509   51.595
 5930.00    0.61476   0.62441   51.687
 5931.00    0.61154   0.62415   51.821
 5932.00    0.61050   0.62397   51.949
 5933.00    0.61138   0.62371   52.260
 5934.00    0.61348   0.62372   52.738
 5935.00    0.61664   0.62377   52.912
 5936.00    0.62054   0.62414   52.539
 5937.00    0.62423   0.62447   52.012
 5938.00    0.62668   0.62456   51.766
 5939.00    0.62715   0.62481   51.929
 5940.00    0.62565   0.62484   52.363
 5941.00    0.62317   0.62467   52.725
 5942.00    0.62117   0.62460   52.758
 5943.00    0.62107   0.62432   52.495
 5944.00    0.62291   0.62403   52.227
 5945.00    0.62494   0.62382   52.371
 5946.00    0.62558   0.62344   52.959
 5947.00    0.62448   0.62299   53.477
 5948.00    0.62238   0.62241   53.645
 5949.00    0.62061   0.62179   53.766
 5950.00    0.61966   0.62137   54.021
 5951.00    0.61865   0.62087   54.176
 5952.00    0.61706   0.62017   54.087
 5953.00    0.61527   0.61965   53.919
 5954.00    0.61379   0.61951   53.940
 5955.00    0.61279   0.61953   54.345
 5956.00    0.61245   0.61951   54.984
 5957.00    0.61294   0.61970   55.338
 5958.00    0.61410   0.62020   55.167
 5959.00    0.61547   0.62097   54.758
 5960.00    0.61660   0.62183   54.542
 5961.00    0.61740   0.62261   54.794
 5962.00    0.61846   0.62356   55.124
 5963.00    0.62078   0.62443   54.645
 5964.00    0.62419   0.62523   53.567
 5965.00    0.62722   0.62588   53.135
 5966.00    0.62889   0.62630   53.612
 5967.00    0.62931   0.62685   54.059
 5968.00    0.62908   0.62717   53.861
 5969.00    0.62885   0.62739   53.251
 5970.00    0.62831   0.62752   52.853
 5971.00    0.62648   0.62738   53.218
 5972.00    0.62347   0.62714   53.977
 5973.00    0.62060   0.62657   54.049
 5974.00    0.61879   0.62574   53.516
 5975.00    0.61809   0.62466   53.517
 5976.00    0.61776   0.62334   54.096
 5977.00    0.61680   0.62203   54.257
 5978.00    0.61551   0.62067   54.076
 5979.00    0.61525   0.61934   54.581
 5980.00    0.61665   0.61832   55.517
 5981.00    0.61902   0.61733   55.487
 5982.00    0.62051   0.61644   54.495
 5983.00    0.61918   0.61567   53.901
 5984.00    0.61571   0.61489   54.456
 5985.00    0.61286   0.61457   56.003
 5986.00    0.61233   0.61444   57.443
 5987.00    0.61411   0.61434   57.367
 5988.00    0.61699   0.61462   56.296
 5989.00    0.61938   0.61512   55.882
 5990.00    0.62088   0.61583   56.088
 5991.00    0.62215   0.61655   55.761
 5992.00    0.62367   0.61716   55.023
 5993.00    0.62532   0.61791   54.852
 5994.00    0.62621   0.61844   55.225
 5995.00    0.62518   0.61865   55.366
 5996.00    0.62192   0.61866   55.012
 5997.00    0.61715   0.61829   54.427
 5998.00    0.61270   0.61788   53.820
 5999.00    0.61074   0.61744   53.315
 6000.00    0.61237   0.61673   53.103
 6001.00    0.61700   0.61603   53.310
 6002.00    0.62171   0.61515   53.716
 6003.00    0.62309   0.61417   53.922
 6004.00    0.62060   0.61360   53.790
 6005.00    0.61622   0.61294   53.547
 6006.00    0.61281   0.61214   53.755
 6007.00    0.61238   0.61146   54.743
 6008.00    0.61389   0.61066   55.651
 6009.00    0.61470   0.61039   55.406
 6010.00    0.61337   0.61038   54.786
 6011.00    0.61014   0.61001   55.102
 6012.00    0.60692   0.60979   55.948
 6013.00    0.60566   0.60952   56.258
 6014.00    0.60590   0.60934   56.405
 6015.00    0.60590   0.60928   57.147
 6016.00    0.60452   0.60876   57.655
 6017.00    0.60162   0.60819   56.966
 6018.00    0.59809   0.60781   56.367
 6019.00    0.59536   0.60729   57.230
 6020.00    0.59457   0.60692   58.246
 6021.00    0.59581   0.60672   57.528
 6022.00    0.59748   0.60666   56.104
 6023.00    0.59797   0.60705   55.679
 6024.00    0.59784   0.60753   55.965
 6025.00    0.59838   0.60837   55.958
 6026.00    0.59986   0.60955   55.529
 6027.00    0.60170   0.61071   55.005
 6028.00    0.60317   0.61222   54.494
 6029.00    0.60418   0.61368   54.076
 6030.00    0.60599   0.61507   54.034
 6031.00    0.60970   0.61645   54.397
 6032.00    0.61466   0.61756   54.498
 6033.00    0.61932   0.61863   53.844
 6034.00    0.62224   0.61945   52.988
 6035.00    0.62278   0.61996   52.638
 6036.00    0.62165   0.62035   52.895
 6037.00    0.61999   0.62049   53.555
 6038.00    0.61852   0.62057   54.380
 6039.00    0.61734   0.62047   55.079
 6040.00    0.61595   0.62021   55.334
 6041.00    0.61413   0.62010   55.149
 6042.00    0.61256   0.61992   55.077
 6043.00    0.61163   0.61994   55.602
 6044.00    0.61057   0.62005   56.650
 6045.00    0.60896   0.62011   57.552
 6046.00    0.60776   0.62031   57.234
 6047.00    0.60782   0.62045   56.119
 6048.00    0.60870   0.62054   56.669
 6049.00    0.60926   0.62047   58.497
 6050.00    0.60827   0.62022   56.027
 6051.00    0.60577   0.61971   52.158
 6052.00    0.60364   0.61903   60.303
 6053.00    0.60333   0.61817   69.195
 6054.00    0.60448   0.61726   47.207
 6055.00    0.60645   0.61641   22.410
 6056.00    0.60911   0.61548   15.779
 6057.00    0.61207   0.61477   15.348
 6058.00    0.61429   0.61416   16.508
 6059.00    0.61528   0.61373   16.604
 6060.00    0.61554   0.61329   16.173
 6061.00    0.61435   0.61290   16.209
 6062.00    0.60936   0.61261   16.400
 6063.00    0.60098   0.61224   16.510
 6064.00    0.59402   0.61206   16.961
 6065.00    0.59222   0.61178   17.392
 6066.00    0.59551   0.61190   16.396
 6067.00    0.60134   0.61254   15.331
 6068.00    0.60615   0.61320   18.037
 6069.00    0.60841   0.61416   31.611
 6070.00    0.60949   0.61514   67.337
 6071.00    0.61081   0.61617   67.329
 6072.00    0.61255   0.61727   51.606
 6073.00    0.61476   0.61786   52.186
 6074.00    0.61763   0.61797   57.641
 6075.00    0.62059   0.61774   57.741
 6076.00    0.62216   0.61696   55.688
 6077.00    0.62133   0.61588   55.642
 6078.00    0.61822   0.61443   56.897
 6079.00    0.61419   0.61279   57.916
 6080.00    0.61117   0.61131   57.912
 6081.00    0.60924   0.60975   57.259
 6082.00    0.60651   0.60826   57.044
 6083.00    0.60236   0.60709   57.255
 6084.00    0.59819   0.60618   56.760
 6085.00    0.59546   0.60553   55.585
 6086.00    0.59482   0.60507   54.933
 6087.00    0.59609   0.60470   54.768
 6088.00    0.59819   0.60453   53.885
 6089.00    0.59936   0.60450   52.463
 6090.00    0.59798   0.60437   51.887
 6091.00    0.59518   0.60443   52.218
 6092.00    0.59446   0.60463   52.264
 6093.00    0.59816   0.60482   51.850
 6094.00    0.60613   0.60511   51.917
 6095.00    0.61554   0.60532   52.606
 6096.00    0.62215   0.60540   53.177
 6097.00    0.62424   0.60526   53.455
 6098.00    0.62293   0.60485   53.923
 6099.00    0.61988   0.60438   54.529
 6100.00    0.61634   0.60352   54.690
 6101.00    0.61251   0.60239   54.379
 6102.00    0.60786   0.60093   54.112
 6103.00    0.60222   0.59967   54.094
 6104.00    0.59615   0.59939   54.185
 6105.00    0.59072   0.59925   54.323
 6106.00    0.58718   0.59934   54.560
 6107.00    0.58613   0.59969   54.882
 6108.00    0.58736   0.60034   55.196
 6109.00    0.58989   0.60185   55.398
 6110.00    0.59247   0.60324   55.454
 6111.00    0.59460   0.60409   55.522
 6112.00    0.59660   0.60480   55.780
 6113.00    0.59927   0.60534   56.029
 6114.00    0.60313   0.60565   55.818
 6115.00    0.60718   0.60561   54.939
 6116.00    0.60945   0.60486   53.589
 6117.00    0.60867   0.60385   52.343
 6118.00    0.60472   0.60287   51.775
 6119.00    0.59895   0.60147   51.960
 6120.00    0.59374   0.59982   52.545
 6121.00    0.59140   0.59812   52.906
 6122.00    0.59293   0.59646   52.622
 6123.00    0.59618   0.59553   52.279
 6124.00    0.59803   0.59507   52.724
 6125.00    0.59832   0.59462   53.745
 6126.00    0.59894   0.59464   54.569
 6127.00    0.60104   0.59478   55.143
 6128.00    0.60447   0.59536   55.798
 6129.00    0.60764   0.59616   56.239
 6130.00    0.60863   0.59647   56.059
 6131.00    0.60697   0.59643   55.780
 6132.00    0.60321   0.59586   56.049
 6133.00    0.59800   0.59496   56.383
 6134.00    0.59207   0.59363   56.291
 6135.00    0.58646   0.59182   56.975
 6136.00    0.58227   0.58979   58.709
 6137.00    0.58044   0.58768   57.101
 6138.00    0.58115   0.58647   52.283
 6139.00    0.58323   0.58595   55.743
 6140.00    0.58505   0.58570   69.195
 6141.00    0.58566   0.58582   58.240
 6142.00    0.58518   0.58637   27.170
 6143.00    0.58494   0.58810   17.317
 6144.00    0.58628   0.59017   15.798
 6145.00    0.58920   0.59172   16.926
 6146.00    0.59277   0.59280   17.328
 6147.00    0.59583   0.59354   16.791
 6148.00    0.59767   0.59433   16.627
 6149.00    0.59851   0.59482   16.708
 6150.00    0.59874   0.59476   16.595
 6151.00    0.59815   0.59456   16.723
 6152.00    0.59657   0.59409   17.222
 6153.00    0.59465   0.59344   16.781
 6154.00    0.59335   0.59250   15.609
 6155.00    0.59333   0.59116   17.039
 6156.00    0.59374   0.58967   26.621
 6157.00    0.59158   0.58769   57.013
 6158.00    0.58508   0.58532   69.195
 6159.00    0.57649   0.58253   55.538
 6160.00    0.56898   0.57941   52.665
 6161.00    0.56384   0.57618   58.028
 6162.00    0.56102   0.57314   59.392
 6163.00    0.55979   0.57077   57.735
 6164.00    0.55967   0.56908   58.221
 6165.00    0.56095   0.56801   59.156
 6166.00    0.56357   0.56729   58.028
 6167.00    0.56643   0.56724   56.379
 6168.00    0.56887   0.56796   55.799
 6169.00    0.57148   0.56886   55.602
 6170.00    0.57474   0.57010   55.154
 6171.00    0.57805   0.57166   55.167
 6172.00    0.58052   0.57336   55.941
 6173.00    0.58164   0.57496   56.386
 6174.00    0.58132   0.57643   55.885
 6175.00    0.57991   0.57805   55.409
 6176.00    0.57814   0.57992   55.664
 6177.00    0.57689   0.58167   56.134
 6178.00    0.57686   0.58315   55.892
 6179.00    0.57827   0.58447   54.319
 6180.00    0.58074   0.58550   51.763
 6181.00    0.58336   0.58637   49.341
 6182.00    0.58546   0.58695   47.731
 6183.00    0.58696   0.58718   46.995
 6184.00    0.58771   0.58698   47.198
 6185.00    0.58728   0.58634   48.562
 6186.00    0.58506   0.58528   50.842
 6187.00    0.58058   0.58402   52.939
 6188.00    0.57419   0.58260   54.098
 6189.00    0.56731   0.58102   54.781
 6190.00    0.56174   0.57966   55.561
 6191.00    0.55920   0.57823   56.482
 6192.00    0.56041   0.57736   57.334
 6193.00    0.56482   0.57737   57.868
 6194.00    0.57085   0.57756   58.059
 6195.00    0.57637   0.57816   58.143
 6196.00    0.58033   0.57886   58.188
 6197.00    0.58311   0.57982   58.040
 6198.00    0.58541   0.58112   57.863
 6199.00    0.58765   0.58204   58.046
 6200.00    0.58949   0.58287   58.015
 6201.00    0.58991   0.58381   56.378
 6202.00    0.58823   0.58469   53.224
 6203.00    0.58459   0.58545   50.058
 6204.00    0.57997   0.58597   47.813
 6205.00    0.57600   0.58639   46.725
 6206.00    0.57406   0.58681   46.887
 6207.00    0.57475   0.58695   48.323
 6208.00    0.57736   0.58663   50.495
 6209.00    0.58007   0.58589   52.188
 6210.00    0.58161   0.58471   52.763
 6211.00    0.58161   0.58311   52.690
 6212.00    0.58037   0.58126   52.683
 6213.00    0.57853   0.57903   53.243
 6214.00    0.57663   0.57677   54.390
 6215.00    0.57491   0.57472   55.757
 6216.00    0.57340   0.57287   57.165
 6217.00    0.57185   0.57149   58.626
 6218.00    0.56942   0.57035   59.675
 6219.00    0.56531   0.56945   59.631
 6220.00    0.56043   0.56908   59.016
 6221.00    0.55702   0.56909   59.001
 6222.00    0.55634   0.56936   59.272
 6223.00    0.55789   0.56969   58.605
 6224.00    0.55896   0.56972   57.504
 6225.00    0.55618   0.56974   57.495
 6226.00    0.54941   0.56968   58.504
 6227.00    0.54152   0.56936   59.210
 6228.00    0.53612   0.56885   59.141
 6229.00    0.53584   0.56804   58.595
 6230.00    0.53997   0.56710   57.119
 6231.00    0.54550   0.56630   54.276
 6232.00    0.55045   0.56595   51.313
 6233.00    0.55440   0.56570   49.637
 6234.00    0.55824   0.56580   48.924
 6235.00    0.56281   0.56589   48.418
 6236.00    0.56645   0.56595   49.130
 6237.00    0.56723   0.56611   52.195
 6238.00    0.56767   0.56587   54.328
 6239.00    0.57065   0.56561   51.590
 6240.00    0.57101   0.56498   50.475
 6241.00    0.56089   0.56417   55.785
 6242.00    0.54076   0.56331   -2.000
 6243.00    0.50492   0.56215   -2.000
 6244.00    0.41667   0.56134   -2.000
 6245.00    0.25082   0.56074   -2.000
 6246.00    0.06472   0.56033   -2.000
 6247.00   -0.04984   0.56025   -2.000
 6248.00   -0.05668   0.56024   -2.000
 6249.00    0.02967   0.56029   -2.000
 6250.00    0.17206   0.56021   -2.000
 6251.00    0.32446   0.55987   -2.000
 6252.00    0.44615   0.55923   -2.000
 6253.00    0.51384   0.55859   -2.000
 6254.00    0.53464   0.55779   18.846
 6255.00    0.53235   0.55701   17.547
 6256.00    0.52688   0.55626   18.599
 6257.00    0.52862   0.55562   26.969
 6258.00    0.53536   0.55548   50.502
 6259.00    0.54105   0.55578   62.576
 6260.00    0.54653   0.55685   56.466
 6261.00    0.55511   0.55805   69.195
 6262.00    0.56593   0.55957   58.582
 6263.00    0.57583   0.56130   27.399
 6264.00    0.58236   0.56294   17.300
 6265.00    0.58445   0.56456   15.831
 6266.00    0.58280   0.56599   17.140
 6267.00    0.57933   0.56736   17.769
 6268.00    0.57642   0.56841   17.348
 6269.00    0.57560   0.56916   17.194
 6270.00    0.57640   0.56970   17.352
 6271.00    0.57731   0.57025   17.393
 6272.00    0.57697   0.57070   17.329
 6273.00    0.57433   0.57102   17.369
 6274.00    0.56885   0.57116   17.583
 6275.00    0.56141   0.57119   17.878
 6276.00    0.55491   0.57114   18.010
 6277.00    0.55182   0.57095   17.957
 6278.00    0.55215   0.57066   18.148
 6279.00    0.55450   0.57036   18.498
 6280.00    0.55724   0.57000    0.000
 6281.00    0.55890   0.56987    0.000
 6282.00    0.55866   0.56999    0.000
 6283.00    0.55678   0.57020    0.000
 6284.00    0.55482   0.57076    0.000
 6285.00    0.55427   0.57125    0.000
 6286.00    0.55557   0.57192    0.000
 6287.00    0.55863   0.57271    0.000
 6288.00    0.56318   0.57326    0.000
 6289.00    0.56841   0.57372    0.000
 6290.00    0.57277   0.57370    0.000
 6291.00    0.57524   0.57340    0.000
 6292.00    0.57604   0.57294    0.000
 6293.00    0.57601   0.57212    0.000
 6294.00    0.57617   0.57115    0.000
 6295.00    0.57782   0.56997    0.000
 6296.00    0.58263   0.56857    0.000
 6297.00    0.59256   0.56728    0.000
 6298.00    0.60933   0.56604    0.000
 6299.00    0.63151   0.56506    0.000
 6300.00    0.65344   0.56427    0.000
 6301.00    0.66885   0.56360    0.000
 6302.00    0.67313   0.56331    0.000
 6303.00    0.66448   0.56345    0.000
 6304.00    0.64468   0.56398    0.000
 6305.00    0.61962   0.56467    0.000
 6306.00    0.59791   0.56548    0.000
 6307.00    0.58258   0.56639    0.000
 6308.00    0.56906   0.56717    0.000
 6309.00    0.55487   0.56774    0.000
 6310.00    0.54317   0.56792    0.000
 6311.00    0.53780   0.56776    0.000
 6312.00    0.54051   0.56727    0.000
 6313.00    0.54970   0.56649    0.000
 6314.00    0.56065   0.56546    0.000
 6315.00    0.56864   0.56418    0.000
 6316.00    0.57078   0.56306    0.000
 6317.00    0.56762   0.56219    0.000
 6318.00    0.56269   0.56141    0.000
 6319.00    0.55862   0.56122    0.000
 6320.00    0.55598   0.56145    0.000
 6321.00    0.55527   0.56209   59.522
 6322.00    0.55729   0.56306   60.143
 6323.00    0.56204   0.56416   59.872
 6324.00    0.56840   0.56569   59.007
 6325.00    0.57445   0.56704   58.151
 6326.00    0.57809   0.56839   57.804
 6327.00    0.57845   0.56949   57.768
 6328.00    0.57623   0.57024   57.392
 6329.00    0.57311   0.57083   56.851
 6330.00    0.57101   0.57086   56.849
 6331.00    0.57054   0.57073   56.674
 6332.00    0.57073   0.57025   55.013
 6333.00    0.56996   0.56949   53.672
 6334.00    0.56694   0.56854   55.454
 6335.00    0.56294   0.56727   57.193
 6336.00    0.56107   0.56613   53.137
 6337.00    0.56269   0.56515   52.029
 6338.00    0.56705   0.56443   67.332
 6339.00    0.57283   0.56374   69.195
 6340.00    0.57854   0.56327   35.007
 6341.00    0.58252   0.56295   19.240
 6342.00    0.58336   0.56266   15.832
 6343.00    0.58108   0.56252   16.690
 6344.00    0.57683   0.56237   17.899
 6345.00    0.57161   0.56254   17.727
 6346.00    0.56618   0.56264   17.348
 6347.00    0.56154   0.56283   17.617
 6348.00    0.55883   0.56319   18.358
 6349.00    0.55878   0.56363   18.274
 6350.00    0.56136   0.56405   16.768
 6351.00    0.56543   0.56433   16.756
 6352.00    0.56938   0.56448   22.951
 6353.00    0.57269   0.56431   47.250
 6354.00    0.57549   0.56379   69.195
 6355.00    0.57713   0.56285   63.664
 6356.00    0.57654   0.56174   53.310
 6357.00    0.57334   0.56030   56.585
 6358.00    0.56808   0.55860   59.409
 6359.00    0.56232   0.55689   57.401
 6360.00    0.55839   0.55536   56.057
 6361.00    0.55890   0.55409   56.421
 6362.00    0.56535   0.55314   56.472
 6363.00    0.57579   0.55269   55.844
 6364.00    0.58637   0.55278   55.402
 6365.00    0.59403   0.55330   55.366
 6366.00    0.59711   0.55422   55.505
 6367.00    0.59536   0.55548   55.775
 6368.00    0.58991   0.55696   56.237
 6369.00    0.58308   0.55849   56.804
 6370.00    0.57723   0.55999   57.378
 6371.00    0.57318   0.56149   58.103
 6372.00    0.57075   0.56292   59.095
 6373.00    0.56965   0.56419   59.990
 6374.00    0.56939   0.56520   60.340
 6375.00    0.56906   0.56590   60.285
 6376.00    0.56781   0.56642   60.243
 6377.00    0.56547   0.56666   60.371
 6378.00    0.56251   0.56667   60.558
 6379.00    0.55995   0.56654   60.503
 6380.00    0.55887   0.56635   59.951
 6381.00    0.55991   0.56603   58.977
 6382.00    0.56315   0.56573   57.988
 6383.00    0.56793   0.56548   57.613
 6384.00    0.57262   0.56525   57.951
 6385.00    0.57445   0.56508   57.906
 6386.00    0.57162   0.56497   56.808
 6387.00    0.56539   0.56491   55.946
 6388.00    0.55857   0.56471   56.365
 6389.00    0.55366   0.56440   57.071
 6390.00    0.55169   0.56395   56.955
 6391.00    0.55141   0.56323   56.792
 6392.00    0.55135   0.56243   57.461
 6393.00    0.55163   0.56145   58.266
 6394.00    0.55243   0.56065   58.389
 6395.00    0.55269   0.56005   58.354
 6396.00    0.55150   0.55946   58.819
 6397.00    0.54926   0.55901   59.491
 6398.00    0.54730   0.55854   59.781
 6399.00    0.54734   0.55829   59.485
 6400.00    0.54964   0.55801   58.837
 6401.00    0.55210   0.55825   58.372
 6402.00    0.55348   0.55879   58.320
 6403.00    0.55556   0.55912   58.278
 6404.00    0.55950   0.55946   57.925
 6405.00    0.56345   0.55961   57.459
 6406.00    0.56459   0.55967   56.965
 6407.00    0.56099   0.55958   56.068
 6408.00    0.55311   0.55944   54.654
 6409.00    0.54436   0.55941   53.203
 6410.00    0.53818   0.55913   52.206
 6411.00    0.53611   0.55861   51.854
 6412.00    0.53816   0.55819   51.946
 6413.00    0.54308   0.55788   51.928
 6414.00    0.54876   0.55759   51.693
 6415.00    0.55274   0.55733   51.892
 6416.00    0.55381   0.55726   52.771
 6417.00    0.55267   0.55718   53.682
 6418.00    0.55030   0.55704   54.337
 6419.00    0.54721   0.55699   55.447
 6420.00    0.54444   0.55714   57.274
 6421.00    0.54390   0.55747   58.849
 6422.00    0.54623   0.55798   59.246
 6423.00    0.55013   0.55880   58.598
 6424.00    0.55366   0.55952   57.889
 6425.00    0.55522   0.56025   58.308
 6426.00    0.55455   0.56092   59.745
 6427.00    0.55285   0.56137   60.466
 6428.00    0.55101   0.56156   59.897
 6429.00    0.54897   0.56146   59.537
 6430.00    0.54678   0.56114   59.868
 6431.00    0.54498   0.56048   59.653
 6432.00    0.54418   0.55992   58.567
 6433.00    0.54474   0.55941   57.745
 6434.00    0.54591   0.55900   57.453
 6435.00    0.54601   0.55869   56.843
 6436.00    0.54423   0.55843   56.078
 6437.00    0.54119   0.55831   56.416
 6438.00    0.53865   0.55830   57.814
 6439.00    0.53870   0.55854   58.481
 6440.00    0.54179   0.55916   57.185
 6441.00    0.54652   0.55985   54.410
 6442.00    0.55194   0.56047   51.534
 6443.00    0.55795   0.56102   49.771
 6444.00    0.56440   0.56141   49.269
 6445.00    0.57052   0.56154   49.542
 6446.00    0.57463   0.56130   50.719
 6447.00    0.57462   0.56076   53.420
 6448.00    0.57012   0.55987   56.637
 6449.00    0.56258   0.55853   57.488
 6450.00    0.55380   0.55705   56.049
 6451.00    0.54538   0.55591   55.406
 6452.00    0.53894   0.55489   56.406
 6453.00    0.53573   0.55405   57.614
 6454.00    0.53566   0.55346   58.070
 6455.00    0.53738   0.55305   57.943
 6456.00    0.53929   0.55286   57.583
 6457.00    0.54011   0.55300   57.218
 6458.00    0.53973   0.55345   56.971
 6459.00    0.53894   0.55385   56.892
 6460.00    0.53812   0.55398   56.979
 6461.00    0.53730   0.55405   57.183
 6462.00    0.53711   0.55391   57.395
 6463.00    0.53845   0.55380   57.442
 6464.00    0.54133   0.55418   57.103
 6465.00    0.54496   0.55448   56.309
 6466.00    0.54840   0.55490   55.501
 6467.00    0.55098   0.55524   55.302
 6468.00    0.55246   0.55567   55.858
 6469.00    0.55298   0.55593   56.876
 6470.00    0.55257   0.55622   57.863
 6471.00    0.55143   0.55662   58.418
 6472.00    0.55054   0.55678   58.782
 6473.00    0.55099   0.55697   59.195
 6474.00    0.55253   0.55693   58.463
 6475.00    0.55389   0.55682   55.591
 6476.00    0.55397   0.55659   52.524
 6477.00    0.55259   0.55637   51.376
 6478.00    0.55130   0.55600   51.553
 6479.00    0.55197   0.55546   51.553
 6480.00    0.55416   0.55490   51.824
 6481.00    0.55624   0.55416   53.517
 6482.00    0.55776   0.55334   55.633
 6483.00    0.55905   0.55263   56.075
 6484.00    0.56001   0.55200   55.252
 6485.00    0.56035   0.55130   54.810
 6486.00    0.56031   0.55049   54.641
 6487.00    0.56023   0.54949   53.967
 6488.00    0.55980   0.54817   53.238
 6489.00    0.55832   0.54641   53.312
 6490.00    0.55516   0.54416   54.200
 6491.00    0.54988   0.54148   55.449
 6492.00    0.54238   0.53830   56.788
 6493.00    0.53338   0.53492   57.899
 6494.00    0.52489   0.53140   58.016
 6495.00    0.51908   0.52832   56.652
 6496.00    0.51678   0.52606   54.483
 6497.00    0.51776   0.52449   52.554
 6498.00    0.52121   0.52421   51.485
 6499.00    0.52590   0.52470   51.597
 6500.00    0.53029   0.52628   53.061
 6501.00    0.53321   0.52859   55.615
 6502.00    0.53466   0.53140   57.925
 6503.00    0.53558   0.53460   58.310
 6504.00    0.53752   0.53769   56.475
 6505.00    0.54115   0.54073   53.488
 6506.00    0.54505   0.54324   50.743
 6507.00    0.54747   0.54534   49.082
 6508.00    0.54818   0.54691   48.651
 6509.00    0.54814   0.54799   49.391
 6510.00    0.54885   0.54865   51.277
 6511.00    0.55140   0.54888   53.857
 6512.00    0.55556   0.54875   55.664
 6513.00    0.55978   0.54833   55.716
 6514.00    0.56142   0.54769   55.273
 6515.00    0.55861   0.54690   55.750
 6516.00    0.55174   0.54608   57.020
 6517.00    0.54319   0.54538   58.104
 6518.00    0.53673   0.54484   57.910
 6519.00    0.53525   0.54445   56.295
 6520.00    0.53902   0.54436   54.484
 6521.00    0.54582   0.54438   53.453
 6522.00    0.55156   0.54452   53.209
 6523.00    0.55330   0.54472   53.605
 6524.00    0.55125   0.54490   54.760
 6525.00    0.54725   0.54507   56.453
 6526.00    0.54338   0.54505   57.688
 6527.00    0.54104   0.54496   57.827
 6528.00    0.54036   0.54479    0.000
 6529.00    0.54058   0.54453    0.000
 6530.00    0.54047   0.54420    0.000
 6531.00    0.53989   0.54380    0.000
 6532.00    0.54038   0.54343    0.000
 6533.00    0.54272   0.54309    0.000
 6534.00    0.54579   0.54285    0.000
 6535.00    0.54828   0.54265    0.000
 6536.00    0.54963   0.54244    0.000
 6537.00    0.54987   0.54215    0.000
 6538.00    0.54936   0.54177    0.000
 6539.00    0.54810   0.54122    0.000
 6540.00    0.54574   0.54044    0.000
 6541.00    0.54326   0.53935    0.000
 6542.00    0.54369   0.53797    0.000
 6543.00    0.55156   0.53629    0.000
 6544.00    0.57247   0.53431    0.000
 6545.00    0.61279   0.53213    0.000
 6546.00    0.67736   0.52972    0.000
 6547.00    0.76058   0.52727    0.000
 6548.00    0.84407   0.52474    0.000
 6549.00    0.90499   0.52201    0.000
 6550.00    0.92266   0.51905    0.000
 6551.00    0.89027   0.51572    0.000
 6552.00    0.81840   0.51196    0.000
 6553.00    0.72930   0.50759    0.000
 6554.00    0.65000   0.50249    0.000
 6555.00    0.59587   0.49661    0.000
 6556.00    0.57036   0.48987    0.000
 6557.00    0.58805   0.48236    0.000
 6558.00    0.68996   0.47408    0.000
 6559.00    0.96538   0.46536    0.000
 6560.00    1.52544   0.45650    0.000
 6561.00    2.38792   0.44814    0.000
 6562.00    3.43760   0.44102    0.000
 6563.00    4.43362   0.43572    0.000
 6564.00    5.06919   0.43340    0.000
 6565.00    5.14739   0.43355    0.000
 6566.00    4.64387   0.43606    0.000
 6567.00    3.71748   0.44070    0.000
 6568.00    2.65764   0.44704    0.000
 6569.00    1.72451   0.45447    0.000
 6570.00    1.08038   0.46243    0.000
 6571.00    0.73789   0.47050    0.000
 6572.00    0.59160   0.47808    0.000
 6573.00    0.54175   0.48508    0.000
 6574.00    0.52774   0.49133    0.000
 6575.00    0.52235   0.49659    0.000
 6576.00    0.52240   0.50125    0.000
 6577.00    0.52978   0.50524    0.000
 6578.00    0.54908   0.50877    0.000
 6579.00    0.59364   0.51184    0.000
 6580.00    0.68281   0.51457    0.000
 6581.00    0.83151   0.51699    0.000
 6582.00    1.03876   0.51903    0.000
 6583.00    1.26819   0.52099    0.000
 6584.00    1.45822   0.52245    0.000
 6585.00    1.55354   0.52387    0.000
 6586.00    1.52187   0.52482    0.000
 6587.00    1.37345   0.52562    0.000
 6588.00    1.15457   0.52615    0.000
 6589.00    0.92613   0.52634    0.000
 6590.00    0.74345   0.52633    0.000
 6591.00    0.62685   0.52597    0.000
 6592.00    0.56677   0.52562    0.000
 6593.00    0.54400   0.52509    0.000
 6594.00    0.53857   0.52485    0.000
 6595.00    0.53845   0.52481    0.000
 6596.00    0.53882   0.52494    0.000
 6597.00    0.53815   0.52536    0.000
 6598.00    0.53684   0.52596    0.000
 6599.00    0.53618   0.52680    0.000
 6600.00    0.53734   0.52772    0.000
 6601.00    0.54006   0.52862    0.000
 6602.00    0.54276   0.52936    0.000
 6603.00    0.54325   0.52995    0.000
 6604.00    0.54015   0.53035    0.000
 6605.00    0.53495   0.53046    0.000
 6606.00    0.53046   0.53043    0.000
 6607.00    0.52839   0.53024    0.000
 6608.00    0.52933   0.53011    0.000
 6609.00    0.53337   0.53004   18.704
 6610.00    0.53962   0.53018   18.999
 6611.00    0.54569   0.53053   18.446
 6612.00    0.54934   0.53099   16.967
 6613.00    0.55059   0.53167   17.859
 6614.00    0.55054   0.53239   26.419
 6615.00    0.54970   0.53331   55.062
 6616.00    0.54809   0.53411   69.195
 6617.00    0.54557   0.53486   58.409
 6618.00    0.54285   0.53543   53.173
 6619.00    0.54222   0.53587   57.647
 6620.00    0.54518   0.53609   59.011
 6621.00    0.54992   0.53603   56.505
 6622.00    0.55303   0.53574   55.663
 6623.00    0.55181   0.53521   56.375
 6624.00    0.54623   0.53460   56.648
 6625.00    0.54024   0.53380   56.455
 6626.00    0.53775   0.53303   56.504
 6627.00    0.53879   0.53217   56.671
 6628.00    0.54083   0.53129   56.690
 6629.00    0.54080   0.53043   56.878
 6630.00    0.53769   0.52956   57.588
 6631.00    0.53439   0.52876   58.660
 6632.00    0.53393   0.52799   59.555
 6633.00    0.53616   0.52738   59.609
 6634.00    0.53926   0.52691   58.781
 6635.00    0.54126   0.52671   58.039
 6636.00    0.54128   0.52667   58.046
 6637.00    0.54012   0.52675   58.360
 6638.00    0.53905   0.52694   58.274
 6639.00    0.53872   0.52719   57.540
 6640.00    0.53890   0.52746   56.452
 6641.00    0.53850   0.52770   55.687
 6642.00    0.53663   0.52791   55.553
 6643.00    0.53342   0.52801   55.658
 6644.00    0.53044   0.52815   55.542
 6645.00    0.53050   0.52830   55.123
 6646.00    0.53431   0.52846   54.667
 6647.00    0.53889   0.52860   54.623
 6648.00    0.54153   0.52875   55.037
 6649.00    0.54220   0.52895   55.308
 6650.00    0.54215   0.52911   55.129
 6651.00    0.54280   0.52927   54.986
 6652.00    0.54433   0.52931   55.365
 6653.00    0.54533   0.52934   56.309
 6654.00    0.54491   0.52923   57.472
 6655.00    0.54366   0.52905   58.208
 6656.00    0.54201   0.52871   58.209
 6657.00    0.53962   0.52824   57.833
 6658.00    0.53652   0.52769   57.517
 6659.00    0.53352   0.52696   57.461
 6660.00    0.53094   0.52619   57.649
 6661.00    0.52821   0.52527   57.887
 6662.00    0.52567   0.52445   57.852
 6663.00    0.52484   0.52361   57.248
 6664.00    0.52612   0.52294   56.278
 6665.00    0.52806   0.52251   55.597
 6666.00    0.52919   0.52220   55.421
 6667.00    0.52907   0.52217   55.436
 6668.00    0.52879   0.52226   55.757
 6669.00    0.53049   0.52255   56.863
 6670.00    0.53424   0.52282   57.441
 6671.00    0.53764   0.52305   54.791
 6672.00    0.53945   0.52308   50.644
 6673.00    0.54079   0.52289   49.223
 6674.00    0.54373   0.52245   50.747
 6675.00    0.55020   0.52162   51.832
 6676.00    0.55974   0.52068   51.071
 6677.00    0.56937   0.51949   50.713
 6678.00    0.57615   0.51851   52.094
 6679.00    0.57820   0.51770   -1.000
 6680.00    0.57491   0.51732   -1.000
 6681.00    0.56711   0.51720   58.178
 6682.00    0.55715   0.51746   57.610
 6683.00    0.54829   0.51809   56.631
 6684.00    0.54260   0.51893   56.012
 6685.00    0.54024   0.51997   55.786
 6686.00    0.53963   0.52097   55.705
 6687.00    0.53837   0.52197   55.500
 6688.00    0.53587   0.52277   55.233
 6689.00    0.53341   0.52344   55.207
 6690.00    0.53220   0.52386   55.440
 6691.00    0.53249   0.52408   55.721
 6692.00    0.53295   0.52406   56.114
 6693.00    0.53144   0.52386   56.863
 6694.00    0.52787   0.52351   57.733
 6695.00    0.52407   0.52307   58.167
 6696.00    0.52207   0.52258    0.000
 6697.00    0.52319   0.52212    0.000
 6698.00    0.52732   0.52176    0.000
 6699.00    0.53317   0.52143    0.000
 6700.00    0.53939   0.52123    0.000
 6701.00    0.54467   0.52105    0.000
 6702.00    0.54745   0.52092    0.000
 6703.00    0.54670   0.52083    0.000
 6704.00    0.54358   0.52073    0.000
 6705.00    0.54070   0.52066    0.000
 6706.00    0.53982   0.52053    0.000
 6707.00    0.54129   0.52036    0.000
 6708.00    0.54399   0.52004    0.000
 6709.00    0.54645   0.51969    0.000
 6710.00    0.54897   0.51915    0.000
 6711.00    0.55703   0.51849    0.000
 6712.00    0.58640   0.51771    0.000
 6713.00    0.65856   0.51677    0.000
 6714.00    0.79057   0.51581    0.000
 6715.00    0.98149   0.51478    0.000
 6716.00    1.19376   0.51385    0.000
 6717.00    1.36825   0.51310    0.000
 6718.00    1.45444   0.51253    0.000
 6719.00    1.42486   0.51231    0.000
 6720.00    1.28942   0.51228    0.000
 6721.00    1.08864   0.51254    0.000
 6722.00    0.87885   0.51297    0.000
 6723.00    0.71120   0.51358    0.000
 6724.00    0.60505   0.51426    0.000
 6725.00    0.55641   0.51495    0.000
 6726.00    0.55538   0.51563    0.000
 6727.00    0.59476   0.51623    0.000
 6728.00    0.67750   0.51681    0.000
 6729.00    0.80320   0.51723    0.000
 6730.00    0.94997   0.51762    0.000
 6731.00    1.08255   0.51783    0.000
 6732.00    1.16590   0.51799    0.000
 6733.00    1.17540   0.51797    0.000
 6734.00    1.10719   0.51792    0.000
 6735.00    0.97903   0.51771    0.000
 6736.00    0.82842   0.51742    0.000
 6737.00    0.69474   0.51698    0.000
 6738.00    0.59944   0.51649    0.000
 6739.00    0.54579   0.51593    0.000
 6740.00    0.52180   0.51535    0.000
 6741.00    0.51203   0.51474    0.000
 6742.00    0.50916   0.51414    0.000
 6743.00    0.51037   0.51354    0.000
 6744.00    0.51276   0.51296    0.000
 6745.00    0.51419   0.51247    0.000
 6746.00    0.51441   0.51193    0.000
 6747.00    0.51377   0.51152    0.000
 6748.00    0.51203   0.51107    0.000
 6749.00    0.50926   0.51081    0.000
 6750.00    0.50669   0.51057    0.000
 6751.00    0.50599   0.51051    0.000
 6752.00    0.50849   0.51062    0.000
 6753.00    0.51357   0.51083   56.060
 6754.00    0.51794   0.51128   55.748
 6755.00    0.51931   0.51181   56.111
 6756.00    0.51903   0.51250   56.333
 6757.00    0.51899   0.51323   55.925
 6758.00    0.51925   0.51398   55.801
 6759.00    0.51925   0.51468   56.620
 6760.00    0.51885   0.51524   57.731
 6761.00    0.51808   0.51569   58.339
 6762.00    0.51693   0.51589   58.478
 6763.00    0.51508   0.51594   58.484
 6764.00    0.51196   0.51574   58.520
 6765.00    0.50763   0.51539   58.483
 6766.00    0.50340   0.51491   57.988
 6767.00    0.50160   0.51438   56.452
 6768.00    0.50490   0.51390   53.457
 6769.00    0.51284   0.51349   49.718
 6770.00    0.52069   0.51325   46.693
 6771.00    0.52426   0.51314   44.945
 6772.00    0.52273   0.51329   44.097
 6773.00    0.51771   0.51357   43.727
 6774.00    0.51223   0.51403   43.642
 6775.00    0.50891   0.51449   43.719
 6776.00    0.50888   0.51498   43.876
 6777.00    0.51166   0.51536   44.315
 6778.00    0.51543   0.51558   45.559
 6779.00    0.51864   0.51560   47.898
 6780.00    0.52074   0.51536   51.008
 6781.00    0.52166   0.51488   53.889
 6782.00    0.52142   0.51418   55.105
 6783.00    0.51964   0.51339   54.673
 6784.00    0.51572   0.51252   54.444
 6785.00    0.51086   0.51173   55.354
 6786.00    0.50807   0.51104   56.709
 6787.00    0.50840   0.51049   57.700
 6788.00    0.50999   0.51013   58.129
 6789.00    0.51103   0.50991   58.216
 6790.00    0.51098   0.50985   58.275
 6791.00    0.51045   0.50984   58.019
 6792.00    0.51062   0.50993   56.776
 6793.00    0.51142   0.51002   55.168
 6794.00    0.51150   0.51012   54.741
 6795.00    0.51054   0.51025   55.585
 6796.00    0.50959   0.51035   56.259
 6797.00    0.50913   0.51048   56.124
 6798.00    0.50873   0.51060   55.913
 6799.00    0.50829   0.51074   56.206
 6800.00    0.50835   0.51087   56.787
 6801.00    0.50980   0.51101   56.237
 6802.00    0.51316   0.51109   52.949
 6803.00    0.51659   0.51116   48.017
 6804.00    0.51675   0.51115   43.738
 6805.00    0.51288   0.51112   40.865
 6806.00    0.50695   0.51104   39.313
 6807.00    0.50067   0.51088   39.338
 6808.00    0.49507   0.51073   41.405
 6809.00    0.49193   0.51055   44.823
 6810.00    0.49365   0.51036   47.181
 6811.00    0.50215   0.51019   47.162
 6812.00    0.51733   0.51005   45.937
 6813.00    0.53452   0.50991   44.923
 6814.00    0.54685   0.50984   44.862
 6815.00    0.55260   0.50981   45.708
 6816.00    0.55477   0.50985   46.901
 6817.00    0.55556   0.50994   48.009
 6818.00    0.55545   0.51004   48.873
 6819.00    0.55396   0.51022   49.475
 6820.00    0.55049   0.51039   49.881
 6821.00    0.54551   0.51062   50.158
 6822.00    0.54022   0.51082   50.369
 6823.00    0.53521   0.51098   50.595
 6824.00    0.53003   0.51111   51.010
 6825.00    0.52296   0.51114   52.012
 6826.00    0.51348   0.51109   53.752
 6827.00    0.50693   0.51098   54.944
 6828.00    0.50962   0.51082   53.852
 6829.00    0.51832   0.51063   51.289
 6830.00    0.52492   0.51041   49.225
 6831.00    0.52809   0.51015   48.221
 6832.00    0.53071   0.50987   48.077
 6833.00    0.53201   0.50953   48.804
 6834.00    0.52954   0.50914   50.363
 6835.00    0.52460   0.50861   51.883
 6836.00    0.52036   0.50801   52.267
 6837.00    0.51748   0.50722   51.896
 6838.00    0.51532   0.50640   51.711
 6839.00    0.51493   0.50546   51.334
 6840.00    0.51703   0.50460   50.083
 6841.00    0.51868   0.50380   48.679
 6842.00    0.51718   0.50321   48.141
 6843.00    0.51607   0.50286   48.409
 6844.00    0.51920   0.50274   49.067
 6845.00    0.52206   0.50287   50.345
 6846.00    0.51957   0.50318   52.512
 6847.00    0.51721   0.50363   54.628
 6848.00    0.52152   0.50411   55.265
 6849.00    0.52683   0.50455   54.418
 6850.00    0.52515   0.50488   53.032
 6851.00    0.51956   0.50505   51.710
 6852.00    0.51724   0.50501   50.553
 6853.00    0.51940   0.50475   49.268
 6854.00    0.52310   0.50435   47.926
 6855.00    0.52461   0.50381   47.515
 6856.00    0.52171   0.50324   48.754
 6857.00    0.51551   0.50269   50.981
 6858.00    0.50904   0.50218   52.918
 6859.00    0.50523   0.50177   54.014
 6860.00    0.50503   0.50148   53.980
 6861.00    0.50609   0.50134   52.076
 6862.00    0.50649   0.50132   48.664
 6863.00    0.50813   0.50140   45.707
 6864.00    0.51222   0.50151   44.360
 6865.00    0.51526   0.50161   44.252
 6866.00    0.51458   0.50168   44.985
 6867.00    0.51313   0.50173   47.059
 6868.00    0.51387   0.50173   50.758
 6869.00    0.51506   0.50170   54.533
 6870.00    0.51490   0.50165   56.151
 6871.00    0.51531   0.50160   55.585
 6872.00    0.51742   0.50158   54.324
 6873.00    0.51834   0.50159   53.604
 6874.00    0.51624   0.50169   53.783
 6875.00    0.51388   0.50179   54.207
 6876.00    0.51373   0.50197   54.033
 6877.00    0.51439   0.50209   52.952
 6878.00    0.51375   0.50225   51.293
 6879.00    0.51134   0.50229   49.788
 6880.00    0.50812   0.50232   48.835
 6881.00    0.50581   0.50227   48.304
 6882.00    0.50363   0.50226   48.350
 6883.00    0.49726   0.50227   49.723
 6884.00    0.48587   0.50229   52.474
 6885.00    0.47568   0.50248   54.798
 6886.00    0.47312   0.50270   54.578
 6887.00    0.48024   0.50307   51.679
 6888.00    0.49406   0.50351   47.795
 6889.00    0.50732   0.50403   44.835
 6890.00    0.51487   0.50454   43.583
 6891.00    0.51661   0.50504   43.962
 6892.00    0.51348   0.50550   45.663
 6893.00    0.50615   0.50586   48.195
 6894.00    0.50013   0.50616   50.887
 6895.00    0.50536   0.50636   52.953
 6896.00    0.51974   0.50653   53.794
 6897.00    0.52597   0.50664   53.403
 6898.00    0.51779   0.50672   52.577
 6899.00    0.50841   0.50682   52.483
 6900.00    0.50781   0.50693   53.182
 6901.00    0.51354   0.50707   53.432
 6902.00    0.51987   0.50722   52.920
 6903.00    0.52271   0.50739   52.847
 6904.00    0.52146   0.50754   53.634
 6905.00    0.51872   0.50770   54.412
 6906.00    0.51583   0.50779   55.064
 6907.00    0.51184   0.50784   56.409
 6908.00    0.50695   0.50777   56.575
 6909.00    0.50333   0.50760   52.462
 6910.00    0.50272   0.50731   49.760
 6911.00    0.50529   0.50692   57.302
 6912.00    0.50920   0.50641   63.626
 6913.00    0.51140   0.50589   39.305
 6914.00    0.51084   0.50534   22.897
 6915.00    0.50859   0.50482   18.455
 6916.00    0.50454   0.50441   19.067
 6917.00    0.49747   0.50407   20.568
 6918.00    0.48912   0.50386   20.715
 6919.00    0.48390   0.50375   20.524
 6920.00    0.48346   0.50369   20.646
 6921.00    0.48595   0.50368   20.531
 6922.00    0.48930   0.50362   20.300
 6923.00    0.49223   0.50359   20.613
 6924.00    0.49412   0.50347   20.699
 6925.00    0.49496   0.50341   19.345
 6926.00    0.49556   0.50329   18.941
 6927.00    0.49690   0.50320   24.135
 6928.00    0.49853   0.50315   43.619
 6929.00    0.49900   0.50310   69.195
 6930.00    0.49828   0.50315   62.446
 6931.00    0.49778   0.50315   52.833
 6932.00    0.49868   0.50329   54.987
 6933.00    0.50129   0.50338   57.943
 6934.00    0.50430   0.50354   56.429
 6935.00    0.50563   0.50365   54.525
 6936.00    0.50473   0.50377   53.972
 6937.00    0.50263   0.50386   53.638
 6938.00    0.50106   0.50390   53.188
 6939.00    0.50134   0.50391   53.116
 6940.00    0.50290   0.50381   53.347
 6941.00    0.50367   0.50363   53.385
 6942.00    0.50167   0.50337   53.203
 6943.00    0.49605   0.50299   53.149
 6944.00    0.48828   0.50265   53.366
 6945.00    0.48128   0.50223   53.859
 6946.00    0.47736   0.50190   54.846
 6947.00    0.47768   0.50154   56.355
 6948.00    0.48212   0.50130   57.241
 6949.00    0.48923   0.50103   56.203
 6950.00    0.49604   0.50091   54.221
 6951.00    0.49947   0.50080   53.039
 6952.00    0.49855   0.50079   52.757
 6953.00    0.49442   0.50084   52.733
 6954.00    0.48960   0.50097   53.100
 6955.00    0.48636   0.50118   54.197
 6956.00    0.48444   0.50142   55.284
 6957.00    0.48241   0.50179   55.306
 6958.00    0.48027   0.50212   54.702
 6959.00    0.47862   0.50258   54.517
 6960.00    0.47682   0.50297   54.773
 6961.00    0.47398   0.50341   54.988
 6962.00    0.47063   0.50377   55.156
 6963.00    0.46827   0.50413   55.533
 6964.00    0.46853   0.50438   56.150
 6965.00    0.47232   0.50461   56.806
 6966.00    0.47889   0.50477   57.175
 6967.00    0.48620   0.50483   57.078
 6968.00    0.49156   0.50480   56.801
 6969.00    0.49355   0.50461   56.679
 6970.00    0.49393   0.50431   56.619
 6971.00    0.49481   0.50383   56.405
 6972.00    0.49528   0.50317   56.104
 6973.00    0.49387   0.50229   55.805
 6974.00    0.49154   0.50126   55.328
 6975.00    0.48989   0.50010   54.563
 6976.00    0.48894   0.49890   53.809
 6977.00    0.48765   0.49773   53.486
 6978.00    0.48497   0.49682   53.847
 6979.00    0.48129   0.49612   54.632
 6980.00    0.47950   0.49579   54.764
 6981.00    0.48149   0.49578   53.699
 6982.00    0.48500   0.49613   52.593
 6983.00    0.48775   0.49676   52.434
 6984.00    0.49109   0.49761   52.707
 6985.00    0.49696   0.49855   52.618
 6986.00    0.50477   0.49951   52.209
 6987.00    0.51161   0.50039   51.901
 6988.00    0.51312   0.50116   51.990
 6989.00    0.50795   0.50177   52.493
 6990.00    0.50078   0.50223   53.054
 6991.00    0.49666   0.50252   53.348
 6992.00    0.49636   0.50266   53.407
 6993.00    0.49777   0.50267   53.322
 6994.00    0.49767   0.50258   53.015
 6995.00    0.49489   0.50238   52.507
 6996.00    0.49212   0.50206   52.068
 6997.00    0.49152   0.50163   51.864
 6998.00    0.49196   0.50111   51.764
 6999.00    0.49133   0.50057   51.681
 7000.00    0.48853   0.49996   51.744
 7001.00    0.48468   0.49938   -2.000
 7002.00    0.48314   0.49875   -2.000
 7003.00    0.48491   0.49825   -2.000
 7004.00    0.48657   0.49777   -2.000
 7005.00    0.48611   0.49747   -2.000
 7006.00    0.48584   0.49720   -2.000
 7007.00    0.48793   0.49709   -2.000
 7008.00    0.49194   0.49699   -2.000
 7009.00    0.49648   0.49695   -2.000
 7010.00    0.50030   0.49687   -2.000
 7011.00    0.50233   0.49680   -2.000
 7012.00    0.50186   0.49663   -2.000
 7013.00    0.49915   0.49640   -2.000
 7014.00    0.49561   0.49603   -2.000
 7015.00    0.49271   0.49571   -2.000
 7016.00    0.49115   0.49540   -2.000
 7017.00    0.48954   0.49514   -2.000
 7018.00    0.48497   0.49492   -2.000
 7019.00    0.47798   0.49480   -2.000
 7020.00    0.47339   0.49474   -2.000
 7021.00    0.47301   0.49475   -2.000
 7022.00    0.47379   0.49480   -2.000
 7023.00    0.47411   0.49491   -2.000
 7024.00    0.47564   0.49506   -2.000
 7025.00    0.47968   0.49524   -2.000
 7026.00    0.48552   0.49544   -2.000
 7027.00    0.49012   0.49570   -2.000
 7028.00    0.48963   0.49598   -2.000
 7029.00    0.48516   0.49633   -2.000
 7030.00    0.48265   0.49666   -2.000
 7031.00    0.48392   0.49705   -2.000
 7032.00    0.48533   0.49737   -2.000
 7033.00    0.48471   0.49773   -2.000
 7034.00    0.48300   0.49803   -2.000
 7035.00    0.48139   0.49837   -2.000
 7036.00    0.48048   0.49864   -2.000
 7037.00    0.48072   0.49906   -2.000
 7038.00    0.48245   0.49954   -2.000
 7039.00    0.48526   0.50018   -2.000
 7040.00    0.48813   0.50088   -2.000
 7041.00    0.49016   0.50170   -2.000
 7042.00    0.49088   0.50255   -2.000
 7043.00    0.49035   0.50342   -2.000
 7044.00    0.48935   0.50422   -2.000
 7045.00    0.48983   0.50491   -2.000
 7046.00    0.49367   0.50538   -2.000
 7047.00    0.49930   0.50561   -2.000
 7048.00    0.50268   0.50551   -2.000
 7049.00    0.50187   0.50511   -2.000
 7050.00    0.49778   0.50436   -2.000
 7051.00    0.49267   0.50330   -2.000
 7052.00    0.48876   0.50202   -2.000
 7053.00    0.48589   0.50053   -2.000
 7054.00    0.48240   0.49897   -2.000
 7055.00    0.47845   0.49732   -2.000
 7056.00    0.47564   0.49577   -2.000
 7057.00    0.47466   0.49426   -2.000
 7058.00    0.47478   0.49293   -2.000
 7059.00    0.47405   0.49176   -2.000
 7060.00    0.47107   0.49079   -2.000
 7061.00    0.46837   0.48997   -2.000
 7062.00    0.47026   0.48930   -2.000
 7063.00    0.47738   0.48877   -2.000
 7064.00    0.48651   0.48830   -2.000
 7065.00    0.49223   0.48797   -2.000
 7066.00    0.49027   0.48768   -2.000
 7067.00    0.48279   0.48754   -2.000
 7068.00    0.47561   0.48749   -2.000
 7069.00    0.47179   0.48759   -2.000
 7070.00    0.47095   0.48780   -2.000
 7071.00    0.47027   0.48813   -2.000
 7072.00    0.46798   0.48858   -2.000
 7073.00    0.46838   0.48907   -2.000
 7074.00    0.47550   0.48960   -2.000
 7075.00    0.48241   0.49006   -2.000
 7076.00    0.47992   0.49044   -2.000
 7077.00    0.47146   0.49062   -2.000
 7078.00    0.46643   0.49059   -2.000
 7079.00    0.46750   0.49027   -2.000
 7080.00    0.47198   0.48965   -2.000
 7081.00    0.47625   0.48871   -2.000
 7082.00    0.47762   0.48749   -2.000
 7083.00    0.47573   0.48599   -2.000
 7084.00    0.47111   0.48432   -2.000
 7085.00    0.46319   0.48251   -2.000
 7086.00    0.45278   0.48065   -2.000
 7087.00    0.44518   0.47882   -2.000
 7088.00    0.44532   0.47712   -2.000
 7089.00    0.45176   0.47557   -2.000
 7090.00    0.45910   0.47429   -2.000
 7091.00    0.46182   0.47323   -2.000
 7092.00    0.45881   0.47247   -2.000
 7093.00    0.45711   0.47196   -2.000
 7094.00    0.46174   0.47172   -2.000
 7095.00    0.46557   0.47175   -2.000
 7096.00    0.46188   0.47191   -2.000
 7097.00    0.45728   0.47237   -2.000
 7098.00    0.45958   0.47280   -2.000
 7099.00    0.46539   0.47350   -2.000
 7100.00    0.46791   0.47406   -2.000
 7101.00    0.46541   0.47481   -2.000
 7102.00    0.45979   0.47532   -2.000
 7103.00    0.45448   0.47592   -2.000
 7104.00    0.45228   0.47626   -2.000
 7105.00    0.45381   0.47658   -2.000
 7106.00    0.45819   0.47668   -2.000
 7107.00    0.46379   0.47669   -2.000
 7108.00    0.46768   0.47657   -2.000
 7109.00    0.46592   0.47636   -2.000
 7110.00    0.45938   0.47614   -2.000
 7111.00    0.45685   0.47585   -2.000
 7112.00    0.46312   0.47566   -2.000
 7113.00    0.47118   0.47545   -2.000
 7114.00    0.47399   0.47539   -2.000
 7115.00    0.47253   0.47533   -2.000
 7116.00    0.46953   0.47539   -2.000
 7117.00    0.46509   0.47544   -2.000
 7118.00    0.45973   0.47553   -2.000
 7119.00    0.45604   0.47558   -2.000
 7120.00    0.45474   0.47558   -2.000
 7121.00    0.45286   0.47551   -2.000
 7122.00    0.44994   0.47532   -2.000
 7123.00    0.45058   0.47506   -2.000
 7124.00    0.45659   0.47469   -2.000
 7125.00    0.46311   0.47425   -2.000
 7126.00    0.46540   0.47374   -2.000
 7127.00    0.46272   0.47320   -2.000
 7128.00    0.45771   0.47270   -2.000
 7129.00    0.45493   0.47223   -2.000
 7130.00    0.45579   0.47190   -2.000
 7131.00    0.45728   0.47167   -2.000
 7132.00    0.45944   0.47162   -2.000
 7133.00    0.46761   0.47174   -2.000
 7134.00    0.48394   0.47201   -2.000
 7135.00    0.50393   0.47242   -2.000
 7136.00    0.52101   0.47291   -2.000
 7137.00    0.52948   0.47347   -2.000
 7138.00    0.52785   0.47396   -2.000
 7139.00    0.51919   0.47444   -2.000
 7140.00    0.50683   0.47475   -2.000
 7141.00    0.49265   0.47499   -2.000
 7142.00    0.47864   0.47501   -2.000
 7143.00    0.46726   0.47495   -2.000
 7144.00    0.46033   0.47470   -2.000
 7145.00    0.45847   0.47443   -2.000
 7146.00    0.46120   0.47406   -2.000
 7147.00    0.46684   0.47377   -2.000
 7148.00    0.47205   0.47348   -2.000
 7149.00    0.47293   0.47337   -2.000
 7150.00    0.46936   0.47335   -2.000
 7151.00    0.46506   0.47356   -2.000
 7152.00    0.46206   0.47389   -2.000
 7153.00    0.45965   0.47440   -2.000
 7154.00    0.45750   0.47494   -2.000
 7155.00    0.45650   0.47554   -2.000
 7156.00    0.45813   0.47604   -2.000
 7157.00    0.46215   0.47648   -2.000
 7158.00    0.46069   0.47671   -2.000
 7159.00    0.44407   0.47680   -2.000
 7160.00    0.42279   0.47665   -2.000
 7161.00    0.42095   0.47639   -2.000
 7162.00    0.43900   0.47599   -2.000
 7163.00    0.45506   0.47557   -2.000
 7164.00    0.45805   0.47516   -2.000
 7165.00    0.45251   0.47486   -2.000
 7166.00    0.44637   0.47472   -2.000
 7167.00    0.44538   0.47478   -2.000
 7168.00    0.44808   0.47504   -2.000
 7169.00    0.44840   0.47548   -2.000
 7170.00    0.44515   0.47605   -2.000
 7171.00    0.44180   0.47667   -2.000
 7172.00    0.44058   0.47729   -2.000
 7173.00    0.44224   0.47780   -2.000
 7174.00    0.44850   0.47817   -2.000
 7175.00    0.46037   0.47833   -2.000
 7176.00    0.47325   0.47829   -2.000
 7177.00    0.47914   0.47804   -2.000
 7178.00    0.47346   0.47762   -2.000
 7179.00    0.45843   0.47707   -2.000
 7180.00    0.44642   0.47642   -2.000
 7181.00    0.45070   0.47572   -2.000
 7182.00    0.46697   0.47501   -2.000
 7183.00    0.47931   0.47432   -2.000
 7184.00    0.47824   0.47366   -2.000
 7185.00    0.46445   0.47306   -2.000
 7186.00    0.44918   0.47250   -2.000
 7187.00    0.44481   0.47202   -2.000
 7188.00    0.44909   0.47160   -2.000
 7189.00    0.45261   0.47133   -2.000
 7190.00    0.45511   0.47111   -2.000
 7191.00    0.46072   0.47110   -2.000
 7192.00    0.46625   0.47113   -2.000
 7193.00    0.46580   0.47140   -2.000
 7194.00    0.46031   0.47165   -2.000
 7195.00    0.45417   0.47212   -2.000
 7196.00    0.44825   0.47251   -2.000
 7197.00    0.44212   0.47301   -2.000
 7198.00    0.43860   0.47340   -2.000
 7199.00    0.44064   0.47379   -2.000
 7200.00    0.44636   0.47404   -2.000
 7201.00    0.45162   0.47421   -2.000
 7202.00    0.45409   0.47425   -2.000
 7203.00    0.45328   0.47417   -2.000
 7204.00    0.44979   0.47402   -2.000
 7205.00    0.44533   0.47375   -2.000
 7206.00    0.44269   0.47350   -2.000
 7207.00    0.44240   0.47321   -2.000
 7208.00    0.43956   0.47302   -2.000
 7209.00    0.43135   0.47289   -2.000
 7210.00    0.42522   0.47289   -2.000
 7211.00    0.42922   0.47303   -2.000
 7212.00    0.44074   0.47328   -2.000
 7213.00    0.45159   0.47366   -2.000
 7214.00    0.45492   0.47409   -2.000
 7215.00    0.45120   0.47460   -2.000
 7216.00    0.45218   0.47508   -2.000
 7217.00    0.46666   0.47558   -2.000
 7218.00    0.48735   0.47602   -2.000
