###################################################################
## OUTPUT of StarlightChains_v04.for    [Cid@UFSC - 01/Apr/2007] ##
###################################################################

## Some input info
2005ci.txt                               [arq_obs]
Base.CB07.vall.4m                        [arq_base]
Masks.EmLines.NEW.gm                     [arq_masks]
StCv04.C11.config                        [arq_config]
   66                                    [N_base]
    0                                    [N_YAV_components = # of components with extra extinction!]
    0                                    [i_FitPowerLaw (1/0 = Yes/No)]
-9.99                                    [alpha_PowerLaw]
CCM                                      [red_law_option]
 1.458241                                [q_norm = A(l_norm)/A(V)]

## (Re)Sampling Parameters
 3741.00                                 [l_ini (A)]
 7218.00                                 [l_fin (A)]
    1.00                                 [dl    (A)]     (OBS: dl_cushion =    50.00 A)

## Normalization info
 4020.00                                 [l_norm (A) - for base]
 4010.00                                 [llow_norm (A) - window for f_obs]
 4060.00                                 [lupp_norm (A) - window for f_obs]
5.115223E-16                             [fobs_norm (in input units)]

## S/N
 3691.00                                 [llow_SN (A) - window for S/N]
 7268.00                                 [lupp_SN (A) - window for S/N]
   7.064                                 [S/N in S/N window]
   9.135                                 [S/N in norm. window]
  18.479                                 [S/N_err in S/N window]
  23.898                                 [S/N_err in norm. window]
  1.0000                                 [fscale_chi2]

## etc...
    -2007298                             [idum_orig]
  2388                                   [NOl_eff]
  2385                                   [Nl_eff]
     3    NSIGMA                         [Ntot_cliped & clip_method]
  1749370                                [Nglobal_steps]
   7                                     [N_chains]
  25                                     [NEX0s_base = N_base in EX0s-fits]
 0   0   1        6   2.0   4.097E+01    [Clip-Bug, RC-Crash & Burn-In warning-flags, n_censored_weights, wei_nsig_threshold & wei_limit]
    16     16.636     16.143      0.493  [idt_all, wdt_TotTime, wdt_UsrTime & wdt_SysTime (sec)]

## Synthesis Results - Best model ##

 2.82243E-01                             [chi2/Nl_eff]
     2.13117                             [adev (%)]

   101.70784                             [sum-of-x (%)]
 1.07619E-15                             [Flux_tot (units of input spectrum!)]
 3.14327E-12                             [Mini_tot (???)]
 1.83581E-12                             [Mcor_tot (???)]

 -43.79                                  [v0_min  (km/s)]
 157.17                                  [vd_min  (km/s)]
 0.5412                                  [AV_min  (mag)]
 0.0000                                  [YAV_min (mag)]

# j     x_j(%)      Mini_j(%)     Mcor_j(%)     age_j(yr)     Z_j      (L/M)_j    YAV?  Mstars   component_j        a/Fe...       SSP_chi2r SSP_adev(%)   SSP_AV   SSP_x(%)
  1     10.0450     3.0909E-01    5.2922E-01    1.000000E+06  0.00400  1.094E-02    0   1.0000   age020_m42            0.0000     1.4195E+00     4.8423   2.4273    88.5652
  2      0.0000     0.0000E+00    0.0000E+00    3.160000E+06  0.00400  4.007E-02    0   0.9999   age045_m42            0.0000     9.5632E-01     4.0359   1.7316    93.3470
  3      0.0000     0.0000E+00    0.0000E+00    5.010000E+06  0.00400  2.539E-02    0   0.9488   age055_m42            0.0000     1.1093E+00     4.2411   2.0377    91.6616
  4      0.0000     0.0000E+00    0.0000E+00    6.610000E+06  0.00400  2.620E-02    0   0.9220   age061_m42            0.0000     8.7398E-01     3.8672   1.6571    93.6213
  5      0.0000     0.0000E+00    0.0000E+00    1.000000E+07  0.00400  1.322E-02    0   0.8862   age070_m42            0.0000     5.0501E-01     2.7541   1.3474    96.9140
  6      0.0000     0.0000E+00    0.0000E+00    1.445000E+07  0.00400  7.883E-03    0   0.8571   age078_m42            0.0000     6.3585E-01     3.0504   1.6704    94.6269
  7      0.0000     0.0000E+00    0.0000E+00    2.512000E+07  0.00400  5.251E-03    0   0.8174   age090_m42            0.0000     4.6441E-01     2.6320   1.2150    97.5790
  8      0.0000     0.0000E+00    0.0000E+00    4.000000E+07  0.00400  3.649E-03    0   0.7851   age104_m42            0.0000     4.2460E-01     2.5749   0.9934    98.1205
  9      0.0000     0.0000E+00    0.0000E+00    5.500000E+07  0.00400  3.098E-03    0   0.7629   age110_m42            0.0000     5.3497E-01     3.0078   1.1656    97.2602
 10      0.0000     0.0000E+00    0.0000E+00    1.015200E+08  0.00400  2.228E-03    0   0.7207   age116_m42            0.0000     6.3463E-01     3.3994   1.1989    96.8521
 11      0.0000     0.0000E+00    0.0000E+00    2.861200E+08  0.00400  1.093E-03    0   0.6648   age125_m42            0.0000     5.4936E-01     3.2376   0.6241   100.0207
 12      0.0000     0.0000E+00    0.0000E+00    5.088000E+08  0.00400  6.597E-04    0   0.6365   age130_m42            0.0000     6.7379E-01     3.6743   0.6323   100.0057
 13      6.3138     9.9692E+00    9.8967E+00    1.434000E+09  0.00400  2.132E-04    0   0.5798   age139_m42            0.0000     7.3585E-01     3.8913  -0.3291   101.5536
 14      3.1626     1.8060E+01    1.6627E+01    4.250000E+09  0.00400  5.895E-05    0   0.5377   age158_m42            0.0000     1.2283E+00     4.8777  -0.7644    97.4343
 15      2.1813     2.0920E+01    1.8669E+01    7.500000E+09  0.00400  3.510E-05    0   0.5212   age171_m42            0.0000     1.5968E+00     5.4728  -0.9435    96.4199
 16      0.0000     0.0000E+00    0.0000E+00    1.300000E+10  0.00400  2.005E-05    0   0.5034   age193_m42            0.0000     2.1345E+00     6.1398  -1.0000    91.8371
 17      0.0000     0.0000E+00    0.0000E+00    1.800000E+10  0.00400  1.525E-05    0   0.4967   age213_m42            0.0000     2.1547E+00     6.1561  -1.0000    90.5936
 18      7.8697     2.1399E-01    3.6639E-01    1.000000E+06  0.00800  1.238E-02    0   1.0000   age020_m52            0.0000     1.4263E+00     4.8546   2.4236    88.7349
 19      3.0636     3.3549E-02    5.7247E-02    3.160000E+06  0.00800  3.074E-02    0   0.9966   age045_m52            0.0000     1.4152E+00     4.8015   2.3496    89.4155
 20      0.0008     1.0343E-05    1.6723E-05    5.010000E+06  0.00800  2.668E-02    0   0.9443   age055_m52            0.0000     1.1386E+00     4.2866   2.1153    91.0546
 21      0.0000     0.0000E+00    0.0000E+00    6.610000E+06  0.00800  2.136E-02    0   0.9177   age061_m52            0.0000     4.2794E-01     2.6213   0.8413    98.3137
 22      0.0000     0.0000E+00    0.0000E+00    1.000000E+07  0.00800  1.215E-02    0   0.8827   age070_m52            0.0000     5.0569E-01     2.6955   1.5146    97.2475
 23      0.0063     2.4202E-04    3.5439E-04    1.445000E+07  0.00800  8.717E-03    0   0.8552   age078_m52            0.0000     5.7177E-01     2.8965   1.6365    95.9055
 24      0.0194     1.1679E-03    1.6322E-03    2.512000E+07  0.00800  5.592E-03    0   0.8162   age090_m52            0.0000     4.4093E-01     2.5645   1.2788    98.7274
 25      0.0000     0.0000E+00    0.0000E+00    4.000000E+07  0.00800  3.896E-03    0   0.7841   age104_m52            0.0000     4.3605E-01     2.6372   1.2026    98.9616
 26      0.0632     9.8980E-03    1.2246E-02    1.015200E+08  0.00800  2.148E-03    0   0.7226   age116_m52            0.0000     4.9338E-01     2.9874   1.1574    98.0452
 27      0.0000     0.0000E+00    0.0000E+00    2.861200E+08  0.00800  9.925E-04    0   0.6683   age125_m52            0.0000     6.1835E-01     3.4846   0.6966   100.9667
 28      4.1294     4.4256E+00    4.6511E+00    9.047900E+08  0.00800  3.141E-04    0   0.6138   age135_m52            0.0000     9.6985E-01     4.4753  -0.0736   103.8045
 29      0.0000     0.0000E+00    0.0000E+00    1.434000E+09  0.00800  1.719E-04    0   0.5853   age139_m52            0.0000     1.0997E+00     4.7246  -0.6630   102.1408
 30      0.0000     0.0000E+00    0.0000E+00    2.500000E+09  0.00800  7.872E-05    0   0.5600   age150_m52            0.0000     1.7104E+00     5.7900  -0.9132    98.6386
 31      0.0000     0.0000E+00    0.0000E+00    4.250000E+09  0.00800  4.336E-05    0   0.5426   age158_m52            0.0000     1.8072E+00     5.8572  -0.9287    97.7326
 32      0.0000     0.0000E+00    0.0000E+00    6.250000E+09  0.00800  3.159E-05    0   0.5319   age166_m52            0.0000     2.5650E+00     6.8299  -1.0000    92.7222
 33      0.0000     0.0000E+00    0.0000E+00    1.300000E+10  0.00800  1.361E-05    0   0.5073   age193_m52            0.0000     7.1709E+00    11.2652  -1.0000    75.5347
 34      0.0000     0.0000E+00    0.0000E+00    1.800000E+10  0.00800  9.886E-06    0   0.4990   age213_m52            0.0000     9.0172E+00    12.6142  -1.0000    71.6448
 35      6.5370     1.4252E-01    2.4402E-01    1.000000E+06  0.02000  1.544E-02    0   1.0000   age020_m62            0.0000     1.4467E+00     4.8953   2.4191    88.9641
 36      0.0000     0.0000E+00    0.0000E+00    3.160000E+06  0.02000  3.762E-02    0   0.9858   age045_m62            0.0000     1.4788E+00     4.9196   2.3592    89.7062
 37      0.0000     0.0000E+00    0.0000E+00    5.010000E+06  0.02000  3.296E-02    0   0.9342   age055_m62            0.0000     1.0918E+00     4.2875   2.0052    92.4703
 38     15.7511     4.5947E-01    6.9710E-01    8.710000E+06  0.02000  1.154E-02    0   0.8861   age067_m62            0.0000     1.1105E+00     4.5598   0.9034   103.0272
 39      0.0000     0.0000E+00    0.0000E+00    1.445000E+07  0.02000  7.663E-03    0   0.8472   age078_m62            0.0000     5.1436E-01     2.8086   1.1433   100.3138
 40      0.0000     0.0000E+00    0.0000E+00    2.512000E+07  0.02000  4.532E-03    0   0.8099   age090_m62            0.0000     6.0138E-01     3.0588   1.1360   100.0296
 41      0.0000     0.0000E+00    0.0000E+00    5.500000E+07  0.02000  2.733E-03    0   0.7595   age110_m62            0.0000     4.4572E-01     2.6408   1.1811    98.4417
 42      0.0000     0.0000E+00    0.0000E+00    1.609000E+08  0.02000  1.369E-03    0   0.6985   age120_m62            0.0000     5.6294E-01     3.2155   1.0487    99.7962
 43      0.0000     0.0000E+00    0.0000E+00    2.861200E+08  0.02000  9.013E-04    0   0.6714   age125_m62            0.0000     6.8526E-01     3.6057   0.8139   101.9081
 44      7.5567     5.0593E+00    5.5864E+00    5.088000E+08  0.02000  5.028E-04    0   0.6449   age130_m62            0.0000     9.8966E-01     4.5268   0.4640   103.2786
 45      8.4866     1.1766E+01    1.2448E+01    9.047900E+08  0.02000  2.428E-04    0   0.6179   age135_m62            0.0000     1.1924E+00     5.0390  -0.1179   102.5147
 46      0.8818     2.3503E+00    2.3774E+00    1.434000E+09  0.02000  1.263E-04    0   0.5908   age139_m62            0.0000     1.5163E+00     5.4793  -0.5632   101.0892
 47      0.0000     0.0000E+00    0.0000E+00    2.500000E+09  0.02000  5.985E-05    0   0.5673   age150_m62            0.0000     2.2744E+00     6.6276  -0.9141    99.0635
 48      0.0000     0.0000E+00    0.0000E+00    4.250000E+09  0.02000  3.271E-05    0   0.5468   age158_m62            0.0000     3.7785E+00     8.3263  -1.0000    89.8762
 49      0.0000     0.0000E+00    0.0000E+00    1.000000E+10  0.02000  1.360E-05    0   0.5167   age181_m62            0.0000     7.7149E+00    11.6032  -1.0000    77.1725
 50      0.0000     0.0000E+00    0.0000E+00    1.800000E+10  0.02000  7.124E-06    0   0.5013   age213_m62            0.0000     1.1099E+01    13.9156  -1.0000    69.7515
 51      8.8144     1.1447E-01    1.9596E-01    1.000000E+06  0.05000  2.592E-02    0   0.9998   age020_m72            0.0000     1.4816E+00     4.9925   2.4058    89.1764
 52      0.0000     0.0000E+00    0.0000E+00    3.160000E+06  0.05000  4.845E-02    0   0.9577   age045_m72            0.0000     1.3983E+00     4.7743   2.2542    90.4059
 53      0.0000     0.0000E+00    0.0000E+00    5.010000E+06  0.05000  3.072E-02    0   0.9147   age055_m72            0.0000     7.6639E-01     3.4287   1.7426    95.9047
 54      0.0000     0.0000E+00    0.0000E+00    6.610000E+06  0.05000  1.455E-02    0   0.8877   age061_m72            0.0000     2.8423E+00     7.0787   0.9290   105.0859
 55      0.0000     0.0000E+00    0.0000E+00    1.000000E+07  0.05000  9.074E-03    0   0.8524   age070_m72            0.0000     1.2668E+00     4.3328   1.9298    95.5101
 56      0.0000     0.0000E+00    0.0000E+00    2.512000E+07  0.05000  4.250E-03    0   0.7902   age090_m72            0.0000     8.3769E-01     3.6133   1.6379    96.8823
 57      0.0000     0.0000E+00    0.0000E+00    4.000000E+07  0.05000  3.087E-03    0   0.7618   age104_m72            0.0000     8.1974E-01     3.6184   1.4095    98.5059
 58      0.0000     0.0000E+00    0.0000E+00    1.015200E+08  0.05000  1.700E-03    0   0.7096   age116_m72            0.0000     5.4105E-01     3.1168   1.1803    99.8761
 59      0.0000     0.0000E+00    0.0000E+00    2.861200E+08  0.05000  7.384E-04    0   0.6633   age125_m72            0.0000     8.1406E-01     4.0136   0.6970   102.5797
 60      6.7690     5.9666E+00    6.5096E+00    5.088000E+08  0.05000  3.819E-04    0   0.6372   age130_m72            0.0000     1.1167E+00     4.9416   0.2224   103.4184
 61     10.0561     2.0198E+01    2.1130E+01    9.047900E+08  0.05000  1.676E-04    0   0.6110   age135_m72            0.0000     2.0444E+00     6.5442  -0.4571   100.9268
 62      0.0000     0.0000E+00    0.0000E+00    1.434000E+09  0.05000  8.837E-05    0   0.5874   age139_m72            0.0000     2.4753E+00     6.9278  -0.9110   100.3361
 63      0.0000     0.0000E+00    0.0000E+00    2.500000E+09  0.05000  4.233E-05    0   0.5598   age150_m72            0.0000     4.0761E+00     8.6873  -1.0000    90.6036
 64      0.0000     0.0000E+00    0.0000E+00    6.250000E+09  0.05000  1.435E-05    0   0.5249   age166_m72            0.0000     9.1688E+00    12.6910  -1.0000    73.6407
 65      0.0000     0.0000E+00    0.0000E+00    1.300000E+10  0.05000  6.513E-06    0   0.5036   age193_m72            0.0000     1.4159E+01    15.8043  -1.0000    65.4990
 66      0.0000     0.0000E+00    0.0000E+00    1.800000E+10  0.05000  4.527E-06    0   0.4945   age213_m72            0.0000     1.7426E+01    17.5855  -1.0000    60.6686


## Synthesis Results - Average & Chains ##

# j      x_j: min, <> & last-chain-values for 1 ...  7 chains
  1     10.0450      5.2651      7.0929      5.9471      4.6528      5.8646      5.4463      7.4610      5.8139
  2      0.0000      0.3455      1.6269      0.2088      0.0000      0.0000      0.9737      0.0000      0.4087
  3      0.0000      0.3914      0.0000      0.1481      0.0000      0.0000      0.9724      0.3416      0.4421
  4      0.0000      0.3522      0.0000      0.0000      0.0000      0.5017      0.0000      0.5382      0.6485
  5      0.0000      1.2535      0.0000      0.0000      4.1005      0.7206      1.1334      1.8829      0.0000
  6      0.0000      0.5945      0.1006      0.0000      0.0000      0.0000      0.2652      0.0000      0.0000
  7      0.0000      0.8451      0.0000      0.0000      0.1741      1.0714      0.0000      0.2621      0.7773
  8      0.0000      1.3010      0.8946      4.1389      0.0000      0.0000      0.0000      0.0000      0.0000
  9      0.0000      0.4657      0.0000      0.8470      0.0000      0.3872      1.0310      0.0000      0.0000
 10      0.0000      0.3351      0.0000      0.0264      0.0000      0.0000      0.4767      0.5392      0.0000
 11      0.0000      0.8109      0.3885      0.0000      0.4842      0.0000      0.4604      0.0000      0.5020
 12      0.0000      0.5709      0.0000      0.0000      0.0000      1.8839      0.0000      0.0000      0.0000
 13      6.3138      4.3956      4.2053      4.2966      4.8688      3.8542      5.0415      5.2631      4.6941
 14      3.1626      1.6299      1.8826      2.1007      1.7869      1.9418      2.2295      2.0796      1.8760
 15      2.1813      1.3671      1.1059      1.5935      1.6126      1.2029      1.3679      1.5287      1.7693
 16      0.0000      0.0805      0.0000      0.0000      0.0000      0.0722      0.0197      0.0000      0.0000
 17      0.0000      0.0270      0.0000      0.1147      0.0000      0.0000      0.0000      0.0000      0.0000
 18      7.8697      4.6282      4.2715      5.6589      5.1346      5.8371      6.5454      4.7004      4.6682
 19      3.0636      4.3870      5.0279      3.9833      5.1467      4.3028      4.2949      4.3707      5.0748
 20      0.0008      0.4190      0.0000      0.3869      0.0000      0.1934      0.8341      0.6519      0.0000
 21      0.0000      1.5157      0.0416      2.0227      1.5100      1.4988      1.0712      0.1128      2.0792
 22      0.0000      0.3803      0.0000      0.0000      1.3317      0.0000      0.7960      0.0000      1.3085
 23      0.0063      2.9123      3.0808      3.3341      3.6467      2.9722      2.5671      3.1441      3.4174
 24      0.0194      1.4018      3.8501      0.7548      1.9990      0.0000      4.1018      0.6263      2.2342
 25      0.0000      0.8291      0.8286      0.0000      1.4700      0.0000      0.0000      0.2501      0.8782
 26      0.0632      0.9604      0.5187      0.5199      0.0000      0.0000      0.0000      1.1854      1.9064
 27      0.0000      0.8789      3.0846      0.9397      0.0403      0.3644      0.1117      0.1619      0.0000
 28      4.1294      3.0158      2.8751      2.8431      2.9551      5.5149      4.5931      1.5410      1.4046
 29      0.0000      0.0574      0.0000      0.0000      0.0000      0.0000      0.0000      0.0000      0.0000
 30      0.0000      0.0975      0.0000      0.0000      0.0000      0.0000      0.0000      0.3206      0.4673
 31      0.0000      0.2604      0.7414      0.0000      1.1048      0.1119      0.4753      0.0000      0.0000
 32      0.0000      0.0562      0.0000      0.0000      0.0000      0.0000      0.0000      0.0365      0.0000
 33      0.0000      0.0293      0.0000      0.0000      0.0649      0.0000      0.0000      0.0000      0.0000
 34      0.0000      0.0228      0.0000      0.0000      0.2253      0.0000      0.0000      0.0000      0.0000
 35      6.5370      4.0217      4.4658      3.7538      4.2555      5.2621      4.1685      4.3437      4.8131
 36      0.0000      0.2709      0.7890      0.0000      0.0000      0.1611      0.0693      0.0631      0.0000
 37      0.0000      0.1595      0.0000      0.3022      0.0000      0.0000      0.0000      0.0000      0.7339
 38     15.7511     15.1724     16.4271     17.9287     16.3165     17.0362     15.8826     17.6866     15.6937
 39      0.0000      0.7008      0.0380      0.0000      0.0423      0.1154      0.0000      0.0000      0.0000
 40      0.0000      0.4196      0.0000      0.2450      0.0000      0.0000      0.0000      0.0000      0.2033
 41      0.0000      0.3579      0.1006      0.0000      0.0000      0.0000      0.0000      1.2345      0.1865
 42      0.0000      0.5271      0.0000      0.0000      0.0000      0.6268      0.0000      0.0000      1.6415
 43      0.0000      0.6741      0.5291      0.0000      0.9159      0.5816      1.2374      0.0000      0.0000
 44      7.5567      3.0068      1.9476      7.8274      3.1175      2.2196      0.0000      4.1643      3.0819
 45      8.4866      8.4974      9.2948      5.3874      9.0999      8.0086      9.3501     10.9015      8.9013
 46      0.8818      1.0824      1.4832      1.9087      0.9844      1.4008      0.0000      0.5067      1.4735
 47      0.0000      0.0364      0.0000      0.0000      0.0000      0.0000      0.0000      0.0000      0.1849
 48      0.0000      0.0179      0.0000      0.0000      0.0000      0.0000      0.0000      0.0000      0.0000
 49      0.0000      0.0454      0.0000      0.0000      0.0000      0.0000      0.0000      0.0000      0.0000
 50      0.0000      0.0072      0.0000      0.0000      0.0000      0.0000      0.0000      0.0000      0.0000
 51      8.8144      5.8415      6.0131      7.2333      7.3647      8.2599      6.7698      6.4633      6.0142
 52      0.0000      0.2517      0.0000      0.0000      0.0000      0.0000      0.0000      0.0000      0.0000
 53      0.0000      0.1288      0.0000      0.0000      0.5790      0.0000      0.0000      0.5596      0.0000
 54      0.0000      0.2722      0.0000      0.0000      0.0000      0.0000      0.0000      0.0000      0.0991
 55      0.0000      0.1425      0.0000      0.0000      0.0000      0.0000      0.0000      0.0000      0.0000
 56      0.0000      0.2289      0.0000      0.0000      0.1401      0.9182      0.4188      0.1604      0.0000
 57      0.0000      0.2029      0.0000      0.0000      0.0000      0.0000      0.0000      0.0000      0.0000
 58      0.0000      0.3922      0.3049      0.0000      0.0000      0.0786      0.0000      0.0000      0.1505
 59      0.0000      0.9682      0.2476      1.7791      0.4204      0.7391      0.0000      0.0000      0.0000
 60      6.7690      6.5332      8.6557      5.0373      6.1698      6.6953      8.1858      8.6405      8.2618
 61     10.0561      9.3890      9.4050     10.1239      9.9166     10.1397     10.5232      9.6533      9.2424
 62      0.0000      0.2079      0.3820      0.0000      0.1762      1.0182      0.0000      0.4556      0.4879
 63      0.0000      0.0838      0.0000      0.0000      0.0000      0.0000      0.0000      0.0000      0.0000
 64      0.0000      0.0060      0.0000      0.0000      0.0000      0.0000      0.0000      0.0000      0.0000
 65      0.0000      0.0411      0.0000      0.0000      0.0000      0.0000      0.0000      0.0000      0.0000
 66      0.0000      0.0122      0.0000      0.2657      0.0000      0.0000      0.0820      0.0000      0.0000

# j      m_j: min, <> & last-chain-values for 1 ...  7 chains
  1  5.2922E-01  3.0573E-01  4.2715E-01  3.0548E-01  2.4740E-01  3.5213E-01  3.1042E-01  4.4050E-01  3.4471E-01
  2  0.0000E+00  5.4775E-03  2.6746E-02  2.9282E-03  0.0000E+00  0.0000E+00  1.5151E-02  0.0000E+00  6.6158E-03
  3  0.0000E+00  9.2905E-03  0.0000E+00  3.1108E-03  0.0000E+00  0.0000E+00  2.2658E-02  8.2461E-03  1.0716E-02
  4  0.0000E+00  7.8746E-03  0.0000E+00  0.0000E+00  0.0000E+00  1.1598E-02  0.0000E+00  1.2233E-02  1.4802E-02
  5  0.0000E+00  5.3379E-02  0.0000E+00  0.0000E+00  1.5989E-01  3.1731E-02  4.7373E-02  8.1524E-02  0.0000E+00
  6  0.0000E+00  4.1063E-02  7.2093E-03  0.0000E+00  0.0000E+00  0.0000E+00  1.7981E-02  0.0000E+00  0.0000E+00
  7  0.0000E+00  8.3571E-02  0.0000E+00  0.0000E+00  1.5760E-02  1.0955E-01  0.0000E+00  2.6351E-02  7.8489E-02
  8  0.0000E+00  1.7782E-01  1.2680E-01  5.0041E-01  0.0000E+00  0.0000E+00  0.0000E+00  0.0000E+00  0.0000E+00
  9  0.0000E+00  7.2846E-02  0.0000E+00  1.1721E-01  0.0000E+00  6.2641E-02  1.5831E-01  0.0000E+00  0.0000E+00
 10  0.0000E+00  6.8870E-02  0.0000E+00  4.8019E-03  0.0000E+00  0.0000E+00  9.6139E-02  1.1265E-01  0.0000E+00
 11  0.0000E+00  3.1333E-01  1.5569E-01  0.0000E+00  1.7133E-01  0.0000E+00  1.7460E-01  0.0000E+00  1.9806E-01
 12  0.0000E+00  3.4994E-01  0.0000E+00  0.0000E+00  0.0000E+00  1.1940E+00  0.0000E+00  0.0000E+00  0.0000E+00
 13  9.8967E+00  7.5940E+00  7.5345E+00  6.5662E+00  7.7022E+00  6.8851E+00  8.5488E+00  9.2448E+00  8.2803E+00
 14  1.6627E+01  9.4441E+00  1.1313E+01  1.0767E+01  9.4808E+00  1.1634E+01  1.2680E+01  1.2252E+01  1.1100E+01
 15  1.8669E+01  1.2896E+01  1.0819E+01  1.3296E+01  1.3929E+01  1.1733E+01  1.2665E+01  1.4662E+01  1.7042E+01
 16  0.0000E+00  1.2834E+00  0.0000E+00  0.0000E+00  0.0000E+00  1.1904E+00  3.0883E-01  0.0000E+00  0.0000E+00
 17  0.0000E+00  5.5856E-01  0.0000E+00  2.0989E+00  0.0000E+00  0.0000E+00  0.0000E+00  0.0000E+00  0.0000E+00
 18  3.6639E-01  2.3749E-01  2.2732E-01  2.5687E-01  2.4126E-01  3.0971E-01  3.2967E-01  2.4523E-01  2.4459E-01
 19  5.7247E-02  9.0352E-02  1.0739E-01  7.2570E-02  9.7061E-02  9.1633E-02  8.6822E-02  9.1525E-02  1.0672E-01
 20  1.6723E-05  9.4199E-03  0.0000E+00  7.6946E-03  0.0000E+00  4.4969E-03  1.8407E-02  1.4902E-02  0.0000E+00
 21  0.0000E+00  4.1369E-02  1.1781E-03  4.8834E-02  3.7737E-02  4.2299E-02  2.8698E-02  3.1294E-03  5.7943E-02
 22  0.0000E+00  1.7551E-02  0.0000E+00  0.0000E+00  5.6278E-02  0.0000E+00  3.6058E-02  0.0000E+00  6.1659E-02
 23  3.5439E-04  1.8150E-01  1.9913E-01  1.8381E-01  2.0811E-01  1.9154E-01  1.5703E-01  1.9923E-01  2.1747E-01
 24  1.6322E-03  1.2998E-01  3.7023E-01  6.1906E-02  1.6972E-01  0.0000E+00  3.7331E-01  5.9041E-02  2.1152E-01
 25  0.0000E+00  1.0600E-01  1.0986E-01  0.0000E+00  1.7210E-01  0.0000E+00  0.0000E+00  3.2505E-02  1.1464E-01
 26  1.2246E-02  2.0525E-01  1.1497E-01  9.8276E-02  0.0000E+00  0.0000E+00  0.0000E+00  2.5757E-01  4.1599E-01
 27  0.0000E+00  3.7594E-01  1.3684E+00  3.5558E-01  1.5779E-02  1.6117E-01  4.6901E-02  7.0411E-02  0.0000E+00
 28  4.6511E+00  3.7438E+00  3.7015E+00  3.1221E+00  3.3592E+00  7.0792E+00  5.5966E+00  1.9451E+00  1.7804E+00
 29  0.0000E+00  1.2423E-01  0.0000E+00  0.0000E+00  0.0000E+00  0.0000E+00  0.0000E+00  0.0000E+00  0.0000E+00
 30  0.0000E+00  4.4048E-01  0.0000E+00  0.0000E+00  0.0000E+00  0.0000E+00  0.0000E+00  1.4733E+00  2.1563E+00
 31  0.0000E+00  2.0700E+00  6.1125E+00  0.0000E+00  8.0421E+00  9.1964E-01  3.7088E+00  0.0000E+00  0.0000E+00
 32  0.0000E+00  6.0083E-01  0.0000E+00  0.0000E+00  0.0000E+00  0.0000E+00  0.0000E+00  3.9681E-01  0.0000E+00
 33  0.0000E+00  6.9297E-01  0.0000E+00  0.0000E+00  1.4061E+00  0.0000E+00  0.0000E+00  0.0000E+00  0.0000E+00
 34  0.0000E+00  7.3265E-01  0.0000E+00  0.0000E+00  6.6148E+00  0.0000E+00  0.0000E+00  0.0000E+00  0.0000E+00
 35  2.4402E-01  1.6547E-01  1.9056E-01  1.3662E-01  1.6033E-01  2.2387E-01  1.6834E-01  1.8171E-01  2.0220E-01
 36  0.0000E+00  4.5104E-03  1.3621E-02  0.0000E+00  0.0000E+00  2.7722E-03  1.1328E-03  1.0681E-03  0.0000E+00
 37  0.0000E+00  2.8726E-03  0.0000E+00  4.8127E-03  0.0000E+00  0.0000E+00  0.0000E+00  0.0000E+00  1.3493E-02
 38  6.9710E-01  7.4009E-01  8.3102E-01  7.7360E-01  7.2879E-01  8.5927E-01  7.6043E-01  8.7718E-01  7.8164E-01
 39  0.0000E+00  4.9220E-02  2.7704E-03  0.0000E+00  2.7199E-03  8.3778E-03  0.0000E+00  0.0000E+00  0.0000E+00
 40  0.0000E+00  4.7635E-02  0.0000E+00  2.4606E-02  0.0000E+00  0.0000E+00  0.0000E+00  0.0000E+00  2.3563E-02
 41  0.0000E+00  6.3179E-02  1.8413E-02  0.0000E+00  0.0000E+00  0.0000E+00  0.0000E+00  2.2160E-01  3.3623E-02
 42  0.0000E+00  1.7086E-01  0.0000E+00  0.0000E+00  0.0000E+00  2.1009E-01  0.0000E+00  0.0000E+00  5.4325E-01
 43  0.0000E+00  3.1899E-01  2.5967E-01  0.0000E+00  3.9690E-01  2.8460E-01  5.7475E-01  0.0000E+00  0.0000E+00
 44  5.5864E+00  2.4500E+00  1.6458E+00  5.6416E+00  2.3260E+00  1.8700E+00  0.0000E+00  3.4499E+00  2.5640E+00
 45  1.2448E+01  1.3738E+01  1.5584E+01  7.7044E+00  1.3471E+01  1.3388E+01  1.4837E+01  1.7919E+01  1.4694E+01
 46  2.3774E+00  3.2164E+00  4.5711E+00  5.0171E+00  2.6787E+00  4.3044E+00  0.0000E+00  1.5309E+00  4.4709E+00
 47  0.0000E+00  2.1938E-01  0.0000E+00  0.0000E+00  0.0000E+00  0.0000E+00  0.0000E+00  0.0000E+00  1.1365E+00
 48  0.0000E+00  1.9056E-01  0.0000E+00  0.0000E+00  0.0000E+00  0.0000E+00  0.0000E+00  0.0000E+00  0.0000E+00
 49  0.0000E+00  1.0958E+00  0.0000E+00  0.0000E+00  0.0000E+00  0.0000E+00  0.0000E+00  0.0000E+00  0.0000E+00
 50  0.0000E+00  3.2299E-01  0.0000E+00  0.0000E+00  0.0000E+00  0.0000E+00  0.0000E+00  0.0000E+00  0.0000E+00
 51  1.9596E-01  1.4314E-01  1.5281E-01  1.5679E-01  1.6525E-01  2.0929E-01  1.6282E-01  1.6103E-01  1.5047E-01
 52  0.0000E+00  3.1601E-03  0.0000E+00  0.0000E+00  0.0000E+00  0.0000E+00  0.0000E+00  0.0000E+00  0.0000E+00
 53  0.0000E+00  2.4368E-03  0.0000E+00  0.0000E+00  1.0029E-02  0.0000E+00  0.0000E+00  1.0762E-02  0.0000E+00
 54  0.0000E+00  1.0552E-02  0.0000E+00  0.0000E+00  0.0000E+00  0.0000E+00  0.0000E+00  0.0000E+00  3.9227E-03
 55  0.0000E+00  8.5065E-03  0.0000E+00  0.0000E+00  0.0000E+00  0.0000E+00  0.0000E+00  0.0000E+00  0.0000E+00
 56  0.0000E+00  2.7036E-02  0.0000E+00  0.0000E+00  1.5147E-02  1.1214E-01  4.8551E-02  1.9262E-02  0.0000E+00
 57  0.0000E+00  3.1808E-02  0.0000E+00  0.0000E+00  0.0000E+00  0.0000E+00  0.0000E+00  0.0000E+00  0.0000E+00
 58  0.0000E+00  1.0399E-01  8.3843E-02  0.0000E+00  0.0000E+00  2.1540E-02  0.0000E+00  0.0000E+00  4.0751E-02
 59  0.0000E+00  5.5253E-01  1.4652E-01  8.9808E-01  2.1970E-01  4.3614E-01  0.0000E+00  0.0000E+00  0.0000E+00
 60  6.5096E+00  6.9248E+00  9.5148E+00  4.7230E+00  5.9882E+00  7.3381E+00  8.5161E+00  9.3118E+00  8.9414E+00
 61  2.1130E+01  2.1744E+01  2.2589E+01  2.0740E+01  2.1029E+01  2.4281E+01  2.3921E+01  2.2731E+01  2.1855E+01
 62  0.0000E+00  8.7789E-01  1.6731E+00  0.0000E+00  6.8137E-01  4.4457E+00  0.0000E+00  1.9561E+00  2.1036E+00
 63  0.0000E+00  7.0440E-01  0.0000E+00  0.0000E+00  0.0000E+00  0.0000E+00  0.0000E+00  0.0000E+00  0.0000E+00
 64  0.0000E+00  1.3926E-01  0.0000E+00  0.0000E+00  0.0000E+00  0.0000E+00  0.0000E+00  0.0000E+00  0.0000E+00
 65  0.0000E+00  2.0176E+00  0.0000E+00  0.0000E+00  0.0000E+00  0.0000E+00  0.0000E+00  0.0000E+00  0.0000E+00
 66  0.0000E+00  8.4796E-01  0.0000E+00  1.6309E+01  0.0000E+00  0.0000E+00  5.5820E+00  0.0000E+00  0.0000E+00

# AV, chi2 & Mass for <> & i_chain = 1 ...  7 solutions
AV       0.5412      0.5798      0.5748      0.5733      0.5501      0.5713      0.5787      0.5606      0.5773
chi2 2.8224E-01  2.9042E-01  2.8740E-01  2.8769E-01  2.8782E-01  2.8776E-01  2.8782E-01  2.8698E-01  2.8814E-01
Mass 1.8358E-12  1.7544E-12  1.6803E-12  1.9660E-12  1.8410E-12  1.6774E-12  1.7847E-12  1.6815E-12  1.7123E-12
 -43.79                                  [v0_min (km/s) before EX0s...]
 157.17                                  [vd_min (km/s) before EX0s...]


## Synthetic spectrum (Best Model) ##l_obs f_obs f_syn wei
 3478    [Nl_obs]
 3741.00    0.89293   0.82585    0.000
 3742.00    0.88002   0.82104    0.000
 3743.00    0.85381   0.80707    0.000
 3744.00    0.81713   0.78613    0.000
 3745.00    0.78416   0.75969    7.324
 3746.00    0.76130   0.72930    7.375
 3747.00    0.74340   0.69927    7.409
 3748.00    0.73155   0.67654    7.484
 3749.00    0.73563   0.66742    7.632
 3750.00    0.75567   0.67541    7.777
 3751.00    0.77880   0.69944    7.763
 3752.00    0.79547   0.73333    7.650
 3753.00    0.80455   0.76799    7.683
 3754.00    0.80879   0.79555    7.853
 3755.00    0.81193   0.81258    7.875
 3756.00    0.81513   0.81998    7.754
 3757.00    0.81694   0.82116    7.813
 3758.00    0.81756   0.82054    8.109
 3759.00    0.81842   0.82207    8.344
 3760.00    0.81620   0.82630    8.314
 3761.00    0.80456   0.83088    8.112
 3762.00    0.78542   0.83261    7.975
 3763.00    0.76730   0.82825    8.101
 3764.00    0.74962   0.81598    8.372
 3765.00    0.72539   0.79597    8.418
 3766.00    0.70265   0.76946    8.245
 3767.00    0.69932   0.73899    8.225
 3768.00    0.71124   0.71035    8.457
 3769.00    0.71693   0.69099    8.739
 3770.00    0.71484   0.68582    8.868
 3771.00    0.72201   0.69621    8.802
 3772.00    0.74360   0.72031    8.716
 3773.00    0.77155   0.75260    8.837
 3774.00    0.80193   0.78635    9.082
 3775.00    0.83601   0.81769    9.141
 3776.00    0.87156   0.84582    9.012
 3777.00    0.90269   0.87079    8.970
 3778.00    0.92482   0.89218    9.094
 3779.00    0.93667   0.90939    9.274
 3780.00    0.94220   0.92222    9.397
 3781.00    0.94685   0.93045    9.412
 3782.00    0.94863   0.93334    9.338
 3783.00    0.94116   0.93043    9.237
 3784.00    0.92410   0.92240    9.163
 3785.00    0.90262   0.91050    9.150
 3786.00    0.88143   0.89614    9.224
 3787.00    0.86390   0.88128    9.388
 3788.00    0.85257   0.86750    9.561
 3789.00    0.84767   0.85419    9.639
 3790.00    0.84426   0.83900    9.657
 3791.00    0.83542   0.81950    9.718
 3792.00    0.81909   0.79396    9.796
 3793.00    0.79683   0.76176    9.823
 3794.00    0.76958   0.72429    9.917
 3795.00    0.73964   0.68652   10.231
 3796.00    0.71526   0.65675   10.589
 3797.00    0.70563   0.64285   10.629
 3798.00    0.71141   0.64908   10.349
 3799.00    0.72724   0.67501    9.993
 3800.00    0.74849   0.71500    9.657
 3801.00    0.77264   0.75940    9.376
 3802.00    0.79984   0.79937    9.293
 3803.00    0.83052   0.83043    9.495
 3804.00    0.86203   0.85262    9.752
 3805.00    0.89072   0.86875    9.763
 3806.00    0.91567   0.88249    9.723
 3807.00    0.93734   0.89638    9.963
 3808.00    0.95503   0.91053   10.343
 3809.00    0.96766   0.92230   10.486
 3810.00    0.97522   0.92802   10.368
 3811.00    0.97780   0.92641   10.230
 3812.00    0.97409   0.91924   10.242
 3813.00    0.96374   0.90998   10.432
 3814.00    0.95028   0.90194   10.630
 3815.00    0.93689   0.89605   10.663
 3816.00    0.92125   0.89027   10.631
 3817.00    0.90183   0.88295   10.730
 3818.00    0.88546   0.87514   10.979
 3819.00    0.87999   0.86891   11.238
 3820.00    0.88499   0.86566   11.264
 3821.00    0.89386   0.86542   11.017
 3822.00    0.89764   0.86578   10.902
 3823.00    0.88942   0.86283   11.223
 3824.00    0.86837   0.85453   11.711
 3825.00    0.83727   0.84211   11.908
 3826.00    0.79949   0.82794   11.831
 3827.00    0.76028   0.81248   11.789
 3828.00    0.72773   0.79382   12.001
 3829.00    0.70652   0.76956   12.433
 3830.00    0.69259   0.73853   12.631
 3831.00    0.68077   0.70146   12.338
 3832.00    0.67178   0.66198   12.103
 3833.00    0.66600   0.62708   12.327
 3834.00    0.65805   0.60457   12.619
 3835.00    0.64515   0.59929   12.563
 3836.00    0.63384   0.61205   12.503
 3837.00    0.63240   0.63982   12.791
 3838.00    0.64399   0.67657   13.173
 3839.00    0.66803   0.71636   13.270
 3840.00    0.70169   0.75529   13.127
 3841.00    0.73932   0.79100   12.985
 3842.00    0.77280   0.82202   13.015
 3843.00    0.79942   0.84761   13.199
 3844.00    0.82618   0.86783   13.286
 3845.00    0.85707   0.88331   13.136
 3846.00    0.88534   0.89473   12.956
 3847.00    0.90779   0.90310    0.000
 3848.00    0.93302   0.90989    0.000
 3849.00    0.96323   0.91599    0.000
 3850.00    0.98429   0.92164    0.000
 3851.00    0.98622   0.92692    0.000
 3852.00    0.97534   0.93092    0.000
 3853.00    0.96082   0.93214    0.000
 3854.00    0.94616   0.93050    0.000
 3855.00    0.93340   0.92706    0.000
 3856.00    0.92569   0.92313    0.000
 3857.00    0.92475   0.92057    0.000
 3858.00    0.92950   0.92091    0.000
 3859.00    0.93738   0.92416    0.000
 3860.00    0.94578   0.92967    0.000
 3861.00    0.95531   0.93660    0.000
 3862.00    0.97056   0.94295    0.000
 3863.00    0.99392   0.94662    0.000
 3864.00    1.02302   0.94729    0.000
 3865.00    1.05480   0.94631    0.000
 3866.00    1.08668   0.94483    0.000
 3867.00    1.11149   0.94253    0.000
 3868.00    1.11709   0.93818    0.000
 3869.00    1.09739   0.93089    0.000
 3870.00    1.05709   0.92151    0.000
 3871.00    1.00793   0.91219    0.000
 3872.00    0.96425   0.90513    0.000
 3873.00    0.93173   0.90107    0.000
 3874.00    0.90506   0.89854    0.000
 3875.00    0.88052   0.89450    0.000
 3876.00    0.86015   0.88735    0.000
 3877.00    0.84575   0.87770    0.000
 3878.00    0.83611   0.86671    0.000
 3879.00    0.82688   0.85505    0.000
 3880.00    0.81235   0.84239    0.000
 3881.00    0.79193   0.82644   13.543
 3882.00    0.77146   0.80414   13.627
 3883.00    0.75807   0.77440   13.764
 3884.00    0.75753   0.73806   14.046
 3885.00    0.77245   0.69701   14.331
 3886.00    0.80011   0.65618   14.288
 3887.00    0.82761   0.62426   -1.000
 3888.00    0.83589   0.60943   -1.000
 3889.00    0.81904   0.61533   -1.000
 3890.00    0.78697   0.64030   14.886
 3891.00    0.75201   0.67798   15.364
 3892.00    0.72405   0.71924   15.805
 3893.00    0.70987   0.75681   16.045
 3894.00    0.71189   0.78773   15.806
 3895.00    0.72515   0.81201   15.348
 3896.00    0.73996   0.83102   15.254
 3897.00    0.75221   0.84665   15.593
 3898.00    0.76395   0.86035   15.944
 3899.00    0.77601   0.87251   16.020
 3900.00    0.78719   0.88324   15.872
 3901.00    0.79797   0.89246   15.735
 3902.00    0.81048   0.89926   15.835
 3903.00    0.82533   0.90339   16.105
 3904.00    0.84152   0.90680   16.257
 3905.00    0.85834   0.91218   16.252
 3906.00    0.87558   0.92068   16.255
 3907.00    0.89293   0.93184   16.194
 3908.00    0.90958   0.94397   15.842
 3909.00    0.92385   0.95424   15.285
 3910.00    0.93343   0.96036   14.834
 3911.00    0.93642   0.96212   14.686
 3912.00    0.93292   0.96069   14.849
 3913.00    0.92806   0.95721   15.000
 3914.00    0.92835   0.95252   14.730
 3915.00    0.93280   0.94693   14.265
 3916.00    0.93616   0.94030   14.107
 3917.00    0.93940   0.93262   14.248
 3918.00    0.94591   0.92495   14.387
 3919.00    0.94980   0.91875   14.533
 3920.00    0.94240   0.91481   14.900
 3921.00    0.92910   0.91302   15.378
 3922.00    0.92232   0.91189   15.646
 3923.00    0.92236   0.90910   15.754
 3924.00    0.92012   0.90280   15.968
 3925.00    0.90865   0.89220   16.196
 3926.00    0.88514   0.87729   16.177
 3927.00    0.85058   0.85843   16.087
 3928.00    0.80773   0.83592   16.267
 3929.00    0.75806   0.80993   16.638
 3930.00    0.70436   0.78172   16.901
 3931.00    0.65579   0.75499   17.090
 3932.00    0.62366   0.73528   17.409
 3933.00    0.61365   0.72774   17.726
 3934.00    0.62504   0.73508   17.789
 3935.00    0.65176   0.75632   17.740
 3936.00    0.68637   0.78672   17.843
 3937.00    0.72543   0.81942   17.962
 3938.00    0.76693   0.84845   17.853
 3939.00    0.80564   0.87065   17.697
 3940.00    0.83670   0.88538   17.729
 3941.00    0.86122   0.89381   17.697
 3942.00    0.88284   0.89850   17.266
 3943.00    0.90222   0.90216   16.638
 3944.00    0.91885   0.90616   16.209
 3945.00    0.93421   0.91055   16.173
 3946.00    0.94876   0.91480   16.465
 3947.00    0.95814   0.91799   16.663
 3948.00    0.95850   0.91931   16.428
 3949.00    0.95312   0.91923   16.118
 3950.00    0.94670   0.91881   16.177
 3951.00    0.93824   0.91811   16.492
 3952.00    0.92568   0.91610   16.722
 3953.00    0.91163   0.91209   16.753
 3954.00    0.89899   0.90647   16.717
 3955.00    0.88578   0.89969   16.887
 3956.00    0.86934   0.89149   17.328
 3957.00    0.85092   0.88117   17.537
 3958.00    0.83180   0.86782   17.168
 3959.00    0.80937   0.85033   16.813
 3960.00    0.78156   0.82768    0.000
 3961.00    0.75121   0.79975    0.000
 3962.00    0.72213   0.76748    0.000
 3963.00    0.69517   0.73153    0.000
 3964.00    0.67196   0.69146    0.000
 3965.00    0.65795   0.64699    0.000
 3966.00    0.65730   0.60067    0.000
 3967.00    0.66819   0.55869    0.000
 3968.00    0.68427   0.52900    0.000
 3969.00    0.69675   0.51845    0.000
 3970.00    0.69886   0.53004    0.000
 3971.00    0.68965   0.56173    0.000
 3972.00    0.67552   0.60694    0.000
 3973.00    0.66985   0.65722    0.000
 3974.00    0.68105   0.70569    0.000
 3975.00    0.70455   0.74897    0.000
 3976.00    0.73242   0.78616    0.000
 3977.00    0.76084   0.81716    0.000
 3978.00    0.78757   0.84205    0.000
 3979.00    0.81002   0.86112    0.000
 3980.00    0.82772   0.87509    0.000
 3981.00    0.84358   0.88530   17.038
 3982.00    0.86065   0.89358   16.569
 3983.00    0.87981   0.90172   16.369
 3984.00    0.90003   0.91081   16.759
 3985.00    0.91890   0.92060   17.277
 3986.00    0.93414   0.92994   17.388
 3987.00    0.94479   0.93807   17.096
 3988.00    0.95178   0.94507   16.743
 3989.00    0.95763   0.95130   16.698
 3990.00    0.96310   0.95668   17.028
 3991.00    0.96589   0.96079   17.388
 3992.00    0.96477   0.96306   17.453
 3993.00    0.96152   0.96286   17.245
 3994.00    0.95846   0.96024   17.021
 3995.00    0.95698   0.95677   17.083
 3996.00    0.95743   0.95493   17.405
 3997.00    0.95933   0.95646   17.536
 3998.00    0.96207   0.96141   17.307
 3999.00    0.96522   0.96819   17.108
 4000.00    0.96775   0.97410   17.186
 4001.00    0.96801   0.97626   17.415
 4002.00    0.96566   0.97352   17.656
 4003.00    0.96221   0.96744   17.891
 4004.00    0.95953   0.96094   17.967
 4005.00    0.95895   0.95660   17.605
 4006.00    0.96083   0.95608   17.034
 4007.00    0.96463   0.95971   16.884
 4008.00    0.96981   0.96598   17.239
 4009.00    0.97621   0.97258   17.496
 4010.00    0.98354   0.97818   17.244
 4011.00    0.99139   0.98284   16.683
 4012.00    1.00000   0.98687   16.175
 4013.00    1.00997   0.99018   15.784
 4014.00    1.02019   0.99286   14.552
 4015.00    1.02783   0.99532   11.961
 4016.00    1.03120   0.99769   10.055
 4017.00    1.03082   0.99966   10.359
 4018.00    1.02911   1.00047   13.184
 4019.00    1.02893   0.99900   16.562
 4020.00    1.02928   0.99389   16.947
 4021.00    1.02608   0.98427   16.431
 4022.00    1.01997   0.97115   16.765
 4023.00    1.01647   0.95778   17.063
 4024.00    1.01796   0.94785   16.938
 4025.00    1.02222   0.94353   17.103
 4026.00    1.02595   0.94453   17.578
 4027.00    1.02630   0.94840   17.549
 4028.00    1.02188   0.95171   17.011
 4029.00    1.01312   0.95196   16.766
 4030.00    1.00272   0.94949   16.983
 4031.00    0.99470   0.94725   17.194
 4032.00    0.99139   0.94869   17.060
 4033.00    0.99311   0.95552   16.632
 4034.00    0.99957   0.96696   16.243
 4035.00    1.01023   0.98051   16.213
 4036.00    1.02414   0.99317   16.409
 4037.00    1.03908   1.00234   16.424
 4038.00    1.04950   1.00665   16.344
 4039.00    1.04881   1.00595   16.605
 4040.00    1.03596   1.00084   17.154
 4041.00    1.01552   0.99220   17.522
 4042.00    0.99379   0.98133   17.711
 4043.00    0.97619   0.97031   18.039
 4044.00    0.96362   0.96167   18.005
 4045.00    0.95452   0.95794   16.934
 4046.00    0.95127   0.96071   15.773
 4047.00    0.95734   0.96901   15.709
 4048.00    0.96873   0.97923   16.548
 4049.00    0.97745   0.98697   17.235
 4050.00    0.98229   0.98957   17.413
 4051.00    0.98585   0.98730   17.556
 4052.00    0.98451   0.98197   17.735
 4053.00    0.97277   0.97545   17.686
 4054.00    0.95516   0.96955   17.532
 4055.00    0.94167   0.96571   17.609
 4056.00    0.93537   0.96441   17.934
 4057.00    0.93355   0.96505   18.278
 4058.00    0.93392   0.96605   18.466
 4059.00    0.93519   0.96552   18.414
 4060.00    0.93627   0.96248   18.080
 4061.00    0.93716   0.95716   17.746
 4062.00    0.94044   0.95077   18.370
 4063.00    0.94979   0.94540   20.244
 4064.00    0.96712   0.94282   19.366
 4065.00    0.99180   0.94315   14.078
 4066.00    1.02026   0.94468   10.160
 4067.00    1.04599   0.94507    8.716
 4068.00    1.05997   0.94339    9.170
 4069.00    1.05624   0.94057   11.906
 4070.00    1.03958   0.93777   17.132
 4071.00    1.01928   0.93524   19.792
 4072.00    0.99925   0.93246   18.080
 4073.00    0.97951   0.92854   17.273
 4074.00    0.96028   0.92283   17.759
 4075.00    0.94214   0.91586   18.024
 4076.00    0.92564   0.91002   17.940
 4077.00    0.91192   0.90860   18.139
 4078.00    0.90351   0.91322   18.495
 4079.00    0.90205   0.92209   18.597
 4080.00    0.90556   0.93114   18.630
 4081.00    0.91048   0.93649   18.889
 4082.00    0.91458   0.93668   19.077
 4083.00    0.91814   0.93305   18.819
 4084.00    0.92463   0.92828   18.392
 4085.00    0.93618   0.92461   18.218
 4086.00    0.94892   0.92271   18.335
 4087.00    0.95720   0.92161   18.599
 4088.00    0.95873   0.91964   18.890
 4089.00    0.95375   0.91548   19.085
 4090.00    0.94368   0.90833   19.028
 4091.00    0.92948   0.89769   18.768
 4092.00    0.91035   0.88305    0.000
 4093.00    0.88580   0.86369    0.000
 4094.00    0.85784   0.83920    0.000
 4095.00    0.83214   0.80954    0.000
 4096.00    0.81838   0.77473    0.000
 4097.00    0.82539   0.73553    0.000
 4098.00    0.85618   0.69463    0.000
 4099.00    0.90278   0.65693    0.000
 4100.00    0.94385   0.62893    0.000
 4101.00    0.95993   0.61722    0.000
 4102.00    0.94637   0.62546    0.000
 4103.00    0.91134   0.65216    0.000
 4104.00    0.87212   0.69082    0.000
 4105.00    0.84423   0.73243    0.000
 4106.00    0.83334   0.76947    0.000
 4107.00    0.83793   0.79878    0.000
 4108.00    0.85228   0.82087    0.000
 4109.00    0.87004   0.83800    0.000
 4110.00    0.88678   0.85269    0.000
 4111.00    0.90054   0.86653    0.000
 4112.00    0.91190   0.87987    0.000
 4113.00    0.92244   0.89197   19.968
 4114.00    0.93358   0.90144   19.752
 4115.00    0.94556   0.90723   19.963
 4116.00    0.95706   0.90917   20.222
 4117.00    0.96636   0.90813   20.132
 4118.00    0.97204   0.90599   19.851
 4119.00    0.97226   0.90479   19.662
 4120.00    0.96467   0.90608   19.679
 4121.00    0.94926   0.91052   19.817
 4122.00    0.92964   0.91722   19.824
 4123.00    0.91042   0.92409   19.615
 4124.00    0.89543   0.92907   19.406
 4125.00    0.88715   0.93091   19.366
 4126.00    0.88614   0.92937   19.459
 4127.00    0.89029   0.92521   19.525
 4128.00    0.89526   0.91983   19.377
 4129.00    0.89939   0.91477   19.089
 4130.00    0.90530   0.91135   18.994
 4131.00    0.91480   0.91069   19.091
 4132.00    0.92683   0.91355   18.937
 4133.00    0.93984   0.92018   18.525
 4134.00    0.95299   0.93002   18.425
 4135.00    0.96584   0.94141   18.734
 4136.00    0.97807   0.95188   18.841
 4137.00    0.98890   0.95917   18.521
 4138.00    0.99692   0.96135   18.277
 4139.00    1.00020   0.95736   18.372
 4140.00    0.99715   0.94775   18.597
 4141.00    0.98998   0.93489   18.838
 4142.00    0.98436   0.92274   19.223
 4143.00    0.98223   0.91567   19.681
 4144.00    0.98049   0.91584   19.843
 4145.00    0.97723   0.92214   19.627
 4146.00    0.97354   0.93121   19.380
 4147.00    0.97046   0.93895   19.380
 4148.00    0.96784   0.94283   19.661
 4149.00    0.96454   0.94306   19.995
 4150.00    0.95873   0.94110   19.993
 4151.00    0.94884   0.93807   19.678
 4152.00    0.93456   0.93481   19.503
 4153.00    0.91917   0.93204   19.735
 4154.00    0.90881   0.93054   20.313
 4155.00    0.90737   0.93115   20.828
 4156.00    0.91514   0.93422   20.712
 4157.00    0.92982   0.93926   20.131
 4158.00    0.94764   0.94506   19.822
 4159.00    0.96572   0.95046   19.976
 4160.00    0.98257   0.95484   20.245
 4161.00    0.99764   0.95793   20.378
 4162.00    1.01063   0.95968   20.388
 4163.00    1.02014   0.96013   20.418
 4164.00    1.02409   0.95930   20.610
 4165.00    1.02189   0.95716   20.904
 4166.00    1.01463   0.95380   21.085
 4167.00    1.00408   0.94935   21.144
 4168.00    0.99177   0.94347   21.241
 4169.00    0.97757   0.93576   21.319
 4170.00    0.96069   0.92660   21.195
 4171.00    0.94305   0.91732   21.029
 4172.00    0.92850   0.90985   21.140
 4173.00    0.91910   0.90581   21.333
 4174.00    0.91504   0.90553   21.125
 4175.00    0.91677   0.90800   20.696
 4176.00    0.92424   0.91164   20.600
 4177.00    0.93433   0.91544   20.828
 4178.00    0.94233   0.91929   20.952
 4179.00    0.94631   0.92322   20.835
 4180.00    0.94694   0.92697   20.687
 4181.00    0.94517   0.92998   20.773
 4182.00    0.94141   0.93174   21.197
 4183.00    0.93506   0.93209   21.542
 4184.00    0.92620   0.93140   21.277
 4185.00    0.91884   0.93018   20.825
 4186.00    0.91811   0.92909   20.920
 4187.00    0.92404   0.92921   21.303
 4188.00    0.93305   0.93136   21.252
 4189.00    0.94286   0.93560   21.046
 4190.00    0.95191   0.94110   21.348
 4191.00    0.95692   0.94605   21.734
 4192.00    0.95410   0.94822   21.381
 4193.00    0.94187   0.94600   20.858
 4194.00    0.92222   0.93901   21.140
 4195.00    0.90188   0.92806   21.933
 4196.00    0.88871   0.91511   22.236
 4197.00    0.88566   0.90303   21.924
 4198.00    0.89171   0.89454   21.553
 4199.00    0.90468   0.89086   21.361
 4200.00    0.92137   0.89173   21.330
 4201.00    0.93716   0.89639   21.438
 4202.00    0.94829   0.90368   21.660
 4203.00    0.95496   0.91228   21.909
 4204.00    0.95884   0.92128   22.062
 4205.00    0.95916   0.92996   22.024
 4206.00    0.95518   0.93741   21.807
 4207.00    0.94989   0.94299   21.590
 4208.00    0.94760   0.94664   21.545
 4209.00    0.95026   0.94851   21.639
 4210.00    0.95705   0.94872   21.739
 4211.00    0.96481   0.94722   21.761
 4212.00    0.97030   0.94401   21.646
 4213.00    0.97301   0.93963   21.325
 4214.00    0.97383   0.93557   20.875
 4215.00    0.97337   0.93385   20.632
 4216.00    0.97211   0.93577   20.848
 4217.00    0.97078   0.94071   21.371
 4218.00    0.97014   0.94645   21.830
 4219.00    0.97046   0.94987   21.916
 4220.00    0.96986   0.94819   21.590
 4221.00    0.96302   0.94018   21.175
 4222.00    0.94616   0.92651   20.981
 4223.00    0.92189   0.90947   21.020
 4224.00    0.89616   0.89284   21.229
 4225.00    0.87470   0.88133   21.660
 4226.00    0.86250   0.87871   22.257
 4227.00    0.86330   0.88569   22.607
 4228.00    0.87665   0.89929   22.311
 4229.00    0.89604   0.91419   21.469
 4230.00    0.91532   0.92517   20.602
 4231.00    0.93427   0.92942   20.367
 4232.00    0.95399   0.92772   20.957
 4233.00    0.97277   0.92312   21.700
 4234.00    0.98752   0.91866   21.851
 4235.00    0.99529   0.91617   21.593
 4236.00    0.99510   0.91628   21.424
 4237.00    0.98897   0.91859   21.532
 4238.00    0.98020   0.92256   21.840
 4239.00    0.97182   0.92790   22.084
 4240.00    0.96596   0.93398   22.159
 4241.00    0.96333   0.93977   22.332
 4242.00    0.96346   0.94416   22.634
 4243.00    0.96495   0.94592   22.495
 4244.00    0.96554   0.94421   21.783
 4245.00    0.96262   0.93924   21.300
 4246.00    0.95613   0.93228   21.551
 4247.00    0.94978   0.92499   22.253
 4248.00    0.94658   0.91885   22.877
 4249.00    0.94609   0.91490   23.047
 4250.00    0.94625   0.91336   22.739
 4251.00    0.94492   0.91370   22.290
 4252.00    0.94155   0.91526   22.000
 4253.00    0.93781   0.91768   21.961
 4254.00    0.93537   0.92053   22.202
 4255.00    0.93466   0.92279   22.742
 4256.00    0.93517   0.92345   23.392
 4257.00    0.93598   0.92205   23.670
 4258.00    0.93711   0.91932   23.378
 4259.00    0.94007   0.91725   22.872
 4260.00    0.94657   0.91824   22.459
 4261.00    0.95768   0.92348   22.165
 4262.00    0.97283   0.93182   22.060
 4263.00    0.98955   0.94028   22.326
 4264.00    1.00449   0.94563   22.834
 4265.00    1.01425   0.94574   23.026
 4266.00    1.01666   0.94031   22.728
 4267.00    1.01127   0.93047   22.433
 4268.00    0.99859   0.91792   22.458
 4269.00    0.97985   0.90456   22.706
 4270.00    0.95777   0.89260   23.054
 4271.00    0.93631   0.88416   23.487
 4272.00    0.91815   0.88071   23.891
 4273.00    0.90410   0.88276   24.003
 4274.00    0.89523   0.88970   23.646
 4275.00    0.89298   0.89977   22.892
 4276.00    0.89591   0.91033   22.109
 4277.00    0.89965   0.91888   21.755
 4278.00    0.90131   0.92381   21.945
 4279.00    0.90123   0.92468   22.438
 4280.00    0.90248   0.92231   22.861
 4281.00    0.90970   0.91830   22.851
 4282.00    0.92529   0.91405   22.336
 4283.00    0.94794   0.91006   21.585
 4284.00    0.97244   0.90583   20.974
 4285.00    0.99099   0.90043   20.803
 4286.00    0.99766   0.89336   21.067
 4287.00    0.99012   0.88523   21.522
 4288.00    0.97009   0.87793   22.116
 4289.00    0.94289   0.87383   22.992
 4290.00    0.91577   0.87421   23.894
 4291.00    0.89576   0.87826   24.116
 4292.00    0.88523   0.88350   23.535
 4293.00    0.88175   0.88703   22.771
 4294.00    0.88171   0.88671   22.416
 4295.00    0.88153   0.88175   22.767
 4296.00    0.87804   0.87260   23.591
 4297.00    0.86986   0.86070   24.162
 4298.00    0.86079   0.84810   24.028
 4299.00    0.85726   0.83705   23.324
 4300.00    0.85971   0.82947   22.453
 4301.00    0.86341   0.82616   21.830
 4302.00    0.86644   0.82643   21.777
 4303.00    0.86957   0.82848   22.460
 4304.00    0.87106   0.83018   23.548
 4305.00    0.86774   0.83036   24.256
 4306.00    0.86042   0.82945   24.287
 4307.00    0.85305   0.82910   23.975
 4308.00    0.84774   0.83102   23.539
 4309.00    0.84442   0.83595   23.032
 4310.00    0.84278   0.84327   22.651
 4311.00    0.84345   0.85169   22.605
 4312.00    0.84956   0.86049   22.775
 4313.00    0.86457   0.86986   22.749
 4314.00    0.88729   0.88025   22.104
 4315.00    0.91250   0.89129   20.891
 4316.00    0.93425   0.90132   20.030
 4317.00    0.94765   0.90809   20.280
 4318.00    0.95111   0.91000   -2.000
 4319.00    0.94724   0.90657   -2.000
 4320.00    0.94375   0.89828   -2.000
 4321.00    0.94891   0.88611   -2.000
 4322.00    0.96350   0.87144   -2.000
 4323.00    0.98145   0.85640   -2.000
 4324.00    0.99382   0.84404   -2.000
 4325.00    0.99463   0.83721   -2.000
 4326.00    0.98909   0.83677   -2.000
 4327.00    0.98348   0.84096   -2.000
 4328.00    0.96785   0.84617   -2.000
 4329.00    0.93165   0.84891   -2.000
 4330.00    0.89104   0.84711   -2.000
 4331.00    0.86955   0.84016   -2.000
 4332.00    0.86395   0.82789   -2.000
 4333.00    0.86048   0.80949   -2.000
 4334.00    0.86511   0.78356    0.000
 4335.00    0.89568   0.74928    0.000
 4336.00    0.96449   0.70820    0.000
 4337.00    1.06816   0.66522    0.000
 4338.00    1.17815   0.62792    0.000
 4339.00    1.25390   0.60408    0.000
 4340.00    1.26281   0.59900    0.000
 4341.00    1.19628   0.61324    0.000
 4342.00    1.08515   0.64244    0.000
 4343.00    0.97501   0.67961    0.000
 4344.00    0.89385   0.71796    0.000
 4345.00    0.85039   0.75250    0.000
 4346.00    0.83735   0.78037    0.000
 4347.00    0.84054   0.80058    0.000
 4348.00    0.84891   0.81332    0.000
 4349.00    0.85625   0.81983    0.000
 4350.00    0.86155   0.82290    0.000
 4351.00    0.86639   0.82621   24.871
 4352.00    0.87198   0.83269   24.453
 4353.00    0.87876   0.84314   23.872
 4354.00    0.88614   0.85615   23.620
 4355.00    0.89336   0.86918   23.964
 4356.00    0.90025   0.88005   24.595
 4357.00    0.90728   0.88807   24.980
 4358.00    0.91550   0.89422   24.853
 4359.00    0.92552   0.90016   24.334
 4360.00    0.93662   0.90689   23.831
 4361.00    0.94804   0.91417   23.596
 4362.00    0.95989   0.92086   23.474
 4363.00    0.97157   0.92539   23.315
 4364.00    0.98051   0.92657   23.275
 4365.00    0.98396   0.92420   23.523
 4366.00    0.98064   0.91940   23.983
 4367.00    0.97171   0.91399   24.360
 4368.00    0.96099   0.90954   24.225
 4369.00    0.95079   0.90648   23.547
 4370.00    0.93930   0.90412   22.914
 4371.00    0.92545   0.90138   22.703
 4372.00    0.91226   0.89790   22.709
 4373.00    0.90326   0.89477   22.711
 4374.00    0.89977   0.89395   22.816
 4375.00    0.90163   0.89677   23.100
 4376.00    0.90759   0.90253   23.349
 4377.00    0.91334   0.90852   23.307
 4378.00    0.91113   0.91117   22.921
 4379.00    0.89638   0.90766   22.476
 4380.00    0.87183   0.89720   22.493
 4381.00    0.84514   0.88160   23.053
 4382.00    0.82627   0.86484   23.476
 4383.00    0.82158   0.85158   23.347
 4384.00    0.83069   0.84516   23.168
 4385.00    0.84920   0.84615   23.244
 4386.00    0.87072   0.85275   23.189
 4387.00    0.88875   0.86218   22.910
 4388.00    0.89827   0.87204   22.964
 4389.00    0.89899   0.88092   23.399
 4390.00    0.89612   0.88821   23.352
 4391.00    0.89480   0.89373   22.652
 4392.00    0.89712   0.89763   22.334
 4393.00    0.90207   0.90044   22.899
 4394.00    0.90623   0.90306   23.813
 4395.00    0.90619   0.90598   24.344
 4396.00    0.90008   0.90870   24.193
 4397.00    0.88879   0.91011   23.689
 4398.00    0.87596   0.90942   23.512
 4399.00    0.86528   0.90686   23.821
 4400.00    0.85909   0.90324   24.110
 4401.00    0.85783   0.89923   24.130
 4402.00    0.86020   0.89522   24.191
 4403.00    0.86502   0.89156   24.330
 4404.00    0.87175   0.88900   24.149
 4405.00    0.87935   0.88856   23.736
 4406.00    0.88624   0.89087   23.735
 4407.00    0.89211   0.89590   24.251
 4408.00    0.89825   0.90290   24.635
 4409.00    0.90599   0.91030   24.431
 4410.00    0.91573   0.91593   23.817
 4411.00    0.92550   0.91766   23.257
 4412.00    0.93151   0.91455   23.191
 4413.00    0.93201   0.90756   23.723
 4414.00    0.92839   0.89960   24.581
 4415.00    0.92401   0.89431   25.244
 4416.00    0.92258   0.89418   25.175
 4417.00    0.92409   0.89919   24.558
 4418.00    0.92483   0.90699   24.139
 4419.00    0.92165   0.91439   24.216
 4420.00    0.91366   0.91904   24.579
 4421.00    0.90262   0.92046   24.955
 4422.00    0.89197   0.91975   25.182
 4423.00    0.88368   0.91845   25.363
 4424.00    0.87786   0.91749   25.750
 4425.00    0.87476   0.91700   26.229
 4426.00    0.87475   0.91665   26.344
 4427.00    0.87659   0.91602   25.984
 4428.00    0.87800   0.91478   25.469
 4429.00    0.87842   0.91276   25.088
 4430.00    0.87849   0.90988   24.965
 4431.00    0.87657   0.90622   25.017
 4432.00    0.87005   0.90224   25.080
 4433.00    0.86100   0.89913   25.235
 4434.00    0.85525   0.89853   25.677
 4435.00    0.85671   0.90158   26.135
 4436.00    0.86558   0.90775   26.051
 4437.00    0.87781   0.91466   25.545
 4438.00    0.88724   0.91908   25.186
 4439.00    0.89086   0.91882   24.988
 4440.00    0.88930   0.91408   24.648
 4441.00    0.88514   0.90748   24.349
 4442.00    0.88158   0.90263   24.509
 4443.00    0.88041   0.90212   24.966
 4444.00    0.88132   0.90614   25.181
 4445.00    0.88133   0.91273   25.087
 4446.00    0.87758   0.91916   25.024
 4447.00    0.87296   0.92337   25.106
 4448.00    0.87298   0.92459   25.183
 4449.00    0.87766   0.92298   25.001
 4450.00    0.88262   0.91898   24.445
 4451.00    0.88420   0.91293   23.853
 4452.00    0.88026   0.90528   23.710
 4453.00    0.87005   0.89687   24.211
 4454.00    0.85529   0.88906   25.229
 4455.00    0.84197   0.88315   26.155
 4456.00    0.83621   0.87971   26.236
 4457.00    0.83707   0.87834   25.632
 4458.00    0.83981   0.87826   25.047
 4459.00    0.84309   0.87905   24.775
 4460.00    0.84812   0.88081   24.767
 4461.00    0.85543   0.88376    0.000
 4462.00    0.86386   0.88760    0.000
 4463.00    0.86986   0.89129    0.000
 4464.00    0.87051   0.89337    0.000
 4465.00    0.86779   0.89269    0.000
 4466.00    0.86596   0.88909    0.000
 4467.00    0.86696   0.88366    0.000
 4468.00    0.87122   0.87843    0.000
 4469.00    0.87949   0.87584    0.000
 4470.00    0.89138   0.87785    0.000
 4471.00    0.90320   0.88506    0.000
 4472.00    0.91081   0.89631    0.000
 4473.00    0.91342   0.90908    0.000
 4474.00    0.91167   0.92039    0.000
 4475.00    0.90468   0.92771    0.000
 4476.00    0.89203   0.92944    0.000
 4477.00    0.87634   0.92524    0.000
 4478.00    0.86137   0.91633    0.000
 4479.00    0.84951   0.90573    0.000
 4480.00    0.84281   0.89748    0.000
 4481.00    0.84417   0.89500    0.000
 4482.00    0.85468   0.89924   22.738
 4483.00    0.87086   0.90812   22.924
 4484.00    0.88731   0.91766   22.915
 4485.00    0.89975   0.92401   22.900
 4486.00    0.90528   0.92530   23.101
 4487.00    0.90235   0.92221   23.413
 4488.00    0.89238   0.91720   23.692
 4489.00    0.88082   0.91291   24.066
 4490.00    0.87277   0.91077   24.560
 4491.00    0.86902   0.91057   24.706
 4492.00    0.86855   0.91123   24.266
 4493.00    0.87124   0.91201   23.848
 4494.00    0.87710   0.91307   23.877
 4495.00    0.88547   0.91510   23.895
 4496.00    0.89482   0.91841   23.517
 4497.00    0.90281   0.92260   23.180
 4498.00    0.90769   0.92690   23.305
 4499.00    0.90959   0.93098   23.724
 4500.00    0.91091   0.93529   24.116
 4501.00    0.91603   0.94045   24.371
 4502.00    0.92636   0.94638   24.436
 4503.00    0.93724   0.95197   24.195
 4504.00    0.94333   0.95571   23.765
 4505.00    0.94278   0.95675   23.584
 4506.00    0.93698   0.95545   23.788
 4507.00    0.92966   0.95300   23.907
 4508.00    0.92356   0.95047   23.694
 4509.00    0.91842   0.94809   23.620
 4510.00    0.91339   0.94532   23.989
 4511.00    0.90871   0.94155   24.455
 4512.00    0.90493   0.93676   24.772
 4513.00    0.90250   0.93167   25.270
 4514.00    0.90174   0.92735   25.996
 4515.00    0.90300   0.92460   26.196
 4516.00    0.90657   0.92355   25.534
 4517.00    0.91245   0.92371   24.755
 4518.00    0.91888   0.92419   24.413
 4519.00    0.92225   0.92402   24.418
 4520.00    0.92121   0.92243   24.597
 4521.00    0.91830   0.91900   24.934
 4522.00    0.91534   0.91378   25.395
 4523.00    0.91124   0.90712   25.845
 4524.00    0.90429   0.89950   26.162
 4525.00    0.89353   0.89152   26.334
 4526.00    0.87932   0.88399   26.441
 4527.00    0.86343   0.87792   26.590
 4528.00    0.84873   0.87414   26.629
 4529.00    0.83839   0.87278   26.182
 4530.00    0.83358   0.87316   25.433
 4531.00    0.83283   0.87434   25.123
 4532.00    0.83439   0.87596   25.459
 4533.00    0.83734   0.87858   25.930
 4534.00    0.84168   0.88312   26.222
 4535.00    0.84802   0.88970   26.553
 4536.00    0.85647   0.89694   26.984
 4537.00    0.86618   0.90261   27.195
 4538.00    0.87566   0.90504   27.068
 4539.00    0.88318   0.90427   26.831
 4540.00    0.88796   0.90193   26.500
 4541.00    0.89022   0.89994   25.859
 4542.00    0.88990   0.89934   25.125
 4543.00    0.88624   0.89981   24.856
 4544.00    0.87841   0.90024   25.158
 4545.00    0.86626   0.89953   25.634
 4546.00    0.85207   0.89723   26.026
 4547.00    0.84011   0.89373   26.384
 4548.00    0.83271   0.88998   26.717
 4549.00    0.82965   0.88698   26.879
 4550.00    0.83064   0.88513    0.000
 4551.00    0.83564   0.88427    0.000
 4552.00    0.84320   0.88415    0.000
 4553.00    0.85092   0.88510    0.000
 4554.00    0.85834   0.88793    0.000
 4555.00    0.86690   0.89326    0.000
 4556.00    0.87715   0.90081    0.000
 4557.00    0.88802   0.90927    0.000
 4558.00    0.89729   0.91681    0.000
 4559.00    0.90237   0.92183    0.000
 4560.00    0.90206   0.92347    0.000
 4561.00    0.89767   0.92191    0.000
 4562.00    0.89449   0.91842    0.000
 4563.00    0.89735   0.91493    0.000
 4564.00    0.89828   0.91326    0.000
 4565.00    0.88504   0.91416    0.000
 4566.00    0.86952   0.91696    0.000
 4567.00    0.87683   0.91994    0.000
 4568.00    0.90208   0.92151    0.000
 4569.00    0.91764   0.92116    0.000
 4570.00    0.91478   0.91968    0.000
 4571.00    0.90446   0.91852    0.000
 4572.00    0.89673   0.91862    0.000
 4573.00    0.89623   0.91983    0.000
 4574.00    0.90304   0.92111    0.000
 4575.00    0.91300   0.92113    0.000
 4576.00    0.91811   0.91902    0.000
 4577.00    0.91208   0.91466    0.000
 4578.00    0.90090   0.90865    0.000
 4579.00    0.89548   0.90208    0.000
 4580.00    0.89347   0.89617    0.000
 4581.00    0.88498   0.89193    0.000
 4582.00    0.87022   0.88994    0.000
 4583.00    0.85834   0.89029    0.000
 4584.00    0.85888   0.89268    0.000
 4585.00    0.87468   0.89644    0.000
 4586.00    0.89294   0.90063    0.000
 4587.00    0.89694   0.90416    0.000
 4588.00    0.88820   0.90614    0.000
 4589.00    0.87917   0.90623    0.000
 4590.00    0.87498   0.90480    0.000
 4591.00    0.87310   0.90273    0.000
 4592.00    0.86797   0.90095    0.000
 4593.00    0.85653   0.90008    0.000
 4594.00    0.84520   0.90023    0.000
 4595.00    0.84393   0.90113    0.000
 4596.00    0.85581   0.90235    0.000
 4597.00    0.87520   0.90338    0.000
 4598.00    0.88796   0.90392    0.000
 4599.00    0.88371   0.90396    0.000
 4600.00    0.87192   0.90382    0.000
 4601.00    0.86818   0.90398    0.000
 4602.00    0.87336   0.90489    0.000
 4603.00    0.88042   0.90683    0.000
 4604.00    0.88689   0.90993    0.000
 4605.00    0.89332   0.91412    0.000
 4606.00    0.89954   0.91899    0.000
 4607.00    0.90555   0.92375    0.000
 4608.00    0.91297   0.92738    0.000
 4609.00    0.92169   0.92915    0.000
 4610.00    0.92634   0.92902    0.000
 4611.00    0.92236   0.92758    0.000
 4612.00    0.91294   0.92565    0.000
 4613.00    0.90410   0.92381    0.000
 4614.00    0.89842   0.92217    0.000
 4615.00    0.89541   0.92053    0.000
 4616.00    0.89282   0.91886    0.000
 4617.00    0.88951   0.91745    0.000
 4618.00    0.88801   0.91691    0.000
 4619.00    0.89102   0.91770    0.000
 4620.00    0.89771   0.91974    0.000
 4621.00    0.90415   0.92230    0.000
 4622.00    0.90467   0.92440    0.000
 4623.00    0.89759   0.92527    0.000
 4624.00    0.88985   0.92468    0.000
 4625.00    0.89095   0.92289    0.000
 4626.00    0.90630   0.92047    0.000
 4627.00    0.93024   0.91801    0.000
 4628.00    0.94303   0.91598    0.000
 4629.00    0.93390   0.91454    0.000
 4630.00    0.91787   0.91346    0.000
 4631.00    0.91130   0.91231    0.000
 4632.00    0.91234   0.91067    0.000
 4633.00    0.91261   0.90848    0.000
 4634.00    0.90782   0.90595    0.000
 4635.00    0.89961   0.90342    0.000
 4636.00    0.89500   0.90121    0.000
 4637.00    0.89655   0.89963    0.000
 4638.00    0.89686   0.89895    0.000
 4639.00    0.89202   0.89915    0.000
 4640.00    0.88948   0.89976    0.000
 4641.00    0.89456   0.89977    0.000
 4642.00    0.90221   0.89806    0.000
 4643.00    0.90623   0.89395    0.000
 4644.00    0.90532   0.88778    0.000
 4645.00    0.89989   0.88094    0.000
 4646.00    0.89015   0.87540    0.000
 4647.00    0.87860   0.87286    0.000
 4648.00    0.87057   0.87393    0.000
 4649.00    0.86820   0.87791    0.000
 4650.00    0.86819   0.88315    0.000
 4651.00    0.87052   0.88791    0.000
 4652.00    0.88135   0.89115    0.000
 4653.00    0.90029   0.89298    0.000
 4654.00    0.91598   0.89455    0.000
 4655.00    0.92055   0.89722    0.000
 4656.00    0.91685   0.90173    0.000
 4657.00    0.91325   0.90750    0.000
 4658.00    0.91865   0.91285    0.000
 4659.00    0.93205   0.91580    0.000
 4660.00    0.94051   0.91501    0.000
 4661.00    0.93424   0.91028    0.000
 4662.00    0.91392   0.90234    0.000
 4663.00    0.88903   0.89239    0.000
 4664.00    0.87345   0.88181    0.000
 4665.00    0.87021   0.87219    0.000
 4666.00    0.86883   0.86528    0.000
 4667.00    0.86393   0.86256    0.000
 4668.00    0.86069   0.86452    0.000
 4669.00    0.86287   0.87029    0.000
 4670.00    0.86881   0.87796    0.000
 4671.00    0.87686   0.88557    0.000
 4672.00    0.88659   0.89183    0.000
 4673.00    0.89462   0.89633    0.000
 4674.00    0.89506   0.89908    0.000
 4675.00    0.88727   0.90010    0.000
 4676.00    0.87714   0.89934    0.000
 4677.00    0.87076   0.89692    0.000
 4678.00    0.87147   0.89335    0.000
 4679.00    0.87813   0.88944    0.000
 4680.00    0.88639   0.88590    0.000
 4681.00    0.89480   0.88302    0.000
 4682.00    0.90446   0.88076    0.000
 4683.00    0.91080   0.87902    0.000
 4684.00    0.90584   0.87794    0.000
 4685.00    0.89366   0.87793    0.000
 4686.00    0.88819   0.87923    0.000
 4687.00    0.89192   0.88167    0.000
 4688.00    0.89559   0.88474    0.000
 4689.00    0.89661   0.88790    0.000
 4690.00    0.90016   0.89091    0.000
 4691.00    0.90665   0.89379    0.000
 4692.00    0.91115   0.89652    0.000
 4693.00    0.91205   0.89873    0.000
 4694.00    0.91094   0.89970    0.000
 4695.00    0.90597   0.89870    0.000
 4696.00    0.89404   0.89547    0.000
 4697.00    0.88043   0.89045    0.000
 4698.00    0.87496   0.88464    0.000
 4699.00    0.87666   0.87912    0.000
 4700.00    0.87637   0.87469    0.000
 4701.00    0.87198   0.87177    0.000
 4702.00    0.86771   0.87038    0.000
 4703.00    0.86427   0.87024    0.000
 4704.00    0.85886   0.87078    0.000
 4705.00    0.85042   0.87145    0.000
 4706.00    0.84122   0.87199    0.000
 4707.00    0.83728   0.87258    0.000
 4708.00    0.84330   0.87355    0.000
 4709.00    0.85230   0.87498    0.000
 4710.00    0.85374   0.87656    0.000
 4711.00    0.85336   0.87798    0.000
 4712.00    0.86403   0.87935    0.000
 4713.00    0.88096   0.88134    0.000
 4714.00    0.88929   0.88473    0.000
 4715.00    0.88696   0.88979    0.000
 4716.00    0.88191   0.89599    0.000
 4717.00    0.87917   0.90228    0.000
 4718.00    0.87915   0.90758    0.000
 4719.00    0.87902   0.91129    0.000
 4720.00    0.87659   0.91333    0.000
 4721.00    0.87622   0.91392    0.000
 4722.00    0.88333   0.91324    0.000
 4723.00    0.89427   0.91110    0.000
 4724.00    0.90067   0.90715    0.000
 4725.00    0.89874   0.90124    0.000
 4726.00    0.88974   0.89392    0.000
 4727.00    0.87822   0.88648    0.000
 4728.00    0.86846   0.88045    0.000
 4729.00    0.85981   0.87699    0.000
 4730.00    0.85114   0.87643    0.000
 4731.00    0.84751   0.87818    0.000
 4732.00    0.85348   0.88116    0.000
 4733.00    0.86325   0.88425    0.000
 4734.00    0.86827   0.88677    0.000
 4735.00    0.86882   0.88862    0.000
 4736.00    0.86943   0.89011    0.000
 4737.00    0.87124   0.89156    0.000
 4738.00    0.87344   0.89309    0.000
 4739.00    0.87601   0.89460    0.000
 4740.00    0.87930   0.89601    0.000
 4741.00    0.88299   0.89733    0.000
 4742.00    0.88618   0.89864    0.000
 4743.00    0.88761   0.89998    0.000
 4744.00    0.88629   0.90130    0.000
 4745.00    0.88214   0.90248    0.000
 4746.00    0.87593   0.90336    0.000
 4747.00    0.86909   0.90372    0.000
 4748.00    0.86411   0.90331    0.000
 4749.00    0.86434   0.90193    0.000
 4750.00    0.86908   0.89951    0.000
 4751.00    0.86961   0.89624    0.000
 4752.00    0.86103   0.89260    0.000
 4753.00    0.85273   0.88927    0.000
 4754.00    0.85429   0.88685    0.000
 4755.00    0.86214   0.88565    0.000
 4756.00    0.86842   0.88544    0.000
 4757.00    0.86995   0.88549    0.000
 4758.00    0.86635   0.88478    0.000
 4759.00    0.85785   0.88247    0.000
 4760.00    0.84672   0.87828    0.000
 4761.00    0.83800   0.87276   23.742
 4762.00    0.83507   0.86706   23.714
 4763.00    0.83630   0.86258   23.670
 4764.00    0.83887   0.86038   23.742
 4765.00    0.84210   0.86087   23.790
 4766.00    0.84677   0.86372   23.701
 4767.00    0.85414   0.86797   23.604
 4768.00    0.86262   0.87249   23.607
 4769.00    0.86653   0.87645   23.622
 4770.00    0.86430   0.87963   23.581
 4771.00    0.86300   0.88236   23.570
 4772.00    0.86750   0.88507   23.645
 4773.00    0.87385   0.88790   23.714
 4774.00    0.87783   0.89054   23.642
 4775.00    0.88044   0.89244   23.354
 4776.00    0.88405   0.89313   22.983
 4777.00    0.88946   0.89244   22.861
 4778.00    0.89432   0.89053   23.058
 4779.00    0.89334   0.88777   23.211
 4780.00    0.88478   0.88456   23.056
 4781.00    0.87326   0.88125   22.757
 4782.00    0.86254   0.87810   22.605
 4783.00    0.85227   0.87530   22.789
 4784.00    0.84431   0.87297   23.155
 4785.00    0.84463   0.87127   23.171
 4786.00    0.85373   0.87039   22.789
 4787.00    0.86340   0.87056   22.696
 4788.00    0.86793   0.87203   23.086
 4789.00    0.86937   0.87493   23.282
 4790.00    0.87299   0.87919   22.939
 4791.00    0.88307   0.88436   22.561
 4792.00    0.89509   0.88963   22.517
 4793.00    0.89581   0.89389   22.696
 4794.00    0.88178   0.89616   22.928
 4795.00    0.86472   0.89594   23.145
 4796.00    0.85478   0.89356   23.283
 4797.00    0.85380   0.89008   23.264
 4798.00    0.86009   0.88681   23.123
 4799.00    0.87039   0.88469   23.009
 4800.00    0.87840   0.88387   22.961
 4801.00    0.87646   0.88371   22.876
 4802.00    0.86522   0.88331   22.741
 4803.00    0.85449   0.88209   22.682
 4804.00    0.85074   0.88011   22.823
 4805.00    0.85314   0.87794   23.157
 4806.00    0.85782   0.87625   23.229
 4807.00    0.86122   0.87545   22.555
 4808.00    0.86563   0.87555   22.449
 4809.00    0.87743   0.87633   25.020
 4810.00    0.89333   0.87753   26.445
 4811.00    0.90093   0.87902   19.010
 4812.00    0.89736   0.88083   12.631
 4813.00    0.89061   0.88301   10.632
 4814.00    0.88209   0.88548   10.980
 4815.00    0.86648   0.88797   11.771
 4816.00    0.84981   0.88998   11.896
 4817.00    0.84747   0.89089   11.731
 4818.00    0.86008   0.89010   11.609
 4819.00    0.87246   0.88725   11.441
 4820.00    0.87365   0.88249   11.385
 4821.00    0.86321   0.87665   11.726
 4822.00    0.85109   0.87101   11.971
 4823.00    0.85114   0.86683   11.322
 4824.00    0.86369   0.86473   10.987
 4825.00    0.87621   0.86439   13.218
 4826.00    0.87846   0.86484   20.256
 4827.00    0.86732   0.86509   27.697
 4828.00    0.84817   0.86465   25.469
 4829.00    0.83188   0.86359   23.122
 4830.00    0.82626   0.86237   23.808
 4831.00    0.83241   0.86144   24.668
 4832.00    0.84135   0.86098   24.418
 4833.00    0.84105   0.86078   24.246
 4834.00    0.83428   0.86035   24.551
 4835.00    0.83322   0.85919   24.768
 4836.00    0.83822   0.85701   24.682
 4837.00    0.84017   0.85390   24.535
 4838.00    0.83616   0.85029   24.502
 4839.00    0.82980   0.84676   24.573
 4840.00    0.82444   0.84378   24.556
 4841.00    0.82137   0.84154   24.281
 4842.00    0.81898   0.83983   23.990
 4843.00    0.81485   0.83816   24.047
 4844.00    0.80962   0.83589   24.337
 4845.00    0.80547   0.83250   24.473
 4846.00    0.80157   0.82787   24.429
 4847.00    0.79593   0.82227   24.425
 4848.00    0.78992   0.81600    0.000
 4849.00    0.78647   0.80902    0.000
 4850.00    0.78537   0.80076    0.000
 4851.00    0.78350   0.79030    0.000
 4852.00    0.77702   0.77687    0.000
 4853.00    0.77142   0.76012    0.000
 4854.00    0.79655   0.74005    0.000
 4855.00    0.89220   0.71674    0.000
 4856.00    1.08066   0.69038    0.000
 4857.00    1.35212   0.66186    0.000
 4858.00    1.65001   0.63364    0.000
 4859.00    1.89179   0.60988    0.000
 4860.00    2.00419   0.59544    0.000
 4861.00    1.94758   0.59382    0.000
 4862.00    1.74250   0.60554    0.000
 4863.00    1.45412   0.62776    0.000
 4864.00    1.16398   0.65558    0.000
 4865.00    0.94063   0.68378    0.000
 4866.00    0.80632   0.70845    0.000
 4867.00    0.74624   0.72757    0.000
 4868.00    0.72766   0.74096    0.000
 4869.00    0.72076   0.74991    0.000
 4870.00    0.72063   0.75649    0.000
 4871.00    0.73231   0.76274    0.000
 4872.00    0.74984   0.77002    0.000
 4873.00    0.76350   0.77866    0.000
 4874.00    0.77085   0.78825    0.000
 4875.00    0.77470   0.79803   25.196
 4876.00    0.77915   0.80730   25.000
 4877.00    0.78698   0.81542   25.376
 4878.00    0.79726   0.82184   25.657
 4879.00    0.80674   0.82609   25.257
 4880.00    0.81179   0.82797   24.890
 4881.00    0.81135   0.82772   25.242
 4882.00    0.80938   0.82596   25.777
 4883.00    0.80975   0.82345   25.771
 4884.00    0.81150   0.82088   25.561
 4885.00    0.81278   0.81866   25.640
 4886.00    0.81475   0.81688   25.735
 4887.00    0.81718   0.81561   25.524
 4888.00    0.81496   0.81522   25.314
 4889.00    0.80650   0.81659   25.420
 4890.00    0.80027   0.82077   25.639
 4891.00    0.80309   0.82835   25.707
 4892.00    0.81066   0.83881   25.705
 4893.00    0.81782   0.85049   25.731
 4894.00    0.82673   0.86113   25.627
 4895.00    0.83762   0.86881   25.335
 4896.00    0.84212   0.87258   25.130
 4897.00    0.83456   0.87266   25.211
 4898.00    0.82050   0.87020   25.421
 4899.00    0.81004   0.86671   25.526
 4900.00    0.81148   0.86358   25.453
 4901.00    0.82490   0.86173   25.307
 4902.00    0.83948   0.86147   25.323
 4903.00    0.84649   0.86246   25.518
 4904.00    0.84755   0.86382   25.535
 4905.00    0.84668   0.86442   25.250
 4906.00    0.84494   0.86338   25.092
 4907.00    0.84356   0.86058   25.269
 4908.00    0.84552   0.85685   25.399
 4909.00    0.85068   0.85360   25.235
 4910.00    0.85385   0.85212   25.065
 4911.00    0.85190   0.85285   25.061
 4912.00    0.84746   0.85500   24.979
 4913.00    0.84357   0.85676   24.745
 4914.00    0.84056   0.85601   24.694
 4915.00    0.83659   0.85115   24.963
 4916.00    0.82890   0.84186   25.240
 4917.00    0.81834   0.82945   25.306
 4918.00    0.81027   0.81647   25.313
 4919.00    0.80676   0.80588   25.433
 4920.00    0.80367   0.79996   25.663
 4921.00    0.79837   0.79970   25.890
 4922.00    0.79325   0.80481   25.954
 4923.00    0.79334   0.81411   25.772
 4924.00    0.80359   0.82602   25.397
 4925.00    0.82285   0.83885   24.904
 4926.00    0.84273   0.85093   24.372
 4927.00    0.85594   0.86073   24.049
 4928.00    0.86030   0.86706   24.238
 4929.00    0.85866   0.86933   24.507
 4930.00    0.85669   0.86773   23.851
 4931.00    0.85411   0.86318   23.175
 4932.00    0.84403   0.85708   24.624
 4933.00    0.82649   0.85078   25.784
 4934.00    0.81064   0.84518   20.187
 4935.00    0.80051   0.84072   14.212
 4936.00    0.79199   0.83773   12.076
 4937.00    0.78410   0.83671   12.348
 4938.00    0.78168   0.83820   13.000
 4939.00    0.78807   0.84234   12.835
 4940.00    0.80253   0.84853    0.000
 4941.00    0.82105   0.85553    0.000
 4942.00    0.83787   0.86197    0.000
 4943.00    0.84972   0.86698    0.000
 4944.00    0.85651   0.87042    0.000
 4945.00    0.85857   0.87272    0.000
 4946.00    0.85639   0.87445    0.000
 4947.00    0.85282   0.87591    0.000
 4948.00    0.85210   0.87699    0.000
 4949.00    0.85486   0.87722    0.000
 4950.00    0.85919   0.87600    0.000
 4951.00    0.86859   0.87279    0.000
 4952.00    0.89241   0.86729    0.000
 4953.00    0.93965   0.85965    0.000
 4954.00    1.01476   0.85077    0.000
 4955.00    1.11140   0.84235    0.000
 4956.00    1.21186   0.83642    0.000
 4957.00    1.29067   0.83457    0.000
 4958.00    1.32123   0.83705    0.000
 4959.00    1.29030   0.84257    0.000
 4960.00    1.20360   0.84886    0.000
 4961.00    1.08964   0.85374    0.000
 4962.00    0.98767   0.85587    0.000
 4963.00    0.91668   0.85516    0.000
 4964.00    0.87402   0.85248    0.000
 4965.00    0.85089   0.84917    0.000
 4966.00    0.83800   0.84650    0.000
 4967.00    0.82968   0.84534    0.000
 4968.00    0.82435   0.84603    0.000
 4969.00    0.82329   0.84839    0.000
 4970.00    0.82840   0.85190    0.000
 4971.00    0.83801   0.85580    0.000
 4972.00    0.84760   0.85919    0.000
 4973.00    0.85322   0.86124    0.000
 4974.00    0.85287   0.86128    0.000
 4975.00    0.84758   0.85891    0.000
 4976.00    0.84016   0.85402    0.000
 4977.00    0.83212   0.84681    0.000
 4978.00    0.82343   0.83773    0.000
 4979.00    0.81314   0.82760    0.000
 4980.00    0.80096   0.81768    0.000
 4981.00    0.78988   0.80959    0.000
 4982.00    0.78460   0.80487    0.000
 4983.00    0.78808   0.80446    0.000
 4984.00    0.80032   0.80816    0.000
 4985.00    0.81743   0.81468    0.000
 4986.00    0.83337   0.82205    0.000
 4987.00    0.84299   0.82845    0.000
 4988.00    0.84428   0.83284    0.000
 4989.00    0.84088   0.83519    0.000
 4990.00    0.83873   0.83615    0.000
 4991.00    0.84052   0.83662    0.000
 4992.00    0.84497   0.83721    0.000
 4993.00    0.84725   0.83800    0.000
 4994.00    0.84301   0.83852    0.000
 4995.00    0.83384   0.83802    0.000
 4996.00    0.82465   0.83583    0.000
 4997.00    0.81923   0.83174    0.000
 4998.00    0.82424   0.82616    0.000
 4999.00    0.85524   0.81994    0.000
 5000.00    0.93898   0.81397    0.000
 5001.00    1.11300   0.80889    0.000
 5002.00    1.39449   0.80493    0.000
 5003.00    1.74315   0.80222    0.000
 5004.00    2.07621   0.80093    0.000
 5005.00    2.29478   0.80127    0.000
 5006.00    2.32528   0.80309    0.000
 5007.00    2.16283   0.80555    0.000
 5008.00    1.86039   0.80731    0.000
 5009.00    1.50828   0.80705    0.000
 5010.00    1.19669   0.80419    0.000
 5011.00    0.97715   0.79913    0.000
 5012.00    0.85836   0.79308    0.000
 5013.00    0.80882   0.78752    0.000
 5014.00    0.78906   0.78360    0.000
 5015.00    0.78299   0.78184    0.000
 5016.00    0.78590   0.78221    0.000
 5017.00    0.79035   0.78444    0.000
 5018.00    0.79015   0.78811    0.000
 5019.00    0.78500   0.79273    0.000
 5020.00    0.77889   0.79784    0.000
 5021.00    0.77763   0.80296    0.000
 5022.00    0.78340   0.80767    0.000
 5023.00    0.79110   0.81161    0.000
 5024.00    0.79626   0.81462    0.000
 5025.00    0.80141   0.81684    0.000
 5026.00    0.80989   0.81876    0.000
 5027.00    0.82064   0.82098    0.000
 5028.00    0.82975   0.82388    0.000
 5029.00    0.83276   0.82730   26.566
 5030.00    0.82917   0.83053   26.807
 5031.00    0.82493   0.83259   27.106
 5032.00    0.82495   0.83257   27.212
 5033.00    0.82765   0.82997   27.207
 5034.00    0.82802   0.82486   27.213
 5035.00    0.82069   0.81774   27.195
 5036.00    0.80522   0.80943   27.192
 5037.00    0.78852   0.80096   27.418
 5038.00    0.77754   0.79365   27.818
 5039.00    0.77458   0.78904   27.848
 5040.00    0.77939   0.78850   27.370
 5041.00    0.79065   0.79251   27.052
 5042.00    0.80530   0.80016   27.195
 5043.00    0.81850   0.80930   27.252
 5044.00    0.82627   0.81732   26.902
 5045.00    0.82707   0.82218   26.581
 5046.00    0.82146   0.82315   26.577
 5047.00    0.81182   0.82095   26.652
 5048.00    0.80228   0.81736   26.600
 5049.00    0.79783   0.81432   26.535
 5050.00    0.80013   0.81322   26.621
 5051.00    0.80614   0.81455   26.922
 5052.00    0.81321   0.81799   27.364
 5053.00    0.82107   0.82272   27.735
 5054.00    0.82816   0.82783   27.814
 5055.00    0.83082   0.83271   27.510
 5056.00    0.82926   0.83704   27.049
 5057.00    0.82886   0.84062   26.862
 5058.00    0.83251   0.84312   26.992
 5059.00    0.83787   0.84403   27.014
 5060.00    0.84189   0.84287   26.832
 5061.00    0.84280   0.83951   26.872
 5062.00    0.83960   0.83427   27.252
 5063.00    0.83185   0.82804   27.568
 5064.00    0.82032   0.82205   27.620
 5065.00    0.80736   0.81735   27.655
 5066.00    0.79755   0.81438   27.839
 5067.00    0.79613   0.81297   28.069
 5068.00    0.80215   0.81262   28.181
 5069.00    0.80848   0.81271   28.086
 5070.00    0.81254   0.81273   27.941
 5071.00    0.81772   0.81253   28.052
 5072.00    0.82365   0.81211   28.304
 5073.00    0.82486   0.81130   28.191
 5074.00    0.81906   0.80968   27.709
 5075.00    0.80909   0.80688   27.401
 5076.00    0.79887   0.80283   27.481
 5077.00    0.79164   0.79790   27.728
 5078.00    0.78895   0.79297   27.921
 5079.00    0.79056   0.78928   27.988
 5080.00    0.79509   0.78784   27.991
 5081.00    0.80070   0.78904   28.044
 5082.00    0.80631   0.79249   28.113
 5083.00    0.81184   0.79741   28.046
 5084.00    0.81758   0.80286   27.910
 5085.00    0.82359   0.80808   27.936
 5086.00    0.82847   0.81265   28.114
 5087.00    0.83009   0.81652   28.212
 5088.00    0.82836   0.81987   28.140
 5089.00    0.82557   0.82278   28.008
 5090.00    0.82485   0.82514   27.951
 5091.00    0.82860   0.82652   27.957
 5092.00    0.83528   0.82632   27.570
 5093.00    0.84020   0.82398   26.342
 5094.00    0.83918   0.81939   24.900
 5095.00    0.83058   0.81315   24.205
 5096.00    0.81732   0.80654   24.371
 5097.00    0.80500   0.80105   24.927
 5098.00    0.79632   0.79781   25.336
 5099.00    0.79123   0.79723   25.319
 5100.00    0.79046   0.79881   25.377
 5101.00    0.79453   0.80136   26.258
 5102.00    0.80009   0.80356   27.593
 5103.00    0.80210   0.80443   28.120
 5104.00    0.79983   0.80373   27.797
 5105.00    0.79592   0.80183   27.624
 5106.00    0.79184   0.79953   27.799
 5107.00    0.78795   0.79781   27.877
 5108.00    0.78527   0.79744   27.705
 5109.00    0.78514   0.79873   27.455
 5110.00    0.78775   0.80160   27.280
 5111.00    0.79237   0.80564   27.231
 5112.00    0.79798   0.81026   27.234
 5113.00    0.80347   0.81489   27.162
 5114.00    0.80760   0.81896   26.970
 5115.00    0.80964   0.82192   26.726
 5116.00    0.81028   0.82327   26.614
 5117.00    0.81013   0.82259   26.799
 5118.00    0.80700   0.81962   27.223
 5119.00    0.79884   0.81444   27.693
 5120.00    0.78878   0.80764   28.070
 5121.00    0.78137   0.80016   28.290
 5122.00    0.77572   0.79303   28.336
 5123.00    0.76851   0.78710   28.296
 5124.00    0.75997   0.78286   28.437
 5125.00    0.75343   0.78043   28.897
 5126.00    0.75336   0.77971   29.223
 5127.00    0.76194   0.78046   28.968
 5128.00    0.77500   0.78235   28.658
 5129.00    0.78603   0.78508   28.944
 5130.00    0.79221   0.78836   29.460
 5131.00    0.79437   0.79184   29.495
 5132.00    0.79582   0.79484   29.170
 5133.00    0.79977   0.79671   28.964
 5134.00    0.80640   0.79701   28.915
 5135.00    0.81270   0.79562   28.832
 5136.00    0.81311   0.79303   28.628
 5137.00    0.80477   0.78989   28.387
 5138.00    0.79314   0.78675   28.359
 5139.00    0.78567   0.78422   28.671
 5140.00    0.78426   0.78269   29.035
 5141.00    0.78668   0.78194   29.128
 5142.00    0.78925   0.78163   29.082
 5143.00    0.78948   0.78152   29.117
 5144.00    0.78836   0.78147   29.117
 5145.00    0.78721   0.78146   28.941
 5146.00    0.78465   0.78139   28.759
 5147.00    0.77967   0.78116   28.709
 5148.00    0.77477   0.78072   28.601
 5149.00    0.77236   0.78004   28.311
 5150.00    0.77144   0.77928   28.129
 5151.00    0.77038   0.77900   28.293
 5152.00    0.76962   0.77988   28.597
 5153.00    0.77045   0.78237   28.738
 5154.00    0.77370   0.78651   28.672
 5155.00    0.77924   0.79174   28.522
 5156.00    0.78591   0.79716   28.441
 5157.00    0.79278   0.80160   28.427
 5158.00    0.79994   0.80398   28.241
 5159.00    0.80572   0.80366   27.872
 5160.00    0.80520   0.80024   27.800
 5161.00    0.79645   0.79330   28.271
 5162.00    0.78460   0.78259   28.832
 5163.00    0.77378   0.76842   29.027
 5164.00    0.76169   0.75208   29.023
 5165.00    0.74506   0.73572   29.115
 5166.00    0.72410   0.72152   29.326
 5167.00    0.70329   0.71074   29.587
 5168.00    0.69067   0.70375   29.862
 5169.00    0.69089   0.70078   30.073
 5170.00    0.70106   0.70207   30.062
 5171.00    0.71534   0.70748   29.838
 5172.00    0.72867   0.71653   29.670
 5173.00    0.73972   0.72842   29.713
 5174.00    0.75156   0.74170   29.828
 5175.00    0.76536   0.75426   29.839
 5176.00    0.77702   0.76388   29.697
 5177.00    0.78125   0.76878   29.436
 5178.00    0.77457   0.76793   29.137
 5179.00    0.75775   0.76145   28.954
 5180.00    0.73658   0.75129   29.069
 5181.00    0.71817   0.74083   29.418
 5182.00    0.70842   0.73330   29.607
 5183.00    0.70905   0.73078   29.452
 5184.00    0.71692   0.73367   29.220
 5185.00    0.72813   0.74083   29.165
 5186.00    0.74014   0.74999   29.316
 5187.00    0.75150   0.75834   29.539
 5188.00    0.76147   0.76382   29.624
 5189.00    0.76914   0.76606   29.518
 5190.00    0.77343   0.76592    0.000
 5191.00    0.77467   0.76465    0.000
 5192.00    0.77518   0.76360    0.000
 5193.00    0.77838   0.76388    0.000
 5194.00    0.78728   0.76590    0.000
 5195.00    0.80026   0.76950    0.000
 5196.00    0.81097   0.77404    0.000
 5197.00    0.81580   0.77854    0.000
 5198.00    0.81599   0.78195    0.000
 5199.00    0.81315   0.78332    0.000
 5200.00    0.80754   0.78191    0.000
 5201.00    0.79836   0.77737    0.000
 5202.00    0.78480   0.77028    0.000
 5203.00    0.76901   0.76193    0.000
 5204.00    0.75590   0.75376    0.000
 5205.00    0.74817   0.74726    0.000
 5206.00    0.74528   0.74384    0.000
 5207.00    0.74636   0.74430    0.000
 5208.00    0.75124   0.74860    0.000
 5209.00    0.76053   0.75593    0.000
 5210.00    0.77414   0.76472    0.000
 5211.00    0.78636   0.77312   28.830
 5212.00    0.78866   0.77976   28.608
 5213.00    0.78278   0.78428   28.579
 5214.00    0.77954   0.78726   28.541
 5215.00    0.78292   0.78969   28.441
 5216.00    0.78846   0.79241   28.407
 5217.00    0.79312   0.79566   28.521
 5218.00    0.79678   0.79895   28.757
 5219.00    0.79777   0.80109   29.013
 5220.00    0.79350   0.80073   29.169
 5221.00    0.78513   0.79688   29.257
 5222.00    0.77655   0.78946   29.442
 5223.00    0.76796   0.77959   29.832
 5224.00    0.75706   0.76974   30.382
 5225.00    0.74628   0.76262   30.766
 5226.00    0.74146   0.75971   30.606
 5227.00    0.74405   0.76101   30.156
 5228.00    0.75115   0.76528   30.019
 5229.00    0.75981   0.77045   30.221
 5230.00    0.76805   0.77485   30.328
 5231.00    0.77441   0.77799   30.127
 5232.00    0.77785   0.78033   29.741
 5233.00    0.77767   0.78280   29.459
 5234.00    0.77486   0.78615   29.501
 5235.00    0.77484   0.79058   29.662
 5236.00    0.78329   0.79571   29.555
 5237.00    0.79661   0.80084   29.284
 5238.00    0.80609   0.80528   29.242
 5239.00    0.80979   0.80851   29.492
 5240.00    0.81125   0.81046   29.804
 5241.00    0.81246   0.81130   29.939
 5242.00    0.81290   0.81090   29.819
 5243.00    0.81045   0.80892   29.709
 5244.00    0.80341   0.80549   29.934
 5245.00    0.79375   0.80117   30.354
 5246.00    0.78513   0.79642   30.564
 5247.00    0.77856   0.79177   30.467
 5248.00    0.77328   0.78808   30.243
 5249.00    0.76940   0.78593   30.079
 5250.00    0.76756   0.78526   30.070
 5251.00    0.76767   0.78579   30.169
 5252.00    0.76936   0.78741   30.232
 5253.00    0.77292   0.79024   30.117
 5254.00    0.77884   0.79404   29.810
 5255.00    0.78708   0.79800   29.562
 5256.00    0.79635   0.80097   29.608
 5257.00    0.80348   0.80160   29.782
 5258.00    0.80492   0.79870   29.768
 5259.00    0.79906   0.79174   29.529
 5260.00    0.78651   0.78115   29.267
 5261.00    0.77002   0.76819   29.250
 5262.00    0.75313   0.75468   29.605
 5263.00    0.73861   0.74257   30.068
 5264.00    0.72803   0.73328   30.271
 5265.00    0.72169   0.72675   30.207
 5266.00    0.71895   0.72228   30.094
 5267.00    0.71893   0.72021   30.089
 5268.00    0.72151   0.72128   30.220
 5269.00    0.72838   0.72521   30.343
 5270.00    0.74017   0.73122   30.319
 5271.00    0.75350   0.73862   30.204
 5272.00    0.76392   0.74669   30.087
 5273.00    0.76976   0.75517   29.899
 5274.00    0.77189   0.76405   29.628
 5275.00    0.77298   0.77259   29.518
 5276.00    0.77514   0.77984   29.669
 5277.00    0.77775   0.78507   29.668
 5278.00    0.77826   0.78793   29.284
 5279.00    0.77372   0.78849   29.101
 5280.00    0.76468   0.78750   29.513
 5281.00    0.75828   0.78645   29.868
 5282.00    0.76072   0.78715   29.566
 5283.00    0.77049   0.79040   29.195
 5284.00    0.78368   0.79576   29.299
 5285.00    0.79906   0.80231   29.400
 5286.00    0.81485   0.80904   29.033
 5287.00    0.82598   0.81496   28.647
 5288.00    0.82799   0.81918   28.701
 5289.00    0.82053   0.82118   29.004
 5290.00    0.80780   0.82092   29.195
 5291.00    0.79783   0.81862   29.178
 5292.00    0.79522   0.81438   29.012
 5293.00    0.79624   0.80818   28.782
 5294.00    0.79476   0.80046   28.596
 5295.00    0.78731   0.79258   28.571
 5296.00    0.77490   0.78624   28.733
 5297.00    0.76326   0.78233   28.959
 5298.00    0.75765   0.78097   29.132
 5299.00    0.75903   0.78226   29.245
 5300.00    0.76490   0.78603   29.240
 5301.00    0.77065   0.79158   28.938
 5302.00    0.77424   0.79772   28.334
 5303.00    0.77838   0.80335   27.703
 5304.00    0.78453   0.80793   27.184
 5305.00    0.78973   0.81148   26.633
 5306.00    0.79229   0.81420   25.968
 5307.00    0.79454   0.81614   25.323
 5308.00    0.79763   0.81726   24.862
 5309.00    0.79917   0.81751   24.673
 5310.00    0.79881   0.81676   24.653
 5311.00    0.80021   0.81502   24.510
 5312.00    0.80316   0.81228   24.185
 5313.00    0.80114   0.80868   23.993
 5314.00    0.79250   0.80496   24.136
 5315.00    0.78461   0.80203   24.511
 5316.00    0.78254   0.80009   24.874
 5317.00    0.78416   0.79890   24.983
 5318.00    0.78568   0.79803   24.916
 5319.00    0.78476   0.79674   25.100
 5320.00    0.78074   0.79412   25.688
 5321.00    0.77440   0.78965   26.343
 5322.00    0.76657   0.78361   26.771
 5323.00    0.75785   0.77633   27.015
 5324.00    0.75046   0.76775   27.176
 5325.00    0.74801   0.75873   27.274
 5326.00    0.75101   0.75175   27.302
 5327.00    0.75607   0.74890   27.269
 5328.00    0.76131   0.75050   27.207
 5329.00    0.76760   0.75565   27.159
 5330.00    0.77450   0.76320   27.089
 5331.00    0.77918   0.77183   26.912
 5332.00    0.77927   0.77993   26.689
 5333.00    0.77449   0.78603   26.624
 5334.00    0.76829   0.78945   26.748
 5335.00    0.76639   0.79029   26.869
 5336.00    0.76919   0.78882   26.820
 5337.00    0.77126   0.78570   26.598
 5338.00    0.76934   0.78242   26.495
 5339.00    0.76473   0.78044   26.923
 5340.00    0.76107   0.78017   27.710
 5341.00    0.76219   0.78123   28.070
 5342.00    0.76771   0.78287   27.770
 5343.00    0.77355   0.78449   27.376
 5344.00    0.77815   0.78582   27.289
 5345.00    0.78328   0.78658   27.522
 5346.00    0.79017   0.78692   27.806
 5347.00    0.79803   0.78770   27.796
 5348.00    0.80316   0.78975   27.669
 5349.00    0.80150   0.79318   27.936
 5350.00    0.79600   0.79768   28.463
 5351.00    0.79493   0.80302   28.568
 5352.00    0.80114   0.80881   28.313
 5353.00    0.81132   0.81434   28.385
 5354.00    0.82211   0.81898   28.755
 5355.00    0.83115   0.82230   28.790
 5356.00    0.83544   0.82400   28.535
 5357.00    0.83225   0.82383   28.578
 5358.00    0.82233   0.82160   28.855
 5359.00    0.80941   0.81750   28.819
 5360.00    0.79707   0.81212   28.579
 5361.00    0.78750   0.80613   28.723
 5362.00    0.78057   0.80005   29.284
 5363.00    0.77490   0.79432   29.798
 5364.00    0.77063   0.78911   29.976
 5365.00    0.76888   0.78424   29.875
 5366.00    0.76941   0.77937   29.750
 5367.00    0.77050   0.77434   29.842
 5368.00    0.76988   0.76984   30.040
 5369.00    0.76628   0.76737   30.062
 5370.00    0.76195   0.76813   29.949
 5371.00    0.76119   0.77211   29.936
 5372.00    0.76663   0.77843   29.988
 5373.00    0.77800   0.78577   29.905
 5374.00    0.79139   0.79275   29.670
 5375.00    0.80144   0.79837   29.439
 5376.00    0.80537   0.80198   29.377
 5377.00    0.80332   0.80333   29.566
 5378.00    0.79745   0.80278   29.877
 5379.00    0.79063   0.80110   30.076
 5380.00    0.78462   0.79906   30.062
 5381.00    0.78001   0.79744   29.892
 5382.00    0.77693   0.79673   29.716
 5383.00    0.77536   0.79678   29.708
 5384.00    0.77555   0.79703   29.985
 5385.00    0.77757   0.79691   30.461
 5386.00    0.78045   0.79590   30.634
 5387.00    0.78291   0.79375   30.134
 5388.00    0.78440   0.79064   29.568
 5389.00    0.78406   0.78688   29.658
 5390.00    0.77912   0.78282   30.152
 5391.00    0.76829   0.77878   30.404
 5392.00    0.75646   0.77491   30.392
 5393.00    0.75000   0.77109   30.399
 5394.00    0.74984   0.76740   30.330
 5395.00    0.75336   0.76474   30.047
 5396.00    0.75801   0.76378   29.865
 5397.00    0.76187   0.76407   30.064
 5398.00    0.76375   0.76483   30.296
 5399.00    0.76303   0.76540   30.119
 5400.00    0.75942   0.76480   29.757
 5401.00    0.75373   0.76215   29.625
 5402.00    0.74860   0.75755   29.741
 5403.00    0.74595   0.75224   29.950
 5404.00    0.74431   0.74767   30.206
 5405.00    0.74204   0.74457   30.429
 5406.00    0.74089   0.74278   30.332
 5407.00    0.74334   0.74217   29.872
 5408.00    0.74940   0.74321   29.624
 5409.00    0.75748   0.74633   29.922
 5410.00    0.76568   0.75120   30.130
 5411.00    0.77259   0.75706   29.696
 5412.00    0.77782   0.76336   -2.000
 5413.00    0.78050   0.76992   -2.000
 5414.00    0.77814   0.77634   -2.000
 5415.00    0.77025   0.78184   -2.000
 5416.00    0.76130   0.78580   -2.000
 5417.00    0.75701   0.78802   -2.000
 5418.00    0.76060   0.78877   -2.000
 5419.00    0.77013   0.78848   -2.000
 5420.00    0.77770   0.78735   -2.000
 5421.00    0.77917   0.78549   -2.000
 5422.00    0.78092   0.78356   -2.000
 5423.00    0.78750   0.78236   -2.000
 5424.00    0.79256   0.78173   -2.000
 5425.00    0.78954   0.78067   -2.000
 5426.00    0.77995   0.77823   -2.000
 5427.00    0.76853   0.77465   28.128
 5428.00    0.75898   0.77110   28.630
 5429.00    0.75275   0.76800   28.958
 5430.00    0.74875   0.76511   29.193
 5431.00    0.74590   0.76272   29.419
 5432.00    0.74483   0.76160   29.713
 5433.00    0.74691   0.76247   30.029
 5434.00    0.75340   0.76567   30.144
 5435.00    0.76382   0.77100   29.943
 5436.00    0.77544   0.77777   29.587
 5437.00    0.78563   0.78487   29.336
 5438.00    0.79327   0.79117   29.396
 5439.00    0.79739   0.79572   29.725
 5440.00    0.79670   0.79778   29.976
 5441.00    0.79137   0.79685   29.957
 5442.00    0.78375   0.79285   29.876
 5443.00    0.77558   0.78652   29.950
 5444.00    0.76696   0.77952   30.183
 5445.00    0.75939   0.77406   30.436
 5446.00    0.75668   0.77145   30.518
 5447.00    0.76085   0.77136   30.428
 5448.00    0.77008   0.77275   30.417
 5449.00    0.78015   0.77445   30.539
 5450.00    0.78604   0.77539   30.546
 5451.00    0.78578   0.77476   30.475
 5452.00    0.78197   0.77244   30.720
 5453.00    0.77950   0.76947   30.975
 5454.00    0.78305   0.76766   30.071
 5455.00    0.79077   0.76788   27.920
 5456.00    0.79397   0.76963   25.726
 5457.00    0.78849   0.77187   24.261
 5458.00    0.77836   0.77374   23.684
 5459.00    0.76890   0.77458   23.816
 5460.00    0.76308   0.77421   24.302
 5461.00    0.75961   0.77328   25.153
 5462.00    0.75411   0.77274   26.846
 5463.00    0.74710   0.77282   29.240
 5464.00    0.74498   0.77343   30.886
 5465.00    0.75123   0.77463   30.983
 5466.00    0.76382   0.77605   30.583
 5467.00    0.77854   0.77692   30.427
 5468.00    0.79081   0.77675   30.346
 5469.00    0.79740   0.77546   30.219
 5470.00    0.79705   0.77287   30.218
 5471.00    0.79010   0.76904   30.472
 5472.00    0.77841   0.76454   30.937
 5473.00    0.76506   0.75962   31.287
 5474.00    0.75367   0.75472   31.104
 5475.00    0.74636   0.75128   30.653
 5476.00    0.74368   0.75032   30.666
 5477.00    0.74628   0.75120   31.144
 5478.00    0.75420   0.75292   31.387
 5479.00    0.76291   0.75527   31.257
 5480.00    0.76565   0.75848   31.252
 5481.00    0.76361   0.76231   31.410
 5482.00    0.76441   0.76620   31.305
 5483.00    0.77004   0.76950   30.994
 5484.00    0.77639   0.77153   30.928
 5485.00    0.78187   0.77235   31.087
 5486.00    0.78789   0.77272   31.053
 5487.00    0.79407   0.77308   30.798
 5488.00    0.79794   0.77337   30.670
 5489.00    0.79736   0.77371   30.834
 5490.00    0.79198   0.77402   31.184
 5491.00    0.78527   0.77412   31.443
 5492.00    0.78222   0.77415   31.357
 5493.00    0.78304   0.77409   31.129
 5494.00    0.78407   0.77354   31.177
 5495.00    0.78307   0.77257   31.422
 5496.00    0.78010   0.77185   31.445
 5497.00    0.77658   0.77135   31.206
 5498.00    0.77426   0.77028   30.980
 5499.00    0.77366   0.76846   30.842
 5500.00    0.77406   0.76648   30.686
 5501.00    0.77428   0.76476   30.459
 5502.00    0.77322   0.76321   30.207
 5503.00    0.77080   0.76158   30.082
 5504.00    0.76803   0.75999   30.237
 5505.00    0.76673   0.75904   30.634
 5506.00    0.76822   0.75885   31.062
 5507.00    0.77107   0.75878   31.243
 5508.00    0.77262   0.75843   31.033
 5509.00    0.77236   0.75768   30.696
 5510.00    0.77123   0.75674   30.636
 5511.00    0.76926   0.75627   30.915
 5512.00    0.76628   0.75684   31.338
 5513.00    0.76375   0.75858   31.676
 5514.00    0.76427   0.76144   31.736
 5515.00    0.77023   0.76524   31.421
 5516.00    0.78147   0.76959   30.838
 5517.00    0.79241   0.77368   30.356
 5518.00    0.79683   0.77683   30.254
 5519.00    0.79557   0.77873   30.293
 5520.00    0.79310   0.77926   30.085
 5521.00    0.79094   0.77836   29.705
 5522.00    0.78766   0.77601   29.496
 5523.00    0.78037   0.77237   29.699
 5524.00    0.76854   0.76790   -2.000
 5525.00    0.75842   0.76324   -2.000
 5526.00    0.75634   0.75945   -2.000
 5527.00    0.75983   0.75767   -2.000
 5528.00    0.76584   0.75793   -2.000
 5529.00    0.78165   0.75931   -2.000
 5530.00    0.80917   0.76105   -2.000
 5531.00    0.82629   0.76271   -2.000
 5532.00    0.81450   0.76399   -2.000
 5533.00    0.79225   0.76507   -2.000
 5534.00    0.78812   0.76644   -2.000
 5535.00    0.80650   0.76806   -2.000
 5536.00    0.83447   0.76974   -2.000
 5537.00    0.85448   0.77166   -2.000
 5538.00    0.85400   0.77363   -2.000
 5539.00    0.83419   0.77508   -2.000
 5540.00    0.80614   0.77558   -2.000
 5541.00    0.78500   0.77526   -2.000
 5542.00    0.77920   0.77470   -2.000
 5543.00    0.78134   0.77433   -2.000
 5544.00    0.78207   0.77443   -2.000
 5545.00    0.78337   0.77533   -2.000
 5546.00    0.78941   0.77696   -2.000
 5547.00    0.79741   0.77877   29.900
 5548.00    0.80313   0.78028   30.192
 5549.00    0.80635   0.78114   30.550
 5550.00    0.80838   0.78107   30.695
 5551.00    0.80954   0.78003   30.722
 5552.00    0.80982   0.77841   30.762
 5553.00    0.80951   0.77679   30.696
 5554.00    0.80810   0.77540   30.466
 5555.00    0.80381   0.77416   30.311
 5556.00    0.79663   0.77310   30.427
 5557.00    0.79027   0.77222   30.720
 5558.00    0.78746   0.77122   30.943
 5559.00    0.78668   0.76985   30.844
 5560.00    0.78616   0.76799   30.425
 5561.00    0.78651   0.76583   30.036
 5562.00    0.78820   0.76369   29.910
 5563.00    0.78975   0.76155   29.934
 5564.00    0.78971   0.75954   29.983
 5565.00    0.78790   0.75796   30.133
 5566.00    0.78448   0.75679   30.508
 5567.00    0.77946   0.75589   31.138
 5568.00    0.77323   0.75554   31.782
 5569.00    0.76697   0.75572   31.881
 5570.00    0.76243   0.75579   31.379
 5571.00    0.76154   0.75615   31.027
 5572.00    0.76471   0.75746   31.197
 5573.00    0.77015   0.75916   31.436
 5574.00    0.77577   0.76079   31.444
 5575.00    0.78022   0.76262   31.526
 5576.00    0.78242   0.76432   31.686
 5577.00    0.78146   0.76556   31.337
 5578.00    0.77766   0.76625   30.674
 5579.00    0.77288   0.76593   30.820
 5580.00    0.76905   0.76440   31.428
 5581.00    0.76730   0.76190   30.380
 5582.00    0.76719   0.75824   29.147
 5583.00    0.76672   0.75316   32.371
 5584.00    0.76374   0.74688   36.954
 5585.00    0.75703   0.74032   26.585
 5586.00    0.74781   0.73469   16.202
 5587.00    0.73981   0.73090   12.845
 5588.00    0.73629   0.72939   12.977
 5589.00    0.73860   0.72983   13.789
 5590.00    0.74594   0.73162   13.622
 5591.00    0.75560   0.73422   13.150
 5592.00    0.76413   0.73730   13.020
 5593.00    0.76864   0.74069   13.035
 5594.00    0.76978   0.74383   13.002
 5595.00    0.77122   0.74543   12.972
 5596.00    0.77303   0.74523   12.966
 5597.00    0.77097   0.74426   12.925
 5598.00    0.76385   0.74315   12.988
 5599.00    0.75536   0.74207   13.389
 5600.00    0.74985   0.74175   13.647
 5601.00    0.75008   0.74316   12.905
 5602.00    0.75493   0.74683   12.434
 5603.00    0.76035   0.75219   14.919
 5604.00    0.76476   0.75818   23.933
 5605.00    0.76972   0.76389   36.395
 5606.00    0.77551   0.76865   33.578
 5607.00    0.78026   0.77200   29.371
 5608.00    0.78171   0.77368   30.331
 5609.00    0.77857   0.77359   32.066
 5610.00    0.77254   0.77170   31.785
 5611.00    0.76744   0.76798   31.208
 5612.00    0.76465   0.76242   31.364
 5613.00    0.76284   0.75598   31.639
 5614.00    0.76109   0.75088   31.619
 5615.00    0.75952   0.74818   31.455
 5616.00    0.75853   0.74707   31.338
 5617.00    0.75830   0.74692   31.318
 5618.00    0.75808   0.74764   31.304
 5619.00    0.75679   0.74897   31.158
 5620.00    0.75532   0.75019   30.958
 5621.00    0.75557   0.75039   30.891
 5622.00    0.75693   0.74942   30.858
 5623.00    0.75739   0.74854   30.593
 5624.00    0.75829   0.74892   30.158
 5625.00    0.76310   0.75043   29.840
 5626.00    0.77190   0.75271   29.706
 5627.00    0.78136   0.75567   29.623
 5628.00    0.78757   0.75880   29.474
 5629.00    0.78811   0.76144   29.213
 5630.00    0.78489   0.76308   28.888
 5631.00    0.78216   0.76337   28.605
 5632.00    0.78114   0.76237   28.477
 5633.00    0.78070   0.76043   28.532
 5634.00    0.78073   0.75781   28.577
 5635.00    0.78132   0.75492   28.362
 5636.00    0.77972   0.75242   27.959
 5637.00    0.77213   0.75063   27.600
 5638.00    0.75806   0.74931   27.278
 5639.00    0.74091   0.74838   26.862
 5640.00    0.72731   0.74827   26.381
 5641.00    0.72338   0.74895   25.936
 5642.00    0.72874   0.75004   25.509
 5643.00    0.73797   0.75142   25.054
 5644.00    0.74503   0.75293   24.677
 5645.00    0.74655   0.75443   24.530
 5646.00    0.74554   0.75575   24.650
 5647.00    0.74760   0.75664   24.978
 5648.00    0.75386   0.75718   25.408
 5649.00    0.76174   0.75753   25.848
 5650.00    0.76773   0.75743   26.329
 5651.00    0.76869   0.75638   26.951
 5652.00    0.76300   0.75405   27.773
 5653.00    0.75164   0.75083   28.679
 5654.00    0.73923   0.74728   29.224
 5655.00    0.73116   0.74304   29.177
 5656.00    0.72935   0.73823   29.317
 5657.00    0.73238   0.73462   30.165
 5658.00    0.73649   0.73322   30.221
 5659.00    0.73818   0.73304   28.914
 5660.00    0.73719   0.73340   30.044
 5661.00    0.73512   0.73474   35.516
 5662.00    0.73331   0.73727   31.991
 5663.00    0.73269   0.74027   19.587
 5664.00    0.73385   0.74281   13.786
 5665.00    0.73676   0.74456   12.774
 5666.00    0.74045   0.74600   13.473
 5667.00    0.74398   0.74770   13.641
 5668.00    0.74750   0.74970   13.378
 5669.00    0.75152   0.75188   13.499
 5670.00    0.75612   0.75435   13.236
 5671.00    0.76106   0.75699   12.395
 5672.00    0.76612   0.75927   13.051
 5673.00    0.77040   0.76081   17.952
 5674.00    0.77179   0.76176   29.177
 5675.00    0.76927   0.76210   34.571
 5676.00    0.76492   0.76145   30.222
 5677.00    0.76126   0.75982   29.022
 5678.00    0.75869   0.75763   30.477
 5679.00    0.75669   0.75497   31.033
 5680.00    0.75505   0.75182   30.558
 5681.00    0.75393   0.74874   30.452
 5682.00    0.75373   0.74637   30.882
 5683.00    0.75442   0.74470   31.373
 5684.00    0.75507   0.74348   31.441
 5685.00    0.75473   0.74266   31.048
 5686.00    0.75319   0.74269   30.807
 5687.00    0.75181   0.74392   31.059
 5688.00    0.75356   0.74622   31.310
 5689.00    0.75889   0.74896   31.137
 5690.00    0.76323   0.75174   30.883
 5691.00    0.76263   0.75416   30.924
 5692.00    0.75790   0.75581   31.152
 5693.00    0.75202   0.75654   31.306
 5694.00    0.74788   0.75634   31.246
 5695.00    0.74676   0.75507   31.046
 5696.00    0.74754   0.75280   30.978
 5697.00    0.74836   0.75010   31.116
 5698.00    0.74788   0.74723   31.158
 5699.00    0.74534   0.74428   31.015
 5700.00    0.74072   0.74165   31.090
 5701.00    0.73567   0.73962   31.499
 5702.00    0.73338   0.73789   31.698
 5703.00    0.73421   0.73585   31.430
 5704.00    0.73401   0.73318   31.214
 5705.00    0.72998   0.73024   31.394
 5706.00    0.72369   0.72734   31.704
 5707.00    0.71793   0.72490   31.846
 5708.00    0.71486   0.72363   31.812
 5709.00    0.71666   0.72376   31.689
 5710.00    0.72524   0.72543   31.530
 5711.00    0.73835   0.72895   31.376
 5712.00    0.74916   0.73365   31.259
 5713.00    0.75406   0.73863   31.113
 5714.00    0.75555   0.74355   30.791
 5715.00    0.75608   0.74800   30.362
 5716.00    0.75540   0.75181   30.126
 5717.00    0.75311   0.75516   30.123
 5718.00    0.74997   0.75793   30.030
 5719.00    0.74818   0.76005   29.672
 5720.00    0.75061   0.76168   29.149
 5721.00    0.75707   0.76271   28.351
 5722.00    0.76376   0.76302   27.008
 5723.00    0.76784   0.76263   25.455
 5724.00    0.76903   0.76143   24.406
 5725.00    0.76763   0.75968   24.024
 5726.00    0.76342   0.75814   23.991
 5727.00    0.75476   0.75712   24.243
 5728.00    0.73983   0.75627   25.074
 5729.00    0.72253   0.75541   26.506
 5730.00    0.71206   0.75503   28.019
 5731.00    0.71289   0.75551   29.083
 5732.00    0.72203   0.75651   29.581
 5733.00    0.73286   0.75745   29.726
 5734.00    0.73863   0.75797   29.858
 5735.00    0.73928   0.75813   30.041
 5736.00    0.74069   0.75810   30.086
 5737.00    0.74448   0.75791   30.061
 5738.00    0.74699   0.75756   30.268
 5739.00    0.74732   0.75716   30.576
 5740.00    0.74834   0.75674    0.000
 5741.00    0.75144   0.75638    0.000
 5742.00    0.75559   0.75633    0.000
 5743.00    0.75942   0.75652    0.000
 5744.00    0.76211   0.75649    0.000
 5745.00    0.76380   0.75573    0.000
 5746.00    0.76509   0.75440    0.000
 5747.00    0.76516   0.75317    0.000
 5748.00    0.76255   0.75222    0.000
 5749.00    0.75852   0.75099    0.000
 5750.00    0.75633   0.74918    0.000
 5751.00    0.75699   0.74719    0.000
 5752.00    0.75932   0.74593    0.000
 5753.00    0.76303   0.74604    0.000
 5754.00    0.76840   0.74715    0.000
 5755.00    0.77380   0.74838    0.000
 5756.00    0.77642   0.74926    0.000
 5757.00    0.77542   0.74958    0.000
 5758.00    0.77233   0.74925    0.000
 5759.00    0.76994   0.74832    0.000
 5760.00    0.77040   0.74712    0.000
 5761.00    0.77180   0.74641    0.000
 5762.00    0.77038   0.74706    0.000
 5763.00    0.76658   0.74883    0.000
 5764.00    0.76361   0.75103    0.000
 5765.00    0.76185   0.75324    0.000
 5766.00    0.75976   0.75517    0.000
 5767.00    0.75777   0.75649    0.000
 5768.00    0.75767   0.75703    0.000
 5769.00    0.75988   0.75667    0.000
 5770.00    0.76333   0.75563    0.000
 5771.00    0.76602   0.75438    0.000
 5772.00    0.76625   0.75307    0.000
 5773.00    0.76439   0.75168    0.000
 5774.00    0.76212   0.75027    0.000
 5775.00    0.76067   0.74862    0.000
 5776.00    0.76048   0.74638    0.000
 5777.00    0.76119   0.74329    0.000
 5778.00    0.76184   0.73916    0.000
 5779.00    0.76109   0.73450    0.000
 5780.00    0.75789   0.73039    0.000
 5781.00    0.75241   0.72743    0.000
 5782.00    0.74651   0.72549    0.000
 5783.00    0.74401   0.72456    0.000
 5784.00    0.74763   0.72511    0.000
 5785.00    0.75472   0.72730    0.000
 5786.00    0.76013   0.73036    0.000
 5787.00    0.76121   0.73349    0.000
 5788.00    0.75864   0.73616    0.000
 5789.00    0.75648   0.73838    0.000
 5790.00    0.75873   0.74060    0.000
 5791.00    0.76509   0.74279    0.000
 5792.00    0.77212   0.74471    0.000
 5793.00    0.77573   0.74635    0.000
 5794.00    0.77350   0.74756    0.000
 5795.00    0.76714   0.74824    0.000
 5796.00    0.76054   0.74886    0.000
 5797.00    0.75706   0.74990    0.000
 5798.00    0.75846   0.75116    0.000
 5799.00    0.76417   0.75219    0.000
 5800.00    0.77157   0.75284    0.000
 5801.00    0.77667   0.75306    0.000
 5802.00    0.77665   0.75272    0.000
 5803.00    0.77227   0.75204    0.000
 5804.00    0.76590   0.75134    0.000
 5805.00    0.75926   0.75087    0.000
 5806.00    0.75417   0.75067    0.000
 5807.00    0.75332   0.75065    0.000
 5808.00    0.75729   0.75074    0.000
 5809.00    0.76214   0.75089    0.000
 5810.00    0.76423   0.75089    0.000
 5811.00    0.76450   0.75064    0.000
 5812.00    0.76466   0.75018    0.000
 5813.00    0.76360   0.74952    0.000
 5814.00    0.76007   0.74897    0.000
 5815.00    0.75512   0.74911    0.000
 5816.00    0.75109   0.75015    0.000
 5817.00    0.75042   0.75168    0.000
 5818.00    0.75386   0.75325    0.000
 5819.00    0.75941   0.75467    0.000
 5820.00    0.76467   0.75586    0.000
 5821.00    0.76872   0.75674    0.000
 5822.00    0.77144   0.75731    0.000
 5823.00    0.77300   0.75770    0.000
 5824.00    0.77447   0.75791    0.000
 5825.00    0.77793   0.75796    0.000
 5826.00    0.78362   0.75792    0.000
 5827.00    0.78849   0.75787    0.000
 5828.00    0.79000   0.75772    0.000
 5829.00    0.78852   0.75736    0.000
 5830.00    0.78561   0.75681    0.000
 5831.00    0.78260   0.75611    0.000
 5832.00    0.78050   0.75524    0.000
 5833.00    0.77984   0.75440    0.000
 5834.00    0.78061   0.75391    0.000
 5835.00    0.78217   0.75374    0.000
 5836.00    0.78327   0.75366    0.000
 5837.00    0.78230   0.75380    0.000
 5838.00    0.77921   0.75435    0.000
 5839.00    0.77602   0.75510   -2.000
 5840.00    0.77400   0.75559   -2.000
 5841.00    0.77251   0.75555   -2.000
 5842.00    0.77090   0.75495   -2.000
 5843.00    0.76929   0.75384   -2.000
 5844.00    0.76675   0.75222   -2.000
 5845.00    0.76114   0.75011   -2.000
 5846.00    0.75338   0.74777   -2.000
 5847.00    0.74816   0.74548   -2.000
 5848.00    0.74722   0.74322   -2.000
 5849.00    0.74702   0.74071   -2.000
 5850.00    0.74335   0.73766   -2.000
 5851.00    0.73401   0.73423   -2.000
 5852.00    0.72062   0.73105   -2.000
 5853.00    0.70845   0.72849   -2.000
 5854.00    0.70232   0.72612   -2.000
 5855.00    0.70440   0.72366   -2.000
 5856.00    0.71231   0.72189   -2.000
 5857.00    0.72015   0.72171   -2.000
 5858.00    0.72508   0.72296   -2.000
 5859.00    0.72885   0.72474    0.000
 5860.00    0.73293   0.72645    0.000
 5861.00    0.73688   0.72825    0.000
 5862.00    0.73973   0.73044    0.000
 5863.00    0.74104   0.73260    0.000
 5864.00    0.74228   0.73410    0.000
 5865.00    0.74631   0.73508    0.000
 5866.00    0.75377   0.73616    0.000
 5867.00    0.76285   0.73739    0.000
 5868.00    0.77288   0.73824    0.000
 5869.00    0.78536   0.73828    0.000
 5870.00    0.80290   0.73750    0.000
 5871.00    0.82753   0.73615    0.000
 5872.00    0.85659   0.73417    0.000
 5873.00    0.88272   0.73157    0.000
 5874.00    0.89793   0.72898    0.000
 5875.00    0.89591   0.72707    0.000
 5876.00    0.87518   0.72603    0.000
 5877.00    0.83997   0.72521    0.000
 5878.00    0.80022   0.72429    0.000
 5879.00    0.76830   0.72353    0.000
 5880.00    0.75047   0.72279    0.000
 5881.00    0.74534   0.72108    0.000
 5882.00    0.74639   0.71737    0.000
 5883.00    0.74524   0.71146    0.000
 5884.00    0.73816   0.70369    0.000
 5885.00    0.72637   0.69406    0.000
 5886.00    0.71270   0.68225    0.000
 5887.00    0.70002   0.66852    0.000
 5888.00    0.68943   0.65510    0.000
 5889.00    0.68112   0.64538    0.000
 5890.00    0.67698   0.64048    0.000
 5891.00    0.67930   0.63864    0.000
 5892.00    0.68665   0.63831    0.000
 5893.00    0.69487   0.63896    0.000
 5894.00    0.70126   0.64142    0.000
 5895.00    0.70564   0.64733    0.000
 5896.00    0.71027   0.65617    0.000
 5897.00    0.71765   0.66587    0.000
 5898.00    0.72604   0.67557    0.000
 5899.00    0.73170   0.68553    0.000
 5900.00    0.73473   0.69548    0.000
 5901.00    0.73762   0.70429   28.229
 5902.00    0.74034   0.71102   28.518
 5903.00    0.74110   0.71571   28.755
 5904.00    0.73927   0.71902   28.594
 5905.00    0.73584   0.72150   27.949
 5906.00    0.73322   0.72335   27.216
 5907.00    0.73353   0.72443   26.838
 5908.00    0.73597   0.72479   26.762
 5909.00    0.73797   0.72473   26.756
 5910.00    0.73777   0.72425   26.960
 5911.00    0.73518   0.72309   27.618
 5912.00    0.73204   0.72134   28.496
 5913.00    0.73080   0.71981   29.079
 5914.00    0.73219   0.71908   29.206
 5915.00    0.73507   0.71912   29.075
 5916.00    0.73681   0.71969   28.945
 5917.00    0.73577   0.72063   28.981
 5918.00    0.73456   0.72195   29.154
 5919.00    0.73640   0.72339   29.327
 5920.00    0.73980   0.72453   29.400
 5921.00    0.74135   0.72535   29.332
 5922.00    0.74033   0.72597   29.133
 5923.00    0.73773   0.72630   28.870
 5924.00    0.73424   0.72629   28.651
 5925.00    0.73063   0.72594   28.591
 5926.00    0.72850   0.72528   28.764
 5927.00    0.72920   0.72430   29.087
 5928.00    0.73233   0.72318   29.175
 5929.00    0.73607   0.72254   28.782
 5930.00    0.73768   0.72262   28.294
 5931.00    0.73553   0.72289   28.165
 5932.00    0.73103   0.72297   28.364
 5933.00    0.72629   0.72317   28.700
 5934.00    0.72165   0.72393   29.181
 5935.00    0.71727   0.72490   29.784
 5936.00    0.71507   0.72550   30.185
 5937.00    0.71669   0.72569   30.144
 5938.00    0.72144   0.72559   29.951
 5939.00    0.72774   0.72520   29.911
 5940.00    0.73464   0.72478   29.861
 5941.00    0.74088   0.72455   29.609
 5942.00    0.74410   0.72444   29.346
 5943.00    0.74286   0.72434   29.335
 5944.00    0.73834   0.72422   29.621
 5945.00    0.73274   0.72388   30.071
 5946.00    0.72770   0.72300   30.412
 5947.00    0.72379   0.72177   30.440
 5948.00    0.72039   0.72089   30.223
 5949.00    0.71677   0.72042   29.972
 5950.00    0.71312   0.71968   29.892
 5951.00    0.71099   0.71868   29.960
 5952.00    0.71325   0.71829   29.834
 5953.00    0.72017   0.71868   29.434
 5954.00    0.72726   0.71912   29.261
 5955.00    0.73084   0.71931   29.565
 5956.00    0.73200   0.71989   29.858
 5957.00    0.73406   0.72127   29.727
 5958.00    0.74000   0.72307   29.442
 5959.00    0.74947   0.72477   29.357
 5960.00    0.75751   0.72624   29.510
 5961.00    0.75974   0.72755   29.855
 5962.00    0.75578   0.72857   30.389
 5963.00    0.74836   0.72916   30.934
 5964.00    0.74203   0.72939   31.062
 5965.00    0.73949   0.72967   30.805
 5966.00    0.73976   0.73017   30.903
 5967.00    0.74036   0.73072   31.575
 5968.00    0.73900   0.73115   31.959
 5969.00    0.73494   0.73138   31.540
 5970.00    0.72963   0.73121   30.972
 5971.00    0.72588   0.73047   30.836
 5972.00    0.72673   0.72908   31.083
 5973.00    0.73185   0.72712   31.400
 5974.00    0.73667   0.72481   31.449
 5975.00    0.73783   0.72256   31.241
 5976.00    0.73572   0.72071   31.187
 5977.00    0.73217   0.71934   31.376
 5978.00    0.72888   0.71839   31.374
 5979.00    0.72637   0.71772   31.028
 5980.00    0.72377   0.71702   30.731
 5981.00    0.72062   0.71599   30.705
 5982.00    0.71754   0.71472   30.787
 5983.00    0.71509   0.71387   30.895
 5984.00    0.71335   0.71383   31.159
 5985.00    0.71245   0.71427   31.549
 5986.00    0.71267   0.71493   31.765
 5987.00    0.71361   0.71609   31.616
 5988.00    0.71421   0.71777   31.208
 5989.00    0.71428   0.71931   30.842
 5990.00    0.71485   0.72043   30.848
 5991.00    0.71712   0.72148   31.161
 5992.00    0.72177   0.72246   31.345
 5993.00    0.72806   0.72288   31.324
 5994.00    0.73382   0.72255   31.483
 5995.00    0.73704   0.72175   31.833
 5996.00    0.73679   0.72074   31.925
 5997.00    0.73449   0.71972   31.786
 5998.00    0.73321   0.71884   31.956
 5999.00    0.73395   0.71802   32.409
 6000.00    0.73496   0.71697   32.505
 6001.00    0.73403   0.71567   32.248
 6002.00    0.72982   0.71454   32.300
 6003.00    0.72326   0.71375   32.638
 6004.00    0.71707   0.71290   32.550
 6005.00    0.71271   0.71169   32.067
 6006.00    0.71006   0.71044   31.919
 6007.00    0.70949   0.70988   32.132
 6008.00    0.71168   0.71030   32.074
 6009.00    0.71550   0.71098   31.695
 6010.00    0.71824   0.71109   31.533
 6011.00    0.71789   0.71073   31.716
 6012.00    0.71402   0.71062   31.949
 6013.00    0.70799   0.71071   32.096
 6014.00    0.70208   0.71025   32.243
 6015.00    0.69703   0.70922   32.385
 6016.00    0.69232   0.70838   32.402
 6017.00    0.68861   0.70786   32.235
 6018.00    0.68754   0.70721   31.958
 6019.00    0.68961   0.70663   31.792
 6020.00    0.69383   0.70672   31.924
 6021.00    0.69802   0.70742   32.074
 6022.00    0.70007   0.70842   31.770
 6023.00    0.70056   0.70990   31.226
 6024.00    0.70185   0.71199   31.057
 6025.00    0.70472   0.71420   31.381
 6026.00    0.70858   0.71634   31.838
 6027.00    0.71347   0.71861   31.900
 6028.00    0.71963   0.72078   31.343
 6029.00    0.72597   0.72251   30.928
 6030.00    0.73087   0.72388   31.537
 6031.00    0.73452   0.72518   32.545
 6032.00    0.73788   0.72619   32.593
 6033.00    0.73990   0.72668   32.299
 6034.00    0.73896   0.72679   32.935
 6035.00    0.73631   0.72673   33.045
 6036.00    0.73473   0.72646   31.234
 6037.00    0.73521   0.72598   31.530
 6038.00    0.73694   0.72539   37.359
 6039.00    0.73844   0.72491   35.674
 6040.00    0.73828   0.72471   21.402
 6041.00    0.73590   0.72490   14.220
 6042.00    0.73186   0.72546   12.749
 6043.00    0.72788   0.72612   13.569
 6044.00    0.72540   0.72677   14.132
 6045.00    0.72341   0.72743   13.876
 6046.00    0.72017   0.72795   13.794
 6047.00    0.71612   0.72801   13.960
 6048.00    0.71261   0.72764   13.977
 6049.00    0.70953   0.72698   14.061
 6050.00    0.70632   0.72589   14.440
 6051.00    0.70390   0.72434   14.306
 6052.00    0.70397   0.72270   13.412
 6053.00    0.70764   0.72133   13.865
 6054.00    0.71440   0.72017   18.576
 6055.00    0.72124   0.71929   30.238
 6056.00    0.72498   0.71889   37.075
 6057.00    0.72543   0.71890   32.150
 6058.00    0.72416   0.71890   30.394
 6059.00    0.72252   0.71847   31.961
 6060.00    0.72117   0.71775   32.583
 6061.00    0.71981   0.71692   31.785
 6062.00    0.71857   0.71599   31.330
 6063.00    0.71943   0.71500   31.422
 6064.00    0.72360   0.71460   31.474
 6065.00    0.72872   0.71562   31.177
 6066.00    0.73122   0.71775   30.666
 6067.00    0.72921   0.72011   30.466
 6068.00    0.72347   0.72237   30.835
 6069.00    0.71794   0.72468   31.208
 6070.00    0.71635   0.72672   31.099
 6071.00    0.71891   0.72784   31.066
 6072.00    0.72294   0.72783   31.631
 6073.00    0.72413   0.72694   32.250
 6074.00    0.71991   0.72549   32.254
 6075.00    0.71212   0.72341   31.945
 6076.00    0.70420   0.72067   31.907
 6077.00    0.69838   0.71780   32.297
 6078.00    0.69587   0.71544   32.850
 6079.00    0.69720   0.71353   32.932
 6080.00    0.70185   0.71168   32.417
 6081.00    0.70813   0.71023   32.216
 6082.00    0.71409   0.70968   32.812
 6083.00    0.71829   0.70956   33.311
 6084.00    0.71951   0.70929   32.933
 6085.00    0.71660   0.70917   32.314
 6086.00    0.71051   0.70943   32.134
 6087.00    0.70515   0.70957   32.214
 6088.00    0.70335   0.70932   32.182
 6089.00    0.70407   0.70918   31.949
 6090.00    0.70480   0.70953   31.679
 6091.00    0.70361   0.71009   31.661
 6092.00    0.70105   0.71072   31.900
 6093.00    0.70065   0.71169   31.937
 6094.00    0.70409   0.71277   31.510
 6095.00    0.70852   0.71315   30.943
 6096.00    0.71055   0.71242   30.519
 6097.00    0.70891   0.71106   30.189
 6098.00    0.70527   0.70945   30.010
 6099.00    0.70377   0.70724   30.284
 6100.00    0.70679   0.70411   30.975
 6101.00    0.71273   0.70091   31.426
 6102.00    0.71857   0.69953   31.332
 6103.00    0.72168   0.70038   31.241
 6104.00    0.72080   0.70194   31.414
 6105.00    0.71638   0.70332   31.376
 6106.00    0.71003   0.70517   31.002
 6107.00    0.70401   0.70788   30.883
 6108.00    0.70076   0.71050   31.189
 6109.00    0.70215   0.71202   31.316
 6110.00    0.70717   0.71258   30.999
 6111.00    0.71173   0.71304   30.727
 6112.00    0.71359   0.71366   30.769
 6113.00    0.71399   0.71366   30.858
 6114.00    0.71410   0.71257   30.752
 6115.00    0.71359   0.71074   30.519
 6116.00    0.71199   0.70861   30.525
 6117.00    0.70935   0.70612   31.254
 6118.00    0.70606   0.70316   32.503
 6119.00    0.70270   0.69989   33.144
 6120.00    0.69948   0.69687   32.761
 6121.00    0.69635   0.69498   32.222
 6122.00    0.69400   0.69482   31.960
 6123.00    0.69386   0.69576   31.639
 6124.00    0.69591   0.69691   31.246
 6125.00    0.69834   0.69840   31.235
 6126.00    0.69921   0.70043   31.679
 6127.00    0.69739   0.70242   32.154
 6128.00    0.69359   0.70378   32.471
 6129.00    0.69012   0.70436   32.832
 6130.00    0.68886   0.70372   33.210
 6131.00    0.69022   0.70162   33.292
 6132.00    0.69225   0.69863   33.189
 6133.00    0.69161   0.69512   33.393
 6134.00    0.68738   0.69089   33.815
 6135.00    0.68178   0.68627   33.797
 6136.00    0.67801   0.68305   33.295
 6137.00    0.67892   0.68286   32.920
 6138.00    0.68482   0.68473   32.882
 6139.00    0.69358   0.68670   32.916
 6140.00    0.70272   0.68883   32.835
 6141.00    0.71011   0.69239   32.634
 6142.00    0.71428   0.69672   32.348
 6143.00    0.71469   0.69974   32.036
 6144.00    0.71215   0.70107   31.851
 6145.00    0.70836   0.70178   31.938
 6146.00    0.70423   0.70223   32.133
 6147.00    0.69982   0.70198   32.097
 6148.00    0.69531   0.70115   31.909
 6149.00    0.69145   0.70034   31.979
 6150.00    0.68997   0.69984   32.487
 6151.00    0.69248   0.69941   33.096
 6152.00    0.69754   0.69862   32.578
 6153.00    0.70137   0.69723   30.531
 6154.00    0.70085   0.69538   30.118
 6155.00    0.69506   0.69270   34.143
 6156.00    0.68695   0.68867   34.459
 6157.00    0.68128   0.68370   23.188
 6158.00    0.67947   0.67846   15.750
 6159.00    0.67976   0.67281   13.855
 6160.00    0.67977   0.66697   14.467
 6161.00    0.67795   0.66269   14.994
 6162.00    0.67536   0.66105   14.828
 6163.00    0.67428   0.66092   14.969
 6164.00    0.67506   0.66124   14.980
 6165.00    0.67641   0.66259   14.125
 6166.00    0.67706   0.66508   14.237
 6167.00    0.67629   0.66711   18.364
 6168.00    0.67401   0.66817   30.151
 6169.00    0.67121   0.66990   40.820
 6170.00    0.67039   0.67285   36.015
 6171.00    0.67393   0.67555   32.344
 6172.00    0.68118   0.67760   32.529
 6173.00    0.68952   0.68017   32.676
 6174.00    0.69679   0.68313   31.969
 6175.00    0.70169   0.68546   31.776
 6176.00    0.70376   0.68729   32.346
 6177.00    0.70347   0.68917   33.123
 6178.00    0.70224   0.69071   33.751
 6179.00    0.70149   0.69174   34.148
 6180.00    0.70129   0.69262   34.348
 6181.00    0.70097   0.69309   34.437
 6182.00    0.70020   0.69267   34.456
 6183.00    0.69922   0.69155   34.210
 6184.00    0.69886   0.68985   33.116
 6185.00    0.69966   0.68715   31.033
 6186.00    0.70084   0.68387   28.892
 6187.00    0.70090   0.68102   27.502
 6188.00    0.69863   0.67873   26.898
 6189.00    0.69389   0.67643   26.900
 6190.00    0.68830   0.67476   27.497
 6191.00    0.68422   0.67520   28.623
 6192.00    0.68326   0.67734   29.791
 6193.00    0.68509   0.67935   30.440
 6194.00    0.68658   0.68090   30.671
 6195.00    0.68474   0.68291   30.947
 6196.00    0.68010   0.68507   31.516
 6197.00    0.67537   0.68610   32.316
 6198.00    0.67351   0.68617   32.932
 6199.00    0.67600   0.68657   33.108
 6200.00    0.68140   0.68776   33.318
 6201.00    0.68708   0.68907   33.894
 6202.00    0.69109   0.69007   34.132
 6203.00    0.69221   0.69108   33.580
 6204.00    0.68977   0.69218   33.285
 6205.00    0.68444   0.69282   33.905
 6206.00    0.67864   0.69255   34.165
 6207.00    0.67472   0.69134   32.809
 6208.00    0.67325   0.68924   30.679
 6209.00    0.67382   0.68634   28.941
 6210.00    0.67584   0.68290   27.923
 6211.00    0.67807   0.67916   27.655
 6212.00    0.67838   0.67525   28.173
 6213.00    0.67557   0.67169   29.358
 6214.00    0.67068   0.66898   30.684
 6215.00    0.66560   0.66735   31.575
 6216.00    0.66179   0.66665   31.943
 6217.00    0.66010   0.66642   31.953
 6218.00    0.66073   0.66642   31.707
 6219.00    0.66322   0.66698   31.507
 6220.00    0.66657   0.66822   31.944
 6221.00    0.67018   0.66942   33.102
 6222.00    0.67434   0.67005   33.997
 6223.00    0.67897   0.67030   33.972
 6224.00    0.68277   0.67025   33.857
 6225.00    0.68384   0.66951   34.235
 6226.00    0.68038   0.66806   34.439
 6227.00    0.67235   0.66623   34.003
 6228.00    0.66221   0.66413   33.532
 6229.00    0.65288   0.66224   33.517
 6230.00    0.64634   0.66156   33.767
 6231.00    0.64326   0.66216   34.061
 6232.00    0.64287   0.66331   34.487
 6233.00    0.64370   0.66479   35.045
 6234.00    0.64425   0.66635   35.392
 6235.00    0.64484   0.66730   35.069
 6236.00    0.64791   0.66726   33.815
 6237.00    0.65467   0.66629   32.000
 6238.00    0.66339   0.66452   30.417
 6239.00    0.67065   0.66252   29.464
 6240.00    0.67268   0.66080   29.115
 6241.00    0.66843   0.65903   29.423
 6242.00    0.66050   0.65751   30.624
 6243.00    0.65209   0.65715   32.521
 6244.00    0.64552   0.65765   34.075
 6245.00    0.64290   0.65820   34.727
 6246.00    0.64595   0.65896   35.102
 6247.00    0.65371   0.66002   -2.000
 6248.00    0.66221   0.66061   -2.000
 6249.00    0.66750   0.66025   -2.000
 6250.00    0.66740   0.65898   -2.000
 6251.00    0.66302   0.65691   -2.000
 6252.00    0.65821   0.65459   -2.000
 6253.00    0.65489   0.65252   -2.000
 6254.00    0.65184   0.65089   -2.000
 6255.00    0.64763   0.64977   -2.000
 6256.00    0.64202   0.64951   -2.000
 6257.00    0.63665   0.65056   -2.000
 6258.00    0.63416   0.65298   -2.000
 6259.00    0.63420   0.65595   15.600
 6260.00    0.63365   0.65881   15.987
 6261.00    0.63242   0.66202   16.185
 6262.00    0.63385   0.66539   15.264
 6263.00    0.63878   0.66767   14.723
 6264.00    0.64471   0.66884   17.595
 6265.00    0.64998   0.67013   27.658
 6266.00    0.65472   0.67145   40.967
 6267.00    0.65914   0.67198   38.393
 6268.00    0.66302   0.67216   34.047
 6269.00    0.66591   0.67280   34.662
 6270.00    0.66760   0.67371   35.167
 6271.00    0.66916   0.67439   33.412
 6272.00    0.67224   0.67477   32.061
 6273.00    0.67613   0.67491   31.848
 6274.00    0.67827   0.67478   31.664
 6275.00    0.67786   0.67427   31.508
 6276.00    0.67621   0.67343   32.335
 6277.00    0.67458   0.67248   33.660
 6278.00    0.67323   0.67156   33.599
 6279.00    0.67048   0.67085   32.052
 6280.00    0.66422   0.67079    0.000
 6281.00    0.65631   0.67154    0.000
 6282.00    0.65156   0.67284    0.000
 6283.00    0.65291   0.67442    0.000
 6284.00    0.66000   0.67609    0.000
 6285.00    0.66916   0.67776    0.000
 6286.00    0.67526   0.67920    0.000
 6287.00    0.67587   0.68006    0.000
 6288.00    0.67192   0.68013    0.000
 6289.00    0.66682   0.67956    0.000
 6290.00    0.66458   0.67853    0.000
 6291.00    0.66621   0.67704    0.000
 6292.00    0.67072   0.67523    0.000
 6293.00    0.67844   0.67348    0.000
 6294.00    0.69158   0.67168    0.000
 6295.00    0.71368   0.66952    0.000
 6296.00    0.74633   0.66744    0.000
 6297.00    0.78329   0.66608    0.000
 6298.00    0.81322   0.66533    0.000
 6299.00    0.82669   0.66462    0.000
 6300.00    0.81918   0.66411    0.000
 6301.00    0.79382   0.66465    0.000
 6302.00    0.75918   0.66642    0.000
 6303.00    0.72464   0.66842    0.000
 6304.00    0.69793   0.67006    0.000
 6305.00    0.68256   0.67185    0.000
 6306.00    0.67794   0.67385    0.000
 6307.00    0.68051   0.67515    0.000
 6308.00    0.68551   0.67528    0.000
 6309.00    0.68953   0.67448    0.000
 6310.00    0.69065   0.67318    0.000
 6311.00    0.68809   0.67169    0.000
 6312.00    0.68189   0.66976    0.000
 6313.00    0.67261   0.66713    0.000
 6314.00    0.66159   0.66488    0.000
 6315.00    0.65127   0.66383    0.000
 6316.00    0.64405   0.66310    0.000
 6317.00    0.64073   0.66238    0.000
 6318.00    0.64096   0.66309    0.000
 6319.00    0.64409   0.66528    0.000
 6320.00    0.64928   0.66751    0.000
 6321.00    0.65547   0.66953   35.962
 6322.00    0.66133   0.67206   36.311
 6323.00    0.66522   0.67480   36.425
 6324.00    0.66645   0.67684   36.236
 6325.00    0.66658   0.67802   36.088
 6326.00    0.66738   0.67881   36.153
 6327.00    0.66845   0.67950   35.824
 6328.00    0.66870   0.67968   34.770
 6329.00    0.66824   0.67891   33.932
 6330.00    0.66784   0.67754   34.040
 6331.00    0.66822   0.67618   34.484
 6332.00    0.66945   0.67473   34.441
 6333.00    0.67059   0.67260   34.149
 6334.00    0.67050   0.67016   34.053
 6335.00    0.66882   0.66866   33.903
 6336.00    0.66604   0.66833   33.442
 6337.00    0.66346   0.66813   33.048
 6338.00    0.66261   0.66779   33.108
 6339.00    0.66460   0.66807   33.518
 6340.00    0.66876   0.66875   34.084
 6341.00    0.67184   0.66871   34.887
 6342.00    0.67161   0.66800   35.845
 6343.00    0.66964   0.66773   36.302
 6344.00    0.66807   0.66813   35.960
 6345.00    0.66687   0.66846   35.632
 6346.00    0.66579   0.66897   35.973
 6347.00    0.66585   0.67032   36.618
 6348.00    0.66771   0.67193   36.903
 6349.00    0.67042   0.67274   36.566
 6350.00    0.67242   0.67297   35.906
 6351.00    0.67245   0.67297   35.622
 6352.00    0.67021   0.67203   35.978
 6353.00    0.66672   0.66981   36.386
 6354.00    0.66305   0.66722   36.308
 6355.00    0.65966   0.66490   35.938
 6356.00    0.65734   0.66214   35.706
 6357.00    0.65787   0.65883   35.856
 6358.00    0.66312   0.65624   36.240
 6359.00    0.67415   0.65483   36.273
 6360.00    0.68963   0.65378   35.756
 6361.00    0.70521   0.65319   35.260
 6362.00    0.71624   0.65398   35.063
 6363.00    0.71965   0.65600   34.763
 6364.00    0.71464   0.65829   34.352
 6365.00    0.70306   0.66062   34.564
 6366.00    0.68939   0.66328   35.506
 6367.00    0.67991   0.66611   36.060
 6368.00    0.67829   0.66844   35.664
 6369.00    0.68340   0.67011   35.241
 6370.00    0.69117   0.67173   35.337
 6371.00    0.69616   0.67356   35.448
 6372.00    0.69474   0.67496   35.284
 6373.00    0.68661   0.67551   35.279
 6374.00    0.67480   0.67573   35.716
 6375.00    0.66467   0.67586   36.381
 6376.00    0.65951   0.67541   36.967
 6377.00    0.65895   0.67439   37.281
 6378.00    0.66120   0.67339   37.205
 6379.00    0.66438   0.67258   36.726
 6380.00    0.66720   0.67196   36.176
 6381.00    0.66931   0.67181   36.090
 6382.00    0.67102   0.67195   36.381
 6383.00    0.67298   0.67206   36.293
 6384.00    0.67525   0.67237   35.687
 6385.00    0.67705   0.67293   35.272
 6386.00    0.67757   0.67314   35.386
 6387.00    0.67630   0.67258   35.735
 6388.00    0.67302   0.67151   35.994
 6389.00    0.66793   0.67042   36.063
 6390.00    0.66179   0.66927   36.123
 6391.00    0.65611   0.66762   36.480
 6392.00    0.65322   0.66598   36.946
 6393.00    0.65536   0.66535   36.890
 6394.00    0.66110   0.66520   36.379
 6395.00    0.66576   0.66468   36.191
 6396.00    0.66678   0.66465   36.534
 6397.00    0.66498   0.66519   36.909
 6398.00    0.66252   0.66512   36.881
 6399.00    0.66151   0.66502   36.403
 6400.00    0.66203   0.66629   35.812
 6401.00    0.66251   0.66787   35.571
 6402.00    0.66276   0.66845   35.726
 6403.00    0.66414   0.66889   35.930
 6404.00    0.66720   0.66976   35.932
 6405.00    0.67103   0.66991   35.728
 6406.00    0.67334   0.66871   35.531
 6407.00    0.67180   0.66754   35.595
 6408.00    0.66755   0.66729   35.800
 6409.00    0.66429   0.66678   35.748
 6410.00    0.66360   0.66570   35.323
 6411.00    0.66445   0.66546   34.710
 6412.00    0.66514   0.66601   34.034
 6413.00    0.66419   0.66615   33.298
 6414.00    0.66108   0.66588   32.457
 6415.00    0.65620   0.66567   31.551
 6416.00    0.65033   0.66540   30.905
 6417.00    0.64451   0.66522   30.893
 6418.00    0.64015   0.66526   31.452
 6419.00    0.63886   0.66529   32.071
 6420.00    0.64198   0.66589   32.030
 6421.00    0.64964   0.66766   31.002
 6422.00    0.65932   0.66986   29.900
 6423.00    0.66692   0.67149   29.860
 6424.00    0.66998   0.67270   30.791
 6425.00    0.66815   0.67349   31.796
 6426.00    0.66309   0.67344   32.480
 6427.00    0.65752   0.67261   33.068
 6428.00    0.65368   0.67122   33.753
 6429.00    0.65244   0.66940   34.562
 6430.00    0.65250   0.66788   35.425
 6431.00    0.65205   0.66736   36.175
 6432.00    0.65211   0.66725   36.568
 6433.00    0.65494   0.66683   36.488
 6434.00    0.66030   0.66656   36.250
 6435.00    0.66594   0.66704   36.271
 6436.00    0.66947   0.66754   36.489
 6437.00    0.66967   0.66733   36.636
 6438.00    0.66793   0.66758   36.813
 6439.00    0.66707   0.66928   37.182
 6440.00    0.66896   0.67130   37.321
 6441.00    0.67346   0.67271   36.820
 6442.00    0.67747   0.67407   36.316
 6443.00    0.67763   0.67507   36.508
 6444.00    0.67442   0.67449   36.769
 6445.00    0.67049   0.67259   35.978
 6446.00    0.66746   0.67045   34.124
 6447.00    0.66552   0.66772   31.991
 6448.00    0.66349   0.66426   30.290
 6449.00    0.66062   0.66163   29.395
 6450.00    0.65871   0.66058   29.342
 6451.00    0.66027   0.66012   30.023
 6452.00    0.66581   0.66021   31.250
 6453.00    0.67376   0.66116   32.667
 6454.00    0.68087   0.66218   33.676
 6455.00    0.68433   0.66308   33.866
 6456.00    0.68408   0.66416   33.656
 6457.00    0.68149   0.66461   33.753
 6458.00    0.67743   0.66436   34.466
 6459.00    0.67258   0.66432   35.632
 6460.00    0.66777   0.66392   36.509
 6461.00    0.66377   0.66277   36.485
 6462.00    0.66091   0.66249   36.060
 6463.00    0.65934   0.66358   35.949
 6464.00    0.65925   0.66454   36.130
 6465.00    0.65999   0.66539   36.326
 6466.00    0.65940   0.66672   36.522
 6467.00    0.65646   0.66789   36.770
 6468.00    0.65357   0.66844   36.948
 6469.00    0.65352   0.66853   36.852
 6470.00    0.65652   0.66814   36.356
 6471.00    0.66104   0.66784   35.625
 6472.00    0.66491   0.66802   35.167
 6473.00    0.66682   0.66786   35.199
 6474.00    0.66733   0.66740   35.255
 6475.00    0.66735   0.66740   35.100
 6476.00    0.66682   0.66728   35.403
 6477.00    0.66560   0.66619   36.516
 6478.00    0.66434   0.66495   37.447
 6479.00    0.66414   0.66402   36.992
 6480.00    0.66618   0.66268   35.202
 6481.00    0.67024   0.66118   33.004
 6482.00    0.67397   0.66058   31.342
 6483.00    0.67573   0.66068   30.549
 6484.00    0.67647   0.66056   30.372
 6485.00    0.67707   0.66004   30.758
 6486.00    0.67661   0.65922   32.209
 6487.00    0.67352   0.65759   34.730
 6488.00    0.66669   0.65436   36.642
 6489.00    0.65647   0.64933   36.493
 6490.00    0.64502   0.64346   35.432
 6491.00    0.63445   0.63739   34.711
 6492.00    0.62559   0.63104   34.230
 6493.00    0.61876   0.62519   33.777
 6494.00    0.61427   0.62136   33.608
 6495.00    0.61277   0.62004   33.889
 6496.00    0.61515   0.62092   34.434
 6497.00    0.62125   0.62385   35.076
 6498.00    0.62934   0.62828   35.810
 6499.00    0.63774   0.63387   36.232
 6500.00    0.64575   0.63991   35.415
 6501.00    0.65330   0.64548   33.321
 6502.00    0.66061   0.65027   31.056
 6503.00    0.66728   0.65421   29.490
 6504.00    0.67189   0.65723   28.983
 6505.00    0.67240   0.65940   29.628
 6506.00    0.66690   0.66071   31.336
 6507.00    0.65655   0.66120   33.691
 6508.00    0.64614   0.66135   35.629
 6509.00    0.64019   0.66129   35.939
 6510.00    0.64080   0.66058   34.351
 6511.00    0.64658   0.65936   32.133
 6512.00    0.65306   0.65815   30.933
 6513.00    0.65693   0.65676   31.034
 6514.00    0.65750   0.65503   31.574
 6515.00    0.65530   0.65372   32.087
 6516.00    0.65149   0.65318   32.946
 6517.00    0.64806   0.65290   34.125
 6518.00    0.64737   0.65304   34.773
 6519.00    0.64980   0.65405   34.517
 6520.00    0.65333   0.65526   33.982
 6521.00    0.65571   0.65599   33.917
 6522.00    0.65563   0.65641   34.700
 6523.00    0.65388   0.65683   35.656
 6524.00    0.65297   0.65688   35.192
 6525.00    0.65417   0.65624   33.374
 6526.00    0.65672   0.65544   31.837
 6527.00    0.65888   0.65491   31.144
 6528.00    0.65890   0.65440    0.000
 6529.00    0.65664   0.65382    0.000
 6530.00    0.65362   0.65340    0.000
 6531.00    0.65125   0.65316    0.000
 6532.00    0.65025   0.65296    0.000
 6533.00    0.65059   0.65299    0.000
 6534.00    0.65155   0.65331    0.000
 6535.00    0.65198   0.65351    0.000
 6536.00    0.65086   0.65332    0.000
 6537.00    0.64873   0.65292    0.000
 6538.00    0.64747   0.65227    0.000
 6539.00    0.64853   0.65099    0.000
 6540.00    0.65379   0.64884    0.000
 6541.00    0.66917   0.64598    0.000
 6542.00    0.70247   0.64294    0.000
 6543.00    0.75561   0.63993    0.000
 6544.00    0.82178   0.63658    0.000
 6545.00    0.88373   0.63312    0.000
 6546.00    0.92007   0.63029    0.000
 6547.00    0.92087   0.62782    0.000
 6548.00    0.88923   0.62496    0.000
 6549.00    0.83557   0.62155    0.000
 6550.00    0.77427   0.61759    0.000
 6551.00    0.71904   0.61291    0.000
 6552.00    0.68153   0.60721    0.000
 6553.00    0.67079   0.60003    0.000
 6554.00    0.70874   0.59120    0.000
 6555.00    0.86138   0.58118    0.000
 6556.00    1.22255   0.56983    0.000
 6557.00    1.86638   0.55620    0.000
 6558.00    2.79093   0.54161    0.000
 6559.00    3.83119   0.52920    0.000
 6560.00    4.71135   0.51909    0.000
 6561.00    5.17685   0.51054    0.000
 6562.00    5.07263   0.50764    0.000
 6563.00    4.43585   0.51298    0.000
 6564.00    3.46599   0.52221    0.000
 6565.00    2.43885   0.53306    0.000
 6566.00    1.60838   0.54675    0.000
 6567.00    1.06937   0.56101    0.000
 6568.00    0.78428   0.57278    0.000
 6569.00    0.66754   0.58258    0.000
 6570.00    0.62853   0.59103    0.000
 6571.00    0.61680   0.59752    0.000
 6572.00    0.61555   0.60263    0.000
 6573.00    0.62050   0.60728    0.000
 6574.00    0.63420   0.61168    0.000
 6575.00    0.66264   0.61589    0.000
 6576.00    0.71691   0.61978    0.000
 6577.00    0.81537   0.62330    0.000
 6578.00    0.96911   0.62646    0.000
 6579.00    1.16169   0.62904    0.000
 6580.00    1.35343   0.63102    0.000
 6581.00    1.49210   0.63278    0.000
 6582.00    1.53371   0.63441    0.000
 6583.00    1.46729   0.63572    0.000
 6584.00    1.31400   0.63674    0.000
 6585.00    1.12066   0.63743    0.000
 6586.00    0.93865   0.63794    0.000
 6587.00    0.79934   0.63791    0.000
 6588.00    0.71155   0.63695    0.000
 6589.00    0.66310   0.63575    0.000
 6590.00    0.63552   0.63465    0.000
 6591.00    0.62021   0.63308    0.000
 6592.00    0.61455   0.63156    0.000
 6593.00    0.61581   0.63147    0.000
 6594.00    0.62095   0.63239    0.000
 6595.00    0.62719   0.63352    0.000
 6596.00    0.63313   0.63517    0.000
 6597.00    0.63947   0.63730    0.000
 6598.00    0.64645   0.63935    0.000
 6599.00    0.65141   0.64110    0.000
 6600.00    0.65223   0.64228    0.000
 6601.00    0.65038   0.64277    0.000
 6602.00    0.64836   0.64274    0.000
 6603.00    0.64692   0.64214    0.000
 6604.00    0.64504   0.64104    0.000
 6605.00    0.64036   0.64004    0.000
 6606.00    0.63228   0.63947    0.000
 6607.00    0.62417   0.63908    0.000
 6608.00    0.62012   0.63892    0.000
 6609.00    0.62196   0.63967   15.964
 6610.00    0.62884   0.64117   14.793
 6611.00    0.63750   0.64258   16.099
 6612.00    0.64506   0.64379   23.726
 6613.00    0.65108   0.64526   38.884
 6614.00    0.65553   0.64688   40.264
 6615.00    0.65743   0.64793   36.666
 6616.00    0.65654   0.64846   40.547
 6617.00    0.65444   0.64888   33.206
 6618.00    0.65281   0.64904   19.996
 6619.00    0.65216   0.64859   14.879
 6620.00    0.65219   0.64769   14.476
 6621.00    0.65207   0.64673   15.512
 6622.00    0.65096   0.64559   15.732
 6623.00    0.64831   0.64413   15.334
 6624.00    0.64425   0.64283   15.276
 6625.00    0.63977   0.64196   15.739
 6626.00    0.63620   0.64099   16.158
 6627.00    0.63471   0.63992   15.498
 6628.00    0.63511   0.63895   14.695
 6629.00    0.63543   0.63787   16.678
 6630.00    0.63402   0.63686   25.435
 6631.00    0.63077   0.63610   40.967
 6632.00    0.62690   0.63544   40.967
 6633.00    0.62447   0.63522   36.378
 6634.00    0.62449   0.63576   36.179
 6635.00    0.62602   0.63645   38.410
 6636.00    0.62692   0.63720   38.693
 6637.00    0.62492   0.63811   37.962
 6638.00    0.62082   0.63855   37.833
 6639.00    0.61885   0.63854   38.002
 6640.00    0.62120   0.63876   37.927
 6641.00    0.62600   0.63878   37.598
 6642.00    0.63094   0.63812   37.291
 6643.00    0.63496   0.63787   37.303
 6644.00    0.63839   0.63839   37.421
 6645.00    0.64229   0.63870   36.978
 6646.00    0.64584   0.63878   36.131
 6647.00    0.64630   0.63925   35.862
 6648.00    0.64339   0.63984   36.295
 6649.00    0.64026   0.64001   36.488
 6650.00    0.63951   0.63995   36.124
 6651.00    0.64159   0.63995   35.897
 6652.00    0.64487   0.63978   36.025
 6653.00    0.64644   0.63944   36.000
 6654.00    0.64487   0.63906   35.659
 6655.00    0.64094   0.63840   35.390
 6656.00    0.63650   0.63756   35.346
 6657.00    0.63353   0.63668   35.341
 6658.00    0.63244   0.63538   35.411
 6659.00    0.63180   0.63380   35.823
 6660.00    0.62965   0.63251   36.434
 6661.00    0.62462   0.63131   36.694
 6662.00    0.61824   0.63001   36.574
 6663.00    0.61436   0.62951   36.604
 6664.00    0.61502   0.62990   36.907
 6665.00    0.61958   0.63043   37.109
 6666.00    0.62613   0.63130   37.017
 6667.00    0.63233   0.63268   36.779
 6668.00    0.63668   0.63409   36.643
 6669.00    0.63890   0.63508   36.772
 6670.00    0.64021   0.63555   36.957
 6671.00    0.64265   0.63549   36.799
 6672.00    0.64714   0.63463   36.461
 6673.00    0.65307   0.63279   36.478
 6674.00    0.65867   0.63069   36.809
 6675.00    0.66206   0.62876   36.935
 6676.00    0.66345   0.62645   36.753
 6677.00    0.66465   0.62457   36.588
 6678.00    0.66620   0.62438   36.596
 6679.00    0.66713   0.62517   36.716
 6680.00    0.66621   0.62597   36.879
 6681.00    0.66292   0.62748   37.093
 6682.00    0.65906   0.62959   37.504
 6683.00    0.65723   0.63134   38.018
 6684.00    0.65675   0.63265   37.429
 6685.00    0.65490   0.63385   35.423
 6686.00    0.65147   0.63471   35.907
 6687.00    0.64831   0.63509   40.967
 6688.00    0.64644   0.63526   40.967
 6689.00    0.64551   0.63525   25.346
 6690.00    0.64423   0.63489   16.564
 6691.00    0.64141   0.63419   14.595
 6692.00    0.63788   0.63340   15.423
 6693.00    0.63529   0.63260   16.036
 6694.00    0.63345   0.63168   15.812
 6695.00    0.63114   0.63080   15.992
 6696.00    0.62855   0.63040    0.000
 6697.00    0.62673   0.63033    0.000
 6698.00    0.62603   0.63032    0.000
 6699.00    0.62632   0.63052    0.000
 6700.00    0.62784   0.63077    0.000
 6701.00    0.63090   0.63093    0.000
 6702.00    0.63520   0.63090    0.000
 6703.00    0.63985   0.63072    0.000
 6704.00    0.64360   0.63066    0.000
 6705.00    0.64596   0.63057    0.000
 6706.00    0.64897   0.63018    0.000
 6707.00    0.65786   0.62973    0.000
 6708.00    0.68178   0.62918    0.000
 6709.00    0.73624   0.62806    0.000
 6710.00    0.84513   0.62667    0.000
 6711.00    1.02304   0.62519    0.000
 6712.00    1.25117   0.62322    0.000
 6713.00    1.48283   0.62110    0.000
 6714.00    1.65622   0.61946    0.000
 6715.00    1.71691   0.61820    0.000
 6716.00    1.64445   0.61714    0.000
 6717.00    1.45763   0.61691    0.000
 6718.00    1.21470   0.61778    0.000
 6719.00    0.98461   0.61891    0.000
 6720.00    0.81253   0.62001    0.000
 6721.00    0.71496   0.62137    0.000
 6722.00    0.68043   0.62285    0.000
 6723.00    0.69162   0.62406    0.000
 6724.00    0.74880   0.62484    0.000
 6725.00    0.85725   0.62545    0.000
 6726.00    1.01061   0.62615    0.000
 6727.00    1.18411   0.62673    0.000
 6728.00    1.33122   0.62705    0.000
 6729.00    1.40605   0.62735    0.000
 6730.00    1.38652   0.62758    0.000
 6731.00    1.27882   0.62755    0.000
 6732.00    1.11780   0.62731    0.000
 6733.00    0.94846   0.62693    0.000
 6734.00    0.80753   0.62635    0.000
 6735.00    0.71387   0.62565    0.000
 6736.00    0.66265   0.62486    0.000
 6737.00    0.63854   0.62394    0.000
 6738.00    0.62806   0.62292    0.000
 6739.00    0.62257   0.62210    0.000
 6740.00    0.61952   0.62151    0.000
 6741.00    0.61872   0.62073    0.000
 6742.00    0.61921   0.61987    0.000
 6743.00    0.61994   0.61947    0.000
 6744.00    0.62049   0.61905    0.000
 6745.00    0.62109   0.61829    0.000
 6746.00    0.62256   0.61777    0.000
 6747.00    0.62509   0.61750    0.000
 6748.00    0.62744   0.61708    0.000
 6749.00    0.62818   0.61682    0.000
 6750.00    0.62663   0.61729    0.000
 6751.00    0.62381   0.61787    0.000
 6752.00    0.62250   0.61847    0.000
 6753.00    0.62363   0.61981   37.326
 6754.00    0.62435   0.62135   37.765
 6755.00    0.62219   0.62266   38.538
 6756.00    0.61755   0.62411   38.712
 6757.00    0.61278   0.62552   38.069
 6758.00    0.61100   0.62648   37.784
 6759.00    0.61381   0.62709   38.129
 6760.00    0.62007   0.62732   37.644
 6761.00    0.62677   0.62702   35.941
 6762.00    0.63011   0.62637   34.623
 6763.00    0.62805   0.62541   34.438
 6764.00    0.62151   0.62431   34.686
 6765.00    0.61317   0.62320   34.965
 6766.00    0.60649   0.62204   35.822
 6767.00    0.60403   0.62130   37.232
 6768.00    0.60664   0.62127   37.872
 6769.00    0.61305   0.62145   37.312
 6770.00    0.62037   0.62189   36.889
 6771.00    0.62655   0.62300   36.986
 6772.00    0.63119   0.62439   36.289
 6773.00    0.63343   0.62560   34.015
 6774.00    0.63161   0.62674   30.878
 6775.00    0.62617   0.62769   28.024
 6776.00    0.62032   0.62800   26.206
 6777.00    0.61703   0.62773   25.437
 6778.00    0.61745   0.62705   25.316
 6779.00    0.62036   0.62570   25.564
 6780.00    0.62282   0.62394   26.082
 6781.00    0.62339   0.62217   26.609
 6782.00    0.62296   0.62034   26.761
 6783.00    0.62243   0.61883   26.884
 6784.00    0.62195   0.61803   28.017
 6785.00    0.62127   0.61756   30.383
 6786.00    0.62018   0.61750   32.699
 6787.00    0.61946   0.61800   33.703
 6788.00    0.62060   0.61846   33.588
 6789.00    0.62362   0.61869   33.166
 6790.00    0.62674   0.61906   33.110
 6791.00    0.62817   0.61933   33.718
 6792.00    0.62691   0.61918   34.905
 6793.00    0.62362   0.61913   36.156
 6794.00    0.62040   0.61931   36.685
 6795.00    0.61924   0.61941   36.521
 6796.00    0.62124   0.61966   36.447
 6797.00    0.62557   0.62008   36.456
 6798.00    0.62975   0.62049   35.858
 6799.00    0.63132   0.62084   34.938
 6800.00    0.62890   0.62112   34.675
 6801.00    0.62352   0.62135   35.106
 6802.00    0.61808   0.62126   35.425
 6803.00    0.61493   0.62096   35.293
 6804.00    0.61447   0.62088   35.103
 6805.00    0.61367   0.62056   35.421
 6806.00    0.60845   0.61997   36.335
 6807.00    0.60080   0.61977   35.966
 6808.00    0.59699   0.61955   32.284
 6809.00    0.59866   0.61909   27.624
 6810.00    0.60196   0.61890   24.589
 6811.00    0.60090   0.61885   23.086
 6812.00    0.59089   0.61881   22.400
 6813.00    0.57486   0.61881   22.609
 6814.00    0.56138   0.61887   24.197
 6815.00    0.55754   0.61917   26.745
 6816.00    0.56638   0.61959   28.471
 6817.00    0.58519   0.61993   28.422
 6818.00    0.60732   0.62034   27.516
 6819.00    0.62696   0.62076   26.773
 6820.00    0.64107   0.62119   26.706
 6821.00    0.65126   0.62160   27.371
 6822.00    0.66116   0.62185   28.541
 6823.00    0.67063   0.62181   29.869
 6824.00    0.67657   0.62158   30.922
 6825.00    0.67639   0.62137   31.353
 6826.00    0.66961   0.62098   31.168
 6827.00    0.65935   0.62043   30.939
 6828.00    0.65023   0.62016   31.248
 6829.00    0.64425   0.62013   31.849
 6830.00    0.64013   0.62010   32.171
 6831.00    0.63349   0.61995   32.542
 6832.00    0.62156   0.61968   33.428
 6833.00    0.61027   0.61929   33.657
 6834.00    0.60767   0.61849   31.915
 6835.00    0.61199   0.61717   29.688
 6836.00    0.61606   0.61560   28.707
 6837.00    0.61687   0.61389   28.729
 6838.00    0.61514   0.61213   28.916
 6839.00    0.61256   0.61077   29.370
 6840.00    0.61129   0.60988   30.541
 6841.00    0.61369   0.60957   31.973
 6842.00    0.62033   0.61001   32.720
 6843.00    0.62755   0.61102   32.767
 6844.00    0.63191   0.61232   32.566
 6845.00    0.63611   0.61363   31.862
 6846.00    0.64336   0.61482   30.473
 6847.00    0.64956   0.61573   29.181
 6848.00    0.65033   0.61621   28.687
 6849.00    0.65018   0.61625   28.816
 6850.00    0.65325   0.61573   29.223
 6851.00    0.65174   0.61484   30.147
 6852.00    0.63911   0.61399   31.875
 6853.00    0.62575   0.61274   33.799
 6854.00    0.62345   0.61124   34.792
 6855.00    0.62686   0.61046   34.526
 6856.00    0.62631   0.60989   33.365
 6857.00    0.62330   0.60913   31.633
 6858.00    0.62302   0.60908   29.768
 6859.00    0.62508   0.60949   28.410
 6860.00    0.62672   0.60961   27.997
 6861.00    0.62684   0.60994   28.635
 6862.00    0.62524   0.61069   30.193
 6863.00    0.62157   0.61113   32.135
 6864.00    0.61714   0.61113   33.753
 6865.00    0.61615   0.61120   34.753
 6866.00    0.62128   0.61116   34.728
 6867.00    0.62989   0.61071   32.710
 6868.00    0.63896   0.61043   29.199
 6869.00    0.64915   0.61053   26.214
 6870.00    0.65904   0.61048   24.683
 6871.00    0.66108   0.61041   24.403
 6872.00    0.65157   0.61089   25.224
 6873.00    0.63805   0.61153   27.478
 6874.00    0.62925   0.61187   30.986
 6875.00    0.62695   0.61230   33.178
 6876.00    0.62947   0.61281   33.076
 6877.00    0.63470   0.61296   35.733
 6878.00    0.63975   0.61271   40.967
 6879.00    0.64074   0.61249   33.139
 6880.00    0.63588   0.61226   20.412
 6881.00    0.62738   0.61187   15.514
 6882.00    0.61973   0.61168   15.261
 6883.00    0.61785   0.61213   16.344
 6884.00    0.62369   0.61283   16.348
 6885.00    0.63438   0.61339   15.712
 6886.00    0.64534   0.61444   15.424
 6887.00    0.65260   0.61579   15.326
 6888.00    0.65431   0.61661   15.227
 6889.00    0.65152   0.61732   15.398
 6890.00    0.64709   0.61816   15.709
 6891.00    0.64446   0.61845   15.348
 6892.00    0.64426   0.61843   14.799
 6893.00    0.64326   0.61861   16.179
 6894.00    0.63934   0.61858   21.136
 6895.00    0.63381   0.61836   26.695
 6896.00    0.62789   0.61836   25.848
 6897.00    0.62115   0.61857   23.869
 6898.00    0.61371   0.61872   25.121
 6899.00    0.60732   0.61884   28.622
 6900.00    0.60456   0.61923   32.113
 6901.00    0.60786   0.61973   34.132
 6902.00    0.61699   0.62011   34.580
 6903.00    0.62834   0.62052   34.326
 6904.00    0.63748   0.62089   34.175
 6905.00    0.64114   0.62116   34.388
 6906.00    0.64048   0.62127   34.677
 6907.00    0.64062   0.62100   34.433
 6908.00    0.64225   0.62056   33.858
 6909.00    0.64013   0.61985   33.963
 6910.00    0.63316   0.61871   34.790
 6911.00    0.62671   0.61777   35.060
 6912.00    0.62358   0.61685   34.207
 6913.00    0.62171   0.61575   33.060
 6914.00    0.61987   0.61534   32.201
 6915.00    0.61920   0.61537   31.601
 6916.00    0.61952   0.61526   31.188
 6917.00    0.61876   0.61559   31.031
 6918.00    0.61587   0.61614   31.358
 6919.00    0.61184   0.61632   32.403
 6920.00    0.60891   0.61636   33.662
 6921.00    0.60940   0.61631   33.794
 6922.00    0.61252   0.61600   32.414
 6923.00    0.61481   0.61561   30.514
 6924.00    0.61503   0.61532   28.912
 6925.00    0.61474   0.61517   27.949
 6926.00    0.61477   0.61530   27.814
 6927.00    0.61450   0.61558   28.656
 6928.00    0.61366   0.61583   30.401
 6929.00    0.61268   0.61610   32.583
 6930.00    0.61223   0.61647   34.359
 6931.00    0.61275   0.61675   34.901
 6932.00    0.61381   0.61681   34.643
 6933.00    0.61457   0.61707   34.847
 6934.00    0.61539   0.61748   35.476
 6935.00    0.61749   0.61767   35.399
 6936.00    0.62068   0.61786   34.723
 6937.00    0.62349   0.61805   34.593
 6938.00    0.62534   0.61800   35.083
 6939.00    0.62628   0.61775   35.343
 6940.00    0.62491   0.61731   35.194
 6941.00    0.61937   0.61659   35.148
 6942.00    0.61098   0.61599   35.290
 6943.00    0.60332   0.61546   35.332
 6944.00    0.59799   0.61480   35.392
 6945.00    0.59450   0.61469   35.788
 6946.00    0.59244   0.61481   36.148
 6947.00    0.59157   0.61464   35.742
 6948.00    0.59091   0.61478   34.811
 6949.00    0.58935   0.61501   34.141
 6950.00    0.58727   0.61481   33.807
 6951.00    0.58609   0.61484   33.503
 6952.00    0.58670   0.61518   33.461
 6953.00    0.58916   0.61536   34.035
 6954.00    0.59301   0.61574   34.574
 6955.00    0.59766   0.61651   33.979
 6956.00    0.60309   0.61721   32.556
 6957.00    0.60893   0.61787   31.371
 6958.00    0.61263   0.61860   30.776
 6959.00    0.61170   0.61917   30.726
 6960.00    0.60801   0.61970   31.370
 6961.00    0.60577   0.62010   32.845
 6962.00    0.60667   0.62030   34.591
 6963.00    0.60991   0.62064   35.597
 6964.00    0.61372   0.62089   35.762
 6965.00    0.61613   0.62088   35.739
 6966.00    0.61593   0.62101   35.813
 6967.00    0.61261   0.62097   35.935
 6968.00    0.60611   0.62056   36.099
 6969.00    0.59766   0.62003   36.315
 6970.00    0.59090   0.61895   36.477
 6971.00    0.58955   0.61735   36.418
 6972.00    0.59395   0.61565   36.042
 6973.00    0.60142   0.61350   35.483
 6974.00    0.60758   0.61089   35.218
 6975.00    0.60880   0.60877   35.555
 6976.00    0.60521   0.60740   36.008
 6977.00    0.59983   0.60626   35.924
 6978.00    0.59689   0.60606   35.508
 6979.00    0.59927   0.60737   35.276
 6980.00    0.60569   0.60909   35.229
 6981.00    0.61274   0.61095   35.140
 6982.00    0.61776   0.61328   34.966
 6983.00    0.61975   0.61539   34.755
 6984.00    0.61975   0.61682   34.479
 6985.00    0.61903   0.61782   34.136
 6986.00    0.61700   0.61851   33.866
 6987.00    0.61296   0.61877   33.793
 6988.00    0.60822   0.61874   33.856
 6989.00    0.60462   0.61872   33.892
 6990.00    0.60276   0.61869   33.727
 6991.00    0.60244   0.61860   33.239
 6992.00    0.60315   0.61844   32.414
 6993.00    0.60340   0.61810   31.487
 6994.00    0.60029   0.61767   30.961
 6995.00    0.59262   0.61702   31.084
 6996.00    0.58363   0.61611   31.500
 6997.00    0.57692   0.61522   31.875
 6998.00    0.57268   0.61429   32.493
 6999.00    0.57065   0.61324   33.545
 7000.00    0.57264   0.61241   34.359
 7001.00    0.57954   0.61192   -2.000
 7002.00    0.58863   0.61148   -2.000
 7003.00    0.59616   0.61114   -2.000
 7004.00    0.59972   0.61123   -2.000
 7005.00    0.59978   0.61154   -2.000
 7006.00    0.60017   0.61180   -2.000
 7007.00    0.60334   0.61209   -2.000
 7008.00    0.60715   0.61238   -2.000
 7009.00    0.60953   0.61239   -2.000
 7010.00    0.61187   0.61205   -2.000
 7011.00    0.61516   0.61146   -2.000
 7012.00    0.61743   0.61059   -2.000
 7013.00    0.61580   0.60977   -2.000
 7014.00    0.60846   0.60923   -2.000
 7015.00    0.59675   0.60864   -2.000
 7016.00    0.58589   0.60853   -2.000
 7017.00    0.57985   0.60913   -2.000
 7018.00    0.57825   0.60958   -2.000
 7019.00    0.57851   0.60990   -2.000
 7020.00    0.57773   0.61043   -2.000
 7021.00    0.57513   0.61078   -2.000
 7022.00    0.57308   0.61081   -2.000
 7023.00    0.57408   0.61088   -2.000
 7024.00    0.57897   0.61122   -2.000
 7025.00    0.58686   0.61172   -2.000
 7026.00    0.59532   0.61233   -2.000
 7027.00    0.60112   0.61313   -2.000
 7028.00    0.60124   0.61399   -2.000
 7029.00    0.59632   0.61480   -2.000
 7030.00    0.59130   0.61538   -2.000
 7031.00    0.58934   0.61565   -2.000
 7032.00    0.58940   0.61599   -2.000
 7033.00    0.59000   0.61621   -2.000
 7034.00    0.59104   0.61606   -2.000
 7035.00    0.59256   0.61647   -2.000
 7036.00    0.59421   0.61743   -2.000
 7037.00    0.59615   0.61811   -2.000
 7038.00    0.59908   0.61939   -2.000
 7039.00    0.60312   0.62148   -2.000
 7040.00    0.60725   0.62316   -2.000
 7041.00    0.60959   0.62463   -2.000
 7042.00    0.60843   0.62639   -2.000
 7043.00    0.60560   0.62758   -2.000
 7044.00    0.60605   0.62806   -2.000
 7045.00    0.61049   0.62830   -2.000
 7046.00    0.61410   0.62799   -2.000
 7047.00    0.61400   0.62700   -2.000
 7048.00    0.61093   0.62536   -2.000
 7049.00    0.60477   0.62315   -2.000
 7050.00    0.59406   0.62066   -2.000
 7051.00    0.58108   0.61776   -2.000
 7052.00    0.57203   0.61476   -2.000
 7053.00    0.57099   0.61216   -2.000
 7054.00    0.57758   0.60981   -2.000
 7055.00    0.58653   0.60776   -2.000
 7056.00    0.59043   0.60618   -2.000
 7057.00    0.58857   0.60507   -2.000
 7058.00    0.58701   0.60416   -2.000
 7059.00    0.58931   0.60330   -2.000
 7060.00    0.59434   0.60287   -2.000
 7061.00    0.59915   0.60251   -2.000
 7062.00    0.60098   0.60188   -2.000
 7063.00    0.60022   0.60158   -2.000
 7064.00    0.59970   0.60129   -2.000
 7065.00    0.60019   0.60081   -2.000
 7066.00    0.60005   0.60086   -2.000
 7067.00    0.59804   0.60113   -2.000
 7068.00    0.59432   0.60150   -2.000
 7069.00    0.59090   0.60251   -2.000
 7070.00    0.59036   0.60376   -2.000
 7071.00    0.59227   0.60487   -2.000
 7072.00    0.59359   0.60609   -2.000
 7073.00    0.59193   0.60723   -2.000
 7074.00    0.58662   0.60794   -2.000
 7075.00    0.57933   0.60824   -2.000
 7076.00    0.57338   0.60824   -2.000
 7077.00    0.57187   0.60773   -2.000
 7078.00    0.57634   0.60658   -2.000
 7079.00    0.58490   0.60498   -2.000
 7080.00    0.59325   0.60271   -2.000
 7081.00    0.59815   0.59998   -2.000
 7082.00    0.59818   0.59718   -2.000
 7083.00    0.59413   0.59392   -2.000
 7084.00    0.58819   0.59076   -2.000
 7085.00    0.58238   0.58831   -2.000
 7086.00    0.57795   0.58580   -2.000
 7087.00    0.57478   0.58373   -2.000
 7088.00    0.57226   0.58261   -2.000
 7089.00    0.57096   0.58151   -2.000
 7090.00    0.57157   0.58084   -2.000
 7091.00    0.57239   0.58087   -2.000
 7092.00    0.57110   0.58095   -2.000
 7093.00    0.56842   0.58137   -2.000
 7094.00    0.56633   0.58215   -2.000
 7095.00    0.56385   0.58311   -2.000
 7096.00    0.55940   0.58418   -2.000
 7097.00    0.55540   0.58526   -2.000
 7098.00    0.55544   0.58650   -2.000
 7099.00    0.55868   0.58751   -2.000
 7100.00    0.56207   0.58830   -2.000
 7101.00    0.56498   0.58911   -2.000
 7102.00    0.56864   0.58954   -2.000
 7103.00    0.57431   0.58966   -2.000
 7104.00    0.58138   0.58972   -2.000
 7105.00    0.58538   0.58949   -2.000
 7106.00    0.58230   0.58896   -2.000
 7107.00    0.57472   0.58838   -2.000
 7108.00    0.56773   0.58783   -2.000
 7109.00    0.56260   0.58731   -2.000
 7110.00    0.55890   0.58688   -2.000
 7111.00    0.55803   0.58675   -2.000
 7112.00    0.56132   0.58694   -2.000
 7113.00    0.56713   0.58723   -2.000
 7114.00    0.57233   0.58758   -2.000
 7115.00    0.57473   0.58802   -2.000
 7116.00    0.57506   0.58839   -2.000
 7117.00    0.57849   0.58856   -2.000
 7118.00    0.58836   0.58840   -2.000
 7119.00    0.59946   0.58818   -2.000
 7120.00    0.60534   0.58786   -2.000
 7121.00    0.60660   0.58702   -2.000
 7122.00    0.60552   0.58615   -2.000
 7123.00    0.60009   0.58530   -2.000
 7124.00    0.58866   0.58405   -2.000
 7125.00    0.57511   0.58280   -2.000
 7126.00    0.56533   0.58162   -2.000
 7127.00    0.56328   0.58055   -2.000
 7128.00    0.57089   0.57988   -2.000
 7129.00    0.58831   0.57939   -2.000
 7130.00    0.61398   0.57947   -2.000
 7131.00    0.64481   0.58022   -2.000
 7132.00    0.67621   0.58099   -2.000
 7133.00    0.70230   0.58220   -2.000
 7134.00    0.71704   0.58366   -2.000
 7135.00    0.71546   0.58464   -2.000
 7136.00    0.69697   0.58569   -2.000
 7137.00    0.66754   0.58665   -2.000
 7138.00    0.63613   0.58687   -2.000
 7139.00    0.61127   0.58705   -2.000
 7140.00    0.59717   0.58717   -2.000
 7141.00    0.59151   0.58654   -2.000
 7142.00    0.58980   0.58595   -2.000
 7143.00    0.58881   0.58537   -2.000
 7144.00    0.58704   0.58414   -2.000
 7145.00    0.58463   0.58342   -2.000
 7146.00    0.58165   0.58313   -2.000
 7147.00    0.57711   0.58255   -2.000
 7148.00    0.57088   0.58295   -2.000
 7149.00    0.56480   0.58414   -2.000
 7150.00    0.56162   0.58516   -2.000
 7151.00    0.56374   0.58663   -2.000
 7152.00    0.56992   0.58846   -2.000
 7153.00    0.57441   0.58993   -2.000
 7154.00    0.57400   0.59092   -2.000
 7155.00    0.57152   0.59167   -2.000
 7156.00    0.57006   0.59206   -2.000
 7157.00    0.56956   0.59166   -2.000
 7158.00    0.56795   0.59091   -2.000
 7159.00    0.56261   0.59001   -2.000
 7160.00    0.55409   0.58864   -2.000
 7161.00    0.54713   0.58735   -2.000
 7162.00    0.54447   0.58644   -2.000
 7163.00    0.54440   0.58571   -2.000
 7164.00    0.54474   0.58555   -2.000
 7165.00    0.54488   0.58615   -2.000
 7166.00    0.54487   0.58716   -2.000
 7167.00    0.54494   0.58849   -2.000
 7168.00    0.54506   0.59012   -2.000
 7169.00    0.54489   0.59158   -2.000
 7170.00    0.54434   0.59280   -2.000
 7171.00    0.54382   0.59372   -2.000
 7172.00    0.54455   0.59398   -2.000
 7173.00    0.54795   0.59387   -2.000
 7174.00    0.55276   0.59351   -2.000
 7175.00    0.55515   0.59254   -2.000
 7176.00    0.55444   0.59147   -2.000
 7177.00    0.55417   0.59051   -2.000
 7178.00    0.55686   0.58933   -2.000
 7179.00    0.56193   0.58835   -2.000
 7180.00    0.56599   0.58750   -2.000
 7181.00    0.56522   0.58667   -2.000
 7182.00    0.56342   0.58611   -2.000
 7183.00    0.57021   0.58525   -2.000
 7184.00    0.58420   0.58440   -2.000
 7185.00    0.59239   0.58386   -2.000
 7186.00    0.58926   0.58295   -2.000
 7187.00    0.58022   0.58241   -2.000
 7188.00    0.57029   0.58238   -2.000
 7189.00    0.56154   0.58229   -2.000
 7190.00    0.55749   0.58272   -2.000
 7191.00    0.56199   0.58357   -2.000
 7192.00    0.57125   0.58426   -2.000
 7193.00    0.57571   0.58501   -2.000
 7194.00    0.57304   0.58597   -2.000
 7195.00    0.56858   0.58661   -2.000
 7196.00    0.56509   0.58691   -2.000
 7197.00    0.56167   0.58734   -2.000
 7198.00    0.55946   0.58752   -2.000
 7199.00    0.56134   0.58735   -2.000
 7200.00    0.56677   0.58711   -2.000
 7201.00    0.57163   0.58672   -2.000
 7202.00    0.57154   0.58610   -2.000
 7203.00    0.56410   0.58526   -2.000
 7204.00    0.55198   0.58459   -2.000
 7205.00    0.54124   0.58399   -2.000
 7206.00    0.53518   0.58333   -2.000
 7207.00    0.53396   0.58342   -2.000
 7208.00    0.53713   0.58382   -2.000
 7209.00    0.54343   0.58419   -2.000
 7210.00    0.54872   0.58525   -2.000
 7211.00    0.54925   0.58638   -2.000
 7212.00    0.54921   0.58720   -2.000
 7213.00    0.55477   0.58827   -2.000
 7214.00    0.55829   0.58925   -2.000
 7215.00    0.54756   0.58987   -2.000
 7216.00    0.53081   0.59053   -2.000
 7217.00    0.52729   0.59117   -2.000
 7218.00    0.53915   0.59156   -2.000
