###################################################################
## OUTPUT of StarlightChains_v04.for    [Cid@UFSC - 01/Apr/2007] ##
###################################################################

## Some input info
2005ip.txt                               [arq_obs]
Base.CB07.vall.4m                        [arq_base]
Masks.EmLines.NEW.gm                     [arq_masks]
StCv04.C11.config                        [arq_config]
   66                                    [N_base]
    0                                    [N_YAV_components = # of components with extra extinction!]
    0                                    [i_FitPowerLaw (1/0 = Yes/No)]
-9.99                                    [alpha_PowerLaw]
CCM                                      [red_law_option]
 1.458241                                [q_norm = A(l_norm)/A(V)]

## (Re)Sampling Parameters
 3741.00                                 [l_ini (A)]
 7218.00                                 [l_fin (A)]
    1.00                                 [dl    (A)]     (OBS: dl_cushion =    50.00 A)

## Normalization info
 4020.00                                 [l_norm (A) - for base]
 4010.00                                 [llow_norm (A) - window for f_obs]
 4060.00                                 [lupp_norm (A) - window for f_obs]
6.305756E-16                             [fobs_norm (in input units)]

## S/N
 3691.00                                 [llow_SN (A) - window for S/N]
 7268.00                                 [lupp_SN (A) - window for S/N]
  11.188                                 [S/N in S/N window]
  11.500                                 [S/N in norm. window]
  16.324                                 [S/N_err in S/N window]
  16.779                                 [S/N_err in norm. window]
  1.0000                                 [fscale_chi2]

## etc...
    -2007304                             [idum_orig]
  2389                                   [NOl_eff]
  2383                                   [Nl_eff]
     6    NSIGMA                         [Ntot_cliped & clip_method]
  1912890                                [Nglobal_steps]
   7                                     [N_chains]
  30                                     [NEX0s_base = N_base in EX0s-fits]
 0   0   1        2   2.0   3.646E+01    [Clip-Bug, RC-Crash & Burn-In warning-flags, n_censored_weights, wei_nsig_threshold & wei_limit]
    16     16.284     15.790      0.494  [idt_all, wdt_TotTime, wdt_UsrTime & wdt_SysTime (sec)]

## Synthesis Results - Best model ##

 2.58709E-01                             [chi2/Nl_eff]
     2.30284                             [adev (%)]

   108.11965                             [sum-of-x (%)]
 1.14025E-15                             [Flux_tot (units of input spectrum!)]
 8.57299E-12                             [Mini_tot (???)]
 4.83981E-12                             [Mcor_tot (???)]

   3.96                                  [v0_min  (km/s)]
 152.79                                  [vd_min  (km/s)]
 0.3829                                  [AV_min  (mag)]
 0.0000                                  [YAV_min (mag)]

# j     x_j(%)      Mini_j(%)     Mcor_j(%)     age_j(yr)     Z_j      (L/M)_j    YAV?  Mstars   component_j        a/Fe...       SSP_chi2r SSP_adev(%)   SSP_AV   SSP_x(%)
  1      1.8042     2.0288E-02    3.5936E-02    1.000000E+06  0.00400  1.094E-02    0   1.0000   age020_m42            0.0000     1.1801E+00     4.9117   3.0155    90.4863
  2      0.0000     0.0000E+00    0.0000E+00    3.160000E+06  0.00400  4.007E-02    0   0.9999   age045_m42            0.0000     9.5669E-01     4.0452   2.2934    96.6303
  3      0.4006     1.9410E-03    3.2621E-03    5.010000E+06  0.00400  2.539E-02    0   0.9488   age055_m42            0.0000     9.9638E-01     4.2508   2.6077    94.4858
  4      0.0000     0.0000E+00    0.0000E+00    6.610000E+06  0.00400  2.620E-02    0   0.9220   age061_m42            0.0000     8.7428E-01     3.9155   2.2099    97.3272
  5      0.0000     0.0000E+00    0.0000E+00    1.000000E+07  0.00400  1.322E-02    0   0.8862   age070_m42            0.0000     6.7298E-01     3.6814   1.8522   103.0903
  6      0.0000     0.0000E+00    0.0000E+00    1.445000E+07  0.00400  7.883E-03    0   0.8571   age078_m42            0.0000     7.4235E-01     3.8504   2.1870   100.0686
  7      0.0000     0.0000E+00    0.0000E+00    2.512000E+07  0.00400  5.251E-03    0   0.8174   age090_m42            0.0000     6.7849E-01     3.7826   1.7082   104.3719
  8      0.0000     0.0000E+00    0.0000E+00    4.000000E+07  0.00400  3.649E-03    0   0.7851   age104_m42            0.0000     6.3321E-01     3.6377   1.4886   104.8753
  9      0.0022     8.5482E-05    1.1552E-04    5.500000E+07  0.00400  3.098E-03    0   0.7629   age110_m42            0.0000     6.7205E-01     3.6487   1.6772   103.1513
 10      0.0000     0.0000E+00    0.0000E+00    1.015200E+08  0.00400  2.228E-03    0   0.7207   age116_m42            0.0000     7.0646E-01     3.8161   1.7192   102.2930
 11      0.0000     0.0000E+00    0.0000E+00    2.861200E+08  0.00400  1.093E-03    0   0.6648   age125_m42            0.0000     7.2175E-01     4.1550   1.1227   106.8483
 12      0.0000     0.0000E+00    0.0000E+00    5.088000E+08  0.00400  6.597E-04    0   0.6365   age130_m42            0.0000     6.7271E-01     4.1288   1.1478   105.9822
 13      0.0000     0.0000E+00    0.0000E+00    1.434000E+09  0.00400  2.132E-04    0   0.5798   age139_m42            0.0000     4.0526E-01     3.3046   0.1906   107.4773
 14      5.1823     1.0814E+01    1.0300E+01    4.250000E+09  0.00400  5.895E-05    0   0.5377   age158_m42            0.0000     4.5275E-01     3.4503  -0.2009   101.0033
 15      4.8602     1.7034E+01    1.5726E+01    7.500000E+09  0.00400  3.510E-05    0   0.5212   age171_m42            0.0000     5.4891E-01     3.8598  -0.3676    99.3929
 16      0.0000     0.0000E+00    0.0000E+00    1.300000E+10  0.00400  2.005E-05    0   0.5034   age193_m42            0.0000     6.7613E-01     4.3059  -0.5132    98.0092
 17      0.0000     0.0000E+00    0.0000E+00    1.800000E+10  0.00400  1.525E-05    0   0.4967   age213_m42            0.0000     6.5518E-01     4.2281  -0.5418    97.8141
 18      4.4562     4.4281E-02    7.8436E-02    1.000000E+06  0.00800  1.238E-02    0   1.0000   age020_m52            0.0000     1.1781E+00     4.9137   3.0126    90.6300
 19      4.5633     1.8262E-02    3.2238E-02    3.160000E+06  0.00800  3.074E-02    0   0.9966   age045_m52            0.0000     1.1557E+00     4.8316   2.9380    91.3568
 20      0.0000     0.0000E+00    0.0000E+00    5.010000E+06  0.00800  2.668E-02    0   0.9443   age055_m52            0.0000     9.8175E-01     4.2847   2.6858    93.8270
 21      0.1266     7.2910E-04    1.1852E-03    6.610000E+06  0.00800  2.136E-02    0   0.9177   age061_m52            0.0000     4.8392E-01     3.1917   1.3570   104.0520
 22      0.2135     2.1617E-03    3.3800E-03    1.000000E+07  0.00800  1.215E-02    0   0.8827   age070_m52            0.0000     6.9386E-01     3.9667   2.0103   103.9240
 23      5.2170     7.3624E-02    1.1153E-01    1.445000E+07  0.00800  8.717E-03    0   0.8552   age078_m52            0.0000     6.8039E-01     3.7074   2.1500   101.5978
 24      0.0000     0.0000E+00    0.0000E+00    2.512000E+07  0.00800  5.592E-03    0   0.8162   age090_m52            0.0000     6.4662E-01     3.7820   1.7677   105.8761
 25      0.0000     0.0000E+00    0.0000E+00    4.000000E+07  0.00800  3.896E-03    0   0.7841   age104_m52            0.0000     6.3785E-01     3.7020   1.6960   105.9212
 26      0.0002     1.3192E-05    1.6885E-05    1.015200E+08  0.00800  2.148E-03    0   0.7226   age116_m52            0.0000     6.2526E-01     3.6378   1.6695   104.0049
 27      0.0000     0.0000E+00    0.0000E+00    2.861200E+08  0.00800  9.925E-04    0   0.6683   age125_m52            0.0000     6.0536E-01     3.9642   1.2091   107.1845
 28      0.0000     0.0000E+00    0.0000E+00    9.047900E+08  0.00800  3.141E-04    0   0.6138   age135_m52            0.0000     5.2779E-01     3.9457   0.4558   109.4549
 29      0.0000     0.0000E+00    0.0000E+00    1.434000E+09  0.00800  1.719E-04    0   0.5853   age139_m52            0.0000     4.5326E-01     3.5381  -0.1209   107.1094
 30      0.0000     0.0000E+00    0.0000E+00    2.500000E+09  0.00800  7.872E-05    0   0.5600   age150_m52            0.0000     5.7233E-01     4.1272  -0.3351   101.6464
 31      0.0000     0.0000E+00    0.0000E+00    4.250000E+09  0.00800  4.336E-05    0   0.5426   age158_m52            0.0000     6.0296E-01     4.1850  -0.3471   100.5312
 32      2.0036     7.8024E+00    7.3513E+00    6.250000E+09  0.00800  3.159E-05    0   0.5319   age166_m52            0.0000     7.9623E-01     4.9147  -0.5187    99.1657
 33      0.4286     3.8737E+00    3.4809E+00    1.300000E+10  0.00800  1.361E-05    0   0.5073   age193_m52            0.0000     1.1105E+00     5.9232  -0.9505    96.9387
 34      0.0000     0.0000E+00    0.0000E+00    1.800000E+10  0.00800  9.886E-06    0   0.4990   age213_m52            0.0000     1.3970E+00     6.8178  -1.0000    93.9669
 35      0.0000     0.0000E+00    0.0000E+00    1.000000E+06  0.02000  1.544E-02    0   1.0000   age020_m62            0.0000     1.1858E+00     4.9407   3.0079    90.8697
 36      4.6608     1.5241E-02    2.6613E-02    3.160000E+06  0.02000  3.762E-02    0   0.9858   age045_m62            0.0000     1.1866E+00     4.9361   2.9490    91.5885
 37      0.7646     2.8536E-03    4.7221E-03    5.010000E+06  0.02000  3.296E-02    0   0.9342   age055_m62            0.0000     9.6376E-01     4.1583   2.5766    95.2721
 38     16.0037     1.7060E-01    2.6777E-01    8.710000E+06  0.02000  1.154E-02    0   0.8861   age067_m62            0.0000     1.4362E+00     6.8849   1.3214   114.4432
 39      1.9928     3.1992E-02    4.8009E-02    1.445000E+07  0.02000  7.663E-03    0   0.8472   age078_m62            0.0000     7.8651E-01     4.6002   1.6128   108.6663
 40      0.1639     4.4487E-03    6.3822E-03    2.512000E+07  0.02000  4.532E-03    0   0.8099   age090_m62            0.0000     8.8677E-01     4.8432   1.5978   108.7779
 41      0.0000     0.0000E+00    0.0000E+00    5.500000E+07  0.02000  2.733E-03    0   0.7595   age110_m62            0.0000     5.8723E-01     3.5881   1.6777   105.2076
 42      0.0000     0.0000E+00    0.0000E+00    1.609000E+08  0.02000  1.369E-03    0   0.6985   age120_m62            0.0000     6.1546E-01     3.8300   1.5580   106.0253
 43      0.0000     0.0000E+00    0.0000E+00    2.861200E+08  0.02000  9.013E-04    0   0.6714   age125_m62            0.0000     6.1123E-01     4.1028   1.3265   108.1300
 44      0.0000     0.0000E+00    0.0000E+00    5.088000E+08  0.02000  5.028E-04    0   0.6449   age130_m62            0.0000     6.2894E-01     4.2760   0.9993   108.4836
 45      0.0000     0.0000E+00    0.0000E+00    9.047900E+08  0.02000  2.428E-04    0   0.6179   age135_m62            0.0000     5.0458E-01     3.9091   0.4365   106.7886
 46      2.5683     2.5015E+00    2.6179E+00    1.434000E+09  0.02000  1.263E-04    0   0.5908   age139_m62            0.0000     5.2045E-01     3.9339   0.0053   104.6287
 47      1.1202     2.3024E+00    2.3136E+00    2.500000E+09  0.02000  5.985E-05    0   0.5673   age150_m62            0.0000     7.6621E-01     4.8669  -0.3175   101.1953
 48      0.2578     9.6954E-01    9.3907E-01    4.250000E+09  0.02000  3.271E-05    0   0.5468   age158_m62            0.0000     1.1473E+00     6.1224  -0.5759    98.2574
 49      0.0000     0.0000E+00    0.0000E+00    1.000000E+10  0.02000  1.360E-05    0   0.5167   age181_m62            0.0000     1.6570E+00     7.5124  -0.8735    95.6996
 50      0.0000     0.0000E+00    0.0000E+00    1.800000E+10  0.02000  7.124E-06    0   0.5013   age213_m62            0.0000     2.1126E+00     8.6522  -1.0000    91.4759
 51      0.0000     0.0000E+00    0.0000E+00    1.000000E+06  0.05000  2.592E-02    0   0.9998   age020_m72            0.0000     1.1970E+00     5.0160   2.9954    91.0510
 52      1.6966     4.3078E-03    7.3078E-03    3.160000E+06  0.05000  4.845E-02    0   0.9577   age045_m72            0.0000     1.1359E+00     4.6621   2.8411    92.4359
 53      1.7120     6.8556E-03    1.1108E-02    5.010000E+06  0.05000  3.072E-02    0   0.9147   age055_m72            0.0000     8.8616E-01     4.3816   2.2550   101.7820
 54      0.0000     0.0000E+00    0.0000E+00    6.610000E+06  0.05000  1.455E-02    0   0.8877   age061_m72            0.0000     3.5952E+00     9.7925   1.3246   118.4711
 55      0.0000     0.0000E+00    0.0000E+00    1.000000E+07  0.05000  9.074E-03    0   0.8524   age070_m72            0.0000     1.5334E+00     5.1912   2.4465   101.3339
 56      0.0000     0.0000E+00    0.0000E+00    2.512000E+07  0.05000  4.250E-03    0   0.7902   age090_m72            0.0000     1.0984E+00     4.6023   2.1359   103.6249
 57      0.0000     0.0000E+00    0.0000E+00    4.000000E+07  0.05000  3.087E-03    0   0.7618   age104_m72            0.0000     1.1347E+00     4.7816   1.8951   106.0251
 58      0.0000     0.0000E+00    0.0000E+00    1.015200E+08  0.05000  1.700E-03    0   0.7096   age116_m72            0.0000     6.8760E-01     4.0576   1.6786   106.7126
 59      0.0000     0.0000E+00    0.0000E+00    2.861200E+08  0.05000  7.384E-04    0   0.6633   age125_m72            0.0000     5.7633E-01     4.0912   1.2187   108.4191
 60      0.0000     0.0000E+00    0.0000E+00    5.088000E+08  0.05000  3.819E-04    0   0.6372   age130_m72            0.0000     5.1912E-01     3.9332   0.7701   108.0031
 61     33.2941     2.4438E+01    2.6449E+01    9.047900E+08  0.05000  1.676E-04    0   0.6110   age135_m72            0.0000     7.3390E-01     4.8716   0.1365   103.1915
 62      8.3481     1.1621E+01    1.2092E+01    1.434000E+09  0.05000  8.837E-05    0   0.5874   age139_m72            0.0000     8.3651E-01     5.1239  -0.3137   102.4933
 63      6.2784     1.8246E+01    1.8093E+01    2.500000E+09  0.05000  4.233E-05    0   0.5598   age150_m72            0.0000     1.2851E+00     6.5438  -0.5619    98.4626
 64      0.0000     0.0000E+00    0.0000E+00    6.250000E+09  0.05000  1.435E-05    0   0.5249   age166_m72            0.0000     1.8425E+00     7.9521  -0.9551    94.6691
 65      0.0000     0.0000E+00    0.0000E+00    1.300000E+10  0.05000  6.513E-06    0   0.5036   age193_m72            0.0000     2.7321E+00     9.8880  -1.0000    85.9123
 66      0.0000     0.0000E+00    0.0000E+00    1.800000E+10  0.05000  4.527E-06    0   0.4945   age213_m72            0.0000     3.6439E+00    11.3994  -1.0000    79.6184


## Synthesis Results - Average & Chains ##

# j      x_j: min, <> & last-chain-values for 1 ...  7 chains
  1      1.8042      1.3273      1.4053      1.6217      0.2874      0.9614      1.9560      0.5996      0.8604
  2      0.0000      0.4902      0.0000      0.0000      0.2674      0.0000      0.0000      0.0000      0.7442
  3      0.4006      1.2850      0.6341      1.7947      2.2832      1.7470      0.3096      1.7739      1.6224
  4      0.0000      1.6203      1.5169      0.1188      1.0865      2.4908      1.8871      1.9453      2.4390
  5      0.0000      0.3909      0.5133      0.0000      0.0112      0.0000      0.0000      0.6603      0.1340
  6      0.0000      0.4754      0.5981      0.0000      0.5189      0.8881      0.8463      0.0000      0.4025
  7      0.0000      0.3139      0.6811      0.0000      0.0000      0.0000      0.2067      0.0251      0.0645
  8      0.0000      1.0330      1.7345      0.0000      1.1793      0.7832      1.3177      1.0489      0.9064
  9      0.0022      1.0337      1.4987      0.4330      0.5937      0.7359      1.0515      0.0000      1.0390
 10      0.0000      0.2680      0.0599      0.0000      0.0000      0.2979      0.0000      0.0000      0.0479
 11      0.0000      0.4086      0.2093      0.0000      0.7892      0.0444      0.0000      0.0000      0.0000
 12      0.0000      0.3732      0.0000      0.0000      0.0000      0.0000      0.0000      0.1972      0.0000
 13      0.0000      0.6718      0.0000      0.0000      0.4782      0.0142      0.0000      0.0000      0.3919
 14      5.1823      6.3698      6.3140      6.8965      6.8982      6.6492      6.2041      7.0694      4.0697
 15      4.8602      3.4420      3.6011      3.7867      3.2360      5.0271      3.8429      3.0268      4.6725
 16      0.0000      0.1077      0.0983      0.0000      0.0413      0.0000      0.0000      0.0000      0.2780
 17      0.0000      0.2394      0.8125      0.0000      0.3255      0.0000      0.4305      0.1351      0.0508
 18      4.4562      3.0797      3.1039      3.7272      2.7995      3.2579      4.0422      3.1495      2.7741
 19      4.5633      2.5943      2.8633      2.5578      2.6422      2.2808      2.5182      2.3440      2.6445
 20      0.0000      0.4797      0.0000      0.0008      0.4559      0.9392      0.1784      0.0087      1.0702
 21      0.1266      2.7386      4.4044      2.3816      1.7973      2.4600      2.8820      6.0734      3.3391
 22      0.2135      0.4550      0.4052      0.5801      0.3230      2.8789      2.3139      0.0000      0.3830
 23      5.2170      4.5593      4.0572      5.4674      4.8440      4.0834      3.9645      5.3553      5.5701
 24      0.0000      0.3775      0.0969      0.2062      0.6485      0.0000      0.0000      0.7060      0.1658
 25      0.0000      0.4124      0.0000      0.4221      0.9142      0.0000      0.0000      1.2694      0.1669
 26      0.0002      0.2455      0.0653      0.4119      0.0000      0.0361      0.0000      0.0000      0.0000
 27      0.0000      0.4129      0.0000      0.0000      0.7531      0.1292      0.0000      0.0000      0.0000
 28      0.0000      0.4185      0.0000      0.0000      0.0000      0.0000      0.0000      0.0000      0.2384
 29      0.0000      0.3648      0.0000      0.0967      0.0000      2.5169      0.0000      0.0436      0.0000
 30      0.0000      0.1818      0.3072      0.0000      0.5260      0.0000      0.0000      0.5182      0.0000
 31      0.0000      0.1859      0.0000      0.0000      0.1689      0.0000      0.1398      0.0000      0.0000
 32      2.0036      2.5483      3.0315      2.4094      2.3004      2.7547      3.1234      2.3609      2.7581
 33      0.4286      0.0553      0.0000      0.5554      0.0000      0.0000      0.0753      0.0033      0.0000
 34      0.0000      0.0601      0.0000      0.0000      0.0000      0.0300      0.1683      0.0000      0.0000
 35      0.0000      0.6735      1.4184      0.3040      2.0638      1.1750      0.3964      0.0000      1.7614
 36      4.6608      3.3566      3.6908      4.1512      3.8262      3.5117      3.1219      3.2373      2.9880
 37      0.7646      2.9576      3.6088      2.8100      2.2747      3.0383      4.1773      3.1996      2.6207
 38     16.0037      5.2008      5.9594      8.7349      5.4261      6.1009      5.0951      5.4461      4.6649
 39      1.9928      2.0981      1.2391      3.3306      2.6489      1.2218      4.6501      1.8736      1.9008
 40      0.1639      0.3932      1.2260      0.5367      0.9515      0.8153      0.0000      0.0000      0.4056
 41      0.0000      0.2852      0.0055      0.0000      0.0000      0.3863      0.2548      0.0000      0.0000
 42      0.0000      0.5114      0.4394      0.1048      0.0410      0.0000      0.1184      0.0000      0.0376
 43      0.0000      0.1963      0.0000      0.0000      0.0000      0.0000      0.0000      0.5827      0.0205
 44      0.0000      0.3586      0.0000      0.1707      0.0000      0.0000      0.0000      0.0000      0.0000
 45      0.0000      0.5924      0.3694      0.0000      0.0000      0.7525      0.0000      0.0000      0.0000
 46      2.5683     12.5333     11.4890     12.3839     12.8031     10.0513     12.6053     10.7871     12.3285
 47      1.1202      2.2855      2.6221      3.0360      1.8024      1.9936      1.7932      3.0823      2.8209
 48      0.2578      0.4355      0.6897      0.7794      0.0000      0.6652      0.0000      0.7352      0.1376
 49      0.0000      0.1059      0.2093      0.1375      0.5431      0.0000      0.0000      0.0000      0.4018
 50      0.0000      0.0491      0.0000      0.0000      0.0000      0.0000      0.0000      0.0853      0.0567
 51      0.0000      0.4145      0.1580      0.1074      1.4322      0.0000      0.9812      0.5592      1.2084
 52      1.6966      0.7917      1.4258      0.5052      1.0345      1.4747      0.6609      1.2456      0.7956
 53      1.7120      0.8937      0.9897      1.6263      1.3577      0.6003      0.7081      0.4769      1.8723
 54      0.0000      0.4078      0.0000      0.2590      0.1599      0.4071      0.1705      0.8624      0.0097
 55      0.0000      0.2217      0.0000      0.2885      0.0000      0.0000      0.0000      0.0000      0.0000
 56      0.0000      0.2337      0.5384      0.8911      0.0000      0.0741      0.0000      0.1572      0.4937
 57      0.0000      0.7753      0.8233      0.0296      0.0000      0.3371      1.1437      2.2473      0.0000
 58      0.0000      0.2345      0.0000      0.7348      0.0000      0.0000      0.0955      0.4493      0.0000
 59      0.0000      0.4517      1.0824      0.0000      0.3901      0.0000      0.0000      0.6678      2.4749
 60      0.0000      0.5206      0.0000      0.5226      0.0000      0.1755      0.0000      0.0000      0.0000
 61     33.2941     22.5734     22.7448     24.8242     25.2465     24.7262     24.3808     23.4221     23.2117
 62      8.3481      6.3982      6.0851      5.6658      6.6373      6.7675      6.7879      7.1944      6.5552
 63      6.2784      2.2972      1.8645      2.1947      2.2702      2.0478      3.0170      2.7737      2.8370
 64      0.0000      0.3155      0.0000      0.2839      0.5564      0.3736      0.4342      0.0000      0.7766
 65      0.0000      0.1912      0.6328      0.0066      0.0453      0.0000      0.0000      0.4052      0.5786
 66      0.0000      0.0469      0.2699      0.0244      0.0000      0.0093      0.0000      0.0064      0.0000

# j      m_j: min, <> & last-chain-values for 1 ...  7 chains
  1  3.5936E-02  2.6093E-02  2.4531E-02  3.2145E-02  5.7027E-03  1.9477E-02  3.8638E-02  1.1856E-02  1.5325E-02
  2  0.0000E+00  2.6309E-03  0.0000E+00  0.0000E+00  1.4489E-03  0.0000E+00  0.0000E+00  0.0000E+00  3.6186E-03
  3  3.2621E-03  1.0327E-02  4.5255E-03  1.4543E-02  1.8524E-02  1.4469E-02  2.5002E-03  1.4340E-02  1.1814E-02
  4  0.0000E+00  1.2262E-02  1.0194E-02  9.0692E-04  8.3014E-03  1.9427E-02  1.4351E-02  1.4809E-02  1.6725E-02
  5  0.0000E+00  5.6349E-03  6.5711E-03  0.0000E+00  1.6355E-04  0.0000E+00  0.0000E+00  9.5747E-03  1.7500E-03
  6  0.0000E+00  1.1116E-02  1.2419E-02  0.0000E+00  1.2249E-02  2.1400E-02  1.9885E-02  0.0000E+00  8.5270E-03
  7  0.0000E+00  1.0509E-02  2.0248E-02  0.0000E+00  0.0000E+00  0.0000E+00  6.9542E-03  8.4441E-04  1.9567E-03
  8  0.0000E+00  4.7801E-02  7.1269E-02  0.0000E+00  5.5087E-02  3.7346E-02  6.1269E-02  4.8820E-02  3.7999E-02
  9  1.1552E-04  5.4745E-02  7.0481E-02  2.3122E-02  3.1743E-02  4.0162E-02  5.5954E-02  0.0000E+00  4.9856E-02
 10  0.0000E+00  1.8646E-02  3.7028E-03  0.0000E+00  0.0000E+00  2.1355E-02  0.0000E+00  0.0000E+00  3.0176E-03
 11  0.0000E+00  5.3452E-02  2.4307E-02  0.0000E+00  1.0422E-01  5.9896E-03  0.0000E+00  0.0000E+00  0.0000E+00
 12  0.0000E+00  7.7446E-02  0.0000E+00  0.0000E+00  0.0000E+00  0.0000E+00  0.0000E+00  4.1167E-02  0.0000E+00
 13  0.0000E+00  3.9291E-01  0.0000E+00  0.0000E+00  2.8237E-01  8.5320E-03  0.0000E+00  0.0000E+00  2.0766E-01
 14  1.0300E+01  1.2495E+01  1.0998E+01  1.3641E+01  1.3661E+01  1.3442E+01  1.2229E+01  1.3949E+01  7.2333E+00
 15  1.5726E+01  1.0992E+01  1.0212E+01  1.2193E+01  1.0432E+01  1.6544E+01  1.2331E+01  9.7226E+00  1.3520E+01
 16  0.0000E+00  5.8134E-01  4.7141E-01  0.0000E+00  2.2533E-01  0.0000E+00  0.0000E+00  0.0000E+00  1.3603E+00
 17  0.0000E+00  1.6769E+00  5.0537E+00  0.0000E+00  2.3018E+00  0.0000E+00  3.0304E+00  9.5220E-01  3.2212E-01
 18  7.8436E-02  5.3501E-02  4.7879E-02  6.5286E-02  4.9095E-02  5.8324E-02  7.0559E-02  5.5033E-02  4.3664E-02
 19  3.2238E-02  1.8088E-02  1.7727E-02  1.7982E-02  1.8598E-02  1.6388E-02  1.7642E-02  1.6439E-02  1.6706E-02
 20  0.0000E+00  3.6511E-03  0.0000E+00  6.4975E-06  3.5030E-03  7.3677E-03  1.3643E-03  6.6351E-05  7.3805E-03
 21  1.1852E-03  2.5304E-02  3.6137E-02  2.2188E-02  1.6765E-02  2.3424E-02  2.6757E-02  5.6446E-02  2.7954E-02
 22  3.3800E-03  7.1085E-03  5.6213E-03  9.1396E-03  5.0944E-03  4.6354E-02  3.6328E-02  0.0000E+00  5.4213E-03
 23  1.1153E-01  9.6197E-02  7.6013E-02  1.1631E-01  1.0318E-01  8.8787E-02  8.4052E-02  1.1366E-01  1.0648E-01
 24  0.0000E+00  1.1851E-02  2.7015E-03  6.5255E-03  2.0551E-02  0.0000E+00  0.0000E+00  2.2290E-02  4.7147E-03
 25  0.0000E+00  1.7851E-02  0.0000E+00  1.8420E-02  3.9948E-02  0.0000E+00  0.0000E+00  5.5266E-02  6.5436E-03
 26  1.6885E-05  1.7760E-02  4.1955E-03  3.0046E-02  0.0000E+00  2.6921E-03  0.0000E+00  0.0000E+00  0.0000E+00
 27  0.0000E+00  5.9797E-02  0.0000E+00  0.0000E+00  1.1009E-01  1.9285E-02  0.0000E+00  0.0000E+00  0.0000E+00
 28  0.0000E+00  1.7586E-01  0.0000E+00  0.0000E+00  0.0000E+00  0.0000E+00  0.0000E+00  0.0000E+00  9.0761E-02
 29  0.0000E+00  2.6716E-01  0.0000E+00  7.1398E-02  0.0000E+00  1.8993E+00  0.0000E+00  3.2123E-02  0.0000E+00
 30  0.0000E+00  2.7811E-01  4.1734E-01  0.0000E+00  8.1246E-01  0.0000E+00  0.0000E+00  7.9742E-01  0.0000E+00
 31  0.0000E+00  5.0021E-01  0.0000E+00  0.0000E+00  4.5895E-01  0.0000E+00  3.7818E-01  0.0000E+00  0.0000E+00
 32  7.3513E+00  9.2278E+00  9.7476E+00  8.7973E+00  8.4094E+00  1.0280E+01  1.1365E+01  8.5991E+00  9.0491E+00
 33  3.4809E+00  4.4350E-01  0.0000E+00  4.4890E+00  0.0000E+00  0.0000E+00  6.0618E-01  2.6389E-02  0.0000E+00
 34  0.0000E+00  6.5254E-01  0.0000E+00  0.0000E+00  0.0000E+00  3.3505E-01  1.8357E+00  0.0000E+00  0.0000E+00
 35  0.0000E+00  9.3812E-03  1.7543E-02  4.2700E-03  2.9020E-02  1.6866E-02  5.5484E-03  0.0000E+00  2.2229E-02
 36  2.6613E-02  1.8916E-02  1.8469E-02  2.3588E-02  2.1768E-02  2.0395E-02  1.7679E-02  1.8351E-02  1.5257E-02
 37  4.7221E-03  1.8028E-02  1.9533E-02  1.7271E-02  1.3998E-02  1.9086E-02  2.5586E-02  1.9618E-02  1.4474E-02
 38  2.6777E-01  8.5884E-02  8.7386E-02  1.4544E-01  9.0456E-02  1.0382E-01  8.4545E-02  9.0462E-02  6.9796E-02
 39  4.8009E-02  4.9887E-02  2.6161E-02  7.9849E-02  6.3581E-02  2.9938E-02  1.1110E-01  4.4809E-02  4.0948E-02
 40  6.3822E-03  1.5114E-02  4.1842E-02  2.0798E-02  3.6917E-02  3.2292E-02  0.0000E+00  0.0000E+00  1.4124E-02
 41  0.0000E+00  1.7045E-02  2.8945E-04  0.0000E+00  0.0000E+00  2.3793E-02  1.5303E-02  0.0000E+00  0.0000E+00
 42  0.0000E+00  5.6114E-02  4.2817E-02  1.1591E-02  4.5432E-03  0.0000E+00  1.3055E-02  0.0000E+00  3.7406E-03
 43  0.0000E+00  3.1442E-02  0.0000E+00  0.0000E+00  0.0000E+00  0.0000E+00  0.0000E+00  9.3899E-02  2.9767E-03
 44  0.0000E+00  9.8909E-02  0.0000E+00  4.7489E-02  0.0000E+00  0.0000E+00  0.0000E+00  0.0000E+00  0.0000E+00
 45  0.0000E+00  3.2422E-01  1.7952E-01  0.0000E+00  0.0000E+00  4.2441E-01  0.0000E+00  0.0000E+00  0.0000E+00
 46  2.6179E+00  1.2609E+01  1.0263E+01  1.2562E+01  1.3003E+01  1.0420E+01  1.2742E+01  1.0916E+01  1.1237E+01
 47  2.3136E+00  4.6590E+00  4.7464E+00  6.2403E+00  3.7091E+00  4.1881E+00  3.6731E+00  6.3200E+00  5.2101E+00
 48  9.3907E-01  1.5658E+00  2.2017E+00  2.8253E+00  0.0000E+00  2.4645E+00  0.0000E+00  2.6588E+00  4.4834E-01
 49  0.0000E+00  8.6499E-01  1.5187E+00  1.1331E+00  4.4796E+00  0.0000E+00  0.0000E+00  0.0000E+00  2.9744E+00
 50  0.0000E+00  7.4349E-01  0.0000E+00  0.0000E+00  0.0000E+00  0.0000E+00  0.0000E+00  1.2989E+00  7.7760E-01
 51  0.0000E+00  3.4388E-03  1.1637E-03  8.9842E-04  1.1994E-02  0.0000E+00  8.1787E-03  4.6659E-03  9.0823E-03
 52  7.3078E-03  3.3657E-03  5.3820E-03  2.1655E-03  4.4397E-03  6.4604E-03  2.8233E-03  5.3263E-03  3.0645E-03
 53  1.1108E-02  5.7231E-03  5.6277E-03  1.0501E-02  8.7768E-03  3.9617E-03  4.5563E-03  3.0719E-03  1.0863E-02
 54  0.0000E+00  5.3512E-03  0.0000E+00  3.4260E-03  2.1183E-03  5.5046E-03  2.2480E-03  1.1382E-02  1.1554E-04
 55  0.0000E+00  4.4787E-03  0.0000E+00  5.8774E-03  0.0000E+00  0.0000E+00  0.0000E+00  0.0000E+00  0.0000E+00
 56  0.0000E+00  9.3453E-03  1.9116E-02  3.5927E-02  0.0000E+00  3.0540E-03  0.0000E+00  6.3238E-03  1.7886E-02
 57  0.0000E+00  4.1147E-02  3.8800E-02  1.5840E-03  0.0000E+00  1.8435E-02  6.0992E-02  1.1997E-01  0.0000E+00
 58  0.0000E+00  2.1049E-02  0.0000E+00  6.6512E-02  0.0000E+00  0.0000E+00  8.6101E-03  4.0566E-02  0.0000E+00
 59  0.0000E+00  8.7272E-02  1.8567E-01  0.0000E+00  7.6084E-02  0.0000E+00  0.0000E+00  1.2977E-01  4.3321E-01
 60  0.0000E+00  1.8681E-01  0.0000E+00  1.8907E-01  0.0000E+00  6.4905E-02  0.0000E+00  0.0000E+00  0.0000E+00
 61  2.6449E+01  1.7698E+01  1.5835E+01  1.9624E+01  1.9982E+01  1.9978E+01  1.9207E+01  1.8471E+01  1.6489E+01
 62  1.2092E+01  9.1465E+00  7.7242E+00  8.1667E+00  9.5785E+00  9.9697E+00  9.7503E+00  1.0345E+01  8.4903E+00
 63  1.8093E+01  6.5336E+00  4.7089E+00  6.2939E+00  6.5183E+00  6.0021E+00  8.6223E+00  7.9349E+00  7.3105E+00
 64  0.0000E+00  2.4816E+00  0.0000E+00  2.2521E+00  4.4190E+00  3.0286E+00  3.4324E+00  0.0000E+00  5.5353E+00
 65  0.0000E+00  3.1792E+00  9.3439E+00  1.0986E-01  7.5968E-01  0.0000E+00  0.0000E+00  6.7770E+00  8.7175E+00
 66  0.0000E+00  1.1008E+00  5.6304E+00  5.7840E-01  0.0000E+00  2.2538E-01  0.0000E+00  1.5128E-01  0.0000E+00

# AV, chi2 & Mass for <> & i_chain = 1 ...  7 solutions
AV       0.3829      0.4208      0.4219      0.4115      0.4149      0.4078      0.4158      0.4142      0.4088
chi2 2.5871E-01  2.7047E-01  2.6845E-01  2.6611E-01  2.6732E-01  2.6770E-01  2.6746E-01  2.6827E-01  2.6783E-01
Mass 4.8398E-12  5.1596E-12  5.8194E-12  5.0537E-12  5.0709E-12  4.9202E-12  5.1006E-12  5.0846E-12  5.6034E-12
   3.96                                  [v0_min (km/s) before EX0s...]
 152.79                                  [vd_min (km/s) before EX0s...]


## Synthetic spectrum (Best Model) ##l_obs f_obs f_syn wei
 3478    [Nl_obs]
 3741.00    0.73445   0.79788    0.000
 3742.00    0.76609   0.79751    0.000
 3743.00    0.76360   0.78401    0.000
 3744.00    0.73500   0.76157    0.000
 3745.00    0.69710   0.73203    4.386
 3746.00    0.65481   0.69715    4.354
 3747.00    0.60733   0.66128    4.277
 3748.00    0.56603   0.63001    4.264
 3749.00    0.54957   0.61168    4.391
 3750.00    0.56905   0.61514    4.541
 3751.00    0.61998   0.64246    4.524
 3752.00    0.67427   0.68631    4.421
 3753.00    0.70308   0.73464    4.434
 3754.00    0.71520   0.77603    4.566
 3755.00    0.73535   0.80240    4.681
 3756.00    0.76025   0.81079    4.673
 3757.00    0.77304   0.80456    4.556
 3758.00    0.77578   0.79315    4.509
 3759.00    0.78058   0.78618    4.668
 3760.00    0.78899   0.78702    4.881
 3761.00    0.79422   0.79348    4.879
 3762.00    0.78902   0.80115    4.776
 3763.00    0.77091   0.80479    4.812
 3764.00    0.74721   0.80111    4.924
 3765.00    0.72516   0.78895    4.931
 3766.00    0.69844   0.76737    4.887
 3767.00    0.66137   0.73900    4.939
 3768.00    0.62875   0.71041    5.095
 3769.00    0.61855   0.68752    5.262
 3770.00    0.62725   0.67586    5.337
 3771.00    0.64103   0.68113    5.301
 3772.00    0.65345   0.70322    5.288
 3773.00    0.66690   0.73458    5.397
 3774.00    0.69075   0.76745    5.481
 3775.00    0.72685   0.79821    5.382
 3776.00    0.75491   0.82656    5.261
 3777.00    0.75791   0.85316    5.300
 3778.00    0.75062   0.87785    5.422
 3779.00    0.75611   0.90019    5.463
 3780.00    0.77760   0.91899    5.410
 3781.00    0.80792   0.93197    5.363
 3782.00    0.84218   0.93769    5.431
 3783.00    0.87488   0.93606    5.623
 3784.00    0.89657   0.92698    5.742
 3785.00    0.90338   0.90975    5.632
 3786.00    0.90534   0.88650    5.489
 3787.00    0.91005   0.86351    5.526
 3788.00    0.90821   0.84496    5.722
 3789.00    0.89281   0.83082    5.914
 3790.00    0.87571   0.81925    5.897
 3791.00    0.86359   0.80679    5.695
 3792.00    0.83816   0.78872    5.665
 3793.00    0.78617   0.76184    5.985
 3794.00    0.72415   0.72666    6.287
 3795.00    0.67194   0.68754    6.191
 3796.00    0.63045   0.65132    6.041
 3797.00    0.59831   0.62596    6.180
 3798.00    0.58526   0.62031    6.460
 3799.00    0.59882   0.63967    6.547
 3800.00    0.63380   0.68013    6.306
 3801.00    0.67979   0.73067    5.941
 3802.00    0.72772   0.78008    5.816
 3803.00    0.77208   0.82035    6.022
 3804.00    0.81178   0.84724    6.205
 3805.00    0.84692   0.86188    6.102
 3806.00    0.87677   0.87004    6.023
 3807.00    0.90295   0.87909    6.191
 3808.00    0.93027   0.89298    6.388
 3809.00    0.95609   0.90870    6.391
 3810.00    0.96637   0.91932    6.346
 3811.00    0.95742   0.91938    6.418
 3812.00    0.94638   0.90755    6.580
 3813.00    0.94539   0.88791    6.715
 3814.00    0.94771   0.86836    6.716
 3815.00    0.94680   0.85414    6.598
 3816.00    0.94616   0.84531    6.509
 3817.00    0.94498   0.83893    6.527
 3818.00    0.93254   0.83100    6.589
 3819.00    0.90690   0.82070    6.625
 3820.00    0.88202   0.81292    6.646
 3821.00    0.86566   0.81219    6.710
 3822.00    0.85028   0.81573    6.884
 3823.00    0.83227   0.81584    7.088
 3824.00    0.81937   0.80825    7.061
 3825.00    0.81374   0.79550    6.843
 3826.00    0.80605   0.78195    6.843
 3827.00    0.79209   0.76932    7.154
 3828.00    0.77839   0.75634    7.358
 3829.00    0.76811   0.73993    7.248
 3830.00    0.75606   0.71676    7.196
 3831.00    0.73837   0.68485    7.399
 3832.00    0.71720   0.64614    7.632
 3833.00    0.69982   0.60776    7.639
 3834.00    0.69511   0.57793    7.402
 3835.00    0.70055   0.56307    7.127
 3836.00    0.70082   0.56663    7.075
 3837.00    0.68653   0.58655    7.290
 3838.00    0.66097   0.61733    7.563
 3839.00    0.63445   0.65467    7.684
 3840.00    0.61967   0.69533    7.615
 3841.00    0.62393   0.73651    7.528
 3842.00    0.64707   0.77532    7.666
 3843.00    0.68570   0.80824    7.952
 3844.00    0.73470   0.83367    7.952
 3845.00    0.78646   0.85205    7.643
 3846.00    0.83206   0.86471    7.477
 3847.00    0.86640   0.87337    0.000
 3848.00    0.88928   0.87885    0.000
 3849.00    0.90224   0.88168    0.000
 3850.00    0.90710   0.88437    0.000
 3851.00    0.90447   0.88938    0.000
 3852.00    0.89459   0.89490    0.000
 3853.00    0.88134   0.89715    0.000
 3854.00    0.87142   0.89510    0.000
 3855.00    0.86764   0.88919    0.000
 3856.00    0.86719   0.88102    0.000
 3857.00    0.86321   0.87353    0.000
 3858.00    0.84994   0.86804    0.000
 3859.00    0.83603   0.86599    0.000
 3860.00    0.83875   0.87059    0.000
 3861.00    0.85688   0.88212    0.000
 3862.00    0.87323   0.89586    0.000
 3863.00    0.88300   0.90652    0.000
 3864.00    0.89626   0.91198    0.000
 3865.00    0.92306   0.91291    0.000
 3866.00    0.96597   0.91111    0.000
 3867.00    1.01191   0.90802    0.000
 3868.00    1.03763   0.90361    0.000
 3869.00    1.02860   0.89628    0.000
 3870.00    0.98509   0.88485    0.000
 3871.00    0.92477   0.87154    0.000
 3872.00    0.87427   0.86126    0.000
 3873.00    0.84848   0.85851    0.000
 3874.00    0.84670   0.86245    0.000
 3875.00    0.85564   0.86684    0.000
 3876.00    0.85958   0.86615    0.000
 3877.00    0.86046   0.85939    0.000
 3878.00    0.86943   0.84913    0.000
 3879.00    0.88041   0.83977    0.000
 3880.00    0.87925   0.83193    0.000
 3881.00    0.87341   0.82121    8.111
 3882.00    0.88025   0.80474    8.073
 3883.00    0.89275   0.78266    8.141
 3884.00    0.89187   0.75382    8.263
 3885.00    0.88269   0.71667    8.363
 3886.00    0.88363   0.67516    8.400
 3887.00    0.89393   0.63819    8.426
 3888.00    0.89956   0.61436    8.513
 3889.00    0.89441   0.61056    8.573
 3890.00    0.88039   0.62987    8.505
 3891.00    0.86088   0.66673    8.490
 3892.00    0.83951   0.70978    8.771
 3893.00    0.82009   0.74941    9.204
 3894.00    0.80642   0.78128    9.381
 3895.00    0.80184   0.80528    9.209
 3896.00    0.80606   0.82376    8.951
 3897.00    0.81077   0.83878    8.929
 3898.00    0.80887   0.85088    9.289
 3899.00    0.80876   0.86131    9.706
 3900.00    0.82050   0.87198    9.678
 3901.00    0.83327   0.88240    9.422
 3902.00    0.83061   0.88880    9.428
 3903.00    0.81631   0.88953    9.718
 3904.00    0.80484   0.88765   10.037
 3905.00    0.80329   0.88673   10.176
 3906.00    0.81494   0.89047   10.076
 3907.00    0.84655   0.90190    9.856
 3908.00    0.89672   0.91921    9.670
 3909.00    0.94121   0.93676    9.557
 3910.00    0.95823   0.94986    9.462
 3911.00    0.96065   0.95661    9.262
 3912.00    0.96981   0.95697    8.934
 3913.00    0.98022   0.95203    8.672
 3914.00    0.97734   0.94406    8.649
 3915.00    0.96278   0.93475    8.824
 3916.00    0.94646   0.92374    9.052
 3917.00    0.93429   0.91099    9.217
 3918.00    0.92802   0.89752    9.282
 3919.00    0.92647   0.88483    9.339
 3920.00    0.92633   0.87523    9.454
 3921.00    0.92309   0.87039    9.507
 3922.00    0.91367   0.86897    9.417
 3923.00    0.89868   0.86681    9.367
 3924.00    0.87853   0.85964    9.509
 3925.00    0.84983   0.84451    9.688
 3926.00    0.81175   0.82107    9.708
 3927.00    0.77164   0.79136    9.650
 3928.00    0.73595   0.75739    9.677
 3929.00    0.70191   0.72071    9.812
 3930.00    0.66709   0.68320    9.999
 3931.00    0.63777   0.64763   10.159
 3932.00    0.61994   0.61807   10.249
 3933.00    0.61155   0.59961   10.315
 3934.00    0.61118   0.59692   10.425
 3935.00    0.62470   0.61175   10.601
 3936.00    0.65417   0.64150   10.776
 3937.00    0.68951   0.68042   10.790
 3938.00    0.72076   0.72191   10.629
 3939.00    0.74778   0.76015   10.561
 3940.00    0.77379   0.79078   10.721
 3941.00    0.79978   0.81217   10.864
 3942.00    0.82521   0.82635   10.750
 3943.00    0.84872   0.83700   10.484
 3944.00    0.86819   0.84757   10.241
 3945.00    0.88100   0.86051   10.072
 3946.00    0.88616   0.87468    9.968
 3947.00    0.88582   0.88601    9.916
 3948.00    0.88525   0.89318    9.887
 3949.00    0.89145   0.89860    9.841
 3950.00    0.90468   0.90386    9.775
 3951.00    0.91468   0.90791    9.737
 3952.00    0.91297   0.90971    9.738
 3953.00    0.90028   0.91007    9.718
 3954.00    0.88136   0.90933    9.651
 3955.00    0.86097   0.90559    9.602
 3956.00    0.84066   0.89821    9.647
 3957.00    0.81812   0.88918    9.818
 3958.00    0.79470   0.87874   10.003
 3959.00    0.77765   0.86326    9.947
 3960.00    0.76791   0.83855    0.000
 3961.00    0.75538   0.80403    0.000
 3962.00    0.73182   0.76321    0.000
 3963.00    0.69756   0.71912    0.000
 3964.00    0.65795   0.67171    0.000
 3965.00    0.62074   0.62060    0.000
 3966.00    0.59301   0.56773    0.000
 3967.00    0.57868   0.51794    0.000
 3968.00    0.57348   0.47892    0.000
 3969.00    0.56594   0.45902    0.000
 3970.00    0.55390   0.46385    0.000
 3971.00    0.54880   0.49339    0.000
 3972.00    0.55871   0.54131    0.000
 3973.00    0.58207   0.59856    0.000
 3974.00    0.61645   0.65781    0.000
 3975.00    0.66159   0.71436    0.000
 3976.00    0.71488   0.76518    0.000
 3977.00    0.76992   0.80912    0.000
 3978.00    0.81906   0.84616    0.000
 3979.00    0.85524   0.87562    0.000
 3980.00    0.87497   0.89635    0.000
 3981.00    0.88002   0.90856    9.979
 3982.00    0.87925   0.91537   10.012
 3983.00    0.88532   0.92164   10.024
 3984.00    0.89990   0.93040   10.011
 3985.00    0.91328   0.94127    9.938
 3986.00    0.92341   0.95234    9.839
 3987.00    0.93880   0.96250    9.801
 3988.00    0.96339   0.97152    9.809
 3989.00    0.99200   0.97875    9.766
 3990.00    1.01444   0.98460    9.715
 3991.00    1.02044   0.99026    9.819
 3992.00    1.01111   0.99493   10.036
 3993.00    0.99745   0.99600   10.117
 3994.00    0.98383   0.99184   10.045
 3995.00    0.96747   0.98408   10.060
 3996.00    0.95361   0.97679   10.234
 3997.00    0.95439   0.97407   10.407
 3998.00    0.97140   0.97883   10.400
 3999.00    0.99517   0.99072   10.165
 4000.00    1.01923   1.00436    9.905
 4001.00    1.04129   1.01305    9.907
 4002.00    1.05498   1.01377   10.166
 4003.00    1.05226   1.00683   10.424
 4004.00    1.03631   0.99412   10.525
 4005.00    1.01983   0.98054   10.507
 4006.00    1.01153   0.97351   10.395
 4007.00    1.01286   0.97650   10.208
 4008.00    1.01940   0.98618   10.090
 4009.00    1.02472   0.99774   10.180
 4010.00    1.02862   1.00890   10.280
 4011.00    1.03559   1.01882   10.043
 4012.00    1.04625   1.02675    9.702
 4013.00    1.06102   1.03291    9.711
 4014.00    1.09264   1.03797    9.884
 4015.00    1.15336   1.04239    9.443
 4016.00    1.22122   1.04603    7.950
 4017.00    1.25735   1.04870    6.230
 4018.00    1.25861   1.05127    5.414
 4019.00    1.24578   1.05344    5.921
 4020.00    1.21606   1.05189    7.769
 4021.00    1.15549   1.04413    9.524
 4022.00    1.08317   1.03135    9.627
 4023.00    1.03477   1.01689    9.519
 4024.00    1.01367   1.00444    9.843
 4025.00    1.00000   0.99780   10.114
 4026.00    0.98562   0.99855   10.216
 4027.00    0.97389   1.00315   10.405
 4028.00    0.96688   1.00460   10.543
 4029.00    0.96409   0.99771   10.318
 4030.00    0.96457   0.98316    9.969
 4031.00    0.96830   0.96766    9.913
 4032.00    0.97774   0.95902   10.119
 4033.00    0.99700   0.96127   10.295
 4034.00    1.02954   0.97477   10.276
 4035.00    1.07300   0.99681   10.113
 4036.00    1.11220   1.02230   10.002
 4037.00    1.13053   1.04501   10.096
 4038.00    1.12893   1.05956   10.274
 4039.00    1.11761   1.06374   10.321
 4040.00    1.09957   1.05863   10.290
 4041.00    1.07303   1.04720   10.370
 4042.00    1.03872   1.03196   10.587
 4043.00    1.00147   1.01351   10.844
 4044.00    0.97054   0.99366   11.009
 4045.00    0.95390   0.97888   10.948
 4046.00    0.95058   0.97711   10.569
 4047.00    0.95513   0.99008    9.985
 4048.00    0.96470   1.01019    9.551
 4049.00    0.97688   1.02790    9.510
 4050.00    0.98602   1.03824    9.784
 4051.00    0.98676   1.03967   10.159
 4052.00    0.97897   1.03296   10.499
 4053.00    0.96734   1.02139   10.747
 4054.00    0.95984   1.00929   10.875
 4055.00    0.96125   1.00027   10.887
 4056.00    0.96659   0.99600   10.805
 4057.00    0.96992   0.99573   10.678
 4058.00    0.97437   0.99810   10.579
 4059.00    0.98273   1.00151   10.574
 4060.00    0.98710   1.00260   10.695
 4061.00    0.98077   0.99777   10.887
 4062.00    0.97116   0.98691   10.970
 4063.00    0.96873   0.97505   10.879
 4064.00    0.97485   0.96940   10.889
 4065.00    0.98683   0.97260   11.118
 4066.00    1.00394   0.98038   11.063
 4067.00    1.02591   0.98790   10.359
 4068.00    1.05082   0.99353    9.498
 4069.00    1.07460   0.99591    9.025
 4070.00    1.09119   0.99321    9.195
 4071.00    1.09731   0.98654    9.999
 4072.00    1.09607   0.98007   10.785
 4073.00    1.09001   0.97546   10.776
 4074.00    1.07555   0.96900   10.382
 4075.00    1.05082   0.95747   10.229
 4076.00    1.02189   0.94380   10.303
 4077.00    0.99665   0.93547   10.402
 4078.00    0.97925   0.93889   10.461
 4079.00    0.96947   0.95429   10.504
 4080.00    0.96304   0.97537   10.584
 4081.00    0.95593   0.99349   10.717
 4082.00    0.94740   1.00268   10.841
 4083.00    0.93913   1.00283   10.889
 4084.00    0.93412   0.99903   10.849
 4085.00    0.93559   0.99723   10.751
 4086.00    0.94593   1.00067   10.638
 4087.00    0.96474   1.00859   10.600
 4088.00    0.98751   1.01707   10.761
 4089.00    1.00587   1.02193   11.116
 4090.00    1.00917   1.02115   11.399
 4091.00    0.99434   1.01462   11.402
 4092.00    0.97037   1.00274    0.000
 4093.00    0.94566   0.98591    0.000
 4094.00    0.92092   0.96356    0.000
 4095.00    0.89598   0.93441    0.000
 4096.00    0.87443   0.89912    0.000
 4097.00    0.86404   0.85977    0.000
 4098.00    0.87473   0.81765    0.000
 4099.00    0.90586   0.77442    0.000
 4100.00    0.94171   0.73456    0.000
 4101.00    0.96694   0.70668    0.000
 4102.00    0.97521   0.70079    0.000
 4103.00    0.96739   0.72068    0.000
 4104.00    0.94947   0.75979    0.000
 4105.00    0.92812   0.80636    0.000
 4106.00    0.90851   0.84979    0.000
 4107.00    0.89543   0.88356    0.000
 4108.00    0.89300   0.90641    0.000
 4109.00    0.90030   0.92115    0.000
 4110.00    0.91113   0.93239    0.000
 4111.00    0.92272   0.94435    0.000
 4112.00    0.93802   0.95887    0.000
 4113.00    0.95676   0.97489   11.675
 4114.00    0.97293   0.98940   11.727
 4115.00    0.98228   0.99918   11.600
 4116.00    0.98491   1.00217   11.504
 4117.00    0.98214   0.99792   11.546
 4118.00    0.97539   0.98816   11.644
 4119.00    0.96756   0.97759   11.730
 4120.00    0.96254   0.97135   11.814
 4121.00    0.96082   0.97108   11.883
 4122.00    0.95891   0.97565   11.880
 4123.00    0.95389   0.98308   11.812
 4124.00    0.94541   0.99080   11.751
 4125.00    0.93605   0.99545   11.687
 4126.00    0.93040   0.99430   11.540
 4127.00    0.93097   0.98750   11.401
 4128.00    0.93682   0.97771   11.476
 4129.00    0.94386   0.96802   11.671
 4130.00    0.94656   0.95996   11.610
 4131.00    0.94314   0.95410   11.318
 4132.00    0.93642   0.95210   11.196
 4133.00    0.93080   0.95690   11.292
 4134.00    0.93051   0.96963   11.298
 4135.00    0.93729   0.98808   11.155
 4136.00    0.94997   1.00783   11.090
 4137.00    0.96531   1.02402   11.114
 4138.00    0.97858   1.03378   11.038
 4139.00    0.98435   1.03523   10.929
 4140.00    0.97867   1.02642   11.054
 4141.00    0.96441   1.00777   11.394
 4142.00    0.95024   0.98394   11.630
 4143.00    0.94337   0.96345   11.626
 4144.00    0.94661   0.95522   11.530
 4145.00    0.95597   0.96150   11.490
 4146.00    0.96296   0.97569   11.560
 4147.00    0.96213   0.98902   11.694
 4148.00    0.95329   0.99660   11.787
 4149.00    0.94211   0.99778   11.800
 4150.00    0.93659   0.99485   11.780
 4151.00    0.93852   0.99046   11.799
 4152.00    0.94447   0.98545   11.897
 4153.00    0.95311   0.98006   11.966
 4154.00    0.96508   0.97550   11.868
 4155.00    0.97896   0.97387   11.751
 4156.00    0.99169   0.97668   11.877
 4157.00    1.00166   0.98402   12.132
 4158.00    1.00874   0.99469   12.154
 4159.00    1.01284   1.00611   11.939
 4160.00    1.01422   1.01583   11.764
 4161.00    1.01478   1.02304   11.744
 4162.00    1.01616   1.02840   11.824
 4163.00    1.01585   1.03181   11.893
 4164.00    1.00966   1.03224   11.871
 4165.00    0.99784   1.02963   11.862
 4166.00    0.98358   1.02469   12.017
 4167.00    0.96814   1.01808   12.248
 4168.00    0.95205   1.01043   12.336
 4169.00    0.93879   1.00100   12.281
 4170.00    0.93154   0.98764   12.222
 4171.00    0.92633   0.96986   12.150
 4172.00    0.91635   0.95129   12.019
 4173.00    0.90092   0.93793   11.976
 4174.00    0.88401   0.93340   12.162
 4175.00    0.86958   0.93632   12.348
 4176.00    0.86093   0.94252   12.212
 4177.00    0.86106   0.94902   11.951
 4178.00    0.87140   0.95565   11.910
 4179.00    0.88984   0.96343   11.979
 4180.00    0.91242   0.97185   11.898
 4181.00    0.93600   0.97866   11.788
 4182.00    0.95725   0.98283   11.887
 4183.00    0.97078   0.98558   12.101
 4184.00    0.97374   0.98775   12.194
 4185.00    0.97218   0.98885   12.177
 4186.00    0.97455   0.98816   12.174
 4187.00    0.98209   0.98656   12.148
 4188.00    0.99204   0.98755   12.044
 4189.00    1.00327   0.99334   11.993
 4190.00    1.01467   1.00233   12.131
 4191.00    1.02236   1.01170   12.353
 4192.00    1.02294   1.01942   12.463
 4193.00    1.01769   1.02288   12.414
 4194.00    1.01011   1.01853   12.318
 4195.00    1.00234   1.00537   12.379
 4196.00    0.99542   0.98707   12.671
 4197.00    0.98991   0.96910   12.901
 4198.00    0.98699   0.95511   12.768
 4199.00    0.98905   0.94715   12.473
 4200.00    0.99490   0.94553   12.322
 4201.00    0.99552   0.94804   12.324
 4202.00    0.98659   0.95295   12.372
 4203.00    0.98030   0.96072   12.429
 4204.00    0.98843   0.97130   12.481
 4205.00    1.00506   0.98356   12.481
 4206.00    1.01843   0.99641   12.441
 4207.00    1.02395   1.00827   12.504
 4208.00    1.02273   1.01740   12.712
 4209.00    1.01877   1.02310   12.801
 4210.00    1.01646   1.02602   12.609
 4211.00    1.01826   1.02708   12.442
 4212.00    1.02236   1.02572   12.527
 4213.00    1.02193   1.02072   12.608
 4214.00    1.01487   1.01293   12.440
 4215.00    1.01083   1.00622   12.218
 4216.00    1.01665   1.00580   12.176
 4217.00    1.02528   1.01398   12.296
 4218.00    1.02948   1.02680   12.460
 4219.00    1.03214   1.03725   12.574
 4220.00    1.03425   1.04014   12.603
 4221.00    1.02653   1.03268   12.590
 4222.00    1.00216   1.01369   12.585
 4223.00    0.96602   0.98490   12.595
 4224.00    0.92680   0.95164   12.624
 4225.00    0.89105   0.92175   12.699
 4226.00    0.86569   0.90410   12.818
 4227.00    0.85898   0.90560   12.923
 4228.00    0.87312   0.92656   12.953
 4229.00    0.90019   0.95788   12.899
 4230.00    0.93024   0.98634   12.792
 4231.00    0.95695   1.00314   12.695
 4232.00    0.97779   1.00632   12.632
 4233.00    0.99321   0.99978   12.571
 4234.00    1.00254   0.99052   12.507
 4235.00    1.00259   0.98340   12.495
 4236.00    0.99474   0.97983   12.543
 4237.00    0.98764   0.98063   12.568
 4238.00    0.98711   0.98579   12.543
 4239.00    0.99118   0.99428   12.558
 4240.00    0.99630   1.00552   12.691
 4241.00    1.00085   1.01841   12.935
 4242.00    1.00418   1.03028   13.221
 4243.00    1.00589   1.03841   13.430
 4244.00    1.00584   1.04114   13.431
 4245.00    1.00411   1.03696   13.160
 4246.00    1.00090   1.02597   12.793
 4247.00    0.99661   1.01154   12.675
 4248.00    0.99250   0.99829   12.895
 4249.00    0.99076   0.98881   13.198
 4250.00    0.99299   0.98337   13.338
 4251.00    0.99941   0.98214   13.292
 4252.00    1.00848   0.98471   13.139
 4253.00    1.01718   0.98877   12.975
 4254.00    1.02299   0.99274   12.856
 4255.00    1.02435   0.99708   12.804
 4256.00    1.01860   1.00129   12.872
 4257.00    1.00284   1.00251   13.138
 4258.00    0.98140   0.99867   13.553
 4259.00    0.96627   0.99227   13.878
 4260.00    0.96596   0.98927   13.858
 4261.00    0.98134   0.99486   13.432
 4262.00    1.00722   1.00994   12.915
 4263.00    1.03462   1.02960   12.755
 4264.00    1.05608   1.04620   12.977
 4265.00    1.06746   1.05411   13.198
 4266.00    1.06683   1.05110   13.276
 4267.00    1.05404   1.03767   13.443
 4268.00    1.03093   1.01679   13.694
 4269.00    1.00125   0.99231   13.706
 4270.00    0.97032   0.96747   13.526
 4271.00    0.94431   0.94606   13.582
 4272.00    0.92840   0.93302   13.937
 4273.00    0.92604   0.93163   14.212
 4274.00    0.93863   0.94081   14.153
 4275.00    0.96426   0.95749   13.856
 4276.00    0.99433   0.97852   13.564
 4277.00    1.01626   0.99916   13.491
 4278.00    1.02455   1.01402   13.631
 4279.00    1.02210   1.02025   13.794
 4280.00    1.01398   1.01867   13.830
 4281.00    1.00470   1.01285   13.714
 4282.00    0.99579   1.00608   13.526
 4283.00    0.98682   0.99964   13.376
 4284.00    0.97973   0.99316   13.247
 4285.00    0.97766   0.98500   13.052
 4286.00    0.97876   0.97380   12.858
 4287.00    0.97781   0.95971   12.825
 4288.00    0.97456   0.94444   12.962
 4289.00    0.97266   0.93166   13.141
 4290.00    0.97196   0.92636   13.259
 4291.00    0.96980   0.93127   13.296
 4292.00    0.96873   0.94330   13.313
 4293.00    0.97305   0.95492   13.380
 4294.00    0.97689   0.95982   13.398
 4295.00    0.96898   0.95623   13.228
 4296.00    0.94933   0.94493   13.064
 4297.00    0.92720   0.92683   13.221
 4298.00    0.90873   0.90399   13.601
 4299.00    0.89501   0.88042   13.813
 4300.00    0.88422   0.86158   13.771
 4301.00    0.87356   0.85153   13.680
 4302.00    0.86234   0.84977   13.623
 4303.00    0.85167   0.85301   13.559
 4304.00    0.84264   0.85782   13.494
 4305.00    0.83645   0.86079   13.474
 4306.00    0.83523   0.86033   13.536
 4307.00    0.84191   0.85836   13.651
 4308.00    0.85941   0.85886   13.645
 4309.00    0.88737   0.86570   13.385
 4310.00    0.91692   0.88002   13.092
 4311.00    0.93838   0.89927   13.065
 4312.00    0.95551   0.91990   13.251
 4313.00    0.97826   0.94072   13.375
 4314.00    1.00685   0.96311   13.265
 4315.00    1.03418   0.98850   12.926
 4316.00    1.05409   1.01527   12.501
 4317.00    1.06335   1.03787   12.203
 4318.00    1.06268   1.05085   12.284
 4319.00    1.05469   1.05250   12.825
 4320.00    1.04069   1.04402   -2.000
 4321.00    1.02323   1.02751   -2.000
 4322.00    1.01035   1.00526   -2.000
 4323.00    1.01237   0.97970   -2.000
 4324.00    1.03645   0.95497   -2.000
 4325.00    1.08397   0.93806   -2.000
 4326.00    1.14791   0.93551   -2.000
 4327.00    1.21154   0.94825   -2.000
 4328.00    1.24833   0.96945   -2.000
 4329.00    1.24023   0.98900   -2.000
 4330.00    1.19980   1.00059   -2.000
 4331.00    1.15200   1.00385   -2.000
 4332.00    1.10854   1.00076   -2.000
 4333.00    1.07264   0.99112   -2.000
 4334.00    1.04848   0.97224   -2.000
 4335.00    1.04093   0.94099   -2.000
 4336.00    1.05377   0.89593    0.000
 4337.00    1.08664   0.84030    0.000
 4338.00    1.13178   0.78380    0.000
 4339.00    1.17304   0.73899    0.000
 4340.00    1.18657   0.71576    0.000
 4341.00    1.15718   0.71904    0.000
 4342.00    1.09463   0.74699    0.000
 4343.00    1.02205   0.79032    0.000
 4344.00    0.96159   0.83809    0.000
 4345.00    0.92705   0.88332    0.000
 4346.00    0.91841   0.92191    0.000
 4347.00    0.92775   0.95078    0.000
 4348.00    0.94572   0.96829    0.000
 4349.00    0.96427   0.97429    0.000
 4350.00    0.97872   0.97044    0.000
 4351.00    0.98794   0.96206   14.244
 4352.00    0.99424   0.95774   14.509
 4353.00    1.00158   0.96407   14.456
 4354.00    1.01355   0.98030   14.241
 4355.00    1.02959   1.00031   14.081
 4356.00    1.04282   1.01831   14.009
 4357.00    1.04812   1.03111   13.993
 4358.00    1.04848   1.03854   14.039
 4359.00    1.05080   1.04382   14.119
 4360.00    1.06134   1.05139   14.123
 4361.00    1.07985   1.06287   13.996
 4362.00    1.09655   1.07580   13.826
 4363.00    1.10233   1.08632   13.752
 4364.00    1.09591   1.09152   13.883
 4365.00    1.07872   1.08972   14.163
 4366.00    1.05150   1.08075   14.295
 4367.00    1.01969   1.06710   14.146
 4368.00    0.99561   1.05356   13.999
 4369.00    0.98660   1.04382   14.030
 4370.00    0.98813   1.03776   14.045
 4371.00    0.99371   1.03258   13.912
 4372.00    1.00129   1.02576   13.797
 4373.00    1.01114   1.01705   13.825
 4374.00    1.02375   1.00939   13.891
 4375.00    1.03681   1.00785   13.842
 4376.00    1.04465   1.01547   13.616
 4377.00    1.04555   1.02920   13.332
 4378.00    1.04390   1.04093   13.242
 4379.00    1.03774   1.04267   13.394
 4380.00    1.01506   1.03059   13.542
 4381.00    0.97447   1.00576   13.603
 4382.00    0.93335   0.97312   13.855
 4383.00    0.90800   0.94080   14.315
 4384.00    0.90322   0.91872   14.462
 4385.00    0.91599   0.91344   14.089
 4386.00    0.93839   0.92359   13.680
 4387.00    0.96074   0.94149   13.545
 4388.00    0.97465   0.95986   13.581
 4389.00    0.97989   0.97568   13.653
 4390.00    0.98496   0.98848   13.734
 4391.00    0.99376   0.99845   13.783
 4392.00    1.00153   1.00617   13.722
 4393.00    1.00561   1.01197   13.611
 4394.00    1.00900   1.01636   13.643
 4395.00    1.01318   1.02106   13.811
 4396.00    1.01591   1.02742   13.861
 4397.00    1.01610   1.03358   13.769
 4398.00    1.01481   1.03553   13.829
 4399.00    1.01075   1.03165   14.114
 4400.00    1.00013   1.02419   14.358
 4401.00    0.98407   1.01657   14.454
 4402.00    0.96935   1.01023   14.584
 4403.00    0.96006   1.00371   14.704
 4404.00    0.95555   0.99595   14.494
 4405.00    0.95558   0.98975   14.042
 4406.00    0.96162   0.98913   13.819
 4407.00    0.97428   0.99486   13.979
 4408.00    0.99267   1.00530   14.308
 4409.00    1.01551   1.01929   14.578
 4410.00    1.04063   1.03465   14.673
 4411.00    1.06193   1.04648   14.571
 4412.00    1.07106   1.04986   14.329
 4413.00    1.06568   1.04322   14.086
 4414.00    1.05060   1.02915   13.988
 4415.00    1.03208   1.01434   14.042
 4416.00    1.01606   1.00705   14.137
 4417.00    1.00851   1.01116   14.236
 4418.00    1.01314   1.02400   14.388
 4419.00    1.02475   1.03950   14.568
 4420.00    1.03255   1.05147   14.669
 4421.00    1.03493   1.05640   14.652
 4422.00    1.03840   1.05529   14.568
 4423.00    1.04278   1.05229   14.477
 4424.00    1.04112   1.05080   14.421
 4425.00    1.03071   1.05112   14.405
 4426.00    1.01497   1.05169   14.432
 4427.00    1.00039   1.05141   14.566
 4428.00    0.99291   1.04997   14.876
 4429.00    0.99118   1.04709   15.225
 4430.00    0.98858   1.04239   15.330
 4431.00    0.98197   1.03631   15.169
 4432.00    0.97343   1.02983   14.960
 4433.00    0.96893   1.02355   14.810
 4434.00    0.97480   1.01921   14.706
 4435.00    0.99069   1.02045   14.664
 4436.00    1.01036   1.02977   14.722
 4437.00    1.02689   1.04525   14.877
 4438.00    1.03538   1.06028   15.078
 4439.00    1.03576   1.06755   15.249
 4440.00    1.03171   1.06364   15.287
 4441.00    1.02717   1.05101   15.064
 4442.00    1.02447   1.03692   14.572
 4443.00    1.02231   1.02934   14.109
 4444.00    1.01811   1.03251   14.000
 4445.00    1.01310   1.04479   14.235
 4446.00    1.01071   1.06002   14.596
 4447.00    1.01172   1.07181   14.946
 4448.00    1.01518   1.07750   15.219
 4449.00    1.02172   1.07752   15.279
 4450.00    1.03152   1.07259   15.028
 4451.00    1.04000   1.06356   14.634
 4452.00    1.04109   1.05138   14.361
 4453.00    1.03392   1.03636   14.333
 4454.00    1.02181   1.01964   14.544
 4455.00    1.00859   1.00425   14.869
 4456.00    0.99796   0.99348   15.122
 4457.00    0.99332   0.98816   15.200
 4458.00    0.99594   0.98628   15.110
 4459.00    1.00248   0.98592   14.939
 4460.00    1.00884   0.98714   14.781
 4461.00    1.01628   0.99092    0.000
 4462.00    1.02740   0.99788    0.000
 4463.00    1.03932   1.00768    0.000
 4464.00    1.04689   1.01764    0.000
 4465.00    1.04842   1.02379    0.000
 4466.00    1.04473   1.02434    0.000
 4467.00    1.03708   1.02030    0.000
 4468.00    1.02933   1.01434    0.000
 4469.00    1.03066   1.01030    0.000
 4470.00    1.04754   1.01223    0.000
 4471.00    1.07373   1.02246    0.000
 4472.00    1.09750   1.04025    0.000
 4473.00    1.11204   1.06226    0.000
 4474.00    1.11711   1.08364    0.000
 4475.00    1.11881   1.09982    0.000
 4476.00    1.12156   1.10802    0.000
 4477.00    1.11962   1.10713    0.000
 4478.00    1.10676   1.09697    0.000
 4479.00    1.08750   1.07941    0.000
 4480.00    1.07155   1.05989    0.000
 4481.00    1.06619   1.04626    0.000
 4482.00    1.07414   1.04460   12.570
 4483.00    1.09224   1.05538   12.329
 4484.00    1.11417   1.07281   12.338
 4485.00    1.13342   1.08830   12.490
 4486.00    1.14513   1.09542   12.689
 4487.00    1.14768   1.09242   12.971
 4488.00    1.14332   1.08211   13.345
 4489.00    1.13805   1.07016   13.615
 4490.00    1.13568   1.06195   13.612
 4491.00    1.13300   1.05927   13.463
 4492.00    1.12626   1.06005   13.359
 4493.00    1.11695   1.06103   13.342
 4494.00    1.10799   1.06102   13.404
 4495.00    1.10006   1.06187   13.571
 4496.00    1.09270   1.06636   13.821
 4497.00    1.08563   1.07489   14.018
 4498.00    1.08093   1.08548   14.070
 4499.00    1.08383   1.09577   14.068
 4500.00    1.09637   1.10490   14.075
 4501.00    1.11317   1.11411   13.975
 4502.00    1.12846   1.12533   13.686
 4503.00    1.14136   1.13854   13.302
 4504.00    1.15296   1.15039   12.987
 4505.00    1.16375   1.15689   12.885
 4506.00    1.17246   1.15717   13.053
 4507.00    1.17616   1.15340   13.427
 4508.00    1.17556   1.14865   13.840
 4509.00    1.17707   1.14485   14.054
 4510.00    1.18181   1.14163   14.002
 4511.00    1.18010   1.13698   13.915
 4512.00    1.16506   1.12932   13.904
 4513.00    1.14058   1.11932   13.769
 4514.00    1.11427   1.10931   13.523
 4515.00    1.09269   1.10158   13.568
 4516.00    1.08139   1.09741   14.026
 4517.00    1.08408   1.09664   14.426
 4518.00    1.09639   1.09789   14.437
 4519.00    1.10488   1.09966   14.380
 4520.00    1.10166   1.10036   14.542
 4521.00    1.09094   1.09790   14.805
 4522.00    1.07784   1.09088   14.932
 4523.00    1.06297   1.07930   14.780
 4524.00    1.04714   1.06469   14.436
 4525.00    1.03356   1.04859   14.185
 4526.00    1.02515   1.03213   14.162
 4527.00    1.02330   1.01733   14.284
 4528.00    1.02911   1.00658   14.437
 4529.00    1.04299   1.00138   14.574
 4530.00    1.06003   1.00154   14.716
 4531.00    1.07029   1.00510   14.925
 4532.00    1.07087   1.00962   15.116
 4533.00    1.06909   1.01435   15.042
 4534.00    1.07115   1.02074   14.665
 4535.00    1.07747   1.03155   14.239
 4536.00    1.08566   1.04762   13.962
 4537.00    1.09278   1.06572   13.880
 4538.00    1.09845   1.08031   13.962
 4539.00    1.10442   1.08738   14.137
 4540.00    1.10731   1.08748   14.348
 4541.00    1.09909   1.08417   14.567
 4542.00    1.08034   1.08077   14.777
 4543.00    1.06167   1.07840   14.938
 4544.00    1.04886   1.07593   14.938
 4545.00    1.03982   1.07200   14.654
 4546.00    1.03467   1.06661   14.199
 4547.00    1.03705   1.06023   13.851
 4548.00    1.04533   1.05320   13.680
 4549.00    1.05202   1.04642   13.570
 4550.00    1.05315   1.04136    0.000
 4551.00    1.05041   1.03893    0.000
 4552.00    1.04736   1.03821    0.000
 4553.00    1.04789   1.03821    0.000
 4554.00    1.05563   1.04035    0.000
 4555.00    1.07236   1.04699    0.000
 4556.00    1.09395   1.05912    0.000
 4557.00    1.11273   1.07533    0.000
 4558.00    1.12846   1.09184    0.000
 4559.00    1.14656   1.10447    0.000
 4560.00    1.16334   1.11084    0.000
 4561.00    1.16784   1.11050    0.000
 4562.00    1.15910   1.10457    0.000
 4563.00    1.14678   1.09582    0.000
 4564.00    1.13920   1.08824    0.000
 4565.00    1.13907   1.08577    0.000
 4566.00    1.14141   1.08973    0.000
 4567.00    1.13875   1.09767    0.000
 4568.00    1.13506   1.10506    0.000
 4569.00    1.14017   1.10835    0.000
 4570.00    1.14737   1.10726    0.000
 4571.00    1.14085   1.10422    0.000
 4572.00    1.12604   1.10234    0.000
 4573.00    1.12180   1.10373    0.000
 4574.00    1.12585   1.10740    0.000
 4575.00    1.12118   1.10965    0.000
 4576.00    1.10795   1.10792    0.000
 4577.00    1.09886   1.10172    0.000
 4578.00    1.09359   1.09152    0.000
 4579.00    1.08385   1.07877    0.000
 4580.00    1.07506   1.06594    0.000
 4581.00    1.07872   1.05581    0.000
 4582.00    1.08821   1.05022    0.000
 4583.00    1.08861   1.04940    0.000
 4584.00    1.08504   1.05269    0.000
 4585.00    1.09149   1.05946    0.000
 4586.00    1.09987   1.06851    0.000
 4587.00    1.09526   1.07772    0.000
 4588.00    1.09333   1.08490    0.000
 4589.00    1.11747   1.08817    0.000
 4590.00    1.14730   1.08685    0.000
 4591.00    1.14469   1.08199    0.000
 4592.00    1.11317   1.07598    0.000
 4593.00    1.08296   1.07127    0.000
 4594.00    1.06887   1.06915    0.000
 4595.00    1.06834   1.06935    0.000
 4596.00    1.06993   1.07093    0.000
 4597.00    1.06458   1.07311    0.000
 4598.00    1.06011   1.07502    0.000
 4599.00    1.06941   1.07597    0.000
 4600.00    1.08967   1.07602    0.000
 4601.00    1.10734   1.07587    0.000
 4602.00    1.11056   1.07687    0.000
 4603.00    1.09894   1.07992    0.000
 4604.00    1.09339   1.08506    0.000
 4605.00    1.11185   1.09252    0.000
 4606.00    1.13592   1.10230    0.000
 4607.00    1.13907   1.11370    0.000
 4608.00    1.12859   1.12469    0.000
 4609.00    1.12498   1.13257    0.000
 4610.00    1.12925   1.13559    0.000
 4611.00    1.13290   1.13397    0.000
 4612.00    1.13517   1.12990    0.000
 4613.00    1.13846   1.12580    0.000
 4614.00    1.14052   1.12286    0.000
 4615.00    1.13852   1.12108    0.000
 4616.00    1.13449   1.11960    0.000
 4617.00    1.13168   1.11779    0.000
 4618.00    1.12979   1.11644    0.000
 4619.00    1.12772   1.11658    0.000
 4620.00    1.12679   1.11884    0.000
 4621.00    1.12855   1.12324    0.000
 4622.00    1.13212   1.12816    0.000
 4623.00    1.13604   1.13128    0.000
 4624.00    1.14015   1.13164    0.000
 4625.00    1.14406   1.12948    0.000
 4626.00    1.14570   1.12567    0.000
 4627.00    1.14397   1.12157    0.000
 4628.00    1.14133   1.11827    0.000
 4629.00    1.14184   1.11602    0.000
 4630.00    1.14838   1.11458    0.000
 4631.00    1.15593   1.11348    0.000
 4632.00    1.14819   1.11147    0.000
 4633.00    1.12189   1.10732    0.000
 4634.00    1.10420   1.10133    0.000
 4635.00    1.11328   1.09499    0.000
 4636.00    1.12786   1.08937    0.000
 4637.00    1.12607   1.08493    0.000
 4638.00    1.11659   1.08206    0.000
 4639.00    1.11209   1.08132    0.000
 4640.00    1.10818   1.08256    0.000
 4641.00    1.10109   1.08436    0.000
 4642.00    1.10020   1.08446    0.000
 4643.00    1.11022   1.08055    0.000
 4644.00    1.11927   1.07177    0.000
 4645.00    1.11546   1.05972    0.000
 4646.00    1.09886   1.04783    0.000
 4647.00    1.07672   1.04000    0.000
 4648.00    1.05888   1.03919    0.000
 4649.00    1.05418   1.04564    0.000
 4650.00    1.06710   1.05663    0.000
 4651.00    1.09176   1.06801    0.000
 4652.00    1.11089   1.07623    0.000
 4653.00    1.11498   1.07996    0.000
 4654.00    1.11239   1.08049    0.000
 4655.00    1.11462   1.08092    0.000
 4656.00    1.12613   1.08477    0.000
 4657.00    1.14066   1.09360    0.000
 4658.00    1.14279   1.10554    0.000
 4659.00    1.12858   1.11632    0.000
 4660.00    1.11349   1.12127    0.000
 4661.00    1.10877   1.11779    0.000
 4662.00    1.10996   1.10629    0.000
 4663.00    1.10854   1.08915    0.000
 4664.00    1.09911   1.06908    0.000
 4665.00    1.08204   1.04862    0.000
 4666.00    1.06372   1.03051    0.000
 4667.00    1.05194   1.01802    0.000
 4668.00    1.05221   1.01439    0.000
 4669.00    1.06206   1.02083    0.000
 4670.00    1.07156   1.03495    0.000
 4671.00    1.07873   1.05200    0.000
 4672.00    1.09237   1.06778    0.000
 4673.00    1.11104   1.08004    0.000
 4674.00    1.11890   1.08846    0.000
 4675.00    1.11121   1.09348    0.000
 4676.00    1.10078   1.09512    0.000
 4677.00    1.09595   1.09307    0.000
 4678.00    1.09416   1.08766    0.000
 4679.00    1.09588   1.08059    0.000
 4680.00    1.10689   1.07453    0.000
 4681.00    1.12347   1.07161    0.000
 4682.00    1.13168   1.07230    0.000
 4683.00    1.12837   1.07559    0.000
 4684.00    1.12472   1.07977    0.000
 4685.00    1.12834   1.08317    0.000
 4686.00    1.13727   1.08502    0.000
 4687.00    1.14387   1.08552    0.000
 4688.00    1.13949   1.08523    0.000
 4689.00    1.12534   1.08468    0.000
 4690.00    1.11214   1.08453    0.000
 4691.00    1.10625   1.08541    0.000
 4692.00    1.10686   1.08778    0.000
 4693.00    1.11302   1.09141    0.000
 4694.00    1.12405   1.09498    0.000
 4695.00    1.13351   1.09636    0.000
 4696.00    1.13111   1.09378    0.000
 4697.00    1.11467   1.08678    0.000
 4698.00    1.09110   1.07656    0.000
 4699.00    1.06823   1.06539    0.000
 4700.00    1.05191   1.05570    0.000
 4701.00    1.04482   1.04890    0.000
 4702.00    1.04604   1.04513    0.000
 4703.00    1.05052   1.04381    0.000
 4704.00    1.05258   1.04420    0.000
 4705.00    1.05502   1.04529    0.000
 4706.00    1.06533   1.04612    0.000
 4707.00    1.07978   1.04650    0.000
 4708.00    1.08681   1.04742    0.000
 4709.00    1.08597   1.05016    0.000
 4710.00    1.08543   1.05483    0.000
 4711.00    1.08443   1.06020    0.000
 4712.00    1.07651   1.06483    0.000
 4713.00    1.06716   1.06845    0.000
 4714.00    1.06912   1.07251    0.000
 4715.00    1.08237   1.07908    0.000
 4716.00    1.09701   1.08907    0.000
 4717.00    1.10954   1.10136    0.000
 4718.00    1.12299   1.11354    0.000
 4719.00    1.13921   1.12335    0.000
 4720.00    1.15534   1.12985    0.000
 4721.00    1.16074   1.13320    0.000
 4722.00    1.14663   1.13394    0.000
 4723.00    1.12598   1.13220    0.000
 4724.00    1.12053   1.12742    0.000
 4725.00    1.12857   1.11866    0.000
 4726.00    1.13144   1.10562    0.000
 4727.00    1.11756   1.08972    0.000
 4728.00    1.08752   1.07413    0.000
 4729.00    1.05451   1.06252    0.000
 4730.00    1.03497   1.05726    0.000
 4731.00    1.03244   1.05842    0.000
 4732.00    1.04130   1.06401    0.000
 4733.00    1.05773   1.07143    0.000
 4734.00    1.07810   1.07847    0.000
 4735.00    1.09361   1.08397    0.000
 4736.00    1.09703   1.08808    0.000
 4737.00    1.09430   1.09162    0.000
 4738.00    1.09553   1.09517    0.000
 4739.00    1.09864   1.09889    0.000
 4740.00    1.09565   1.10244    0.000
 4741.00    1.08561   1.10543    0.000
 4742.00    1.07420   1.10809    0.000
 4743.00    1.07006   1.11091    0.000
 4744.00    1.07846   1.11400    0.000
 4745.00    1.09365   1.11709    0.000
 4746.00    1.10581   1.11979    0.000
 4747.00    1.11168   1.12177    0.000
 4748.00    1.11158   1.12262    0.000
 4749.00    1.10407   1.12169    0.000
 4750.00    1.08989   1.11850    0.000
 4751.00    1.07728   1.11314    0.000
 4752.00    1.07426   1.10621    0.000
 4753.00    1.07868   1.09882    0.000
 4754.00    1.08335   1.09253    0.000
 4755.00    1.08369   1.08865    0.000
 4756.00    1.08153   1.08760    0.000
 4757.00    1.08719   1.08859    0.000
 4758.00    1.10364   1.08975    0.000
 4759.00    1.11081   1.08877    0.000
 4760.00    1.09308   1.08385    0.000
 4761.00    1.06839   1.07471   19.295
 4762.00    1.05862   1.06289   19.398
 4763.00    1.05724   1.05125   19.386
 4764.00    1.05201   1.04298   19.272
 4765.00    1.04954   1.04032   19.201
 4766.00    1.05651   1.04379   19.253
 4767.00    1.06094   1.05217   19.275
 4768.00    1.05561   1.06312   19.128
 4769.00    1.05865   1.07402   18.924
 4770.00    1.08108   1.08307   18.828
 4771.00    1.09900   1.08997   18.877
 4772.00    1.09257   1.09573   19.015
 4773.00    1.07936   1.10150   19.135
 4774.00    1.07969   1.10766   19.191
 4775.00    1.08654   1.11349   19.278
 4776.00    1.08765   1.11763   19.441
 4777.00    1.08476   1.11903   19.532
 4778.00    1.08153   1.11746   19.437
 4779.00    1.07381   1.11342   19.259
 4780.00    1.06052   1.10763   19.131
 4781.00    1.05125   1.10084   19.066
 4782.00    1.05374   1.09388   19.057
 4783.00    1.06483   1.08737   19.135
 4784.00    1.07886   1.08171   19.243
 4785.00    1.09367   1.07718   19.176
 4786.00    1.10580   1.07412   18.929
 4787.00    1.10808   1.07285   18.855
 4788.00    1.09839   1.07376   19.108
 4789.00    1.08473   1.07740   19.364
 4790.00    1.07703   1.08415   19.356
 4791.00    1.08091   1.09378   19.252
 4792.00    1.09465   1.10526   19.219
 4793.00    1.10887   1.11666   19.169
 4794.00    1.11517   1.12542   19.054
 4795.00    1.11166   1.12936   19.017
 4796.00    1.10218   1.12771   19.119
 4797.00    1.09452   1.12168   19.215
 4798.00    1.09333   1.11404   19.189
 4799.00    1.09697   1.10787   19.085
 4800.00    1.10333   1.10499   18.987
 4801.00    1.11243   1.10510   18.938
 4802.00    1.12171   1.10621   18.933
 4803.00    1.12503   1.10604   18.928
 4804.00    1.12156   1.10345   18.919
 4805.00    1.11818   1.09895   18.967
 4806.00    1.11631   1.09421   19.103
 4807.00    1.10826   1.09092   19.275
 4808.00    1.09392   1.08998   19.400
 4809.00    1.08565   1.09129   19.403
 4810.00    1.09115   1.09410   19.287
 4811.00    1.10617   1.09771   19.148
 4812.00    1.12134   1.10183   19.084
 4813.00    1.12765   1.10649   19.145
 4814.00    1.12596   1.11183   19.279
 4815.00    1.12672   1.11774   19.357
 4816.00    1.13082   1.12364   19.360
 4817.00    1.12618   1.12848   19.416
 4818.00    1.10990   1.13088   19.568
 4819.00    1.09358   1.12954   19.713
 4820.00    1.08600   1.12376   19.801
 4821.00    1.08711   1.11402   19.878
 4822.00    1.09356   1.10234   19.914
 4823.00    1.10142   1.09171   19.795
 4824.00    1.10779   1.08482   19.604
 4825.00    1.11086   1.08264   19.596
 4826.00    1.10816   1.08399   19.822
 4827.00    1.09756   1.08649   20.070
 4828.00    1.08330   1.08802   20.151
 4829.00    1.07468   1.08775   20.034
 4830.00    1.07410   1.08618   19.867
 4831.00    1.07607   1.08452   19.861
 4832.00    1.07789   1.08386   19.997
 4833.00    1.08109   1.08455   20.049
 4834.00    1.08439   1.08599   19.986
 4835.00    1.08361   1.08700   19.986
 4836.00    1.07848   1.08639   20.060
 4837.00    1.07385   1.08360   20.035
 4838.00    1.07633   1.07901   19.906
 4839.00    1.09046   1.07376   19.832
 4840.00    1.11091   1.06927   19.829
 4841.00    1.12542   1.06657   19.780
 4842.00    1.12953   1.06596   19.695
 4843.00    1.12803   1.06683   19.685
 4844.00    1.12699   1.06793   19.713
 4845.00    1.13061   1.06780   19.636
 4846.00    1.13910   1.06541   19.511
 4847.00    1.14933   1.06077   19.525
 4848.00    1.15780   1.05486    0.000
 4849.00    1.16265   1.04866    0.000
 4850.00    1.16631   1.04209    0.000
 4851.00    1.17169   1.03371    0.000
 4852.00    1.17191   1.02156    0.000
 4853.00    1.15666   1.00448    0.000
 4854.00    1.13246   0.98269    0.000
 4855.00    1.12320   0.95727    0.000
 4856.00    1.16026   0.92889    0.000
 4857.00    1.26729   0.89744    0.000
 4858.00    1.43336   0.86316    0.000
 4859.00    1.61841   0.82861    0.000
 4860.00    1.77739   0.79947    0.000
 4861.00    1.86945   0.78283    0.000
 4862.00    1.86610   0.78371    0.000
 4863.00    1.76061   0.80229    0.000
 4864.00    1.58248   0.83369    0.000
 4865.00    1.38540   0.87036    0.000
 4866.00    1.21868   0.90495    0.000
 4867.00    1.11129   0.93235    0.000
 4868.00    1.05386   0.95029    0.000
 4869.00    1.01714   0.95933    0.000
 4870.00    0.99021   0.96233    0.000
 4871.00    0.97709   0.96345    0.000
 4872.00    0.97892   0.96663    0.000
 4873.00    0.99110   0.97407    0.000
 4874.00    1.00412   0.98577    0.000
 4875.00    1.00989   1.00019   20.235
 4876.00    1.01137   1.01542   20.384
 4877.00    1.01642   1.02981   20.434
 4878.00    1.02581   1.04194   20.368
 4879.00    1.03432   1.05048   20.286
 4880.00    1.03567   1.05440   20.290
 4881.00    1.02767   1.05349   20.420
 4882.00    1.01826   1.04852   20.593
 4883.00    1.01682   1.04107   20.693
 4884.00    1.02104   1.03288   20.715
 4885.00    1.02254   1.02536   20.728
 4886.00    1.01709   1.01921   20.780
 4887.00    1.00746   1.01450   20.832
 4888.00    1.00444   1.01119   20.709
 4889.00    1.01528   1.01000   20.325
 4890.00    1.02966   1.01273   19.947
 4891.00    1.03410   1.02158   19.855
 4892.00    1.03173   1.03752   19.987
 4893.00    1.03605   1.05898   20.127
 4894.00    1.05950   1.08203   20.159
 4895.00    1.10060   1.10180   20.090
 4896.00    1.13272   1.11460   20.043
 4897.00    1.13311   1.11911   20.088
 4898.00    1.11539   1.11650   20.093
 4899.00    1.10303   1.10955   19.969
 4900.00    1.09736   1.10149   19.930
 4901.00    1.09083   1.09495   20.151
 4902.00    1.08429   1.09146   20.410
 4903.00    1.08245   1.09124   20.444
 4904.00    1.08716   1.09330   20.373
 4905.00    1.09383   1.09555   20.397
 4906.00    1.09012   1.09555   20.466
 4907.00    1.07227   1.09161   20.496
 4908.00    1.05861   1.08390   20.604
 4909.00    1.06342   1.07478   20.836
 4910.00    1.07357   1.06773   20.925
 4911.00    1.07303   1.06548   20.701
 4912.00    1.06565   1.06851   20.447
 4913.00    1.06151   1.07448   20.404
 4914.00    1.06321   1.07915   20.398
 4915.00    1.06624   1.07794   20.287
 4916.00    1.06122   1.06790   20.297
 4917.00    1.04278   1.04914   20.605
 4918.00    1.01616   1.02513   21.010
 4919.00    0.99192   1.00162   21.246
 4920.00    0.98046   0.98438   21.298
 4921.00    0.98519   0.97708   21.279
 4922.00    0.99888   0.98040   21.276
 4923.00    1.01397   0.99269   21.238
 4924.00    1.03000   1.01124   20.973
 4925.00    1.04849   1.03332   20.596
 4926.00    1.06861   1.05629   20.650
 4927.00    1.08544   1.07750   21.022
 4928.00    1.09061   1.09429   20.504
 4929.00    1.08422   1.10448   19.594
 4930.00    1.07998   1.10697   21.004
 4931.00    1.08467   1.10220   23.838
 4932.00    1.08702   1.09216   18.691
 4933.00    1.07667   1.07964   11.731
 4934.00    1.05604   1.06717    9.153
 4935.00    1.03563   1.05619    9.162
 4936.00    1.02859   1.04733    9.842
 4937.00    1.03821   1.04126    9.807
 4938.00    1.05323   1.03940    9.458
 4939.00    1.06386   1.04327    9.367
 4940.00    1.07049   1.05313    0.000
 4941.00    1.07804   1.06723    0.000
 4942.00    1.09128   1.08233    0.000
 4943.00    1.10775   1.09534    0.000
 4944.00    1.11690   1.10460    0.000
 4945.00    1.11540   1.11040    0.000
 4946.00    1.11241   1.11413    0.000
 4947.00    1.11459   1.11722    0.000
 4948.00    1.11957   1.12024    0.000
 4949.00    1.12280   1.12273    0.000
 4950.00    1.12132   1.12356    0.000
 4951.00    1.11513   1.12150    0.000
 4952.00    1.10752   1.11552    0.000
 4953.00    1.10443   1.10514    0.000
 4954.00    1.11292   1.09076    0.000
 4955.00    1.13622   1.07424    0.000
 4956.00    1.17185   1.05899    0.000
 4957.00    1.21376   1.04922    0.000
 4958.00    1.25337   1.04788    0.000
 4959.00    1.28027   1.05498    0.000
 4960.00    1.28373   1.06721    0.000
 4961.00    1.25769   1.07962    0.000
 4962.00    1.20456   1.08790    0.000
 4963.00    1.14139   1.09000    0.000
 4964.00    1.09484   1.08648    0.000
 4965.00    1.07369   1.07967    0.000
 4966.00    1.06560   1.07250    0.000
 4967.00    1.06349   1.06750    0.000
 4968.00    1.07014   1.06612    0.000
 4969.00    1.07958   1.06867    0.000
 4970.00    1.07780   1.07452    0.000
 4971.00    1.06781   1.08239    0.000
 4972.00    1.06863   1.09059    0.000
 4973.00    1.08397   1.09726    0.000
 4974.00    1.09923   1.10070    0.000
 4975.00    1.10582   1.09967    0.000
 4976.00    1.10524   1.09364    0.000
 4977.00    1.09683   1.08269    0.000
 4978.00    1.07703   1.06746    0.000
 4979.00    1.04853   1.04907    0.000
 4980.00    1.02004   1.02922    0.000
 4981.00    0.99733   1.01041    0.000
 4982.00    0.98209   0.99585    0.000
 4983.00    0.97605   0.98857    0.000
 4984.00    0.98134   0.99017    0.000
 4985.00    0.99824   0.99982    0.000
 4986.00    1.02381   1.01439    0.000
 4987.00    1.05038   1.02968    0.000
 4988.00    1.06760   1.04211    0.000
 4989.00    1.06884   1.04993    0.000
 4990.00    1.05435   1.05351    0.000
 4991.00    1.03489   1.05456    0.000
 4992.00    1.02551   1.05504    0.000
 4993.00    1.02954   1.05610    0.000
 4994.00    1.03968   1.05774    0.000
 4995.00    1.04945   1.05886    0.000
 4996.00    1.05482   1.05783    0.000
 4997.00    1.05173   1.05333    0.000
 4998.00    1.03887   1.04515    0.000
 4999.00    1.02447   1.03435    0.000
 5000.00    1.02480   1.02282    0.000
 5001.00    1.05787   1.01225    0.000
 5002.00    1.13798   1.00347    0.000
 5003.00    1.26774   0.99661    0.000
 5004.00    1.43355   0.99188    0.000
 5005.00    1.60065   0.98994    0.000
 5006.00    1.72330   0.99143    0.000
 5007.00    1.76580   0.99600    0.000
 5008.00    1.71413   1.00164    0.000
 5009.00    1.58886   1.00517    0.000
 5010.00    1.43232   1.00386    0.000
 5011.00    1.28187   0.99707    0.000
 5012.00    1.16222   0.98657    0.000
 5013.00    1.08101   0.97556    0.000
 5014.00    1.03347   0.96696    0.000
 5015.00    1.01150   0.96233    0.000
 5016.00    1.00629   0.96183    0.000
 5017.00    1.01015   0.96474    0.000
 5018.00    1.01623   0.97007    0.000
 5019.00    1.01779   0.97702    0.000
 5020.00    1.01184   0.98506    0.000
 5021.00    1.00433   0.99371    0.000
 5022.00    1.00336   1.00238    0.000
 5023.00    1.00852   1.01036    0.000
 5024.00    1.01461   1.01696    0.000
 5025.00    1.01899   1.02184    0.000
 5026.00    1.02214   1.02540    0.000
 5027.00    1.02687   1.02873    0.000
 5028.00    1.03432   1.03311    0.000
 5029.00    1.03938   1.03934   22.580
 5030.00    1.03784   1.04702   22.653
 5031.00    1.03555   1.05440   22.778
 5032.00    1.03925   1.05900   22.885
 5033.00    1.04423   1.05868   22.877
 5034.00    1.04183   1.05271   22.760
 5035.00    1.02996   1.04172   22.760
 5036.00    1.01149   1.02714   23.043
 5037.00    0.99087   1.01064   23.397
 5038.00    0.97207   0.99416   23.548
 5039.00    0.95676   0.98040   23.596
 5040.00    0.94658   0.97272   23.721
 5041.00    0.94554   0.97393   23.810
 5042.00    0.95787   0.98464   23.690
 5043.00    0.98516   1.00249   23.414
 5044.00    1.02129   1.02242   23.135
 5045.00    1.04907   1.03854   22.948
 5046.00    1.05590   1.04675   22.831
 5047.00    1.04827   1.04633   22.643
 5048.00    1.03731   1.03969   22.470
 5049.00    1.02437   1.03104   22.835
 5050.00    1.00951   1.02461   23.655
 5051.00    0.99964   1.02326   23.320
 5052.00    1.00048   1.02759   22.000
 5053.00    1.00925   1.03631   23.251
 5054.00    1.01977   1.04726   27.316
 5055.00    1.02777   1.05844   22.057
 5056.00    1.03343   1.06855   13.015
 5057.00    1.04233   1.07698    9.435
 5058.00    1.05693   1.08357    8.933
 5059.00    1.07039   1.08795    9.398
 5060.00    1.07354   1.08925    9.500
 5061.00    1.06145   1.08633    9.401
 5062.00    1.03947   1.07862    9.578
 5063.00    1.02482   1.06711    9.756
 5064.00    1.02521   1.05417    9.695
 5065.00    1.02633   1.04233    9.775
 5066.00    1.01663   1.03354   10.077
 5067.00    1.00377   1.02867    9.853
 5068.00    0.99829   1.02724    9.344
 5069.00    1.00194   1.02761   10.394
 5070.00    1.01119   1.02829   15.502
 5071.00    1.02038   1.02868   25.776
 5072.00    1.02444   1.02861   27.346
 5073.00    1.02091   1.02792   23.097
 5074.00    1.01257   1.02643   22.760
 5075.00    1.00744   1.02349   24.154
 5076.00    1.00942   1.01795   24.251
 5077.00    1.01362   1.00913   23.549
 5078.00    1.01384   0.99817   23.270
 5079.00    1.00727   0.98773   23.392
 5080.00    0.99484   0.98058   23.637
 5081.00    0.98115   0.97859   23.940
 5082.00    0.97256   0.98229   24.166
 5083.00    0.97508   0.99065   24.032
 5084.00    0.98805   1.00156   23.633
 5085.00    1.00285   1.01288   23.514
 5086.00    1.01313   1.02328   23.824
 5087.00    1.01942   1.03228   24.080
 5088.00    1.02475   1.03992   24.033
 5089.00    1.03173   1.04655   24.023
 5090.00    1.04032   1.05249   24.189
 5091.00    1.04753   1.05745   24.213
 5092.00    1.05131   1.06039   23.965
 5093.00    1.05149   1.05986   23.723
 5094.00    1.04545   1.05472   23.722
 5095.00    1.02893   1.04483   23.970
 5096.00    1.00799   1.03155   24.280
 5097.00    0.99862   1.01773   24.353
 5098.00    1.00266   1.00694   24.189
 5099.00    1.00440   1.00182   24.125
 5100.00    0.99893   1.00277   24.235
 5101.00    0.99810   1.00790   24.232
 5102.00    1.00662   1.01419   24.033
 5103.00    1.01598   1.01878   23.878
 5104.00    1.01852   1.01993   23.908
 5105.00    1.01254   1.01745   24.057
 5106.00    1.00026   1.01260   24.194
 5107.00    0.98665   1.00743   24.211
 5108.00    0.97810   1.00386   24.107
 5109.00    0.97980   1.00343   23.988
 5110.00    0.98875   1.00685   23.945
 5111.00    0.99541   1.01366   23.987
 5112.00    0.99760   1.02265   23.953
 5113.00    1.00183   1.03247   23.624
 5114.00    1.01239   1.04186   23.162
 5115.00    1.02820   1.04990   22.976
 5116.00    1.04494   1.05567   23.067
 5117.00    1.05658   1.05811   23.082
 5118.00    1.05808   1.05628   22.983
 5119.00    1.04731   1.04975   23.073
 5120.00    1.02789   1.03888   23.431
 5121.00    1.00725   1.02486   23.859
 5122.00    0.98887   1.00970   24.188
 5123.00    0.97202   0.99581   24.377
 5124.00    0.95742   0.98500   24.474
 5125.00    0.94796   0.97796   24.570
 5126.00    0.94655   0.97451   24.710
 5127.00    0.95392   0.97404   24.888
 5128.00    0.96468   0.97604   25.086
 5129.00    0.97091   0.98022   25.269
 5130.00    0.97338   0.98618   25.351
 5131.00    0.97891   0.99323   25.279
 5132.00    0.98750   1.00049   25.238
 5133.00    0.99353   1.00691   25.470
 5134.00    0.99563   1.01112   25.751
 5135.00    0.99611   1.01183   25.611
 5136.00    0.99421   1.00888   25.168
 5137.00    0.98757   1.00329   24.970
 5138.00    0.97863   0.99679   25.301
 5139.00    0.97321   0.99112   25.910
 5140.00    0.97444   0.98689   25.579
 5141.00    0.98155   0.98404   23.922
 5142.00    0.99015   0.98269   24.061
 5143.00    0.99485   0.98245   28.768
 5144.00    0.99426   0.98239   28.344
 5145.00    0.99037   0.98215   16.821
 5146.00    0.98573   0.98187   10.821
 5147.00    0.98275   0.98173    9.468
 5148.00    0.98361   0.98161    9.982
 5149.00    0.98815   0.98104   10.416
 5150.00    0.99054   0.97989   10.175
 5151.00    0.98611   0.97867    9.968
 5152.00    0.98362   0.97840   10.096
 5153.00    0.99510   0.98052   10.315
 5154.00    1.01590   0.98620    9.977
 5155.00    1.03360   0.99535    9.102
 5156.00    1.04748   1.00652    9.219
 5157.00    1.06335   1.01738   12.420
 5158.00    1.08051   1.02558   21.785
 5159.00    1.09246   1.02939   28.800
 5160.00    1.09140   1.02754   23.688
 5161.00    1.07310   1.01946   21.534
 5162.00    1.04267   1.00513   22.858
 5163.00    1.00936   0.98448   23.968
 5164.00    0.97805   0.95796   23.909
 5165.00    0.94965   0.92775   24.104
 5166.00    0.92342   0.89784   24.835
 5167.00    0.89937   0.87296   25.530
 5168.00    0.88078   0.85633   25.894
 5169.00    0.87051   0.84798   25.979
 5170.00    0.86630   0.84603   25.958
 5171.00    0.86587   0.84958   25.972
 5172.00    0.87365   0.85988   26.010
 5173.00    0.89408   0.87780   25.968
 5174.00    0.92273   0.90163   25.758
 5175.00    0.95089   0.92770   25.401
 5176.00    0.97204   0.95163   25.085
 5177.00    0.98125   0.96902   25.012
 5178.00    0.97395   0.97655   25.246
 5179.00    0.95148   0.97296   25.664
 5180.00    0.92626   0.95928   25.918
 5181.00    0.90931   0.93880   25.794
 5182.00    0.89722   0.91743   25.610
 5183.00    0.88490   0.90263   25.687
 5184.00    0.87910   0.89966   25.841
 5185.00    0.88750   0.90845   25.790
 5186.00    0.90693   0.92498   25.605
 5187.00    0.92948   0.94361   25.489
 5188.00    0.94952   0.95941   25.510
 5189.00    0.96356   0.96895   25.598
 5190.00    0.96965   0.97101    0.000
 5191.00    0.96854   0.96781    0.000
 5192.00    0.96471   0.96350    0.000
 5193.00    0.96420   0.96094    0.000
 5194.00    0.97230   0.96146    0.000
 5195.00    0.99030   0.96576    0.000
 5196.00    1.01336   0.97337    0.000
 5197.00    1.03520   0.98277    0.000
 5198.00    1.05202   0.99210    0.000
 5199.00    1.06046   0.99918    0.000
 5200.00    1.05643   1.00200    0.000
 5201.00    1.03951   0.99930    0.000
 5202.00    1.01584   0.99079    0.000
 5203.00    0.99254   0.97718    0.000
 5204.00    0.97329   0.96081    0.000
 5205.00    0.95927   0.94541    0.000
 5206.00    0.95006   0.93409    0.000
 5207.00    0.94402   0.92870    0.000
 5208.00    0.93906   0.93065    0.000
 5209.00    0.93649   0.93994    0.000
 5210.00    0.94243   0.95459    0.000
 5211.00    0.95944   0.97161   25.597
 5212.00    0.98154   0.98748   25.291
 5213.00    0.99873   0.99929   25.165
 5214.00    1.00179   1.00617   25.244
 5215.00    0.99283   1.00985   25.366
 5216.00    0.98803   1.01321   25.250
 5217.00    0.99594   1.01826   24.909
 5218.00    1.00727   1.02509   24.764
 5219.00    1.01334   1.03196   24.954
 5220.00    1.01563   1.03620   25.095
 5221.00    1.01550   1.03502   25.002
 5222.00    1.00958   1.02669   25.015
 5223.00    0.99773   1.01157   25.354
 5224.00    0.98604   0.99230   25.818
 5225.00    0.97848   0.97335   26.135
 5226.00    0.97366   0.96019   26.181
 5227.00    0.97130   0.95671   26.027
 5228.00    0.97426   0.96230   25.885
 5229.00    0.98167   0.97304   25.911
 5230.00    0.98748   0.98453   26.122
 5231.00    0.98988   0.99304   26.385
 5232.00    0.99392   0.99768   26.467
 5233.00    1.00209   1.00056   26.290
 5234.00    1.01122   1.00439   26.005
 5235.00    1.01864   1.01094   25.751
 5236.00    1.02425   1.02013   25.560
 5237.00    1.02722   1.03045   25.467
 5238.00    1.02575   1.04012   25.525
 5239.00    1.02228   1.04796   25.727
 5240.00    1.02331   1.05349   25.973
 5241.00    1.03028   1.05651   26.076
 5242.00    1.03755   1.05729   25.873
 5243.00    1.03970   1.05614   25.584
 5244.00    1.03463   1.05246   25.696
 5245.00    1.02403   1.04544   26.166
 5246.00    1.01250   1.03589   26.356
 5247.00    1.00389   1.02598   26.065
 5248.00    0.99952   1.01706   25.760
 5249.00    0.99677   1.01006   25.764
 5250.00    0.99156   1.00627   26.050
 5251.00    0.98823   1.00611   26.347
 5252.00    0.99701   1.00864   26.296
 5253.00    1.01464   1.01290   25.953
 5254.00    1.02559   1.01877   25.723
 5255.00    1.02651   1.02657   25.705
 5256.00    1.02777   1.03521   25.672
 5257.00    1.03344   1.04196   25.546
 5258.00    1.03847   1.04373   25.461
 5259.00    1.03952   1.03797   25.485
 5260.00    1.03658   1.02366   25.568
 5261.00    1.02792   1.00195   25.632
 5262.00    1.01036   0.97604   25.624
 5263.00    0.98403   0.94993   25.617
 5264.00    0.95365   0.92723   25.739
 5265.00    0.92819   0.91041   25.937
 5266.00    0.91670   0.90029   26.008
 5267.00    0.91816   0.89514   25.906
 5268.00    0.92370   0.89309   25.766
 5269.00    0.92905   0.89530   25.765
 5270.00    0.93563   0.90354   25.980
 5271.00    0.94532   0.91667   26.151
 5272.00    0.95888   0.93220   25.906
 5273.00    0.97557   0.94843   25.504
 5274.00    0.99322   0.96438   25.482
 5275.00    1.00877   0.98015   25.653
 5276.00    1.01932   0.99586   25.428
 5277.00    1.02406   1.00972   25.016
 5278.00    1.02362   1.01945   25.075
 5279.00    1.01778   1.02392   25.564
 5280.00    1.00710   1.02367   25.912
 5281.00    0.99710   1.02083   25.909
 5282.00    0.99503   1.01837   25.761
 5283.00    1.00180   1.01958   25.673
 5284.00    1.01345   1.02672   25.714
 5285.00    1.02733   1.03897   25.736
 5286.00    1.04207   1.05330   25.578
 5287.00    1.05531   1.06674   25.431
 5288.00    1.06522   1.07755   25.573
 5289.00    1.07377   1.08478   25.794
 5290.00    1.08310   1.08784   25.687
 5291.00    1.08854   1.08647   25.384
 5292.00    1.08370   1.08095   25.276
 5293.00    1.07105   1.07184   25.375
 5294.00    1.05731   1.05954   25.460
 5295.00    1.04301   1.04469   25.472
 5296.00    1.02614   1.02922   25.497
 5297.00    1.01049   1.01653   25.624
 5298.00    1.00304   1.00961   25.873
 5299.00    1.00768   1.00908   26.113
 5300.00    1.02311   1.01367   26.161
 5301.00    1.04134   1.02227   25.980
 5302.00    1.05402   1.03376   25.644
 5303.00    1.06138   1.04638   25.232
 5304.00    1.06755   1.05803   24.775
 5305.00    1.07224   1.06723   24.221
 5306.00    1.07360   1.07377   23.535
 5307.00    1.07340   1.07845   22.817
 5308.00    1.07373   1.08199   22.229
 5309.00    1.07218   1.08431   21.927
 5310.00    1.06713   1.08496   21.972
 5311.00    1.06474   1.08358   22.234
 5312.00    1.07075   1.08003   22.466
 5313.00    1.07992   1.07471   22.441
 5314.00    1.08441   1.06824   22.119
 5315.00    1.08483   1.06142   21.766
 5316.00    1.08440   1.05570   21.636
 5317.00    1.08094   1.05215   21.668
 5318.00    1.07251   1.05027   21.733
 5319.00    1.06402   1.04872   21.892
 5320.00    1.06098   1.04610   22.203
 5321.00    1.06203   1.04095   22.471
 5322.00    1.06102   1.03218   22.563
 5323.00    1.05065   1.01978   22.763
 5324.00    1.02866   1.00516   23.307
 5325.00    1.00301   0.98960   23.861
 5326.00    0.98302   0.97403   24.023
 5327.00    0.97044   0.96115   23.987
 5328.00    0.96481   0.95568   24.076
 5329.00    0.96869   0.96001   24.210
 5330.00    0.98263   0.97221   24.193
 5331.00    1.00048   0.98832   24.020
 5332.00    1.01591   1.00505   23.833
 5333.00    1.02809   1.01997   23.823
 5334.00    1.03766   1.03106   24.026
 5335.00    1.04307   1.03696   24.186
 5336.00    1.04292   1.03781   24.086
 5337.00    1.03813   1.03481   23.853
 5338.00    1.03096   1.02923   23.720
 5339.00    1.02395   1.02288   23.808
 5340.00    1.01886   1.01863   24.064
 5341.00    1.01613   1.01836   24.220
 5342.00    1.01649   1.02127   24.142
 5343.00    1.02174   1.02528   24.054
 5344.00    1.03104   1.02851   24.136
 5345.00    1.03889   1.03021   24.258
 5346.00    1.04108   1.03087   24.299
 5347.00    1.03875   1.03116   24.363
 5348.00    1.03559   1.03228   24.514
 5349.00    1.03551   1.03612   24.616
 5350.00    1.04071   1.04353   24.605
 5351.00    1.05051   1.05363   24.648
 5352.00    1.06225   1.06501   24.798
 5353.00    1.07245   1.07675   24.828
 5354.00    1.08077   1.08786   24.670
 5355.00    1.09120   1.09700   24.622
 5356.00    1.10449   1.10324   24.818
 5357.00    1.11455   1.10612   24.989
 5358.00    1.11599   1.10534   24.974
 5359.00    1.10844   1.10076   24.986
 5360.00    1.09482   1.09265   25.174
 5361.00    1.07968   1.08201   25.410
 5362.00    1.06677   1.07045   25.545
 5363.00    1.05738   1.05915   25.577
 5364.00    1.04894   1.04862   25.648
 5365.00    1.03606   1.03910   25.979
 5366.00    1.01948   1.03022   26.502
 5367.00    1.00802   1.02137   26.757
 5368.00    1.00514   1.01243   26.564
 5369.00    1.00456   1.00433   26.304
 5370.00    1.00335   0.99964   26.266
 5371.00    1.00630   1.00131   26.393
 5372.00    1.01578   1.01011   26.467
 5373.00    1.02803   1.02378   26.259
 5374.00    1.03874   1.03888   25.844
 5375.00    1.04590   1.05224   25.570
 5376.00    1.05052   1.06183   25.519
 5377.00    1.05537   1.06713   25.423
 5378.00    1.05904   1.06843   25.220
 5379.00    1.05571   1.06650   25.162
 5380.00    1.04483   1.06288   25.342
 5381.00    1.03327   1.05924   25.572
 5382.00    1.02728   1.05665   25.696
 5383.00    1.02923   1.05582   25.703
 5384.00    1.03785   1.05661   25.642
 5385.00    1.04907   1.05763   25.569
 5386.00    1.05882   1.05742   25.486
 5387.00    1.06413   1.05507   25.361
 5388.00    1.06319   1.05022   25.269
 5389.00    1.05584   1.04336   25.355
 5390.00    1.04502   1.03557   25.556
 5391.00    1.03541   1.02772   25.619
 5392.00    1.02751   1.02027   25.522
 5393.00    1.01796   1.01342   25.498
 5394.00    1.00732   1.00715   25.637
 5395.00    1.00027   1.00125   25.811
 5396.00    0.99814   0.99658   25.877
 5397.00    0.99831   0.99498   25.781
 5398.00    0.99966   0.99663   25.662
 5399.00    1.00274   0.99944   25.743
 5400.00    1.00537   1.00127   25.938
 5401.00    1.00331   1.00056   25.920
 5402.00    0.99608   0.99592   25.688
 5403.00    0.98692   0.98731   25.564
 5404.00    0.97790   0.97709   25.737
 5405.00    0.96988   0.96875   26.154
 5406.00    0.96598   0.96477   26.483
 5407.00    0.97003   0.96522   26.347
 5408.00    0.98032   0.96879   26.022
 5409.00    0.99180   0.97488   26.111
 5410.00    1.00546   0.98384   26.443
 5411.00    1.02534   0.99521   26.310
 5412.00    1.04569   1.00728   25.766
 5413.00    1.05489   1.01854   25.456
 5414.00    1.05165   1.02853   25.572
 5415.00    1.04360   1.03731   -2.000
 5416.00    1.03557   1.04432   -2.000
 5417.00    1.02915   1.04859   -2.000
 5418.00    1.02747   1.04987   -2.000
 5419.00    1.03343   1.04875   -2.000
 5420.00    1.04374   1.04629   -2.000
 5421.00    1.05151   1.04343   -2.000
 5422.00    1.05385   1.04030   -2.000
 5423.00    1.05244   1.03716   -2.000
 5424.00    1.05107   1.03517   -2.000
 5425.00    1.05302   1.03462   -2.000
 5426.00    1.05693   1.03382   -2.000
 5427.00    1.05849   1.03052   -2.000
 5428.00    1.05494   1.02397   -2.000
 5429.00    1.04569   1.01620   -2.000
 5430.00    1.03179   1.00964   25.357
 5431.00    1.01613   1.00441   25.851
 5432.00    1.00376   1.00024   26.059
 5433.00    0.99905   0.99821   25.930
 5434.00    1.00106   0.99984   25.827
 5435.00    1.00579   1.00608   26.131
 5436.00    1.01101   1.01677   26.595
 5437.00    1.01667   1.03063   26.666
 5438.00    1.02402   1.04531   26.297
 5439.00    1.03423   1.05817   25.852
 5440.00    1.04636   1.06697   25.672
 5441.00    1.05704   1.07031   25.863
 5442.00    1.06054   1.06768   26.081
 5443.00    1.05323   1.05941   25.932
 5444.00    1.03952   1.04706   25.626
 5445.00    1.02741   1.03359   25.582
 5446.00    1.02112   1.02311   25.820
 5447.00    1.02110   1.01882   26.109
 5448.00    1.02552   1.02053   26.260
 5449.00    1.03171   1.02529   26.189
 5450.00    1.03768   1.02986   25.955
 5451.00    1.04121   1.03188   25.739
 5452.00    1.03867   1.03030   25.796
 5453.00    1.02858   1.02546   26.225
 5454.00    1.01564   1.01936   26.692
 5455.00    1.00594   1.01547   26.809
 5456.00    1.00078   1.01625   26.720
 5457.00    0.99956   1.02091   26.703
 5458.00    1.00346   1.02659   26.660
 5459.00    1.01199   1.03071   26.445
 5460.00    1.01926   1.03202   26.262
 5461.00    1.02008   1.03058   26.346
 5462.00    1.01667   1.02775   26.625
 5463.00    1.01391   1.02587   26.880
 5464.00    1.01381   1.02621   26.960
 5465.00    1.01686   1.02815   26.867
 5466.00    1.02361   1.03082   26.784
 5467.00    1.03256   1.03352   26.844
 5468.00    1.03839   1.03497   26.929
 5469.00    1.03738   1.03411   26.917
 5470.00    1.03221   1.03082   26.910
 5471.00    1.02629   1.02529   26.998
 5472.00    1.01872   1.01760   27.052
 5473.00    1.00796   1.00863   27.025
 5474.00    0.99542   0.99948   27.187
 5475.00    0.98372   0.99081   27.635
 5476.00    0.97500   0.98441   27.894
 5477.00    0.97121   0.98261   27.637
 5478.00    0.97423   0.98527   27.304
 5479.00    0.98370   0.98998   27.297
 5480.00    0.99587   0.99520   27.432
 5481.00    1.00829   1.00121   27.398
 5482.00    1.02273   1.00829   27.151
 5483.00    1.03813   1.01567   26.913
 5484.00    1.04650   1.02212   27.060
 5485.00    1.04364   1.02634   27.577
 5486.00    1.03576   1.02785   27.749
 5487.00    1.02933   1.02778   27.247
 5488.00    1.02425   1.02763   26.803
 5489.00    1.02003   1.02784   26.919
 5490.00    1.01950   1.02843   27.228
 5491.00    1.02404   1.02926   27.269
 5492.00    1.03071   1.02977   27.040
 5493.00    1.03576   1.02987   26.796
 5494.00    1.03732   1.02989   26.821
 5495.00    1.03662   1.02952   27.084
 5496.00    1.03784   1.02847   27.132
 5497.00    1.04266   1.02749   26.861
 5498.00    1.04763   1.02706   26.805
 5499.00    1.04891   1.02600   27.054
 5500.00    1.04496   1.02319   26.886
 5501.00    1.03613   1.01927   26.314
 5502.00    1.02444   1.01555   26.423
 5503.00    1.01428   1.01251   26.868
 5504.00    1.01155   1.00978   25.531
 5505.00    1.01737   1.00715   24.154
 5506.00    1.02622   1.00537   27.763
 5507.00    1.03353   1.00500   33.753
 5508.00    1.03879   1.00511   21.959
 5509.00    1.04102   1.00459   11.998
 5510.00    1.03742   1.00321    9.146
 5511.00    1.02810   1.00141    9.242
 5512.00    1.01744   1.00033   10.015
 5513.00    1.00965   1.00137   10.081
 5514.00    1.00700   1.00509    9.873
 5515.00    1.01143   1.01125    9.857
 5516.00    1.02421   1.01918    9.752
 5517.00    1.04120   1.02792    9.536
 5518.00    1.05339   1.03605    9.586
 5519.00    1.05771   1.04207    9.695
 5520.00    1.05915   1.04532    9.164
 5521.00    1.06079   1.04576    8.784
 5522.00    1.06093   1.04347   10.581
 5523.00    1.05830   1.03857   17.976
 5524.00    1.05376   1.03141   31.717
 5525.00    1.04867   1.02294   29.986
 5526.00    1.04427   1.01458   -2.000
 5527.00    1.04192   1.00806   -2.000
 5528.00    1.04226   1.00524   -2.000
 5529.00    1.04217   1.00662   -2.000
 5530.00    1.03680   1.01050   -2.000
 5531.00    1.03024   1.01468   -2.000
 5532.00    1.03276   1.01797   -2.000
 5533.00    1.04031   1.02008   -2.000
 5534.00    1.03712   1.02144   -2.000
 5535.00    1.02609   1.02323   -2.000
 5536.00    1.03031   1.02610   -2.000
 5537.00    1.06696   1.02971   -2.000
 5538.00    1.13618   1.03371   -2.000
 5539.00    1.21383   1.03770   -2.000
 5540.00    1.26110   1.04071   -2.000
 5541.00    1.25785   1.04188   -2.000
 5542.00    1.21073   1.04124   -2.000
 5543.00    1.14734   1.03996   -2.000
 5544.00    1.10158   1.03932   -2.000
 5545.00    1.07996   1.03994   -2.000
 5546.00    1.06589   1.04217   -2.000
 5547.00    1.05518   1.04598   -2.000
 5548.00    1.05679   1.05029   -2.000
 5549.00    1.07076   1.05373   -2.000
 5550.00    1.08693   1.05546   25.651
 5551.00    1.09621   1.05517   25.611
 5552.00    1.09442   1.05299   26.049
 5553.00    1.08457   1.04965   26.689
 5554.00    1.07378   1.04626   26.856
 5555.00    1.06536   1.04359   26.545
 5556.00    1.05876   1.04157   26.322
 5557.00    1.05371   1.03986   26.382
 5558.00    1.05053   1.03830   26.582
 5559.00    1.04876   1.03650   26.840
 5560.00    1.04727   1.03394   27.134
 5561.00    1.04521   1.03044   27.308
 5562.00    1.04256   1.02634   27.173
 5563.00    1.04091   1.02232   26.804
 5564.00    1.04143   1.01866   26.464
 5565.00    1.04081   1.01534   26.363
 5566.00    1.03485   1.01276   26.576
 5567.00    1.02635   1.01114   26.953
 5568.00    1.02210   1.01022   27.235
 5569.00    1.02445   1.01001   27.367
 5570.00    1.03063   1.01075   27.435
 5571.00    1.03442   1.01176   27.438
 5572.00    1.03075   1.01284   27.380
 5573.00    1.02269   1.01507   27.486
 5574.00    1.01782   1.01847   27.916
 5575.00    1.02006   1.02196   28.223
 5576.00    1.02826   1.02532   27.894
 5577.00    1.03639   1.02847   27.442
 5578.00    1.03859   1.03080   27.552
 5579.00    1.03672   1.03191   27.740
 5580.00    1.03617   1.03129   27.292
 5581.00    1.03792   1.02840   26.919
 5582.00    1.03965   1.02331   27.274
 5583.00    1.03919   1.01599   26.839
 5584.00    1.03503   1.00621   25.127
 5585.00    1.02654   0.99442   26.199
 5586.00    1.01466   0.98221   32.726
 5587.00    1.00275   0.97193   29.047
 5588.00    0.99428   0.96553   15.747
 5589.00    0.98984   0.96377   10.348
 5590.00    0.98868   0.96623    9.391
 5591.00    0.99113   0.97140   10.023
 5592.00    0.99674   0.97768   10.337
 5593.00    1.00190   0.98405   10.006
 5594.00    1.00393   0.99018    9.784
 5595.00    1.00595   0.99562    9.921
 5596.00    1.01125   0.99877   10.168
 5597.00    1.01648   0.99844    9.869
 5598.00    1.01617   0.99573    9.201
 5599.00    1.00866   0.99256    9.847
 5600.00    0.99696   0.99004   14.417
 5601.00    0.98848   0.98939   27.144
 5602.00    0.98968   0.99228   33.708
 5603.00    1.00050   0.99964   26.699
 5604.00    1.01626   1.01059   24.948
 5605.00    1.03056   1.02286   26.757
 5606.00    1.03994   1.03429   27.363
 5607.00    1.04755   1.04340   26.737
 5608.00    1.05726   1.04940   26.886
 5609.00    1.06782   1.05197   27.464
 5610.00    1.07505   1.05113   27.491
 5611.00    1.07468   1.04698   27.270
 5612.00    1.06519   1.03957   27.379
 5613.00    1.04986   1.02910   27.648
 5614.00    1.03376   1.01699   27.737
 5615.00    1.02084   1.00663   27.709
 5616.00    1.01268   1.00095   27.760
 5617.00    1.00796   0.99961   27.939
 5618.00    1.00553   1.00060   28.127
 5619.00    1.00658   1.00271   28.070
 5620.00    1.01175   1.00520   27.689
 5621.00    1.01878   1.00694   27.264
 5622.00    1.02449   1.00673   27.050
 5623.00    1.02642   1.00452   27.035
 5624.00    1.02376   1.00222   27.085
 5625.00    1.01808   1.00233   27.048
 5626.00    1.01384   1.00556   26.855
 5627.00    1.01779   1.01107   26.562
 5628.00    1.03165   1.01796   26.281
 5629.00    1.04806   1.02504   26.101
 5630.00    1.05856   1.03074   26.022
 5631.00    1.05932   1.03389   25.940
 5632.00    1.05213   1.03411   25.811
 5633.00    1.04373   1.03164   25.725
 5634.00    1.03876   1.02721   25.701
 5635.00    1.03595   1.02170   25.605
 5636.00    1.03274   1.01595   25.457
 5637.00    1.02814   1.01093   25.528
 5638.00    1.02197   1.00737   25.759
 5639.00    1.01433   1.00513   25.568
 5640.00    1.00641   1.00379   24.830
 5641.00    1.00059   1.00373   24.191
 5642.00    0.99867   1.00533   23.894
 5643.00    1.00091   1.00807   23.493
 5644.00    1.00641   1.01132   22.834
 5645.00    1.01350   1.01479   22.336
 5646.00    1.02038   1.01813   22.221
 5647.00    1.02568   1.02092   22.301
 5648.00    1.02967   1.02283   22.376
 5649.00    1.03425   1.02389   22.428
 5650.00    1.04057   1.02437   22.575
 5651.00    1.04785   1.02405   22.995
 5652.00    1.05369   1.02202   23.638
 5653.00    1.05475   1.01751   24.152
 5654.00    1.04913   1.01083   24.453
 5655.00    1.03738   1.00315   24.919
 5656.00    1.02216   0.99487   25.621
 5657.00    1.00755   0.98613   26.071
 5658.00    0.99695   0.97917   26.083
 5659.00    0.99201   0.97648   26.068
 5660.00    0.99196   0.97735   26.236
 5661.00    0.99407   0.97967   26.381
 5662.00    0.99624   0.98317   26.439
 5663.00    0.99805   0.98830   26.609
 5664.00    1.00043   0.99408   26.902
 5665.00    1.00500   0.99892   27.056
 5666.00    1.01225   1.00229   26.994
 5667.00    1.02092   1.00489   26.915
 5668.00    1.02842   1.00787   26.948
 5669.00    1.03215   1.01185   27.054
 5670.00    1.03332   1.01682   27.111
 5671.00    1.03622   1.02256   27.003
 5672.00    1.04111   1.02860   26.820
 5673.00    1.04419   1.03387   26.786
 5674.00    1.04518   1.03742   26.867
 5675.00    1.04745   1.03929   26.790
 5676.00    1.05024   1.03975   26.514
 5677.00    1.04886   1.03839   26.258
 5678.00    1.04301   1.03499   26.162
 5679.00    1.03690   1.03018   26.225
 5680.00    1.03210   1.02452   26.388
 5681.00    1.02677   1.01805   26.602
 5682.00    1.01990   1.01157   26.913
 5683.00    1.01255   1.00647   27.349
 5684.00    1.00783   1.00325   27.508
 5685.00    1.00903   1.00133   26.951
 5686.00    1.01486   1.00041   26.535
 5687.00    1.02006   1.00100   27.433
 5688.00    1.02026   1.00383   28.224
 5689.00    1.01416   1.00879   26.528
 5690.00    1.00568   1.01490   26.038
 5691.00    1.00198   1.02105   31.775
 5692.00    1.00759   1.02628   32.817
 5693.00    1.02207   1.02969   17.888
 5694.00    1.03812   1.03093   10.586
 5695.00    1.04583   1.03017    8.895
 5696.00    1.04298   1.02749    9.344
 5697.00    1.03393   1.02294    9.955
 5698.00    1.02196   1.01727    9.895
 5699.00    1.00915   1.01142    9.749
 5700.00    0.99956   1.00568    9.912
 5701.00    0.99730   1.00050   10.262
 5702.00    1.00118   0.99650   10.167
 5703.00    1.00613   0.99331    9.412
 5704.00    1.00796   0.98960    9.468
 5705.00    1.00508   0.98456   12.654
 5706.00    0.99970   0.97862   23.348
 5707.00    0.99586   0.97274   35.472
 5708.00    0.99539   0.96791   29.456
 5709.00    0.99738   0.96559   26.005
 5710.00    0.99884   0.96663   27.503
 5711.00    0.99729   0.97090   28.634
 5712.00    0.99485   0.97841   27.778
 5713.00    0.99559   0.98835   27.137
 5714.00    0.99990   0.99883   27.153
 5715.00    1.00667   1.00870   27.078
 5716.00    1.01819   1.01754   26.858
 5717.00    1.03795   1.02500   26.817
 5718.00    1.06576   1.03132   26.750
 5719.00    1.09662   1.03677   26.309
 5720.00    1.12048   1.04122   25.767
 5721.00    1.12882   1.04467   25.522
 5722.00    1.12405   1.04700   25.372
 5723.00    1.11412   1.04786   24.911
 5724.00    1.10285   1.04715   24.178
 5725.00    1.09080   1.04498   23.434
 5726.00    1.07838   1.04168   22.800
 5727.00    1.06595   1.03840   22.347
 5728.00    1.05345   1.03613   22.229
 5729.00    1.04202   1.03459   22.537
 5730.00    1.03572   1.03316   23.105
 5731.00    1.03735   1.03234   23.696
 5732.00    1.04315   1.03308   24.335
 5733.00    1.04798   1.03512   25.114
 5734.00    1.05219   1.03729   25.823
 5735.00    1.05745   1.03879   26.204
 5736.00    1.06110   1.03941   26.410
 5737.00    1.05960   1.03935   26.687
 5738.00    1.05320   1.03887   26.905
 5739.00    1.04529   1.03817   26.853
 5740.00    1.04103   1.03739    0.000
 5741.00    1.04353   1.03660    0.000
 5742.00    1.05031   1.03594    0.000
 5743.00    1.05735   1.03570    0.000
 5744.00    1.06348   1.03593    0.000
 5745.00    1.06914   1.03589    0.000
 5746.00    1.07470   1.03460    0.000
 5747.00    1.08008   1.03197    0.000
 5748.00    1.08476   1.02913    0.000
 5749.00    1.08886   1.02681    0.000
 5750.00    1.09407   1.02437    0.000
 5751.00    1.10223   1.02107    0.000
 5752.00    1.11386   1.01738    0.000
 5753.00    1.12756   1.01482    0.000
 5754.00    1.13977   1.01484    0.000
 5755.00    1.14582   1.01739    0.000
 5756.00    1.14138   1.02080    0.000
 5757.00    1.12621   1.02341    0.000
 5758.00    1.10646   1.02437    0.000
 5759.00    1.08800   1.02348    0.000
 5760.00    1.07148   1.02130    0.000
 5761.00    1.05699   1.01900    0.000
 5762.00    1.04767   1.01811    0.000
 5763.00    1.04620   1.02003    0.000
 5764.00    1.05203   1.02464    0.000
 5765.00    1.06156   1.03020    0.000
 5766.00    1.06895   1.03532    0.000
 5767.00    1.06931   1.03930    0.000
 5768.00    1.06129   1.04159    0.000
 5769.00    1.04856   1.04204    0.000
 5770.00    1.03970   1.04090    0.000
 5771.00    1.04028   1.03861    0.000
 5772.00    1.04817   1.03594    0.000
 5773.00    1.05717   1.03345    0.000
 5774.00    1.06038   1.03105    0.000
 5775.00    1.05495   1.02862    0.000
 5776.00    1.04421   1.02576    0.000
 5777.00    1.03310   1.02156    0.000
 5778.00    1.02497   1.01537    0.000
 5779.00    1.02009   1.00715    0.000
 5780.00    1.01570   0.99769    0.000
 5781.00    1.01020   0.98900    0.000
 5782.00    1.00518   0.98289    0.000
 5783.00    1.00274   0.97950    0.000
 5784.00    1.00403   0.97839    0.000
 5785.00    1.00965   0.98005    0.000
 5786.00    1.01947   0.98481    0.000
 5787.00    1.03038   0.99139    0.000
 5788.00    1.03664   0.99814    0.000
 5789.00    1.03668   1.00401    0.000
 5790.00    1.03535   1.00863    0.000
 5791.00    1.03754   1.01267    0.000
 5792.00    1.04489   1.01674    0.000
 5793.00    1.05482   1.02052    0.000
 5794.00    1.06155   1.02369    0.000
 5795.00    1.06176   1.02612    0.000
 5796.00    1.05678   1.02758    0.000
 5797.00    1.05067   1.02869    0.000
 5798.00    1.04837   1.03078    0.000
 5799.00    1.05218   1.03394    0.000
 5800.00    1.06045   1.03693    0.000
 5801.00    1.06899   1.03881    0.000
 5802.00    1.07282   1.03916    0.000
 5803.00    1.07058   1.03784    0.000
 5804.00    1.06534   1.03552    0.000
 5805.00    1.06080   1.03340    0.000
 5806.00    1.05932   1.03210    0.000
 5807.00    1.06055   1.03174    0.000
 5808.00    1.06214   1.03216    0.000
 5809.00    1.06386   1.03311    0.000
 5810.00    1.06745   1.03420    0.000
 5811.00    1.07092   1.03490    0.000
 5812.00    1.06907   1.03480    0.000
 5813.00    1.06183   1.03398    0.000
 5814.00    1.05453   1.03270    0.000
 5815.00    1.04968   1.03156    0.000
 5816.00    1.04636   1.03168    0.000
 5817.00    1.04655   1.03377    0.000
 5818.00    1.05453   1.03717    0.000
 5819.00    1.06921   1.04073    0.000
 5820.00    1.08383   1.04382    0.000
 5821.00    1.09234   1.04614    0.000
 5822.00    1.09212   1.04761    0.000
 5823.00    1.08626   1.04853    0.000
 5824.00    1.08129   1.04919    0.000
 5825.00    1.07920   1.04966    0.000
 5826.00    1.07769   1.04990    0.000
 5827.00    1.07651   1.05002    0.000
 5828.00    1.07761   1.05009    0.000
 5829.00    1.08130   1.04997    0.000
 5830.00    1.08581   1.04935    0.000
 5831.00    1.08882   1.04820    0.000
 5832.00    1.08886   1.04669    0.000
 5833.00    1.08740   1.04487    0.000
 5834.00    1.08735   1.04308    0.000
 5835.00    1.08855   1.04203    0.000
 5836.00    1.08838   1.04189    0.000
 5837.00    1.08569   1.04218    0.000
 5838.00    1.08122   1.04292    0.000
 5839.00    1.07659   1.04447    0.000
 5840.00    1.07340   1.04643    0.000
 5841.00    1.07198   1.04790    0.000
 5842.00    1.07160   1.04828   -2.000
 5843.00    1.07162   1.04733   -2.000
 5844.00    1.07165   1.04510   -2.000
 5845.00    1.07141   1.04181   -2.000
 5846.00    1.07065   1.03774   -2.000
 5847.00    1.06897   1.03335   -2.000
 5848.00    1.06622   1.02912   -2.000
 5849.00    1.06321   1.02503   -2.000
 5850.00    1.06157   1.02055   -2.000
 5851.00    1.06320   1.01516   -2.000
 5852.00    1.06768   1.00894   -2.000
 5853.00    1.06826   1.00295   -2.000
 5854.00    1.05798   0.99813   -2.000
 5855.00    1.04068   0.99409   -2.000
 5856.00    1.02698   0.99014   -2.000
 5857.00    1.02479   0.98722   -2.000
 5858.00    1.03631   0.98700   -2.000
 5859.00    1.05598   0.98960   -2.000
 5860.00    1.07533   0.99360   -2.000
 5861.00    1.09070   0.99768   -2.000
 5862.00    1.10159   1.00145    0.000
 5863.00    1.10670   1.00537    0.000
 5864.00    1.10568   1.00935    0.000
 5865.00    1.10223   1.01248    0.000
 5866.00    1.10202   1.01471    0.000
 5867.00    1.10922   1.01702    0.000
 5868.00    1.12437   1.01985    0.000
 5869.00    1.14255   1.02246    0.000
 5870.00    1.15765   1.02410    0.000
 5871.00    1.16824   1.02442    0.000
 5872.00    1.17679   1.02354    0.000
 5873.00    1.18765   1.02177    0.000
 5874.00    1.20252   1.01922    0.000
 5875.00    1.21571   1.01605    0.000
 5876.00    1.21966   1.01272    0.000
 5877.00    1.21182   1.00962    0.000
 5878.00    1.19430   1.00659    0.000
 5879.00    1.17232   1.00339    0.000
 5880.00    1.15178   1.00034    0.000
 5881.00    1.13670   0.99743    0.000
 5882.00    1.12784   0.99333    0.000
 5883.00    1.12164   0.98627    0.000
 5884.00    1.11214   0.97559    0.000
 5885.00    1.09323   0.96135    0.000
 5886.00    1.06131   0.94324    0.000
 5887.00    1.01784   0.92098    0.000
 5888.00    0.96964   0.89534    0.000
 5889.00    0.92820   0.87003    0.000
 5890.00    0.90208   0.85149    0.000
 5891.00    0.89027   0.84293    0.000
 5892.00    0.88797   0.84117    0.000
 5893.00    0.89225   0.84238    0.000
 5894.00    0.90130   0.84493    0.000
 5895.00    0.91327   0.84952    0.000
 5896.00    0.92608   0.85980    0.000
 5897.00    0.93756   0.87682    0.000
 5898.00    0.94816   0.89667    0.000
 5899.00    0.96232   0.91637    0.000
 5900.00    0.98151   0.93553    0.000
 5901.00    0.99944   0.95339    9.925
 5902.00    1.00995   0.96871    9.235
 5903.00    1.01300   0.98050   10.166
 5904.00    1.01185   0.98850   15.242
 5905.00    1.01020   0.99366   26.669
 5906.00    1.00969   0.99739   29.445
 5907.00    1.00861   1.00030   24.237
 5908.00    1.00537   1.00220   23.246
 5909.00    1.00080   1.00292   24.241
 5910.00    0.99637   1.00274   24.109
 5911.00    0.99294   1.00172   23.531
 5912.00    0.99090   0.99946   23.750
 5913.00    0.99040   0.99610   24.446
 5914.00    0.99141   0.99300   25.007
 5915.00    0.99369   0.99146   25.379
 5916.00    0.99633   0.99172   25.675
 5917.00    0.99780   0.99343   25.861
 5918.00    0.99871   0.99595   25.848
 5919.00    1.00232   0.99889   25.605
 5920.00    1.00862   1.00189   25.294
 5921.00    1.01212   1.00426   25.253
 5922.00    1.00950   1.00590   25.596
 5923.00    1.00322   1.00704   26.059
 5924.00    0.99721   1.00758   26.295
 5925.00    0.99416   1.00749   26.127
 5926.00    0.99422   1.00667   25.713
 5927.00    0.99507   1.00498   25.466
 5928.00    0.99546   1.00268   25.506
 5929.00    0.99639   1.00036   25.541
 5930.00    0.99816   0.99901   25.407
 5931.00    0.99955   0.99914   25.262
 5932.00    1.00092   0.99986   25.168
 5933.00    1.00475   1.00025   24.980
 5934.00    1.01135   1.00064   24.712
 5935.00    1.01780   1.00189   24.608
 5936.00    1.02198   1.00389   24.749
 5937.00    1.02415   1.00553   24.970
 5938.00    1.02535   1.00635   25.171
 5939.00    1.02632   1.00649   25.419
 5940.00    1.02600   1.00596   25.708
 5941.00    1.02195   1.00530   25.907
 5942.00    1.01442   1.00510   26.005
 5943.00    1.00717   1.00528   26.143
 5944.00    1.00381   1.00563   26.311
 5945.00    1.00594   1.00581   26.318
 5946.00    1.01162   1.00525   26.159
 5947.00    1.01624   1.00358   26.065
 5948.00    1.01737   1.00124   26.162
 5949.00    1.01590   0.99932   26.393
 5950.00    1.01330   0.99823   26.633
 5951.00    1.01058   0.99703   26.759
 5952.00    1.00809   0.99536   26.730
 5953.00    1.00558   0.99448   26.599
 5954.00    1.00252   0.99510   26.466
 5955.00    0.99878   0.99620   26.409
 5956.00    0.99646   0.99702   26.358
 5957.00    0.99887   0.99829   26.163
 5958.00    1.00587   1.00085   25.921
 5959.00    1.01367   1.00442   25.908
 5960.00    1.01846   1.00805   26.138
 5961.00    1.01843   1.01114   26.367
 5962.00    1.01630   1.01358   26.483
 5963.00    1.01701   1.01537   26.562
 5964.00    1.01940   1.01648   26.660
 5965.00    1.01757   1.01700   26.777
 5966.00    1.01054   1.01764   26.921
 5967.00    1.00276   1.01886   27.091
 5968.00    0.99828   1.02028   27.186
 5969.00    0.99911   1.02149   27.072
 5970.00    1.00496   1.02216   26.831
 5971.00    1.01353   1.02189   26.683
 5972.00    1.02133   1.02041   26.691
 5973.00    1.02496   1.01766   26.772
 5974.00    1.02350   1.01376   26.873
 5975.00    1.01848   1.00918   26.972
 5976.00    1.01242   1.00482   27.012
 5977.00    1.00761   1.00138   26.965
 5978.00    1.00428   0.99903   27.013
 5979.00    1.00139   0.99763   27.351
 5980.00    0.99924   0.99662   27.702
 5981.00    0.99851   0.99519   27.595
 5982.00    0.99750   0.99293   27.263
 5983.00    0.99370   0.99015   27.278
 5984.00    0.98821   0.98809   27.531
 5985.00    0.98436   0.98785   27.520
 5986.00    0.98356   0.98896   27.257
 5987.00    0.98512   0.99072   27.111
 5988.00    0.98751   0.99324   27.156
 5989.00    0.98952   0.99633   27.240
 5990.00    0.99173   0.99917   27.297
 5991.00    0.99546   1.00129   27.346
 5992.00    1.00042   1.00314   27.391
 5993.00    1.00464   1.00486   27.442
 5994.00    1.00505   1.00560   27.575
 5995.00    0.99979   1.00487   27.832
 5996.00    0.99150   1.00296   28.039
 5997.00    0.98500   1.00065   28.003
 5998.00    0.98285   0.99880   27.877
 5999.00    0.98502   0.99750   27.888
 6000.00    0.98968   0.99637   27.856
 6001.00    0.99439   0.99485   27.568
 6002.00    0.99767   0.99272   27.382
 6003.00    0.99884   0.99078   27.688
 6004.00    0.99747   0.98949   28.099
 6005.00    0.99395   0.98796   28.005
 6006.00    0.99034   0.98571   27.625
 6007.00    0.98908   0.98326   27.503
 6008.00    0.99106   0.98199   27.695
 6009.00    0.99535   0.98287   27.953
 6010.00    0.99929   0.98449   28.066
 6011.00    1.00008   0.98497   27.978
 6012.00    0.99682   0.98429   27.871
 6013.00    0.99054   0.98352   27.933
 6014.00    0.98380   0.98326   28.099
 6015.00    0.97986   0.98257   28.201
 6016.00    0.98154   0.98088   28.183
 6017.00    0.98862   0.97923   28.097
 6018.00    0.99543   0.97819   28.056
 6019.00    0.99608   0.97727   28.124
 6020.00    0.99044   0.97669   28.213
 6021.00    0.98219   0.97717   28.231
 6022.00    0.97570   0.97887   28.245
 6023.00    0.97428   0.98145   28.330
 6024.00    0.97857   0.98476   28.414
 6025.00    0.98724   0.98887   28.409
 6026.00    0.99785   0.99320   28.358
 6027.00    1.00763   0.99745   28.321
 6028.00    1.01418   1.00183   28.266
 6029.00    1.01695   1.00594   28.277
 6030.00    1.01830   1.00935   28.675
 6031.00    1.02008   1.01220   29.055
 6032.00    1.02075   1.01476   27.749
 6033.00    1.01850   1.01687   25.917
 6034.00    1.01412   1.01813   28.503
 6035.00    1.00989   1.01862   36.082
 6036.00    1.00821   1.01869   26.716
 6037.00    1.00971   1.01841   13.891
 6038.00    1.01220   1.01772    9.691
 6039.00    1.01381   1.01667    9.242
 6040.00    1.01536   1.01573    9.918
 6041.00    1.01779   1.01534   10.050
 6042.00    1.02015   1.01569    9.779
 6043.00    1.02084   1.01686    9.749
 6044.00    1.01886   1.01834    9.813
 6045.00    1.01524   1.01975    9.782
 6046.00    1.01347   1.02111    9.903
 6047.00    1.01480   1.02211   10.122
 6048.00    1.01583   1.02234    9.725
 6049.00    1.01431   1.02176    9.141
 6050.00    1.01272   1.02043   10.331
 6051.00    1.01396   1.01819   16.444
 6052.00    1.01820   1.01508   31.326
 6053.00    1.02266   1.01173   33.764
 6054.00    1.02247   1.00886   26.799
 6055.00    1.01629   1.00660   26.333
 6056.00    1.00885   1.00502   28.706
 6057.00    1.00475   1.00448   29.160
 6058.00    1.00491   1.00476   28.077
 6059.00    1.00828   1.00511   27.524
 6060.00    1.01308   1.00476   27.954
 6061.00    1.01697   1.00362   28.396
 6062.00    1.01747   1.00202   27.110
 6063.00    1.01388   1.00021   25.876
 6064.00    1.00809   0.99855   29.249
 6065.00    1.00349   0.99815   33.797
 6066.00    1.00369   1.00056   22.059
 6067.00    1.00990   1.00531   12.316
 6068.00    1.01975   1.01055    9.350
 6069.00    1.02882   1.01543    9.259
 6070.00    1.03236   1.01983    9.851
 6071.00    1.02987   1.02353    9.881
 6072.00    1.02587   1.02568    9.688
 6073.00    1.02352   1.02563    9.711
 6074.00    1.02200   1.02374    9.807
 6075.00    1.01846   1.02055    9.839
 6076.00    1.00997   1.01616    9.895
 6077.00    0.99726   1.01077   10.024
 6078.00    0.98533   1.00512   10.147
 6079.00    0.97850   1.00041   10.208
 6080.00    0.97857   0.99672   10.234
 6081.00    0.98568   0.99334   10.183
 6082.00    0.99876   0.99066    9.967
 6083.00    1.01573   0.98945    9.747
 6084.00    1.03405   0.98918    9.796
 6085.00    1.05246   0.98901    9.761
 6086.00    1.07045   0.98901    9.020
 6087.00    1.08395   0.98938    8.587
 6088.00    1.08594   0.98969   10.539
 6089.00    1.07389   0.98937   18.872
 6090.00    1.05176   0.98899   35.467
 6091.00    1.02691   0.98944   32.153
 6092.00    1.00752   0.99054   25.977
 6093.00    0.99809   0.99204   26.476
 6094.00    0.99806   0.99414   28.088
 6095.00    1.00279   0.99627   27.541
 6096.00    1.00588   0.99705   26.880
 6097.00    1.00511   0.99594   27.141
 6098.00    1.00244   0.99366   27.349
 6099.00    0.99843   0.99076   27.133
 6100.00    0.99170   0.98666   27.095
 6101.00    0.98230   0.98080   27.393
 6102.00    0.97246   0.97476   27.630
 6103.00    0.96578   0.97219   27.691
 6104.00    0.96570   0.97414   27.820
 6105.00    0.97232   0.97775   28.071
 6106.00    0.98254   0.98106   28.243
 6107.00    0.99289   0.98459   28.169
 6108.00    1.00050   0.98923   27.842
 6109.00    1.00362   0.99413   27.469
 6110.00    1.00207   0.99722   27.307
 6111.00    0.99812   0.99830   27.302
 6112.00    0.99548   0.99907   27.183
 6113.00    0.99641   1.00016   26.852
 6114.00    1.00136   1.00042   26.413
 6115.00    1.00979   0.99874   25.998
 6116.00    1.02002   0.99542   25.704
 6117.00    1.02863   0.99157   25.539
 6118.00    1.03118   0.98733   25.487
 6119.00    1.02433   0.98212   25.624
 6120.00    1.00774   0.97625   26.078
 6121.00    0.98710   0.97085   26.875
 6122.00    0.97097   0.96762   27.829
 6123.00    0.96320   0.96779   28.362
 6124.00    0.96227   0.97000   27.960
 6125.00    0.96301   0.97240   27.190
 6126.00    0.96067   0.97497   26.966
 6127.00    0.95742   0.97801   27.239
 6128.00    0.95896   0.98113   27.428
 6129.00    0.96606   0.98355   27.449
 6130.00    0.97510   0.98450   27.581
 6131.00    0.98189   0.98312   27.833
 6132.00    0.98321   0.97923   28.027
 6133.00    0.97830   0.97358   28.164
 6134.00    0.96861   0.96650   28.380
 6135.00    0.95700   0.95785   28.761
 6136.00    0.94681   0.94874   29.234
 6137.00    0.94058   0.94280   29.453
 6138.00    0.93946   0.94304   29.168
 6139.00    0.94279   0.94755   28.815
 6140.00    0.94911   0.95250   28.916
 6141.00    0.95771   0.95738   29.187
 6142.00    0.96784   0.96420   29.066
 6143.00    0.97729   0.97245   28.684
 6144.00    0.98338   0.97876   28.479
 6145.00    0.98460   0.98172   28.471
 6146.00    0.98083   0.98270   28.468
 6147.00    0.97327   0.98282   28.432
 6148.00    0.96452   0.98206   28.417
 6149.00    0.95857   0.98057   28.417
 6150.00    0.95803   0.97917   28.408
 6151.00    0.96082   0.97849   28.417
 6152.00    0.96284   0.97808   28.487
 6153.00    0.96194   0.97707   28.617
 6154.00    0.95899   0.97495   28.721
 6155.00    0.95802   0.97179   28.608
 6156.00    0.96133   0.96719   28.175
 6157.00    0.96393   0.96042   27.618
 6158.00    0.95896   0.95198   27.255
 6159.00    0.94449   0.94259   27.323
 6160.00    0.92427   0.93210   27.843
 6161.00    0.90708   0.92151   28.442
 6162.00    0.89974   0.91410   28.748
 6163.00    0.90012   0.91161   28.917
 6164.00    0.90247   0.91229   29.207
 6165.00    0.90361   0.91419   29.439
 6166.00    0.90322   0.91749   29.375
 6167.00    0.90332   0.92200   29.155
 6168.00    0.90515   0.92545   29.038
 6169.00    0.90673   0.92732   29.118
 6170.00    0.90655   0.93032   29.352
 6171.00    0.90703   0.93550   29.603
 6172.00    0.91133   0.94066   29.721
 6173.00    0.92016   0.94482   29.640
 6174.00    0.93151   0.94934   29.334
 6175.00    0.94101   0.95434   28.799
 6176.00    0.94548   0.95871   28.182
 6177.00    0.94583   0.96235   27.819
 6178.00    0.94532   0.96582   27.912
 6179.00    0.94773   0.96872   28.340
 6180.00    0.95426   0.97081   28.835
 6181.00    0.96174   0.97249   29.144
 6182.00    0.96590   0.97338   29.192
 6183.00    0.96427   0.97276   29.177
 6184.00    0.95748   0.97065   29.297
 6185.00    0.94949   0.96700   29.531
 6186.00    0.94281   0.96151   29.491
 6187.00    0.93561   0.95536   28.524
 6188.00    0.92676   0.95005   26.872
 6189.00    0.91891   0.94561   25.707
 6190.00    0.91521   0.94142   25.091
 6191.00    0.91677   0.93871   23.810
 6192.00    0.92260   0.94007   22.797
 6193.00    0.93015   0.94474   25.485
 6194.00    0.93786   0.94938   30.746
 6195.00    0.94630   0.95311   22.971
 6196.00    0.95437   0.95709   13.325
 6197.00    0.95784   0.96091   10.067
 6198.00    0.95502   0.96275    9.966
 6199.00    0.94948   0.96274   10.647
 6200.00    0.94572   0.96321   10.670
 6201.00    0.94651   0.96538   10.589
 6202.00    0.95257   0.96812   10.726
 6203.00    0.96256   0.97035   10.192
 6204.00    0.97328   0.97231    9.547
 6205.00    0.98050   0.97425   10.994
 6206.00    0.98210   0.97550   18.019
 6207.00    0.97916   0.97507   33.955
 6208.00    0.97307   0.97261   34.819
 6209.00    0.96437   0.96834   27.474
 6210.00    0.95450   0.96262   26.061
 6211.00    0.94621   0.95593   26.284
 6212.00    0.94079   0.94858   25.212
 6213.00    0.93694   0.94087   24.231
 6214.00    0.93168   0.93387   24.425
 6215.00    0.92188   0.92884   25.411
 6216.00    0.90887   0.92619   26.605
 6217.00    0.89885   0.92542   27.637
 6218.00    0.89590   0.92535   28.218
 6219.00    0.89941   0.92558   28.179
 6220.00    0.90626   0.92704   27.774
 6221.00    0.91252   0.92995   27.559
 6222.00    0.91648   0.93301   27.750
 6223.00    0.91900   0.93504   28.147
 6224.00    0.92026   0.93596   28.600
 6225.00    0.91901   0.93602   29.137
 6226.00    0.91478   0.93498   29.646
 6227.00    0.90838   0.93260   29.831
 6228.00    0.90035   0.92900   29.638
 6229.00    0.89096   0.92466   29.329
 6230.00    0.88177   0.92091   29.147
 6231.00    0.87544   0.91961   29.188
 6232.00    0.87332   0.92100   29.368
 6233.00    0.87485   0.92381   29.500
 6234.00    0.87851   0.92730   29.616
 6235.00    0.88266   0.93051   29.923
 6236.00    0.88704   0.93231   30.285
 6237.00    0.89230   0.93195   30.221
 6238.00    0.89715   0.92943   29.523
 6239.00    0.89853   0.92557   28.417
 6240.00    0.89459   0.92146   27.276
 6241.00    0.88580   0.91778   26.410
 6242.00    0.87523   0.91430   25.897
 6243.00    0.86723   0.91153   25.712
 6244.00    0.86363   0.91090   26.033
 6245.00    0.86363   0.91203   27.106
 6246.00    0.86651   0.91372   28.539
 6247.00    0.87277   0.91588   29.325
 6248.00    0.88517   0.91840   29.398
 6249.00    0.90667   0.91996   29.402
 6250.00    0.93482   0.91955   -2.000
 6251.00    0.96108   0.91695   -2.000
 6252.00    0.97282   0.91258   -2.000
 6253.00    0.96022   0.90778   -2.000
 6254.00    0.93056   0.90369   -2.000
 6255.00    0.90211   0.90054   -2.000
 6256.00    0.88272   0.89823   -2.000
 6257.00    0.86999   0.89769   -2.000
 6258.00    0.86292   0.89996   -2.000
 6259.00    0.86275   0.90488   -2.000
 6260.00    0.86926   0.91097   -2.000
 6261.00    0.88060   0.91711   -2.000
 6262.00    0.89464   0.92371   24.953
 6263.00    0.90898   0.93002   24.984
 6264.00    0.92069   0.93418   25.942
 6265.00    0.92691   0.93637   27.499
 6266.00    0.92648   0.93859   28.977
 6267.00    0.92031   0.94085   29.696
 6268.00    0.91175   0.94185   29.817
 6269.00    0.90522   0.94215   30.000
 6270.00    0.90357   0.94325   30.229
 6271.00    0.90729   0.94516   30.084
 6272.00    0.91396   0.94685   29.650
 6273.00    0.92041   0.94787   29.309
 6274.00    0.92647   0.94823   29.161
 6275.00    0.93301   0.94803   29.053
 6276.00    0.93786   0.94720   28.751
 6277.00    0.93775   0.94575   28.249
 6278.00    0.93234   0.94389   28.108
 6279.00    0.92408   0.94198   28.757
 6280.00    0.91667   0.94051    0.000
 6281.00    0.91321   0.94049    0.000
 6282.00    0.91382   0.94216    0.000
 6283.00    0.91638   0.94492    0.000
 6284.00    0.91828   0.94814    0.000
 6285.00    0.91830   0.95139    0.000
 6286.00    0.91856   0.95467    0.000
 6287.00    0.92184   0.95759    0.000
 6288.00    0.92761   0.95943    0.000
 6289.00    0.93412   0.95971    0.000
 6290.00    0.94169   0.95854    0.000
 6291.00    0.95055   0.95634    0.000
 6292.00    0.95772   0.95343    0.000
 6293.00    0.95992   0.95015    0.000
 6294.00    0.95753   0.94681    0.000
 6295.00    0.95438   0.94306    0.000
 6296.00    0.95653   0.93861    0.000
 6297.00    0.96819   0.93447    0.000
 6298.00    0.98726   0.93185    0.000
 6299.00    1.00758   0.93035    0.000
 6300.00    1.02212   0.92883    0.000
 6301.00    1.02554   0.92781    0.000
 6302.00    1.01654   0.92904    0.000
 6303.00    0.99796   0.93267    0.000
 6304.00    0.97646   0.93676    0.000
 6305.00    0.95923   0.94017    0.000
 6306.00    0.95059   0.94371    0.000
 6307.00    0.94996   0.94760    0.000
 6308.00    0.95086   0.95017    0.000
 6309.00    0.94815   0.95019    0.000
 6310.00    0.94435   0.94817    0.000
 6311.00    0.94369   0.94539    0.000
 6312.00    0.94618   0.94224    0.000
 6313.00    0.94865   0.93800    0.000
 6314.00    0.94670   0.93266    0.000
 6315.00    0.93924   0.92809    0.000
 6316.00    0.93168   0.92557    0.000
 6317.00    0.92944   0.92380    0.000
 6318.00    0.93260   0.92253    0.000
 6319.00    0.93781   0.92398    0.000
 6320.00    0.94070   0.92826    0.000
 6321.00    0.94030   0.93294   24.331
 6322.00    0.94150   0.93729   26.908
 6323.00    0.94728   0.94255   29.007
 6324.00    0.95359   0.94828   29.988
 6325.00    0.95633   0.95259   30.063
 6326.00    0.95630   0.95514   30.096
 6327.00    0.95497   0.95691   30.530
 6328.00    0.95155   0.95849   30.856
 6329.00    0.94521   0.95888   30.640
 6330.00    0.93679   0.95726   30.256
 6331.00    0.92837   0.95460   30.092
 6332.00    0.92260   0.95205   30.087
 6333.00    0.91989   0.94903   30.067
 6334.00    0.91735   0.94445   29.986
 6335.00    0.91339   0.93943   29.974
 6336.00    0.91026   0.93645   30.273
 6337.00    0.91106   0.93577   30.687
 6338.00    0.91741   0.93549   30.397
 6339.00    0.92687   0.93508   29.353
 6340.00    0.93266   0.93590   28.652
 6341.00    0.93084   0.93740   28.845
 6342.00    0.92380   0.93762   29.471
 6343.00    0.91658   0.93674   30.017
 6344.00    0.91423   0.93667   30.425
 6345.00    0.91932   0.93786   30.713
 6346.00    0.93075   0.93918   30.763
 6347.00    0.94479   0.94082   30.570
 6348.00    0.95637   0.94361   30.332
 6349.00    0.96245   0.94663   30.219
 6350.00    0.96330   0.94829   30.266
 6351.00    0.95999   0.94876   30.382
 6352.00    0.95314   0.94834   30.423
 6353.00    0.94327   0.94600   30.498
 6354.00    0.93131   0.94148   30.960
 6355.00    0.92008   0.93646   31.637
 6356.00    0.91379   0.93180   31.700
 6357.00    0.91295   0.92627   31.079
 6358.00    0.91354   0.91986   30.740
 6359.00    0.91297   0.91478   31.093
 6360.00    0.91210   0.91193   31.674
 6361.00    0.91312   0.91002   31.992
 6362.00    0.91787   0.90918   31.913
 6363.00    0.92536   0.91101   31.558
 6364.00    0.93193   0.91532   31.164
 6365.00    0.93536   0.92035   30.895
 6366.00    0.93628   0.92555   30.798
 6367.00    0.93712   0.93142   30.857
 6368.00    0.94111   0.93746   31.001
 6369.00    0.95003   0.94231   31.055
 6370.00    0.96338   0.94594   30.794
 6371.00    0.97849   0.94956   30.234
 6372.00    0.99143   0.95340   29.644
 6373.00    1.00015   0.95617   29.314
 6374.00    1.00489   0.95730   29.420
 6375.00    1.00595   0.95776   29.788
 6376.00    1.00298   0.95799   29.982
 6377.00    0.99495   0.95722   29.943
 6378.00    0.98117   0.95530   30.015
 6379.00    0.96432   0.95336   30.307
 6380.00    0.94985   0.95201   30.613
 6381.00    0.94138   0.95130   30.766
 6382.00    0.93943   0.95131   30.772
 6383.00    0.94161   0.95176   30.846
 6384.00    0.94414   0.95234   31.216
 6385.00    0.94574   0.95343   31.611
 6386.00    0.94727   0.95489   31.455
 6387.00    0.94788   0.95541   30.934
 6388.00    0.94544   0.95427   30.776
 6389.00    0.94042   0.95231   31.116
 6390.00    0.93526   0.95025   31.523
 6391.00    0.93048   0.94762   31.642
 6392.00    0.92518   0.94401   31.413
 6393.00    0.92050   0.94069   31.115
 6394.00    0.91878   0.93932   31.095
 6395.00    0.91999   0.93916   31.254
 6396.00    0.92162   0.93880   31.220
 6397.00    0.92077   0.93878   31.026
 6398.00    0.91588   0.93923   31.007
 6399.00    0.90963   0.93905   31.270
 6400.00    0.90692   0.93918   31.619
 6401.00    0.90956   0.94163   31.621
 6402.00    0.91605   0.94457   30.935
 6403.00    0.92343   0.94574   29.885
 6404.00    0.92893   0.94646   29.074
 6405.00    0.93225   0.94789   28.702
 6406.00    0.93477   0.94786   28.670
 6407.00    0.93701   0.94540   28.825
 6408.00    0.93833   0.94312   29.051
 6409.00    0.93730   0.94239   29.380
 6410.00    0.93287   0.94124   29.867
 6411.00    0.92625   0.93926   30.311
 6412.00    0.92034   0.93883   30.459
 6413.00    0.91809   0.94007   30.496
 6414.00    0.92105   0.94062   30.631
 6415.00    0.92776   0.94002   30.279
 6416.00    0.93450   0.93956   28.963
 6417.00    0.93733   0.93932   27.672
 6418.00    0.93393   0.93905   27.402
 6419.00    0.92596   0.93870   27.636
 6420.00    0.91763   0.93863   27.382
 6421.00    0.91293   0.94009   26.882
 6422.00    0.91411   0.94387   26.861
 6423.00    0.92029   0.94835   27.197
 6424.00    0.92823   0.95158   27.398
 6425.00    0.93393   0.95386   27.511
 6426.00    0.93467   0.95552   27.857
 6427.00    0.93141   0.95577   28.468
 6428.00    0.92677   0.95400   29.261
 6429.00    0.92201   0.95066   30.384
 6430.00    0.91779   0.94675   31.463
 6431.00    0.91553   0.94398   30.568
 6432.00    0.91637   0.94322   28.228
 6433.00    0.91961   0.94318   29.844
 6434.00    0.92330   0.94280   36.459
 6435.00    0.92534   0.94298   32.225
 6436.00    0.92514   0.94433   16.633
 6437.00    0.92518   0.94530   10.936
 6438.00    0.92753   0.94508   10.022
 6439.00    0.93001   0.94585   10.724
 6440.00    0.92996   0.94925   11.035
 6441.00    0.92873   0.95335   10.773
 6442.00    0.92955   0.95630   10.688
 6443.00    0.93459   0.95871   10.700
 6444.00    0.94241   0.96034   10.560
 6445.00    0.94637   0.95948   10.568
 6446.00    0.94187   0.95611   10.852
 6447.00    0.93316   0.95148   10.704
 6448.00    0.92647   0.94543   10.127
 6449.00    0.92292   0.93852   10.904
 6450.00    0.92107   0.93358   15.541
 6451.00    0.91994   0.93188   25.868
 6452.00    0.91987   0.93172   29.047
 6453.00    0.92275   0.93243   24.533
 6454.00    0.92905   0.93436   24.202
 6455.00    0.93548   0.93687   26.739
 6456.00    0.93799   0.93945   28.165
 6457.00    0.93458   0.94196   28.092
 6458.00    0.92656   0.94330   28.200
 6459.00    0.91882   0.94337   28.644
 6460.00    0.91528   0.94312   29.076
 6461.00    0.91550   0.94202   29.685
 6462.00    0.91721   0.93997   30.573
 6463.00    0.91858   0.93950   31.191
 6464.00    0.91936   0.94136   31.124
 6465.00    0.92124   0.94325   30.801
 6466.00    0.92552   0.94478   30.709
 6467.00    0.93145   0.94707   30.844
 6468.00    0.93685   0.94955   31.045
 6469.00    0.93902   0.95081   31.219
 6470.00    0.93683   0.95081   31.323
 6471.00    0.93189   0.95025   31.325
 6472.00    0.92667   0.95029   31.173
 6473.00    0.92306   0.95097   30.793
 6474.00    0.92204   0.95102   30.227
 6475.00    0.92339   0.95063   29.668
 6476.00    0.92533   0.95089   29.257
 6477.00    0.92479   0.95083   29.034
 6478.00    0.92053   0.94905   29.263
 6479.00    0.91463   0.94671   30.431
 6480.00    0.91107   0.94466   31.729
 6481.00    0.91397   0.94197   30.605
 6482.00    0.92311   0.93919   28.635
 6483.00    0.93258   0.93819   30.782
 6484.00    0.93648   0.93865   33.557
 6485.00    0.93251   0.93870   22.799
 6486.00    0.92331   0.93794   13.430
 6487.00    0.91553   0.93679   10.432
 6488.00    0.91226   0.93409   10.440
 6489.00    0.91049   0.92797   11.162
 6490.00    0.90806   0.91843   11.197
 6491.00    0.90631   0.90739   10.979
 6492.00    0.90545   0.89580   11.012
 6493.00    0.90320   0.88353   11.060
 6494.00    0.89852   0.87219   11.051
 6495.00    0.89299   0.86493   11.299
 6496.00    0.88877   0.86286   11.542
 6497.00    0.88748   0.86501   10.959
 6498.00    0.88956   0.87064   10.465
 6499.00    0.89443   0.87932   12.434
 6500.00    0.90212   0.89040   20.663
 6501.00    0.91326   0.90217   36.333
 6502.00    0.92625   0.91290   34.904
 6503.00    0.93737   0.92195   27.912
 6504.00    0.94534   0.92939   26.361
 6505.00    0.95204   0.93521   26.393
 6506.00    0.95813   0.93937   25.712
 6507.00    0.96216   0.94180   25.005
 6508.00    0.96340   0.94282   25.128
 6509.00    0.96275   0.94340   26.354
 6510.00    0.96161   0.94362   28.401
 6511.00    0.96171   0.94269   30.209
 6512.00    0.96576   0.94085   30.766
 6513.00    0.97602   0.93898   30.047
 6514.00    0.98894   0.93667   28.867
 6515.00    0.99654   0.93376   28.126
 6516.00    0.99619   0.93159   28.001
 6517.00    0.99233   0.93071   28.135
 6518.00    0.99167   0.93039   28.353
 6519.00    0.99978   0.93104   28.719
 6520.00    1.01590   0.93334   29.050
 6521.00    1.03395   0.93601   28.975
 6522.00    1.05002   0.93768   -1.000
 6523.00    1.06396   0.93882   -1.000
 6524.00    1.07740   0.94001   -1.000
 6525.00    1.09250   0.94030   -1.000
 6526.00    1.11016   0.93914   -1.000
 6527.00    1.12947   0.93766   -1.000
 6528.00    1.14741   0.93678    0.000
 6529.00    1.16068   0.93608    0.000
 6530.00    1.17006   0.93518    0.000
 6531.00    1.18013   0.93449    0.000
 6532.00    1.19587   0.93421    0.000
 6533.00    1.22083   0.93425    0.000
 6534.00    1.25500   0.93490    0.000
 6535.00    1.29554   0.93609    0.000
 6536.00    1.33957   0.93698    0.000
 6537.00    1.38553   0.93723    0.000
 6538.00    1.43473   0.93739    0.000
 6539.00    1.49025   0.93729    0.000
 6540.00    1.55389   0.93590    0.000
 6541.00    1.62719   0.93271    0.000
 6542.00    1.71479   0.92845    0.000
 6543.00    1.82489   0.92422    0.000
 6544.00    1.96852   0.91999    0.000
 6545.00    2.15051   0.91516    0.000
 6546.00    2.35313   0.91045    0.000
 6547.00    2.54238   0.90726    0.000
 6548.00    2.68630   0.90508    0.000
 6549.00    2.76229   0.90233    0.000
 6550.00    2.76418   0.89852    0.000
 6551.00    2.70391   0.89407    0.000
 6552.00    2.61165   0.88890    0.000
 6553.00    2.52210   0.88209    0.000
 6554.00    2.45181   0.87281    0.000
 6555.00    2.40601   0.86157    0.000
 6556.00    2.39688   0.84909    0.000
 6557.00    2.46005   0.83405    0.000
 6558.00    2.67316   0.81477    0.000
 6559.00    3.10367   0.79428    0.000
 6560.00    3.72446   0.77679    0.000
 6561.00    4.41319   0.76116    0.000
 6562.00    4.97498   0.74745    0.000
 6563.00    5.21608   0.74315    0.000
 6564.00    5.04609   0.75140    0.000
 6565.00    4.49817   0.76522    0.000
 6566.00    3.73219   0.78112    0.000
 6567.00    2.95846   0.80083    0.000
 6568.00    2.33223   0.82130    0.000
 6569.00    1.92365   0.83761    0.000
 6570.00    1.70032   0.85003    0.000
 6571.00    1.58098   0.85997    0.000
 6572.00    1.50680   0.86732    0.000
 6573.00    1.44669   0.87291    0.000
 6574.00    1.39210   0.87822    0.000
 6575.00    1.34538   0.88376    0.000
 6576.00    1.30754   0.88940    0.000
 6577.00    1.28996   0.89472    0.000
 6578.00    1.32824   0.89955    0.000
 6579.00    1.46436   0.90376    0.000
 6580.00    1.72255   0.90696    0.000
 6581.00    2.07948   0.90921    0.000
 6582.00    2.43900   0.91109    0.000
 6583.00    2.68421   0.91287    0.000
 6584.00    2.73670   0.91422    0.000
 6585.00    2.57535   0.91507    0.000
 6586.00    2.24737   0.91572    0.000
 6587.00    1.84380   0.91613    0.000
 6588.00    1.46989   0.91518    0.000
 6589.00    1.20080   0.91257    0.000
 6590.00    1.04445   0.90979    0.000
 6591.00    0.97002   0.90693    0.000
 6592.00    0.93927   0.90301    0.000
 6593.00    0.92353   0.89959    0.000
 6594.00    0.91522   0.89904    0.000
 6595.00    0.91483   0.90050    0.000
 6596.00    0.91897   0.90250    0.000
 6597.00    0.92399   0.90543    0.000
 6598.00    0.92930   0.90944    0.000
 6599.00    0.93440   0.91348    0.000
 6600.00    0.93657   0.91665    0.000
 6601.00    0.93410   0.91847    0.000
 6602.00    0.92868   0.91898    0.000
 6603.00    0.92326   0.91840    0.000
 6604.00    0.92005   0.91659    0.000
 6605.00    0.91888   0.91391    0.000
 6606.00    0.91675   0.91165    0.000
 6607.00    0.91244   0.91026    0.000
 6608.00    0.90922   0.90918    0.000
 6609.00    0.91019   0.90889   31.447
 6610.00    0.91516   0.91069   31.558
 6611.00    0.92303   0.91401   31.511
 6612.00    0.93318   0.91693   31.194
 6613.00    0.94347   0.91945   30.735
 6614.00    0.94947   0.92268   30.522
 6615.00    0.94833   0.92615   30.652
 6616.00    0.94109   0.92834   30.719
 6617.00    0.93096   0.92940   30.521
 6618.00    0.92187   0.93036   30.394
 6619.00    0.91651   0.93083   30.539
 6620.00    0.91515   0.92996   30.711
 6621.00    0.91569   0.92822   30.758
 6622.00    0.91442   0.92643   30.867
 6623.00    0.91001   0.92414   31.153
 6624.00    0.90503   0.92128   31.443
 6625.00    0.90258   0.91889   31.509
 6626.00    0.90424   0.91729   31.251
 6627.00    0.90930   0.91552   30.866
 6628.00    0.91489   0.91343   30.779
 6629.00    0.91824   0.91133   31.075
 6630.00    0.91785   0.90920   31.350
 6631.00    0.91337   0.90721   31.329
 6632.00    0.90565   0.90543   31.145
 6633.00    0.89711   0.90396   31.034
 6634.00    0.89123   0.90360   31.148
 6635.00    0.88966   0.90461   31.476
 6636.00    0.89143   0.90621   31.830
 6637.00    0.89570   0.90811   32.012
 6638.00    0.90240   0.90989   31.907
 6639.00    0.90944   0.91068   31.544
 6640.00    0.91272   0.91107   31.097
 6641.00    0.91078   0.91175   30.844
 6642.00    0.90605   0.91147   31.046
 6643.00    0.90216   0.91010   31.520
 6644.00    0.90205   0.90988   31.657
 6645.00    0.90532   0.91110   31.367
 6646.00    0.90860   0.91180   31.192
 6647.00    0.91086   0.91210   31.195
 6648.00    0.91426   0.91331   30.889
 6649.00    0.92008   0.91485   30.317
 6650.00    0.92754   0.91553   30.076
 6651.00    0.93489   0.91572   30.263
 6652.00    0.94025   0.91590   30.418
 6653.00    0.94264   0.91584   30.354
 6654.00    0.94202   0.91549   30.299
 6655.00    0.93822   0.91483   30.287
 6656.00    0.93124   0.91368   30.123
 6657.00    0.92334   0.91225   29.839
 6658.00    0.91834   0.91044   29.685
 6659.00    0.91745   0.90762   29.674
 6660.00    0.91854   0.90452   29.614
 6661.00    0.91769   0.90192   29.576
 6662.00    0.91133   0.89912   29.847
 6663.00    0.90071   0.89632   30.422
 6664.00    0.89120   0.89526   30.958
 6665.00    0.88695   0.89588   31.143
 6666.00    0.88922   0.89690   30.904
 6667.00    0.89605   0.89862   30.557
 6668.00    0.90370   0.90144   30.512
 6669.00    0.91013   0.90449   30.603
 6670.00    0.91567   0.90686   30.330
 6671.00    0.92209   0.90838   29.890
 6672.00    0.93071   0.90883   29.897
 6673.00    0.93873   0.90743   30.291
 6674.00    0.94117   0.90447   30.502
 6675.00    0.93758   0.90138   30.457
 6676.00    0.93182   0.89813   30.500
 6677.00    0.92796   0.89395   30.578
 6678.00    0.92816   0.89101   30.384
 6679.00    0.93042   0.89123   30.064
 6680.00    0.93046   0.89297   30.025
 6681.00    0.92685   0.89483   30.263
 6682.00    0.92062   0.89800   30.458
 6683.00    0.91214   0.90222   30.427
 6684.00    0.90219   0.90568   30.325
 6685.00    0.89490   0.90817   30.770
 6686.00    0.89465   0.91024   31.993
 6687.00    0.89924   0.91162   31.915
 6688.00    0.90298   0.91214   29.404
 6689.00    0.90485   0.91232   29.514
 6690.00    0.90710   0.91213   36.459
 6691.00    0.91001   0.91115   34.702
 6692.00    0.91181   0.90951   18.575
 6693.00    0.91029   0.90782   11.617
 6694.00    0.90411   0.90602   10.255
 6695.00    0.89465   0.90389   11.006
 6696.00    0.88453   0.90204    0.000
 6697.00    0.87485   0.90114    0.000
 6698.00    0.86592   0.90086    0.000
 6699.00    0.85898   0.90078    0.000
 6700.00    0.85550   0.90113    0.000
 6701.00    0.85571   0.90173    0.000
 6702.00    0.85806   0.90212    0.000
 6703.00    0.85896   0.90201    0.000
 6704.00    0.85607   0.90172    0.000
 6705.00    0.85264   0.90165    0.000
 6706.00    0.85401   0.90141    0.000
 6707.00    0.86178   0.90078    0.000
 6708.00    0.87385   0.90011    0.000
 6709.00    0.88596   0.89912    0.000
 6710.00    0.89970   0.89729    0.000
 6711.00    0.93174   0.89499    0.000
 6712.00    1.00192   0.89222    0.000
 6713.00    1.11652   0.88856    0.000
 6714.00    1.26360   0.88499    0.000
 6715.00    1.41074   0.88245    0.000
 6716.00    1.51704   0.88035    0.000
 6717.00    1.54853   0.87872    0.000
 6718.00    1.49153   0.87897    0.000
 6719.00    1.36485   0.88124    0.000
 6720.00    1.20703   0.88378    0.000
 6721.00    1.05951   0.88604    0.000
 6722.00    0.95272   0.88880    0.000
 6723.00    0.89377   0.89186    0.000
 6724.00    0.87621   0.89405    0.000
 6725.00    0.89184   0.89520    0.000
 6726.00    0.93594   0.89632    0.000
 6727.00    1.01013   0.89772    0.000
 6728.00    1.11036   0.89869    0.000
 6729.00    1.21598   0.89919    0.000
 6730.00    1.30028   0.89986    0.000
 6731.00    1.34195   0.90047    0.000
 6732.00    1.32933   0.90051    0.000
 6733.00    1.26376   0.90003    0.000
 6734.00    1.16164   0.89925    0.000
 6735.00    1.05411   0.89817    0.000
 6736.00    0.96865   0.89689    0.000
 6737.00    0.91405   0.89535    0.000
 6738.00    0.88656   0.89342    0.000
 6739.00    0.87678   0.89156    0.000
 6740.00    0.87474   0.89031    0.000
 6741.00    0.87381   0.88919    0.000
 6742.00    0.87169   0.88766    0.000
 6743.00    0.87027   0.88640    0.000
 6744.00    0.87085   0.88581    0.000
 6745.00    0.87099   0.88495    0.000
 6746.00    0.86862   0.88359    0.000
 6747.00    0.86493   0.88277    0.000
 6748.00    0.86187   0.88222    0.000
 6749.00    0.86032   0.88136    0.000
 6750.00    0.85998   0.88114    0.000
 6751.00    0.85973   0.88201    0.000
 6752.00    0.85891   0.88305    0.000
 6753.00    0.85820   0.88443   32.080
 6754.00    0.85912   0.88712   31.864
 6755.00    0.86323   0.89013   31.532
 6756.00    0.86965   0.89285   31.460
 6757.00    0.87453   0.89575   31.323
 6758.00    0.87748   0.89847   30.925
 6759.00    0.88356   0.90047   30.590
 6760.00    0.89233   0.90167   30.548
 6761.00    0.89427   0.90203   30.660
 6762.00    0.88734   0.90134   30.709
 6763.00    0.88317   0.89985   30.583
 6764.00    0.88809   0.89788   30.322
 6765.00    0.89516   0.89567   30.094
 6766.00    0.89818   0.89320   29.981
 6767.00    0.89807   0.89076   29.914
 6768.00    0.89620   0.88944   29.892
 6769.00    0.89145   0.88934   30.024
 6770.00    0.88400   0.88964   30.229
 6771.00    0.87703   0.89070   30.188
 6772.00    0.87507   0.89314   29.932
 6773.00    0.88201   0.89604   29.900
 6774.00    0.89588   0.89872   30.014
 6775.00    0.90876   0.90131   29.491
 6776.00    0.91725   0.90349   28.006
 6777.00    0.92487   0.90448   26.047
 6778.00    0.93202   0.90435   24.151
 6779.00    0.93324   0.90317   22.622
 6780.00    0.92469   0.90074   21.641
 6781.00    0.90784   0.89753   21.303
 6782.00    0.89103   0.89403   21.436
 6783.00    0.88582   0.89053   21.618
 6784.00    0.89133   0.88777   21.662
 6785.00    0.89339   0.88608   21.772
 6786.00    0.88501   0.88523   22.256
 6787.00    0.87168   0.88550   23.371
 6788.00    0.86130   0.88660   25.002
 6789.00    0.85920   0.88745   26.463
 6790.00    0.86435   0.88811   27.164
 6791.00    0.87047   0.88894   27.160
 6792.00    0.87410   0.88919   26.907
 6793.00    0.87623   0.88877   26.911
 6794.00    0.87839   0.88862   27.366
 6795.00    0.88105   0.88880   28.150
 6796.00    0.88324   0.88892   29.051
 6797.00    0.88335   0.88943   29.842
 6798.00    0.88219   0.89037   30.320
 6799.00    0.88233   0.89124   30.400
 6800.00    0.88348   0.89200   30.259
 6801.00    0.88300   0.89285   30.224
 6802.00    0.88157   0.89334   30.386
 6803.00    0.88293   0.89317   30.572
 6804.00    0.88845   0.89295   30.558
 6805.00    0.89628   0.89279   30.216
 6806.00    0.90314   0.89203   29.698
 6807.00    0.90574   0.89113   29.331
 6808.00    0.90295   0.89082   29.319
 6809.00    0.89683   0.89032   29.447
 6810.00    0.89348   0.88947   28.487
 6811.00    0.89876   0.88915   25.517
 6812.00    0.90756   0.88924   22.117
 6813.00    0.90789   0.88924   19.878
 6814.00    0.89668   0.88925   18.792
 6815.00    0.88014   0.88958   18.411
 6816.00    0.86590   0.89034   18.605
 6817.00    0.86004   0.89119   19.431
 6818.00    0.86475   0.89196   20.719
 6819.00    0.87879   0.89286   21.917
 6820.00    0.89955   0.89382   22.340
 6821.00    0.92336   0.89478   21.773
 6822.00    0.94532   0.89567   21.039
 6823.00    0.96120   0.89614   21.115
 6824.00    0.97122   0.89604   22.026
 6825.00    0.97816   0.89570   23.126
 6826.00    0.98215   0.89527   23.920
 6827.00    0.98081   0.89433   24.286
 6828.00    0.97139   0.89315   24.337
 6829.00    0.95374   0.89261   24.286
 6830.00    0.93458   0.89260   24.286
 6831.00    0.92224   0.89256   24.416
 6832.00    0.91631   0.89228   24.714
 6833.00    0.91142   0.89193   25.160
 6834.00    0.90684   0.89125   25.625
 6835.00    0.90538   0.88959   25.859
 6836.00    0.90883   0.88686   25.548
 6837.00    0.91544   0.88356   24.632
 6838.00    0.91745   0.87999   23.618
 6839.00    0.90740   0.87637   23.044
 6840.00    0.88843   0.87342   22.985
 6841.00    0.87077   0.87159   23.293
 6842.00    0.86406   0.87109   23.891
 6843.00    0.87255   0.87216   24.692
 6844.00    0.89035   0.87448   25.433
 6845.00    0.90730   0.87744   25.822
 6846.00    0.91815   0.88052   25.898
 6847.00    0.92318   0.88336   25.774
 6848.00    0.92668   0.88557   25.208
 6849.00    0.93054   0.88687   24.145
 6850.00    0.92679   0.88700   23.264
 6851.00    0.91062   0.88598   23.105
 6852.00    0.89667   0.88449   23.375
 6853.00    0.89900   0.88262   23.626
 6854.00    0.90530   0.87980   24.115
 6855.00    0.89894   0.87702   25.198
 6856.00    0.88774   0.87536   26.311
 6857.00    0.88572   0.87378   26.535
 6858.00    0.88911   0.87230   25.941
 6859.00    0.88974   0.87230   25.062
 6860.00    0.89215   0.87292   23.986
 6861.00    0.90188   0.87311   22.824
 6862.00    0.91164   0.87399   22.077
 6863.00    0.91280   0.87543   22.086
 6864.00    0.90842   0.87608   22.680
 6865.00    0.90564   0.87625   23.591
 6866.00    0.90668   0.87657   24.853
 6867.00    0.91020   0.87626   26.425
 6868.00    0.91369   0.87531   27.536
 6869.00    0.91556   0.87494   27.207
 6870.00    0.91687   0.87496   25.437
 6871.00    0.92061   0.87460   23.163
 6872.00    0.93019   0.87459   21.401
 6873.00    0.94274   0.87563   20.517
 6874.00    0.94502   0.87677   20.292
 6875.00    0.93029   0.87741   20.609
 6876.00    0.91134   0.87842   21.822
 6877.00    0.90088   0.87968   24.111
 6878.00    0.89558   0.88008   26.396
 6879.00    0.88861   0.87979   27.206
 6880.00    0.88051   0.87974   27.066
 6881.00    0.87412   0.87952   27.104
 6882.00    0.87001   0.87879   27.358
 6883.00    0.86744   0.87884   27.547
 6884.00    0.86564   0.88012   27.701
 6885.00    0.86734   0.88146   27.674
 6886.00    0.87968   0.88298   26.897
 6887.00    0.90283   0.88565   25.388
 6888.00    0.92380   0.88833   24.032
 6889.00    0.93217   0.89006   23.312
 6890.00    0.93038   0.89179   23.033
 6891.00    0.92591   0.89322   23.058
 6892.00    0.92482   0.89344   23.612
 6893.00    0.92652   0.89331   24.749
 6894.00    0.92282   0.89330   25.878
 6895.00    0.91196   0.89268   25.927
 6896.00    0.90508   0.89191   24.167
 6897.00    0.91052   0.89185   21.607
 6898.00    0.92491   0.89200   19.923
 6899.00    0.94006   0.89190   19.284
 6900.00    0.94776   0.89210   18.791
 6901.00    0.94225   0.89287   18.890
 6902.00    0.92252   0.89361   22.023
 6903.00    0.89746   0.89413   27.628
 6904.00    0.88491   0.89480   22.307
 6905.00    0.89119   0.89554   13.725
 6906.00    0.90364   0.89599   10.626
 6907.00    0.90930   0.89603   10.538
 6908.00    0.90520   0.89566   11.182
 6909.00    0.89846   0.89490   11.219
 6910.00    0.90226   0.89343   11.109
 6911.00    0.91729   0.89146   11.097
 6912.00    0.92743   0.88968   10.569
 6913.00    0.92257   0.88772   10.184
 6914.00    0.90726   0.88587   11.968
 6915.00    0.88975   0.88534   18.910
 6916.00    0.87651   0.88541   30.203
 6917.00    0.87117   0.88552   28.594
 6918.00    0.87385   0.88659   23.807
 6919.00    0.87980   0.88794   23.414
 6920.00    0.88156   0.88847   24.365
 6921.00    0.87963   0.88859   24.452
 6922.00    0.88239   0.88838   24.482
 6923.00    0.88810   0.88757   25.030
 6924.00    0.88381   0.88632   25.309
 6925.00    0.86895   0.88519   24.741
 6926.00    0.85865   0.88454   23.618
 6927.00    0.86173   0.88444   22.411
 6928.00    0.87454   0.88460   21.460
 6929.00    0.89006   0.88484   21.058
 6930.00    0.90116   0.88548   21.466
 6931.00    0.90027   0.88624   22.671
 6932.00    0.88307   0.88662   24.265
 6933.00    0.86104   0.88682   25.630
 6934.00    0.85559   0.88754   26.200
 6935.00    0.86606   0.88842   26.019
 6936.00    0.87105   0.88889   25.692
 6937.00    0.86594   0.88947   25.563
 6938.00    0.86503   0.89005   25.595
 6939.00    0.87158   0.89013   25.709
 6940.00    0.87516   0.88966   25.868
 6941.00    0.87161   0.88861   26.037
 6942.00    0.86511   0.88719   26.185
 6943.00    0.85664   0.88578   26.299
 6944.00    0.84449   0.88424   26.370
 6945.00    0.83495   0.88284   26.337
 6946.00    0.83779   0.88244   26.153
 6947.00    0.84697   0.88234   25.985
 6948.00    0.84699   0.88204   26.041
 6949.00    0.84226   0.88239   26.026
 6950.00    0.85117   0.88269   25.441
 6951.00    0.87252   0.88231   24.644
 6952.00    0.88820   0.88243   24.372
 6953.00    0.89007   0.88295   24.476
 6954.00    0.88222   0.88325   24.304
 6955.00    0.87063   0.88417   24.045
 6956.00    0.85984   0.88580   24.350
 6957.00    0.85145   0.88736   24.880
 6958.00    0.84655   0.88884   24.625
 6959.00    0.85171   0.89038   23.665
 6960.00    0.87232   0.89173   22.861
 6961.00    0.89664   0.89281   22.515
 6962.00    0.90537   0.89347   22.538
 6963.00    0.89790   0.89393   22.944
 6964.00    0.88746   0.89454   23.795
 6965.00    0.88076   0.89481   24.859
 6966.00    0.87777   0.89479   25.646
 6967.00    0.87908   0.89500   25.897
 6968.00    0.88422   0.89493   25.763
 6969.00    0.88637   0.89434   25.686
 6970.00    0.87867   0.89326   25.992
 6971.00    0.86698   0.89117   26.294
 6972.00    0.86215   0.88846   26.007
 6973.00    0.86316   0.88523   25.522
 6974.00    0.86133   0.88058   25.539
 6975.00    0.85264   0.87548   25.860
 6976.00    0.83941   0.87155   25.862
 6977.00    0.82924   0.86832   25.593
 6978.00    0.82836   0.86562   25.465
 6979.00    0.83192   0.86539   25.478
 6980.00    0.83253   0.86795   25.406
 6981.00    0.83506   0.87117   25.220
 6982.00    0.84701   0.87500   25.050
 6983.00    0.86177   0.88001   25.024
 6984.00    0.86809   0.88445   25.166
 6985.00    0.86703   0.88739   25.290
 6986.00    0.86580   0.88963   25.186
 6987.00    0.86625   0.89124   24.929
 6988.00    0.86705   0.89188   24.705
 6989.00    0.86854   0.89195   24.558
 6990.00    0.87110   0.89208   24.466
 6991.00    0.87227   0.89223   24.488
 6992.00    0.86978   0.89209   24.641
 6993.00    0.86550   0.89168   24.756
 6994.00    0.86251   0.89108   24.622
 6995.00    0.86112   0.89014   24.216
 6996.00    0.86111   0.88859   23.671
 6997.00    0.86450   0.88667   23.185
 6998.00    0.87098   0.88474   22.925
 6999.00    0.87301   0.88259   22.966
 7000.00    0.86613   0.88043   23.248
 7001.00    0.85970   0.87896   -2.000
 7002.00    0.86294   0.87793   -2.000
 7003.00    0.86969   0.87691   -2.000
 7004.00    0.87000   0.87641   -2.000
 7005.00    0.86345   0.87677   -2.000
 7006.00    0.85571   0.87737   -2.000
 7007.00    0.85321   0.87788   -2.000
 7008.00    0.85808   0.87855   -2.000
 7009.00    0.86446   0.87922   -2.000
 7010.00    0.86543   0.87933   -2.000
 7011.00    0.85986   0.87866   -2.000
 7012.00    0.85112   0.87733   -2.000
 7013.00    0.84484   0.87564   -2.000
 7014.00    0.84477   0.87404   -2.000
 7015.00    0.84949   0.87250   -2.000
 7016.00    0.85463   0.87112   -2.000
 7017.00    0.85561   0.87121   -2.000
 7018.00    0.85253   0.87243   -2.000
 7019.00    0.85293   0.87315   -2.000
 7020.00    0.86205   0.87397   -2.000
 7021.00    0.87528   0.87544   -2.000
 7022.00    0.88310   0.87621   -2.000
 7023.00    0.87666   0.87608   -2.000
 7024.00    0.85827   0.87624   -2.000
 7025.00    0.84602   0.87699   -2.000
 7026.00    0.85041   0.87795   -2.000
 7027.00    0.85987   0.87911   -2.000
 7028.00    0.86362   0.88078   -2.000
 7029.00    0.86643   0.88272   -2.000
 7030.00    0.87269   0.88430   -2.000
 7031.00    0.87644   0.88524   -2.000
 7032.00    0.87260   0.88594   -2.000
 7033.00    0.86436   0.88659   -2.000
 7034.00    0.85897   0.88656   -2.000
 7035.00    0.86351   0.88634   -2.000
 7036.00    0.87725   0.88731   -2.000
 7037.00    0.88914   0.88854   -2.000
 7038.00    0.89087   0.88951   -2.000
 7039.00    0.88430   0.89218   -2.000
 7040.00    0.87792   0.89589   -2.000
 7041.00    0.88210   0.89863   -2.000
 7042.00    0.89667   0.90145   -2.000
 7043.00    0.90746   0.90474   -2.000
 7044.00    0.90646   0.90681   -2.000
 7045.00    0.90062   0.90765   -2.000
 7046.00    0.89812   0.90817   -2.000
 7047.00    0.90108   0.90782   -2.000
 7048.00    0.90685   0.90616   -2.000
 7049.00    0.90980   0.90349   -2.000
 7050.00    0.90588   0.90007   -2.000
 7051.00    0.89470   0.89595   -2.000
 7052.00    0.87858   0.89097   -2.000
 7053.00    0.86175   0.88599   -2.000
 7054.00    0.84914   0.88187   -2.000
 7055.00    0.84506   0.87812   -2.000
 7056.00    0.85011   0.87485   -2.000
 7057.00    0.86005   0.87269   -2.000
 7058.00    0.86741   0.87118   -2.000
 7059.00    0.86485   0.86964   -2.000
 7060.00    0.85598   0.86838   -2.000
 7061.00    0.85454   0.86778   -2.000
 7062.00    0.86254   0.86692   -2.000
 7063.00    0.86745   0.86567   -2.000
 7064.00    0.86623   0.86499   -2.000
 7065.00    0.86903   0.86422   -2.000
 7066.00    0.87675   0.86313   -2.000
 7067.00    0.87743   0.86285   -2.000
 7068.00    0.86496   0.86300   -2.000
 7069.00    0.84471   0.86366   -2.000
 7070.00    0.82794   0.86563   -2.000
 7071.00    0.82544   0.86791   -2.000
 7072.00    0.83372   0.87016   -2.000
 7073.00    0.83759   0.87294   -2.000
 7074.00    0.83409   0.87542   -2.000
 7075.00    0.83358   0.87689   -2.000
 7076.00    0.83727   0.87782   -2.000
 7077.00    0.83571   0.87828   -2.000
 7078.00    0.82714   0.87770   -2.000
 7079.00    0.81920   0.87597   -2.000
 7080.00    0.81652   0.87331   -2.000
 7081.00    0.81768   0.86960   -2.000
 7082.00    0.81757   0.86501   -2.000
 7083.00    0.81117   0.85986   -2.000
 7084.00    0.80188   0.85423   -2.000
 7085.00    0.79877   0.84912   -2.000
 7086.00    0.80311   0.84495   -2.000
 7087.00    0.80816   0.84087   -2.000
 7088.00    0.80846   0.83789   -2.000
 7089.00    0.80240   0.83642   -2.000
 7090.00    0.79223   0.83506   -2.000
 7091.00    0.78336   0.83442   -2.000
 7092.00    0.78255   0.83483   -2.000
 7093.00    0.79317   0.83524   -2.000
 7094.00    0.80549   0.83626   -2.000
 7095.00    0.80576   0.83794   -2.000
 7096.00    0.80150   0.83953   -2.000
 7097.00    0.81083   0.84130   -2.000
 7098.00    0.82607   0.84320   -2.000
 7099.00    0.82394   0.84494   -2.000
 7100.00    0.80451   0.84631   -2.000
 7101.00    0.78692   0.84743   -2.000
 7102.00    0.78256   0.84827   -2.000
 7103.00    0.79031   0.84848   -2.000
 7104.00    0.79867   0.84838   -2.000
 7105.00    0.79557   0.84804   -2.000
 7106.00    0.78565   0.84709   -2.000
 7107.00    0.78206   0.84571   -2.000
 7108.00    0.78479   0.84445   -2.000
 7109.00    0.78663   0.84322   -2.000
 7110.00    0.79108   0.84179   -2.000
 7111.00    0.80485   0.84072   -2.000
 7112.00    0.81943   0.84052   -2.000
 7113.00    0.82124   0.84073   -2.000
 7114.00    0.81395   0.84095   -2.000
 7115.00    0.80962   0.84146   -2.000
 7116.00    0.80814   0.84225   -2.000
 7117.00    0.80554   0.84271   -2.000
 7118.00    0.81207   0.84265   -2.000
 7119.00    0.83765   0.84229   -2.000
 7120.00    0.86596   0.84187   -2.000
 7121.00    0.87456   0.84116   -2.000
 7122.00    0.87002   0.83981   -2.000
 7123.00    0.87233   0.83864   -2.000
 7124.00    0.88478   0.83757   -2.000
 7125.00    0.89702   0.83569   -2.000
 7126.00    0.89589   0.83376   -2.000
 7127.00    0.87416   0.83214   -2.000
 7128.00    0.83997   0.83054   -2.000
 7129.00    0.80928   0.82924   -2.000
 7130.00    0.79420   0.82842   -2.000
 7131.00    0.79969   0.82882   -2.000
 7132.00    0.82159   0.83024   -2.000
 7133.00    0.85022   0.83184   -2.000
 7134.00    0.87548   0.83428   -2.000
 7135.00    0.89239   0.83707   -2.000
 7136.00    0.90584   0.83920   -2.000
 7137.00    0.91802   0.84141   -2.000
 7138.00    0.91468   0.84302   -2.000
 7139.00    0.88721   0.84335   -2.000
 7140.00    0.85709   0.84378   -2.000
 7141.00    0.84812   0.84387   -2.000
 7142.00    0.85438   0.84268   -2.000
 7143.00    0.85221   0.84150   -2.000
 7144.00    0.81895   0.84025   -2.000
 7145.00    0.76073   0.83815   -2.000
 7146.00    0.73284   0.83675   -2.000
 7147.00    0.77005   0.83576   -2.000
 7148.00    0.82273   0.83460   -2.000
 7149.00    0.83503   0.83541   -2.000
 7150.00    0.82121   0.83736   -2.000
 7151.00    0.81643   0.83889   -2.000
 7152.00    0.82586   0.84159   -2.000
 7153.00    0.83951   0.84511   -2.000
 7154.00    0.84969   0.84758   -2.000
 7155.00    0.85344   0.84920   -2.000
 7156.00    0.85282   0.85075   -2.000
 7157.00    0.85094   0.85147   -2.000
 7158.00    0.84848   0.85061   -2.000
 7159.00    0.84330   0.84934   -2.000
 7160.00    0.83104   0.84783   -2.000
 7161.00    0.81079   0.84532   -2.000
 7162.00    0.78893   0.84301   -2.000
 7163.00    0.77368   0.84137   -2.000
 7164.00    0.77022   0.84000   -2.000
 7165.00    0.77780   0.83991   -2.000
 7166.00    0.78867   0.84140   -2.000
 7167.00    0.79472   0.84353   -2.000
 7168.00    0.79254   0.84635   -2.000
 7169.00    0.78532   0.84983   -2.000
 7170.00    0.78224   0.85305   -2.000
 7171.00    0.78735   0.85568   -2.000
 7172.00    0.79377   0.85743   -2.000
 7173.00    0.79632   0.85799   -2.000
 7174.00    0.79869   0.85786   -2.000
 7175.00    0.80423   0.85697   -2.000
 7176.00    0.81030   0.85501   -2.000
 7177.00    0.81156   0.85289   -2.000
 7178.00    0.80361   0.85083   -2.000
 7179.00    0.79183   0.84848   -2.000
 7180.00    0.79198   0.84642   -2.000
 7181.00    0.80419   0.84474   -2.000
 7182.00    0.80569   0.84330   -2.000
 7183.00    0.79532   0.84201   -2.000
 7184.00    0.80286   0.84023   -2.000
 7185.00    0.80323   0.83865   -2.000
 7186.00    0.70668   0.83731   -2.000
 7187.00    0.55207   0.83537   -2.000
 7188.00    0.54357   0.83406   -2.000
 7189.00    0.72008   0.83357   -2.000
 7190.00    0.86042   0.83319   -2.000
 7191.00    0.85240   0.83397   -2.000
 7192.00    0.82011   0.83550   -2.000
 7193.00    0.84705   0.83680   -2.000
 7194.00    0.87420   0.83861   -2.000
 7195.00    0.85676   0.84075   -2.000
 7196.00    0.82319   0.84210   -2.000
 7197.00    0.80413   0.84313   -2.000
 7198.00    0.80301   0.84447   -2.000
 7199.00    0.81281   0.84507   -2.000
 7200.00    0.82509   0.84502   -2.000
 7201.00    0.83477   0.84493   -2.000
 7202.00    0.84106   0.84429   -2.000
 7203.00    0.84321   0.84308   -2.000
 7204.00    0.83956   0.84160   -2.000
 7205.00    0.83022   0.84010   -2.000
 7206.00    0.81727   0.83856   -2.000
 7207.00    0.80125   0.83724   -2.000
 7208.00    0.78268   0.83715   -2.000
 7209.00    0.77180   0.83751   -2.000
 7210.00    0.78199   0.83807   -2.000
 7211.00    0.79520   0.83991   -2.000
 7212.00    0.77266   0.84173   -2.000
 7213.00    0.73059   0.84308   -2.000
 7214.00    0.73229   0.84490   -2.000
 7215.00    0.77897   0.84638   -2.000
 7216.00    0.80804   0.84721   -2.000
 7217.00    0.80245   0.84823   -2.000
 7218.00    0.79985   0.84913   -2.000
