###################################################################
## OUTPUT of StarlightChains_v04.for    [Cid@UFSC - 01/Apr/2007] ##
###################################################################

## Some input info
2005en.txt                               [arq_obs]
Base.CB07.vall.4m                        [arq_base]
Masks.EmLines.NEW.gm                     [arq_masks]
StCv04.C11.config                        [arq_config]
   66                                    [N_base]
    0                                    [N_YAV_components = # of components with extra extinction!]
    0                                    [i_FitPowerLaw (1/0 = Yes/No)]
-9.99                                    [alpha_PowerLaw]
CCM                                      [red_law_option]
 1.458241                                [q_norm = A(l_norm)/A(V)]

## (Re)Sampling Parameters
 3741.00                                 [l_ini (A)]
 7218.00                                 [l_fin (A)]
    1.00                                 [dl    (A)]     (OBS: dl_cushion =    50.00 A)

## Normalization info
 4020.00                                 [l_norm (A) - for base]
 4010.00                                 [llow_norm (A) - window for f_obs]
 4060.00                                 [lupp_norm (A) - window for f_obs]
2.754095E-16                             [fobs_norm (in input units)]

## S/N
 3691.00                                 [llow_SN (A) - window for S/N]
 7268.00                                 [lupp_SN (A) - window for S/N]
   8.697                                 [S/N in S/N window]
  10.689                                 [S/N in norm. window]
   0.000                                 [S/N_err in S/N window]
   0.000                                 [S/N_err in norm. window]
  1.0000                                 [fscale_chi2]

## etc...
    -2007301                             [idum_orig]
  2251                                   [NOl_eff]
  1985                                   [Nl_eff]
   266    NSIGMA                         [Ntot_cliped & clip_method]
  2246160                                [Nglobal_steps]
   7                                     [N_chains]
  30                                     [NEX0s_base = N_base in EX0s-fits]
 0   0   1        4   2.0   2.587E+02    [Clip-Bug, RC-Crash & Burn-In warning-flags, n_censored_weights, wei_nsig_threshold & wei_limit]
    20     20.204     19.709      0.495  [idt_all, wdt_TotTime, wdt_UsrTime & wdt_SysTime (sec)]

## Synthesis Results - Best model ##

 1.84876E+00                             [chi2/Nl_eff]
     1.74754                             [adev (%)]

   101.59531                             [sum-of-x (%)]
 7.81858E-16                             [Flux_tot (units of input spectrum!)]
 2.93746E-12                             [Mini_tot (???)]
 1.58158E-12                             [Mcor_tot (???)]

  24.35                                  [v0_min  (km/s)]
 229.35                                  [vd_min  (km/s)]
 0.7651                                  [AV_min  (mag)]
 0.0000                                  [YAV_min (mag)]

# j     x_j(%)      Mini_j(%)     Mcor_j(%)     age_j(yr)     Z_j      (L/M)_j    YAV?  Mstars   component_j        a/Fe...       SSP_chi2r SSP_adev(%)   SSP_AV   SSP_x(%)
  1      4.4991     1.0774E-01    2.0011E-01    1.000000E+06  0.00400  1.094E-02    0   1.0000   age020_m42            0.0000     1.1703E+01     4.3375   2.5063    91.4966
  2      0.0000     0.0000E+00    0.0000E+00    3.160000E+06  0.00400  4.007E-02    0   0.9999   age045_m42            0.0000     1.0883E+01     4.0887   1.8107    96.3394
  3      0.0000     0.0000E+00    0.0000E+00    5.010000E+06  0.00400  2.539E-02    0   0.9488   age055_m42            0.0000     9.6406E+00     3.9539   2.1167    94.6187
  4      0.0000     0.0000E+00    0.0000E+00    6.610000E+06  0.00400  2.620E-02    0   0.9220   age061_m42            0.0000     1.0019E+01     3.8781   1.7384    96.5060
  5      0.9715     1.9253E-02    3.1689E-02    1.000000E+07  0.00400  1.322E-02    0   0.8862   age070_m42            0.0000     4.5690E+00     2.5251   1.4566    98.7126
  6      0.3616     1.2018E-02    1.9131E-02    1.445000E+07  0.00400  7.883E-03    0   0.8571   age078_m42            0.0000     4.7449E+00     2.6371   1.7768    96.5312
  7      2.7278     1.3610E-01    2.0662E-01    2.512000E+07  0.00400  5.251E-03    0   0.8174   age090_m42            0.0000     4.2765E+00     2.4186   1.3296    99.1489
  8     10.7058     7.6865E-01    1.1208E+00    4.000000E+07  0.00400  3.649E-03    0   0.7851   age104_m42            0.0000     4.9767E+00     2.5408   1.1052    99.8021
  9      0.0030     2.4976E-04    3.5389E-04    5.500000E+07  0.00400  3.098E-03    0   0.7629   age110_m42            0.0000     8.5823E+00     3.1764   1.2638    99.4830
 10      0.0000     0.0000E+00    0.0000E+00    1.015200E+08  0.00400  2.228E-03    0   0.7207   age116_m42            0.0000     1.1995E+01     3.6368   1.2890    99.3950
 11      0.0000     0.0000E+00    0.0000E+00    2.861200E+08  0.00400  1.093E-03    0   0.6648   age125_m42            0.0000     1.2959E+01     3.5778   0.7277   102.0522
 12      0.0000     0.0000E+00    0.0000E+00    5.088000E+08  0.00400  6.597E-04    0   0.6365   age130_m42            0.0000     1.8668E+01     4.1483   0.7230   102.5498
 13      0.0000     0.0000E+00    0.0000E+00    1.434000E+09  0.00400  2.132E-04    0   0.5798   age139_m42            0.0000     2.3004E+01     4.4562  -0.2427   104.1163
 14      4.7282     2.1013E+01    2.0985E+01    4.250000E+09  0.00400  5.895E-05    0   0.5377   age158_m42            0.0000     2.9111E+01     5.3848  -0.6939   100.4925
 15      1.6746     1.2499E+01    1.2099E+01    7.500000E+09  0.00400  3.510E-05    0   0.5212   age171_m42            0.0000     3.7146E+01     5.9797  -0.8809    99.7087
 16      0.0008     1.0659E-02    9.9660E-03    1.300000E+10  0.00400  2.005E-05    0   0.5034   age193_m42            0.0000     4.6478E+01     6.3153  -1.0000    97.7426
 17      0.4808     8.2604E+00    7.6203E+00    1.800000E+10  0.00400  1.525E-05    0   0.4967   age213_m42            0.0000     4.5317E+01     6.1506  -1.0000    96.6372
 18      0.5470     1.1575E-02    2.1499E-02    1.000000E+06  0.00800  1.238E-02    0   1.0000   age020_m52            0.0000     1.1719E+01     4.3441   2.5026    91.6729
 19      3.0174     2.5716E-02    4.7601E-02    3.160000E+06  0.00800  3.074E-02    0   0.9966   age045_m52            0.0000     1.1545E+01     4.2965   2.4273    92.4122
 20      1.8747     1.8409E-02    3.2286E-02    5.010000E+06  0.00800  2.668E-02    0   0.9443   age055_m52            0.0000     9.3223E+00     3.9024   2.1957    93.9524
 21     21.9621     2.6937E-01    4.5913E-01    6.610000E+06  0.00800  2.136E-02    0   0.9177   age061_m52            0.0000     3.6711E+00     2.4022   0.9474   100.2320
 22      0.0200     4.3205E-04    7.0832E-04    1.000000E+07  0.00800  1.215E-02    0   0.8827   age070_m52            0.0000     3.5842E+00     2.2960   1.6343    98.6312
 23      0.0018     5.4875E-05    8.7161E-05    1.445000E+07  0.00800  8.717E-03    0   0.8552   age078_m52            0.0000     4.4757E+00     2.5452   1.7444    97.7564
 24      1.6904     7.9195E-02    1.2005E-01    2.512000E+07  0.00800  5.592E-03    0   0.8162   age090_m52            0.0000     4.3572E+00     2.4076   1.3968   100.1498
 25      0.0000     0.0000E+00    0.0000E+00    4.000000E+07  0.00800  3.896E-03    0   0.7841   age104_m52            0.0000     5.9673E+00     2.7038   1.3155   100.5739
 26      0.0001     6.2127E-06    8.3380E-06    1.015200E+08  0.00800  2.148E-03    0   0.7226   age116_m52            0.0000     9.2425E+00     3.1950   1.2588   100.1304
 27      0.0000     0.0000E+00    0.0000E+00    2.861200E+08  0.00800  9.925E-04    0   0.6683   age125_m52            0.0000     1.8628E+01     4.0350   0.7879   103.4710
 28      0.0000     0.0000E+00    0.0000E+00    9.047900E+08  0.00800  3.141E-04    0   0.6138   age135_m52            0.0000     3.1996E+01     5.1957   0.0062   106.6946
 29      0.0000     0.0000E+00    0.0000E+00    1.434000E+09  0.00800  1.719E-04    0   0.5853   age139_m52            0.0000     2.9439E+01     5.2038  -0.5820   104.8608
 30      0.0000     0.0000E+00    0.0000E+00    2.500000E+09  0.00800  7.872E-05    0   0.5600   age150_m52            0.0000     4.1299E+01     6.3130  -0.8548   102.1218
 31      0.4402     2.6595E+00    2.6801E+00    4.250000E+09  0.00800  4.336E-05    0   0.5426   age158_m52            0.0000     4.3246E+01     6.3910  -0.8711   101.2272
 32      0.0134     1.1089E-01    1.0955E-01    6.250000E+09  0.00800  3.159E-05    0   0.5319   age166_m52            0.0000     5.7948E+01     6.9420  -1.0000    98.8236
 33      1.8491     3.5594E+01    3.3537E+01    1.300000E+10  0.00800  1.361E-05    0   0.5073   age193_m52            0.0000     1.3481E+02    11.2854  -1.0000    83.5143
 34      0.0000     0.0000E+00    0.0000E+00    1.800000E+10  0.00800  9.886E-06    0   0.4990   age213_m52            0.0000     1.7271E+02    12.9361  -1.0000    79.7142
 35      3.2937     5.5889E-02    1.0380E-01    1.000000E+06  0.02000  1.544E-02    0   1.0000   age020_m62            0.0000     1.1868E+01     4.3732   2.4981    91.9227
 36      2.9128     2.0285E-02    3.7140E-02    3.160000E+06  0.02000  3.762E-02    0   0.9858   age045_m62            0.0000     1.2068E+01     4.3968   2.4346    92.8183
 37      0.0001     9.9517E-07    1.7267E-06    5.010000E+06  0.02000  3.296E-02    0   0.9342   age055_m62            0.0000     1.0480E+01     4.1424   2.0797    95.6307
 38     22.7798     5.1716E-01    8.5112E-01    8.710000E+06  0.02000  1.154E-02    0   0.8861   age067_m62            0.0000     8.2056E+00     3.5491   1.0778   102.0839
 39      0.0000     0.0000E+00    0.0000E+00    1.445000E+07  0.02000  7.663E-03    0   0.8472   age078_m62            0.0000     3.0201E+00     2.1844   1.2802   101.0018
 40      0.0000     0.0000E+00    0.0000E+00    2.512000E+07  0.02000  4.532E-03    0   0.8099   age090_m62            0.0000     3.7885E+00     2.4000   1.2771   100.5256
 41      0.0000     0.0000E+00    0.0000E+00    5.500000E+07  0.02000  2.733E-03    0   0.7595   age110_m62            0.0000     5.1828E+00     2.5540   1.2935   100.0863
 42      0.0000     0.0000E+00    0.0000E+00    1.609000E+08  0.02000  1.369E-03    0   0.6985   age120_m62            0.0000     1.3536E+01     3.5337   1.1442   102.1405
 43      0.0000     0.0000E+00    0.0000E+00    2.861200E+08  0.02000  9.013E-04    0   0.6714   age125_m62            0.0000     2.1786E+01     4.1724   0.9011   104.5989
 44      0.0000     0.0000E+00    0.0000E+00    5.088000E+08  0.02000  5.028E-04    0   0.6449   age130_m62            0.0000     3.3637E+01     5.3783   0.5342   106.6770
 45      0.0000     0.0000E+00    0.0000E+00    9.047900E+08  0.02000  2.428E-04    0   0.6179   age135_m62            0.0000     3.5200E+01     5.6821  -0.0500   105.8199
 46      0.0000     0.0000E+00    0.0000E+00    1.434000E+09  0.02000  1.263E-04    0   0.5908   age139_m62            0.0000     3.9034E+01     6.0259  -0.4984   104.4099
 47      1.5536     6.8007E+00    7.1655E+00    2.500000E+09  0.02000  5.985E-05    0   0.5673   age150_m62            0.0000     5.4112E+01     7.1446  -0.8680   103.0173
 48      0.0000     0.0000E+00    0.0000E+00    4.250000E+09  0.02000  3.271E-05    0   0.5468   age158_m62            0.0000     8.2206E+01     8.1213  -1.0000    96.4805
 49      0.0000     0.0000E+00    0.0000E+00    1.000000E+10  0.02000  1.360E-05    0   0.5167   age181_m62            0.0000     1.5612E+02    11.4414  -1.0000    84.9297
 50      0.0000     0.0000E+00    0.0000E+00    1.800000E+10  0.02000  7.124E-06    0   0.5013   age213_m62            0.0000     2.2293E+02    14.2924  -1.0000    77.7297
 51      6.4751     6.5447E-02    1.2153E-01    1.000000E+06  0.05000  2.592E-02    0   0.9998   age020_m72            0.0000     1.2198E+01     4.4400   2.4894    91.9856
 52      0.0084     4.5540E-05    8.1003E-05    3.160000E+06  0.05000  4.845E-02    0   0.9577   age045_m72            0.0000     1.1501E+01     4.3321   2.3259    93.6543
 53      0.0000     0.0000E+00    0.0000E+00    5.010000E+06  0.05000  3.072E-02    0   0.9147   age055_m72            0.0000     5.0708E+00     2.8128   1.8618    97.3876
 54      0.0000     0.0000E+00    0.0000E+00    6.610000E+06  0.05000  1.455E-02    0   0.8877   age061_m72            0.0000     2.4392E+01     6.0073   1.1323   103.0490
 55      0.0000     0.0000E+00    0.0000E+00    1.000000E+07  0.05000  9.074E-03    0   0.8524   age070_m72            0.0000     9.0309E+00     3.6648   2.0518    96.9728
 56      0.0000     0.0000E+00    0.0000E+00    2.512000E+07  0.05000  4.250E-03    0   0.7902   age090_m72            0.0000     6.8429E+00     3.2184   1.7604    98.2210
 57      0.0000     0.0000E+00    0.0000E+00    4.000000E+07  0.05000  3.087E-03    0   0.7618   age104_m72            0.0000     7.7394E+00     3.3294   1.5374    99.6008
 58      0.0000     0.0000E+00    0.0000E+00    1.015200E+08  0.05000  1.700E-03    0   0.7096   age116_m72            0.0000     1.1528E+01     3.3445   1.2867   101.7747
 59      0.0000     0.0000E+00    0.0000E+00    2.861200E+08  0.05000  7.384E-04    0   0.6633   age125_m72            0.0000     2.7975E+01     4.7419   0.7774   105.4946
 60      0.0029     2.0029E-03    2.3704E-03    5.088000E+08  0.05000  3.819E-04    0   0.6372   age130_m72            0.0000     3.4565E+01     5.6340   0.2888   106.8232
 61      6.9996     1.0942E+01    1.2417E+01    9.047900E+08  0.05000  1.676E-04    0   0.6110   age135_m72            0.0000     4.9391E+01     7.0265  -0.4124   105.0445
 62      0.0000     0.0000E+00    0.0000E+00    1.434000E+09  0.05000  8.837E-05    0   0.5874   age139_m72            0.0000     5.9188E+01     7.4039  -0.8637   104.2254
 63      0.0000     0.0000E+00    0.0000E+00    2.500000E+09  0.05000  4.233E-05    0   0.5598   age150_m72            0.0000     8.9753E+01     8.5574  -1.0000    97.2118
 64      0.0000     0.0000E+00    0.0000E+00    6.250000E+09  0.05000  1.435E-05    0   0.5249   age166_m72            0.0000     1.8208E+02    12.7361  -1.0000    81.5572
 65      0.0000     0.0000E+00    0.0000E+00    1.300000E+10  0.05000  6.513E-06    0   0.5036   age193_m72            0.0000     2.8119E+02    16.4240  -1.0000    73.6748
 66      0.0000     0.0000E+00    0.0000E+00    1.800000E+10  0.05000  4.527E-06    0   0.4945   age213_m72            0.0000     3.4639E+02    18.3205  -1.0000    68.7359


## Synthesis Results - Average & Chains ##

# j      x_j: min, <> & last-chain-values for 1 ...  7 chains
  1      4.4991      4.7437      4.5889      4.9589      4.1739      4.8263      4.0556      4.7918      4.6956
  2      0.0000      0.1308      0.0969      0.2106      0.0229      0.1119      0.0000      0.3704      0.0854
  3      0.0000      0.1530      0.0000      0.5543      0.0000      0.0000      0.0000      0.0000      0.0000
  4      0.0000      0.2030      0.7324      0.0000      0.1117      0.2530      0.2710      0.1142      0.0000
  5      0.9715      1.0370      1.2856      0.7307      1.3194      0.9031      2.5434      0.9559      1.7159
  6      0.3616      0.5043      0.5795      1.0473      0.7320      1.0555      0.0791      0.5462      0.4329
  7      2.7278      2.1893      2.5529      2.3987      2.2806      2.7202      2.0304      2.5926      3.8298
  8     10.7058      7.1176      7.1178      7.0167      7.6809      8.1572      7.6261      7.6377      8.0851
  9      0.0030      0.6984      0.5459      0.2865      0.3954      0.7356      1.0017      0.7566      1.2965
 10      0.0000      0.2341      0.3599      0.5869      0.0000      0.0000      0.0000      0.0000      0.0000
 11      0.0000      0.0603      0.0000      0.0000      0.0000      0.0142      0.0000      0.0000      0.0000
 12      0.0000      0.0543      0.0000      0.0000      0.0000      0.0000      0.0000      0.0000      0.0151
 13      0.0000      0.0923      0.0000      0.0266      0.0000      0.0000      0.0000      0.3767      0.0000
 14      4.7282      4.3171      4.3872      4.3741      4.3505      4.3985      4.1891      4.4487      4.2947
 15      1.6746      1.9831      1.8619      2.1314      1.8346      1.9934      1.7550      1.9731      2.0159
 16      0.0008      0.5248      0.3846      0.6066      0.3785      0.5471      0.6571      0.3388      0.5549
 17      0.4808      1.4516      1.2645      1.5425      1.4591      1.4064      1.2238      1.4696      1.4748
 18      0.5470      1.0003      0.0000      0.7908      0.6392      1.3585      0.8784      1.0573      0.9003
 19      3.0174      3.2984      3.6676      3.4885      3.2648      3.4349      3.7100      3.3746      3.0864
 20      1.8747      2.5052      2.2247      2.2763      2.6325      2.3821      2.3846      2.6993      2.6821
 21     21.9621     20.4732     20.5117     19.8824     20.0683     21.2441     21.1892     20.3179     20.2334
 22      0.0200      0.4264      0.3983      0.3954      0.4381      0.0000      0.4273      0.0000      0.8216
 23      0.0018      0.6857      1.6926      0.7172      0.8849      0.0305      0.7374      0.6436      0.8433
 24      1.6904      2.0839      2.0067      1.9407      2.7053      1.9155      2.1340      1.2793      2.1416
 25      0.0000      0.2701      0.1210      0.4318      0.2950      0.1726      0.2483      0.5692      0.0000
 26      0.0001      0.1835      0.6038      0.0041      0.3659      0.0000      0.0619      0.0000      0.0874
 27      0.0000      0.0985      0.0000      0.0000      0.0000      0.0000      0.0000      0.0000      0.0000
 28      0.0000      0.0300      0.0000      0.0000      0.0000      0.0000      0.0000      0.0000      0.0000
 29      0.0000      0.0205      0.0000      0.0000      0.0000      0.0554      0.0000      0.0000      0.0000
 30      0.0000      0.0254      0.0000      0.1563      0.0000      0.0000      0.0000      0.0000      0.0000
 31      0.4402      1.6718      1.6087      1.6143      1.7137      1.5154      1.6713      1.6124      1.7047
 32      0.0134      1.4740      1.4497      0.8632      1.4310      1.2902      1.5786      1.3165      1.5217
 33      1.8491      1.5949      1.6342      1.6271      1.5445      1.7203      1.6830      1.5500      1.6290
 34      0.0000      0.0028      0.0000      0.0075      0.0000      0.0000      0.0000      0.0000      0.0000
 35      3.2937      3.8738      3.5344      4.1084      3.5905      3.8320      3.7979      3.8330      3.2328
 36      2.9128      2.7400      2.6826      2.5772      3.2392      2.6575      2.6992      3.0693      2.9050
 37      0.0001      0.1987      0.0302      0.0000      0.7399      0.8303      0.2145      0.0000      0.0168
 38     22.7798     18.7754     19.4855     19.7202     19.3127     18.8501     19.8224     19.3487     17.7954
 39      0.0000      0.2063      0.0000      0.3153      0.0000      0.5780      0.0289      0.0583      0.0000
 40      0.0000      0.1498      0.0000      0.0000      0.0000      0.0000      0.0000      0.1105      0.3192
 41      0.0000      0.4628      0.9044      0.4062      0.2891      0.0000      0.3946      0.0795      0.0000
 42      0.0000      0.2832      0.0000      0.1593      0.3112      0.0166      0.1930      1.0410      0.0000
 43      0.0000      0.2820      0.3698      0.8226      0.1575      0.0858      0.0000      0.0463      0.0000
 44      0.0000      0.1418      0.1727      0.0000      0.0000      0.1359      0.0000      0.0000      0.0000
 45      0.0000      0.0367      0.0000      0.1452      0.0000      0.0000      0.0000      0.0006      0.0000
 46      0.0000      0.0497      0.1186      0.0000      0.0000      0.0004      0.0000      0.0000      0.0000
 47      1.5536      1.8375      1.7438      1.8532      1.6722      1.8036      1.7025      1.8756      1.7158
 48      0.0000      0.0110      0.0000      0.0000      0.0000      0.0000      0.0000      0.0000      0.0420
 49      0.0000      0.0261      0.0095      0.0000      0.0832      0.0000      0.0000      0.0000      0.0000
 50      0.0000      0.0300      0.0561      0.0701      0.0000      0.0000      0.0835      0.0111      0.0437
 51      6.4751      6.5886      6.6157      6.5422      6.3177      5.8210      6.3828      6.4616      6.7802
 52      0.0084      0.3419      0.3054      0.0000      0.6725      0.5835      0.0000      0.3820      0.3021
 53      0.0000      0.0470      0.0272      0.0000      0.0000      0.0000      0.0000      0.0000      0.0000
 54      0.0000      0.0134      0.0000      0.0000      0.0000      0.0000      0.0170      0.0000      0.0502
 55      0.0000      0.0222      0.0000      0.0000      0.0000      0.0000      0.0000      0.0000      0.0000
 56      0.0000      0.0333      0.0000      0.0000      0.0000      0.0000      0.0000      0.0000      0.0000
 57      0.0000      0.0428      0.0000      0.0000      0.0000      0.0000      0.0000      0.0000      0.0000
 58      0.0000      0.1307      0.0000      0.0697      0.1453      0.0000      0.0000      0.0000      0.0965
 59      0.0000      0.1419      0.0000      0.0000      0.0000      0.0000      0.0000      0.0000      0.0000
 60      0.0029      0.2171      0.1954      0.0159      0.4980      0.1918      0.5507      0.5114      0.7183
 61      6.9996      3.5202      3.6490      4.0633      3.4992      4.0002      3.4964      3.7594      3.3152
 62      0.0000      0.0473      0.0069      0.1221      0.2472      0.0326      0.1518      0.2014      0.0000
 63      0.0000      0.0472      0.0000      0.0000      0.1423      0.0000      0.0000      0.1146      0.0773
 64      0.0000      0.0139      0.0000      0.0000      0.0101      0.0000      0.0000      0.0000      0.0835
 65      0.0000      0.0081      0.0000      0.0000      0.0126      0.0000      0.0000      0.0000      0.0000
 66      0.0000      0.0072      0.1338      0.0000      0.0000      0.0000      0.0000      0.0000      0.0000

# j      m_j: min, <> & last-chain-values for 1 ...  7 chains
  1  2.0011E-01  1.5501E-01  1.4926E-01  1.6199E-01  1.4053E-01  1.6139E-01  1.3516E-01  1.6199E-01  1.5164E-01
  2  0.0000E+00  1.1667E-03  8.6044E-04  1.8778E-03  2.1079E-04  1.0215E-03  0.0000E+00  3.4180E-03  7.5321E-04
  3  0.0000E+00  2.0440E-03  0.0000E+00  7.4022E-03  0.0000E+00  0.0000E+00  0.0000E+00  0.0000E+00  0.0000E+00
  4  0.0000E+00  2.5540E-03  9.1710E-03  0.0000E+00  1.4484E-03  3.2576E-03  3.4774E-03  1.4862E-03  0.0000E+00
  5  3.1689E-02  2.4849E-02  3.0666E-02  1.7505E-02  3.2578E-02  2.2147E-02  6.2163E-02  2.3699E-02  4.0637E-02
  6  1.9131E-02  1.9601E-02  2.2421E-02  4.0696E-02  2.9316E-02  4.1984E-02  3.1364E-03  2.1963E-02  1.6627E-02
  7  2.0662E-01  1.2183E-01  1.4141E-01  1.3344E-01  1.3076E-01  1.5491E-01  1.1524E-01  1.4926E-01  2.1062E-01
  8  1.1208E+00  5.4745E-01  5.4495E-01  5.3952E-01  6.0871E-01  6.4206E-01  5.9823E-01  6.0776E-01  6.1457E-01
  9  3.5389E-04  6.1485E-02  4.7836E-02  2.5214E-02  3.5868E-02  6.6271E-02  8.9934E-02  6.8905E-02  1.1279E-01
 10  0.0000E+00  2.7074E-02  4.1422E-02  6.7844E-02  0.0000E+00  0.0000E+00  0.0000E+00  0.0000E+00  0.0000E+00
 11  0.0000E+00  1.3122E-02  0.0000E+00  0.0000E+00  0.0000E+00  3.1595E-03  0.0000E+00  0.0000E+00  0.0000E+00
 12  0.0000E+00  1.8740E-02  0.0000E+00  0.0000E+00  0.0000E+00  0.0000E+00  0.0000E+00  0.0000E+00  5.1390E-03
 13  0.0000E+00  8.9737E-02  0.0000E+00  2.5847E-02  0.0000E+00  0.0000E+00  0.0000E+00  3.7888E-01  0.0000E+00
 14  2.0985E+01  1.4077E+01  1.4240E+01  1.4258E+01  1.4616E+01  1.4677E+01  1.3931E+01  1.5008E+01  1.3840E+01
 15  1.2099E+01  1.0527E+01  9.8384E+00  1.1311E+01  1.0034E+01  1.0829E+01  9.5017E+00  1.0836E+01  1.0576E+01
 16  9.9660E-03  4.7102E+00  3.4365E+00  5.4428E+00  3.5007E+00  5.0249E+00  6.0151E+00  3.1462E+00  4.9223E+00
 17  7.6203E+00  1.6902E+01  1.4655E+01  1.7954E+01  1.7504E+01  1.6758E+01  1.4532E+01  1.7703E+01  1.6970E+01
 18  2.1499E-02  2.8886E-02  0.0000E+00  2.2828E-02  1.9017E-02  4.0145E-02  2.5870E-02  3.1585E-02  2.5692E-02
 19  4.7601E-02  3.8227E-02  4.2311E-02  4.0418E-02  3.8987E-02  4.0739E-02  4.3853E-02  4.0463E-02  3.5350E-02
 20  3.2286E-02  3.1697E-02  2.8019E-02  2.8792E-02  3.4319E-02  3.0843E-02  3.0772E-02  3.5334E-02  3.3538E-02
 21  4.5913E-01  3.1444E-01  3.1359E-01  3.0527E-01  3.1758E-01  3.3391E-01  3.3192E-01  3.2285E-01  3.0711E-01
 22  7.0832E-04  1.1075E-02  1.0296E-02  1.0266E-02  1.1724E-02  0.0000E+00  1.1317E-02  0.0000E+00  2.1088E-02
 23  8.7161E-05  2.4048E-02  5.9091E-02  2.5145E-02  3.1977E-02  1.0964E-03  2.6377E-02  2.3354E-02  2.9230E-02
 24  1.2005E-01  1.0873E-01  1.0423E-01  1.0123E-01  1.4544E-01  1.0228E-01  1.1356E-01  6.9058E-02  1.1043E-01
 25  0.0000E+00  1.9432E-02  8.6641E-03  3.1059E-02  2.1871E-02  1.2705E-02  1.8223E-02  4.2366E-02  0.0000E+00
 26  8.3380E-06  2.2063E-02  7.2283E-02  4.9142E-04  4.5336E-02  0.0000E+00  7.5917E-03  0.0000E+00  1.0390E-02
 27  0.0000E+00  2.3712E-02  0.0000E+00  0.0000E+00  0.0000E+00  0.0000E+00  0.0000E+00  0.0000E+00  0.0000E+00
 28  0.0000E+00  2.0955E-02  0.0000E+00  0.0000E+00  0.0000E+00  0.0000E+00  0.0000E+00  0.0000E+00  0.0000E+00
 29  0.0000E+00  2.4952E-02  0.0000E+00  0.0000E+00  0.0000E+00  6.9031E-02  0.0000E+00  0.0000E+00  0.0000E+00
 30  0.0000E+00  6.4663E-02  0.0000E+00  3.9735E-01  0.0000E+00  0.0000E+00  0.0000E+00  0.0000E+00  0.0000E+00
 31  2.6801E+00  7.4788E+00  7.1634E+00  7.2193E+00  7.8991E+00  6.9377E+00  7.6255E+00  7.4625E+00  7.5366E+00
 32  1.0955E-01  8.8722E+00  8.6861E+00  5.1942E+00  8.8751E+00  7.9475E+00  9.6908E+00  8.1980E+00  9.0520E+00
 33  3.3537E+01  2.1252E+01  2.1676E+01  2.1674E+01  2.1205E+01  2.3458E+01  2.2872E+01  2.1367E+01  2.1451E+01
 34  0.0000E+00  5.0259E-02  0.0000E+00  1.3487E-01  0.0000E+00  0.0000E+00  0.0000E+00  0.0000E+00  0.0000E+00
 35  1.0380E-01  8.9690E-02  8.1456E-02  9.5093E-02  8.5654E-02  9.0796E-02  8.9683E-02  9.1814E-02  7.3971E-02
 36  3.7140E-02  2.5667E-02  2.5014E-02  2.4134E-02  3.1265E-02  2.5476E-02  2.5788E-02  2.9746E-02  2.6893E-02
 37  1.7267E-06  2.0132E-03  3.0416E-04  0.0000E+00  7.7241E-03  8.6098E-03  2.2163E-03  0.0000E+00  1.6835E-04
 38  8.5112E-01  5.1537E-01  5.3241E-01  5.4114E-01  5.4621E-01  5.2951E-01  5.5495E-01  5.4948E-01  4.8274E-01
 39  0.0000E+00  8.1517E-03  0.0000E+00  1.2459E-02  0.0000E+00  2.3379E-02  1.1644E-03  2.3834E-03  0.0000E+00
 40  0.0000E+00  9.5709E-03  0.0000E+00  0.0000E+00  0.0000E+00  0.0000E+00  0.0000E+00  7.3051E-03  2.0152E-02
 41  0.0000E+00  4.5976E-02  8.9440E-02  4.0337E-02  2.9592E-02  0.0000E+00  3.9981E-02  8.1661E-03  0.0000E+00
 42  0.0000E+00  5.1654E-02  0.0000E+00  2.9053E-02  5.8484E-02  3.1053E-03  3.5899E-02  1.9644E-01  0.0000E+00
 43  0.0000E+00  7.5100E-02  9.8021E-02  2.1898E-01  4.3225E-02  2.3386E-02  0.0000E+00  1.2747E-02  0.0000E+00
 44  0.0000E+00  6.4995E-02  7.8840E-02  0.0000E+00  0.0000E+00  6.3752E-02  0.0000E+00  0.0000E+00  0.0000E+00
 45  0.0000E+00  3.3393E-02  0.0000E+00  1.3204E-01  0.0000E+00  0.0000E+00  0.0000E+00  5.8490E-04  0.0000E+00
 46  0.0000E+00  8.3086E-02  1.9740E-01  0.0000E+00  0.0000E+00  7.2544E-04  0.0000E+00  0.0000E+00  0.0000E+00
 47  7.1655E+00  6.2261E+00  5.8817E+00  6.2775E+00  5.8381E+00  6.2543E+00  5.8836E+00  6.5752E+00  5.7456E+00
 48  0.0000E+00  6.5911E-02  0.0000E+00  0.0000E+00  0.0000E+00  0.0000E+00  0.0000E+00  0.0000E+00  2.4779E-01
 49  0.0000E+00  3.5441E-01  1.2891E-01  0.0000E+00  1.1647E+00  0.0000E+00  0.0000E+00  0.0000E+00  0.0000E+00
 50  0.0000E+00  7.5580E-01  1.4041E+00  1.7629E+00  0.0000E+00  0.0000E+00  2.1411E+00  2.8759E-01  1.0872E+00
 51  1.2153E-01  9.0851E-02  9.0806E-02  9.0182E-02  8.9760E-02  8.2141E-02  8.9765E-02  9.2181E-02  9.2395E-02
 52  8.1003E-05  2.4160E-03  2.1482E-03  0.0000E+00  4.8965E-03  4.2193E-03  0.0000E+00  2.7929E-03  2.1098E-03
 53  0.0000E+00  5.0001E-04  2.8866E-04  0.0000E+00  0.0000E+00  0.0000E+00  0.0000E+00  0.0000E+00  0.0000E+00
 54  0.0000E+00  2.9171E-04  0.0000E+00  0.0000E+00  0.0000E+00  0.0000E+00  3.7855E-04  0.0000E+00  1.0822E-03
 55  0.0000E+00  7.4602E-04  0.0000E+00  0.0000E+00  0.0000E+00  0.0000E+00  0.0000E+00  0.0000E+00  0.0000E+00
 56  0.0000E+00  2.2129E-03  0.0000E+00  0.0000E+00  0.0000E+00  0.0000E+00  0.0000E+00  0.0000E+00  0.0000E+00
 57  0.0000E+00  3.7779E-03  0.0000E+00  0.0000E+00  0.0000E+00  0.0000E+00  0.0000E+00  0.0000E+00  0.0000E+00
 58  0.0000E+00  1.9506E-02  0.0000E+00  1.0394E-02  2.2341E-02  0.0000E+00  0.0000E+00  0.0000E+00  1.4228E-02
 59  0.0000E+00  4.5574E-02  0.0000E+00  0.0000E+00  0.0000E+00  0.0000E+00  0.0000E+00  0.0000E+00  0.0000E+00
 60  2.3704E-03  1.2947E-01  1.1600E-01  9.4969E-03  3.0608E-01  1.1705E-01  3.3499E-01  3.1557E-01  4.2340E-01
 61  1.2417E+01  4.5876E+00  4.7337E+00  5.2938E+00  4.6987E+00  5.3349E+00  4.6474E+00  5.0689E+00  4.2698E+00
 62  0.0000E+00  1.1230E-01  1.6221E-02  2.8996E-01  6.0529E-01  7.9224E-02  3.6791E-01  4.9524E-01  0.0000E+00
 63  0.0000E+00  2.2310E-01  0.0000E+00  0.0000E+00  6.9300E-01  0.0000E+00  0.0000E+00  5.6046E-01  3.6118E-01
 64  0.0000E+00  1.8228E-01  0.0000E+00  0.0000E+00  1.3604E-01  0.0000E+00  0.0000E+00  0.0000E+00  1.0785E+00
 65  0.0000E+00  2.2365E-01  0.0000E+00  0.0000E+00  3.5883E-01  0.0000E+00  0.0000E+00  0.0000E+00  0.0000E+00
 66  0.0000E+00  2.8249E-01  5.2018E+00  0.0000E+00  0.0000E+00  0.0000E+00  0.0000E+00  0.0000E+00  0.0000E+00

# AV, chi2 & Mass for <> & i_chain = 1 ...  7 solutions
AV       0.7651      0.7149      0.7206      0.7148      0.7251      0.7180      0.7170      0.7157      0.7135
chi2 1.8488E+00  1.8993E+00  1.8919E+00  1.8938E+00  1.8903E+00  1.8923E+00  1.8927E+00  1.8930E+00  1.8955E+00
Mass 1.5816E-12  2.0124E-12  2.0373E-12  2.0129E-12  1.9801E-12  1.9748E-12  1.9788E-12  1.9472E-12  2.0325E-12
  24.35                                  [v0_min (km/s) before EX0s...]
 229.35                                  [vd_min (km/s) before EX0s...]


## Synthetic spectrum (Best Model) ##l_obs f_obs f_syn wei
 3478    [Nl_obs]
 3741.00    0.86268   0.86583    0.000
 3742.00    0.88315   0.87199    0.000
 3743.00    0.89667   0.86904    0.000
 3744.00    0.89973   0.85751    0.000
 3745.00    0.89030   0.83890   51.995
 3746.00    0.86902   0.81513   52.579
 3747.00    0.83950   0.78943   50.553
 3748.00    0.80800   0.76672   49.754
 3749.00    0.78110   0.75185   51.816
 3750.00    0.76419   0.74751   53.733
 3751.00    0.76131   0.75404   52.716
 3752.00    0.77435   0.77013   50.138
 3753.00    0.79989   0.79291   48.362
 3754.00    0.82873   0.81834   48.677
 3755.00    0.85085   0.84244   50.446
 3756.00    0.85956   0.86276   51.047
 3757.00    0.85841   0.87836   50.163
 3758.00    0.85991   0.88943   50.705
 3759.00    0.86919   0.89686   53.459
 3760.00    0.88025   0.90118   55.683
 3761.00    0.88680   0.90251   54.826
 3762.00    0.88642   0.90060   51.561
 3763.00    0.88027   0.89471   48.849
 3764.00    0.87082   0.88364   49.154
 3765.00    0.85529   0.86695   51.405
 3766.00    0.82797   0.84543   51.654
 3767.00    0.79267   0.82051   50.196
 3768.00    0.76159   0.79508   51.032
 3769.00    0.74248   0.77405   54.328
 3770.00    0.73663   0.76191   56.308
 3771.00    0.74261   0.76043   55.608
 3772.00    0.75803   0.76956   54.651
 3773.00    0.78127   0.78809   55.066
 3774.00    0.81084   0.81347   56.834
 3775.00    0.84325   0.84252   58.098
 3776.00    0.87524   0.87221   56.705
 3777.00    0.90863   0.90026   54.243
 3778.00    0.94691   0.92505   53.524
 3779.00    0.98764   0.94558   54.711
 3780.00    1.02508   0.96159   -1.000
 3781.00    1.05679   0.97327   -1.000
 3782.00    1.08104   0.98063   -1.000
 3783.00    1.09172   0.98351   -1.000
 3784.00    1.08369   0.98208   -1.000
 3785.00    1.06127   0.97711   -1.000
 3786.00    1.03316   0.96924   -1.000
 3787.00    1.00437   0.95889   58.653
 3788.00    0.97731   0.94632   60.125
 3789.00    0.95423   0.93151   62.157
 3790.00    0.93518   0.91405   62.946
 3791.00    0.91574   0.89319   62.462
 3792.00    0.89090   0.86833   62.080
 3793.00    0.85947   0.83963   63.350
 3794.00    0.82367   0.80814   66.242
 3795.00    0.78831   0.77620   67.215
 3796.00    0.75879   0.74829   64.420
 3797.00    0.73943   0.72969   62.363
 3798.00    0.73275   0.72372   64.209
 3799.00    0.73912   0.73086   68.118
 3800.00    0.75686   0.74968   70.308
 3801.00    0.78249   0.77728   68.966
 3802.00    0.81156   0.80963   66.252
 3803.00    0.83954   0.84241   66.568
 3804.00    0.86382   0.87234   70.915
 3805.00    0.88485   0.89804   73.842
 3806.00    0.90529   0.91958   71.012
 3807.00    0.92881   0.93740   66.521
 3808.00    0.95570   0.95191   64.474
 3809.00    0.98136   0.96318   65.801
 3810.00    1.00065   0.97098   68.897
 3811.00    1.01034   0.97504   69.519
 3812.00    1.00989   0.97552   67.462
 3813.00    1.00153   0.97261   67.907
 3814.00    0.98962   0.96670   71.840
 3815.00    0.97901   0.95849   73.680
 3816.00    0.97027   0.94807   70.886
 3817.00    0.95980   0.93558   68.058
 3818.00    0.94740   0.92351   68.442
 3819.00    0.93755   0.91506   72.270
 3820.00    0.93361   0.91080   75.768
 3821.00    0.93546   0.90937   72.531
 3822.00    0.93880   0.90914   66.539
 3823.00    0.93690   0.90886   66.249
 3824.00    0.92655   0.90751   71.894
 3825.00    0.90816   0.90398   76.545
 3826.00    0.88150   0.89675   76.115
 3827.00    0.84772   0.88450   73.908
 3828.00    0.81732   0.86699   -1.000
 3829.00    0.80217   0.84437   69.696
 3830.00    0.79333   0.81694   67.978
 3831.00    0.77187   0.78572   67.891
 3832.00    0.74231   0.75274   69.517
 3833.00    0.72403   0.72151   72.210
 3834.00    0.72047   0.69701   75.758
 3835.00    0.72293   0.68312   -1.000
 3836.00    0.72859   0.68135   -1.000
 3837.00    0.74003   0.69177   -1.000
 3838.00    0.75863   0.71304   70.033
 3839.00    0.78347   0.74243   69.240
 3840.00    0.81122   0.77664   71.107
 3841.00    0.83728   0.81217   71.513
 3842.00    0.85740   0.84565   70.036
 3843.00    0.87151   0.87507   68.754
 3844.00    0.88780   0.89977   68.763
 3845.00    0.91380   0.91984   70.029
 3846.00    0.94525   0.93556   71.463
 3847.00    0.97282   0.94720    0.000
 3848.00    0.99118   0.95547    0.000
 3849.00    0.99799   0.96164    0.000
 3850.00    0.99205   0.96654    0.000
 3851.00    0.97565   0.97018    0.000
 3852.00    0.95631   0.97241    0.000
 3853.00    0.93989   0.97323    0.000
 3854.00    0.92511   0.97286    0.000
 3855.00    0.91324   0.97200    0.000
 3856.00    0.91468   0.97085    0.000
 3857.00    0.93356   0.96919    0.000
 3858.00    0.95745   0.96762    0.000
 3859.00    0.97411   0.96719    0.000
 3860.00    0.98278   0.96807    0.000
 3861.00    0.98465   0.96969    0.000
 3862.00    0.97698   0.97135    0.000
 3863.00    0.96038   0.97250    0.000
 3864.00    0.94256   0.97281    0.000
 3865.00    0.93273   0.97203    0.000
 3866.00    0.93734   0.97033    0.000
 3867.00    0.95513   0.96802    0.000
 3868.00    0.97623   0.96475    0.000
 3869.00    0.98993   0.96019    0.000
 3870.00    0.98996   0.95490    0.000
 3871.00    0.98056   0.95017    0.000
 3872.00    0.97473   0.94673    0.000
 3873.00    0.97617   0.94396    0.000
 3874.00    0.97574   0.94079    0.000
 3875.00    0.96684   0.93673    0.000
 3876.00    0.94982   0.93175    0.000
 3877.00    0.92634   0.92592    0.000
 3878.00    0.89790   0.91884    0.000
 3879.00    0.86806   0.90914    0.000
 3880.00    0.84173   0.89592    0.000
 3881.00    0.82069   0.87941   -1.000
 3882.00    0.80336   0.85962   -1.000
 3883.00    0.78765   0.83571   -1.000
 3884.00    0.77269   0.80740   86.445
 3885.00    0.76073   0.77600   84.349
 3886.00    0.75545   0.74411   84.308
 3887.00    0.75669   0.71592   -1.000
 3888.00    0.76066   0.69662   -1.000
 3889.00    0.76298   0.68962   -1.000
 3890.00    0.76122   0.69529   -1.000
 3891.00    0.75840   0.71213   -1.000
 3892.00    0.76085   0.73745   87.839
 3893.00    0.77274   0.76795   89.730
 3894.00    0.79398   0.80045   89.823
 3895.00    0.81853   0.83169   88.279
 3896.00    0.83879   0.85884   86.679
 3897.00    0.85289   0.88094   86.965
 3898.00    0.86310   0.89890   -1.000
 3899.00    0.87196   0.91394   -1.000
 3900.00    0.88168   0.92644   -1.000
 3901.00    0.89407   0.93641   -1.000
 3902.00    0.90947   0.94430   89.134
 3903.00    0.92564   0.95061   88.840
 3904.00    0.93997   0.95590   89.497
 3905.00    0.95207   0.96099   88.889
 3906.00    0.96232   0.96629   86.097
 3907.00    0.97009   0.97169   83.914
 3908.00    0.97536   0.97698   84.707
 3909.00    0.98018   0.98178   87.573
 3910.00    0.98581   0.98581   89.695
 3911.00    0.99016   0.98884   88.188
 3912.00    0.99124   0.99045   83.718
 3913.00    0.99001   0.99043   80.967
 3914.00    0.98793   0.98875   82.283
 3915.00    0.98497   0.98552   85.429
 3916.00    0.98023   0.98087   87.261
 3917.00    0.97273   0.97492   87.159
 3918.00    0.96332   0.96819   86.322
 3919.00    0.95530   0.96165   86.327
 3920.00    0.95097   0.95597   87.769
 3921.00    0.94963   0.95100   89.697
 3922.00    0.94915   0.94623   90.667
 3923.00    0.94738   0.94115   89.690
 3924.00    0.94425   0.93519   86.935
 3925.00    0.94164   0.92821   83.792
 3926.00    0.93693   0.92023   82.439
 3927.00    0.92232   0.91093   85.054
 3928.00    0.89589   0.90034   90.105
 3929.00    0.86412   0.88891   90.949
 3930.00    0.83052   0.87714   87.641
 3931.00    0.79378   0.86602   -1.000
 3932.00    0.75941   0.85697   -1.000
 3933.00    0.74062   0.85165   -1.000
 3934.00    0.74478   0.85109   -1.000
 3935.00    0.76955   0.85533   -1.000
 3936.00    0.80671   0.86373   -1.000
 3937.00    0.84543   0.87533   87.745
 3938.00    0.87805   0.88893   90.363
 3939.00    0.90199   0.90275   89.569
 3940.00    0.91967   0.91508   85.385
 3941.00    0.93579   0.92505   82.904
 3942.00    0.95050   0.93257   83.752
 3943.00    0.96045   0.93842   86.385
 3944.00    0.96545   0.94355   88.014
 3945.00    0.96817   0.94795   86.577
 3946.00    0.96968   0.95133   84.679
 3947.00    0.97002   0.95409   86.216
 3948.00    0.97111   0.95672   89.937
 3949.00    0.97537   0.95900   91.018
 3950.00    0.98210   0.96003   88.739
 3951.00    0.98819   0.95941   86.209
 3952.00    0.99064   0.95782   85.393
 3953.00    0.98743   0.95556   86.674
 3954.00    0.97823   0.95196   89.045
 3955.00    0.96440   0.94665   90.667
 3956.00    0.94879   0.93995   90.305
 3957.00    0.93421   0.93178   88.312
 3958.00    0.92123   0.92102   86.882
 3959.00    0.90845   0.90618   88.011
 3960.00    0.89306   0.88700    0.000
 3961.00    0.87221   0.86414    0.000
 3962.00    0.84435   0.83731    0.000
 3963.00    0.80913   0.80606    0.000
 3964.00    0.76718   0.77131    0.000
 3965.00    0.72196   0.73449    0.000
 3966.00    0.68111   0.69738    0.000
 3967.00    0.65196   0.66250    0.000
 3968.00    0.63732   0.63349    0.000
 3969.00    0.63600   0.61514    0.000
 3970.00    0.64408   0.61050    0.000
 3971.00    0.65801   0.61927    0.000
 3972.00    0.67687   0.63992    0.000
 3973.00    0.70102   0.67061    0.000
 3974.00    0.73094   0.70816    0.000
 3975.00    0.76650   0.74849    0.000
 3976.00    0.80647   0.78766    0.000
 3977.00    0.84755   0.82304   -2.000
 3978.00    0.88455   0.85362    0.000
 3979.00    0.91453   0.87881    0.000
 3980.00    0.93867   0.89852   -2.000
 3981.00    0.95816   0.91380   -2.000
 3982.00    0.97236   0.92624    4.697
 3983.00    0.98113   0.93675    1.611
 3984.00    0.98588   0.94565   -2.000
 3985.00    0.98930   0.95328   -2.000
 3986.00    0.99460   0.96035    0.524
 3987.00    1.00319   0.96710    0.222
 3988.00    1.01385   0.97300   -2.000
 3989.00    1.02390   0.97781   -2.000
 3990.00    1.03027   0.98171    0.058
 3991.00    1.03186   0.98470    0.031
 3992.00    1.02987   0.98642   -2.000
 3993.00    1.02585   0.98665   -2.000
 3994.00    1.02105   0.98615    0.007
 3995.00    1.01638   0.98568    0.004
 3996.00    1.01246   0.98535   -2.000
 3997.00    1.00958   0.98561   -2.000
 3998.00    1.00774   0.98672    0.001
 3999.00    1.00667   0.98828    0.001
 4000.00    1.00545   0.98971   -2.000
 4001.00    1.00152   0.99051   -2.000
 4002.00    0.99288   0.99010    0.000
 4003.00    0.98298   0.98788    0.000
 4004.00    0.97810   0.98411   -2.000
 4005.00    0.97931   0.98016   -2.000
 4006.00    0.98345   0.97686    0.000
 4007.00    0.98794   0.97405    0.000
 4008.00    0.99118   0.97239   -2.000
 4009.00    0.99157   0.97322   -2.000
 4010.00    0.98863   0.97661    0.000
 4011.00    0.98507   0.98121    0.000
 4012.00    0.98477   0.98602   -2.000
 4013.00    0.98933   0.99099   -2.000
 4014.00    0.99818   0.99604    0.000
 4015.00    1.00961   1.00005    0.000
 4016.00    1.02152   1.00229   -2.000
 4017.00    1.03226   1.00327   -2.000
 4018.00    1.04045   1.00282    0.000
 4019.00    1.04466   1.00002    0.000
 4020.00    1.04338   0.99456   -2.000
 4021.00    1.03521   0.98685    0.000
 4022.00    1.02150   0.97730    0.000
 4023.00    1.00838   0.96602   -2.000
 4024.00    1.00164   0.95427   -2.000
 4025.00    1.00180   0.94529    0.000
 4026.00    1.00590   0.94138    0.000
 4027.00    1.00979   0.94138    0.000
 4028.00    1.01081   0.94320    0.000
 4029.00    1.00949   0.94650    0.000
 4030.00    1.00680   0.95191    0.000
 4031.00    1.00240   0.95885   -2.000
 4032.00    0.99723   0.96540   -2.000
 4033.00    0.99485   0.97106    0.000
 4034.00    0.99770   0.97692    0.000
 4035.00    1.00492   0.98380   -2.000
 4036.00    1.01440   0.99101   -2.000
 4037.00    1.02406   0.99711    0.000
 4038.00    1.03136   1.00121    0.000
 4039.00    1.03323   1.00301   -2.000
 4040.00    1.02719   1.00291   -2.000
 4041.00    1.01255   1.00110    0.000
 4042.00    0.99325   0.99709    0.000
 4043.00    0.97739   0.99131   -2.000
 4044.00    0.96942   0.98575   -2.000
 4045.00    0.96801   0.98274    0.000
 4046.00    0.97110   0.98268    0.000
 4047.00    0.97760   0.98391   -2.000
 4048.00    0.98544   0.98574   -2.000
 4049.00    0.99171   0.98855    0.000
 4050.00    0.99531   0.99170    0.000
 4051.00    0.99713   0.99366   -2.000
 4052.00    0.99746   0.99345   -2.000
 4053.00    0.99598   0.99164    0.000
 4054.00    0.99380   0.98931    0.000
 4055.00    0.99327   0.98675   -2.000
 4056.00    0.99567   0.98391   -2.000
 4057.00    1.00000   0.98135    0.001
 4058.00    1.00180   0.97964    0.002
 4059.00    0.99588   0.97847   -2.000
 4060.00    0.98304   0.97683   -2.000
 4061.00    0.96905   0.97397    0.006
 4062.00    0.95918   0.97074    0.022
 4063.00    0.95675   0.96859   -2.000
 4064.00    0.96270   0.96726   -2.000
 4065.00    0.97556   0.96534    0.048
 4066.00    0.99165   0.96295    0.231
 4067.00    1.00602   0.96141   -2.000
 4068.00    1.01420   0.96062   -2.000
 4069.00    1.01356   0.95901    0.368
 4070.00    1.00500   0.95610    2.620
 4071.00    0.99254   0.95353   -2.000
 4072.00    0.98202   0.95210   -2.000
 4073.00    0.97715   0.95022    2.785
 4074.00    0.97505   0.94704   28.345
 4075.00    0.97146   0.94408   -2.000
 4076.00    0.96769   0.94287   -1.000
 4077.00    0.96682   0.94340   18.634
 4078.00    0.96855   0.94494  100.850
 4079.00    0.97055   0.94738   -2.000
 4080.00    0.97051   0.95057   93.917
 4081.00    0.96757   0.95362   64.230
 4082.00    0.96323   0.95563  106.605
 4083.00    0.95975   0.95637  129.417
 4084.00    0.95850   0.95610   98.061
 4085.00    0.95919   0.95495   89.534
 4086.00    0.95961   0.95283   94.699
 4087.00    0.95776   0.94977   98.893
 4088.00    0.95347   0.94634   99.777
 4089.00    0.94713   0.94256  100.581
 4090.00    0.93879   0.93707  101.674
 4091.00    0.92829   0.92869  101.802
 4092.00    0.91544   0.91741    0.000
 4093.00    0.90030   0.90281    0.000
 4094.00    0.88322   0.88345    0.000
 4095.00    0.86437   0.85906    0.000
 4096.00    0.84385   0.83121    0.000
 4097.00    0.82412   0.80152    0.000
 4098.00    0.81053   0.77053    0.000
 4099.00    0.80785   0.73962    0.000
 4100.00    0.81758   0.71312    0.000
 4101.00    0.83428   0.69672    0.000
 4102.00    0.84663   0.69273    0.000
 4103.00    0.84827   0.69942    0.000
 4104.00    0.84125   0.71511    0.000
 4105.00    0.83182   0.73881    0.000
 4106.00    0.82723   0.76797    0.000
 4107.00    0.83075   0.79824    0.000
 4108.00    0.84074   0.82598    0.000
 4109.00    0.85335   0.84986    0.000
 4110.00    0.86443   0.86999    0.000
 4111.00    0.87243   0.88676    0.000
 4112.00    0.87871   0.90043    0.000
 4113.00    0.88584   0.91103   -1.000
 4114.00    0.89579   0.91884  103.078
 4115.00    0.90672   0.92460  106.298
 4116.00    0.91463   0.92853  107.449
 4117.00    0.91895   0.93006  106.249
 4118.00    0.92170   0.92981  105.839
 4119.00    0.92278   0.92950  106.020
 4120.00    0.92105   0.93033  104.762
 4121.00    0.91833   0.93239  103.640
 4122.00    0.91789   0.93530  105.615
 4123.00    0.92036   0.93912  109.786
 4124.00    0.92443   0.94340  112.146
 4125.00    0.92944   0.94683  110.035
 4126.00    0.93493   0.94847  104.686
 4127.00    0.93925   0.94853  100.730
 4128.00    0.94067   0.94770  101.656
 4129.00    0.93925   0.94595  106.714
 4130.00    0.93688   0.94351  112.317
 4131.00    0.93688   0.94156  114.277
 4132.00    0.94158   0.94151  111.031
 4133.00    0.94951   0.94350  106.193
 4134.00    0.95690   0.94689  103.453
 4135.00    0.95994   0.95080  102.980
 4136.00    0.95750   0.95433  104.146
 4137.00    0.95322   0.95691  107.688
 4138.00    0.95056   0.95787  112.796
 4139.00    0.94807   0.95646  113.474
 4140.00    0.94355   0.95203  107.496
 4141.00    0.93812   0.94461  103.196
 4142.00    0.93432   0.93612  105.536
 4143.00    0.93409   0.93016  110.331
 4144.00    0.93763   0.92821  111.815
 4145.00    0.94277   0.92840  110.546
 4146.00    0.94630   0.92993  108.919
 4147.00    0.94542   0.93362  106.955
 4148.00    0.94050   0.93887  105.355
 4149.00    0.93611   0.94367  106.736
 4150.00    0.93576   0.94675  111.229
 4151.00    0.93902   0.94796  114.022
 4152.00    0.94400   0.94796  112.749
 4153.00    0.94908   0.94785  111.844
 4154.00    0.95299   0.94823  113.098
 4155.00    0.95504   0.94889  112.634
 4156.00    0.95560   0.95020  109.748
 4157.00    0.95601   0.95268  109.160
 4158.00    0.95687   0.95581  112.412
 4159.00    0.95773   0.95870  115.736
 4160.00    0.95915   0.96119  115.439
 4161.00    0.96267   0.96345  111.602
 4162.00    0.96737   0.96492  107.576
 4163.00    0.96976   0.96508  107.135
 4164.00    0.96787   0.96429  110.319
 4165.00    0.96257   0.96269  113.550
 4166.00    0.95654   0.96000  114.504
 4167.00    0.95294   0.95651  113.756
 4168.00    0.95228   0.95304  111.876
 4169.00    0.95261   0.94940  109.092
 4170.00    0.95232   0.94479  107.078
 4171.00    0.95072   0.93968  107.936
 4172.00    0.94716   0.93573  111.236
 4173.00    0.94151   0.93350  114.005
 4174.00    0.93577   0.93222  113.219
 4175.00    0.93261   0.93143  108.553
 4176.00    0.93145   0.93156  104.283
 4177.00    0.93000   0.93310  104.646
 4178.00    0.92898   0.93585  108.347
 4179.00    0.93141   0.93873  110.915
 4180.00    0.93952   0.94066  111.809
 4181.00    0.95332   0.94185  113.051
 4182.00    0.96925   0.94319  112.763
 4183.00    0.98277   0.94444   -1.000
 4184.00    0.99261   0.94481   -1.000
 4185.00    0.99922   0.94404   -1.000
 4186.00    1.00139   0.94299   -1.000
 4187.00    0.99766   0.94303   -1.000
 4188.00    0.98878   0.94398   -1.000
 4189.00    0.97682   0.94471   -1.000
 4190.00    0.96367   0.94525  116.065
 4191.00    0.95093   0.94663  113.032
 4192.00    0.94001   0.94826  109.055
 4193.00    0.93201   0.94800  108.709
 4194.00    0.92758   0.94540  111.407
 4195.00    0.92699   0.94180  114.588
 4196.00    0.93021   0.93764  116.756
 4197.00    0.93636   0.93236  117.046
 4198.00    0.94329   0.92703  114.701
 4199.00    0.94927   0.92345   -1.000
 4200.00    0.95420   0.92164   -1.000
 4201.00    0.95821   0.92137   -1.000
 4202.00    0.96067   0.92328   -1.000
 4203.00    0.96136   0.92701   -1.000
 4204.00    0.96126   0.93139   -1.000
 4205.00    0.96098   0.93624  114.944
 4206.00    0.95984   0.94146  111.544
 4207.00    0.95704   0.94613  108.571
 4208.00    0.95258   0.94941  108.199
 4209.00    0.94799   0.95150  111.011
 4210.00    0.94618   0.95278  115.312
 4211.00    0.94825   0.95323  118.427
 4212.00    0.95248   0.95267  118.202
 4213.00    0.95809   0.95117  115.412
 4214.00    0.96629   0.94928  113.361
 4215.00    0.97630   0.94843   -1.000
 4216.00    0.98458   0.94918   -1.000
 4217.00    0.98954   0.95011   -1.000
 4218.00    0.99254   0.95027   -1.000
 4219.00    0.99364   0.95029   -1.000
 4220.00    0.99087   0.94968   -1.000
 4221.00    0.98337   0.94652   -1.000
 4222.00    0.97217   0.94082   -1.000
 4223.00    0.95863   0.93390  109.926
 4224.00    0.94418   0.92626  112.726
 4225.00    0.93112   0.91857  117.027
 4226.00    0.92200   0.91343  121.667
 4227.00    0.91746   0.91265  124.564
 4228.00    0.91623   0.91465  123.603
 4229.00    0.91704   0.91787  119.864
 4230.00    0.91891   0.92240  116.607
 4231.00    0.92085   0.92725  115.886
 4232.00    0.92236   0.93076  118.016
 4233.00    0.92461   0.93285  120.835
 4234.00    0.92916   0.93349  121.056
 4235.00    0.93463   0.93264  119.007
 4236.00    0.93806   0.93196  117.269
 4237.00    0.93872   0.93249  116.048
 4238.00    0.93782   0.93356  114.118
 4239.00    0.93676   0.93522  111.471
 4240.00    0.93670   0.93792  109.538
 4241.00    0.93859   0.94066  110.850
 4242.00    0.94241   0.94298  116.551
 4243.00    0.94635   0.94529  121.430
 4244.00    0.94791   0.94640  118.656
 4245.00    0.94576   0.94508  112.431
 4246.00    0.94007   0.94258  109.649
 4247.00    0.93260   0.94027  110.734
 4248.00    0.92558   0.93716  113.715
 4249.00    0.92040   0.93282  117.854
 4250.00    0.91781   0.92958  122.322
 4251.00    0.91831   0.92841  124.206
 4252.00    0.92162   0.92729  121.757
 4253.00    0.92612   0.92576  117.971
 4254.00    0.92987   0.92579  115.910
 4255.00    0.93163   0.92738  115.435
 4256.00    0.93128   0.92839  115.837
 4257.00    0.92997   0.92826  117.709
 4258.00    0.92938   0.92834  121.184
 4259.00    0.93093   0.92909  124.287
 4260.00    0.93544   0.93036  124.676
 4261.00    0.94282   0.93203  121.901
 4262.00    0.95175   0.93376  117.722
 4263.00    0.95966   0.93531  115.013
 4264.00    0.96401   0.93666   -1.000
 4265.00    0.96321   0.93652   -1.000
 4266.00    0.95684   0.93384  121.299
 4267.00    0.94579   0.93017  123.829
 4268.00    0.93253   0.92608  124.218
 4269.00    0.92082   0.91998  122.606
 4270.00    0.91332   0.91261  119.786
 4271.00    0.91062   0.90763  116.627
 4272.00    0.91242   0.90559  113.939
 4273.00    0.91796   0.90400  112.579
 4274.00    0.92534   0.90327  114.010
 4275.00    0.93189   0.90566   -1.000
 4276.00    0.93692   0.91047   -2.000
 4277.00    0.94198   0.91498   -2.000
 4278.00    0.94816   0.91826   -2.000
 4279.00    0.95520   0.92082   -2.000
 4280.00    0.96231   0.92266   -2.000
 4281.00    0.96815   0.92303   -2.000
 4282.00    0.97003   0.92181   -2.000
 4283.00    0.96531   0.91933   -2.000
 4284.00    0.95638   0.91595   -2.000
 4285.00    0.94871   0.91237   -2.000
 4286.00    0.94211   0.90917   -2.000
 4287.00    0.93247   0.90569   -2.000
 4288.00    0.92176   0.90145   -2.000
 4289.00    0.91633   0.89806   -2.000
 4290.00    0.91741   0.89706   -2.000
 4291.00    0.92143   0.89735   -2.000
 4292.00    0.92514   0.89707   -1.000
 4293.00    0.92672   0.89599   -1.000
 4294.00    0.92556   0.89531   -1.000
 4295.00    0.92157   0.89431   -1.000
 4296.00    0.91406   0.89111   -1.000
 4297.00    0.90273   0.88526  119.859
 4298.00    0.88954   0.87821  118.571
 4299.00    0.87733   0.87180  119.856
 4300.00    0.86721   0.86641  122.698
 4301.00    0.85915   0.86110  124.845
 4302.00    0.85347   0.85613  126.036
 4303.00    0.85068   0.85337  126.975
 4304.00    0.85101   0.85252  126.996
 4305.00    0.85361   0.85180  125.465
 4306.00    0.85592   0.85098  123.735
 4307.00    0.85616   0.85113  123.483
 4308.00    0.85607   0.85279  124.990
 4309.00    0.85831   0.85586  127.718
 4310.00    0.86358   0.86017  130.827
 4311.00    0.87155   0.86587  132.694
 4312.00    0.88179   0.87317  130.892
 4313.00    0.89283   0.88170  125.760
 4314.00    0.90156   0.89124  121.793
 4315.00    0.90582   0.90107  121.694
 4316.00    0.90644   0.90942  123.826
 4317.00    0.90591   0.91564  125.773
 4318.00    0.90693   0.91984  126.959
 4319.00    0.91016   0.92137  127.669
 4320.00    0.91296   0.91930  128.042
 4321.00    0.91206   0.91452  127.795
 4322.00    0.90542   0.90780  126.356
 4323.00    0.89332   0.89964  124.258
 4324.00    0.87854   0.89123  123.364
 4325.00    0.86513   0.88477  124.459
 4326.00    0.85711   0.88115  126.389
 4327.00    0.85623   0.87913  127.635
 4328.00    0.86094   0.87724  127.319
 4329.00    0.86692   0.87549  125.540
 4330.00    0.86838   0.87374    0.000
 4331.00    0.86246   0.86941    0.000
 4332.00    0.85035   0.85988    0.000
 4333.00    0.83422   0.84545    0.000
 4334.00    0.81689   0.82689    0.000
 4335.00    0.80554   0.80308    0.000
 4336.00    0.81104   0.77477    0.000
 4337.00    0.84079   0.74621    0.000
 4338.00    0.89413   0.71952    0.000
 4339.00    0.95639   0.69603    0.000
 4340.00    1.00265   0.68164    0.000
 4341.00    1.01423   0.68000    0.000
 4342.00    0.98566   0.68732    0.000
 4343.00    0.92949   0.70148    0.000
 4344.00    0.87010   0.72415    0.000
 4345.00    0.82529   0.75146    0.000
 4346.00    0.80174   0.77666    0.000
 4347.00    0.79564   0.79898    0.000
 4348.00    0.79781   0.81952    0.000
 4349.00    0.80375   0.83574    0.000
 4350.00    0.81344   0.84644    0.000
 4351.00    0.82657   0.85552   -1.000
 4352.00    0.84214   0.86542   -1.000
 4353.00    0.85941   0.87388  121.627
 4354.00    0.87757   0.88050  122.785
 4355.00    0.89491   0.88849  125.375
 4356.00    0.90958   0.89799  126.949
 4357.00    0.92098   0.90567  128.520
 4358.00    0.92925   0.91133  131.748
 4359.00    0.93423   0.91750  133.141
 4360.00    0.93608   0.92380  128.781
 4361.00    0.93611   0.92808  122.436
 4362.00    0.93567   0.93073  119.322
 4363.00    0.93471   0.93364  120.548
 4364.00    0.93242   0.93620  125.090
 4365.00    0.92818   0.93621  130.756
 4366.00    0.92194   0.93411  134.844
 4367.00    0.91450   0.93219  135.951
 4368.00    0.90704   0.93039  134.465
 4369.00    0.90068   0.92708   -1.000
 4370.00    0.89587   0.92327   -1.000
 4371.00    0.89208   0.92086   -1.000
 4372.00    0.88863   0.91911   -1.000
 4373.00    0.88550   0.91671   -1.000
 4374.00    0.88373   0.91485   -1.000
 4375.00    0.88533   0.91500   -1.000
 4376.00    0.89074   0.91610   -1.000
 4377.00    0.89737   0.91604  135.994
 4378.00    0.90165   0.91440  137.179
 4379.00    0.90075   0.91215  136.527
 4380.00    0.89339   0.90902  133.829
 4381.00    0.88034   0.90288  132.317
 4382.00    0.86480   0.89318   -1.000
 4383.00    0.85187   0.88369   -1.000
 4384.00    0.84479   0.87758   -1.000
 4385.00    0.84331   0.87313   -1.000
 4386.00    0.84577   0.86855   -1.000
 4387.00    0.85027   0.86748  144.391
 4388.00    0.85553   0.87208  140.797
 4389.00    0.86124   0.87807  136.356
 4390.00    0.86842   0.88312  132.872
 4391.00    0.87860   0.89001  130.368
 4392.00    0.89052   0.89833  129.336
 4393.00    0.90034   0.90443  130.800
 4394.00    0.90652   0.90863  133.966
 4395.00    0.91055   0.91346  136.208
 4396.00    0.91326   0.91788  137.011
 4397.00    0.91413   0.91993  138.103
 4398.00    0.91273   0.92024  138.483
 4399.00    0.90915   0.91962  135.357
 4400.00    0.90370   0.91876  131.005
 4401.00    0.89707   0.91798  130.317
 4402.00    0.89060   0.91559   -1.000
 4403.00    0.88588   0.91116   -1.000
 4404.00    0.88339   0.90853   -1.000
 4405.00    0.88268   0.90919   -1.000
 4406.00    0.88365   0.90936   -1.000
 4407.00    0.88656   0.90866   -1.000
 4408.00    0.89163   0.91090  141.760
 4409.00    0.89877   0.91519  142.298
 4410.00    0.90714   0.91764  139.864
 4411.00    0.91513   0.91902  136.461
 4412.00    0.92050   0.92062  133.834
 4413.00    0.92162   0.92005  132.663
 4414.00    0.91933   0.91772  132.215
 4415.00    0.91628   0.91681  131.969
 4416.00    0.91540   0.91677  133.797
 4417.00    0.91816   0.91654  138.943
 4418.00    0.92263   0.91807  142.925
 4419.00    0.92560   0.92146  140.576
 4420.00    0.92556   0.92444  135.702
 4421.00    0.92303   0.92634  133.640
 4422.00    0.92030   0.92834  133.617
 4423.00    0.91894   0.93016  133.168
 4424.00    0.91741   0.93053  132.580
 4425.00    0.91387   0.92950  133.216
 4426.00    0.90907   0.92860  135.486
 4427.00    0.90502   0.92851   -1.000
 4428.00    0.90339   0.92767   -1.000
 4429.00    0.90460   0.92516  138.960
 4430.00    0.90731   0.92306  135.819
 4431.00    0.90911   0.92215  132.520
 4432.00    0.90751   0.92040  129.841
 4433.00    0.90357   0.91782  127.994
 4434.00    0.90328   0.91656  126.958
 4435.00    0.90948   0.91704  126.496
 4436.00    0.91757   0.91794  126.220
 4437.00    0.92325   0.91914  126.095
 4438.00    0.92691   0.92092  126.644
 4439.00    0.92896   0.92249  128.291
 4440.00    0.92770   0.92326  130.943
 4441.00    0.92316   0.92336  133.739
 4442.00    0.91859   0.92298  135.013
 4443.00    0.91697   0.92308  133.415
 4444.00    0.91933   0.92443  129.128
 4445.00    0.92493   0.92568  125.016
 4446.00    0.93177   0.92642  125.048
 4447.00    0.93822   0.92844  129.547
 4448.00    0.94356   0.93065  134.437
 4449.00    0.94728   0.93031  136.592
 4450.00    0.94889   0.92850  136.576
 4451.00    0.94792   0.92690  135.508
 4452.00    0.94416   0.92414  133.576
 4453.00    0.93819   0.91930  130.337
 4454.00    0.93136   0.91422  125.878
 4455.00    0.92516   0.91068  123.158
 4456.00    0.92085   0.90760  125.720
 4457.00    0.91907   0.90409  131.207
 4458.00    0.91961   0.90182  132.219
 4459.00    0.92089   0.90167  128.895
 4460.00    0.92093   0.90155  128.111
 4461.00    0.91971   0.90127    0.000
 4462.00    0.91833   0.90269    0.000
 4463.00    0.91599   0.90403    0.000
 4464.00    0.91093   0.90342    0.000
 4465.00    0.90370   0.90214    0.000
 4466.00    0.89648   0.90040    0.000
 4467.00    0.89048   0.89692    0.000
 4468.00    0.88665   0.89297    0.000
 4469.00    0.88754   0.88986    0.000
 4470.00    0.89502   0.88729    0.000
 4471.00    0.90611   0.88775    0.000
 4472.00    0.91593   0.89278    0.000
 4473.00    0.92293   0.89928    0.000
 4474.00    0.92789   0.90566    0.000
 4475.00    0.93150   0.91328    0.000
 4476.00    0.93337   0.92082    0.000
 4477.00    0.93131   0.92529    0.000
 4478.00    0.92367   0.92670    0.000
 4479.00    0.91202   0.92620    0.000
 4480.00    0.90040   0.92478    0.000
 4481.00    0.89395   0.92400    0.000
 4482.00    0.89580   0.92466   -1.000
 4483.00    0.90437   0.92574   -1.000
 4484.00    0.91575   0.92760  142.844
 4485.00    0.92627   0.93068  145.024
 4486.00    0.93350   0.93350  146.161
 4487.00    0.93675   0.93452  147.566
 4488.00    0.93636   0.93430  149.623
 4489.00    0.93311   0.93372  149.178
 4490.00    0.92901   0.93280  144.678
 4491.00    0.92733   0.93172  139.438
 4492.00    0.92880   0.93066  136.600
 4493.00    0.92980   0.92979  136.854
 4494.00    0.92797   0.93000  139.454
 4495.00    0.92524   0.93114  142.607
 4496.00    0.92403   0.93248  144.745
 4497.00    0.92495   0.93448  145.557
 4498.00    0.92760   0.93772  145.634
 4499.00    0.93118   0.94120  145.872
 4500.00    0.93540   0.94422  146.221
 4501.00    0.94048   0.94814  145.474
 4502.00    0.94575   0.95290  143.198
 4503.00    0.94938   0.95644  140.396
 4504.00    0.95030   0.95880  138.444
 4505.00    0.94884   0.96112  138.423
 4506.00    0.94596   0.96254  140.223
 4507.00    0.94270   0.96226  142.502
 4508.00    0.93951   0.96124   -1.000
 4509.00    0.93617   0.95985   -1.000
 4510.00    0.93216   0.95737   -1.000
 4511.00    0.92723   0.95420   -1.000
 4512.00    0.92281   0.95126   -1.000
 4513.00    0.92104   0.94810   -1.000
 4514.00    0.92106   0.94491   -1.000
 4515.00    0.91985   0.94278   -1.000
 4516.00    0.91706   0.94114   -1.000
 4517.00    0.91441   0.93937   -1.000
 4518.00    0.91095   0.93831   -1.000
 4519.00    0.90526   0.93786   -1.000
 4520.00    0.90280   0.93690   -1.000
 4521.00    0.90931   0.93442   97.035
 4522.00    0.91434   0.93117   61.451
 4523.00    0.90486   0.92788   54.015
 4524.00    0.89633   0.92330   57.644
 4525.00    0.91040   0.91748   60.106
 4526.00    0.92647   0.91207   58.405
 4527.00    0.91350   0.90730   57.652
 4528.00    0.89376   0.90294   58.503
 4529.00    0.90586   0.89975   58.803
 4530.00    0.93478   0.89800   58.283
 4531.00    0.94266   0.89774   57.962
 4532.00    0.92577   0.89842   58.116
 4533.00    0.90405   0.89972   58.464
 4534.00    0.89637   0.90208   58.699
 4535.00    0.90929   0.90568   58.668
 4536.00    0.92873   0.90974   58.502
 4537.00    0.93879   0.91308   58.353
 4538.00    0.94253   0.91608   58.125
 4539.00    0.94794   0.91864   57.767
 4540.00    0.95199   0.91989   57.566
 4541.00    0.95018   0.92059   57.735
 4542.00    0.94612   0.92129   58.064
 4543.00    0.94245   0.92077   58.348
 4544.00    0.93322   0.91936   58.754
 4545.00    0.91482   0.91863   59.336
 4546.00    0.89480   0.91811   59.660
 4547.00    0.88688   0.91630   59.505
 4548.00    0.90421   0.91356   59.335
 4549.00    0.94265   0.91207   59.399
 4550.00    0.97381   0.91150    0.000
 4551.00    0.97592   0.90971    0.000
 4552.00    0.95246   0.90863    0.000
 4553.00    0.92044   0.90995    0.000
 4554.00    0.90036   0.91183    0.000
 4555.00    0.90313   0.91417    0.000
 4556.00    0.92321   0.91841    0.000
 4557.00    0.93961   0.92311    0.000
 4558.00    0.92545   0.92702    0.000
 4559.00    0.88868   0.93060    0.000
 4560.00    0.87542   0.93356    0.000
 4561.00    0.90039   0.93511    0.000
 4562.00    0.92997   0.93509    0.000
 4563.00    0.93855   0.93427    0.000
 4564.00    0.92833   0.93346    0.000
 4565.00    0.91495   0.93297    0.000
 4566.00    0.91602   0.93248    0.000
 4567.00    0.93252   0.93195    0.000
 4568.00    0.94949   0.93246    0.000
 4569.00    0.95829   0.93352    0.000
 4570.00    0.96077   0.93313    0.000
 4571.00    0.96008   0.93282    0.000
 4572.00    0.95933   0.93420    0.000
 4573.00    0.96522   0.93454    0.000
 4574.00    0.98282   0.93336    0.000
 4575.00    1.00069   0.93306    0.000
 4576.00    0.99880   0.93277    0.000
 4577.00    0.97484   0.93083    0.000
 4578.00    0.94478   0.92811    0.000
 4579.00    0.93044   0.92547    0.000
 4580.00    0.94362   0.92289    0.000
 4581.00    0.96187   0.92061    0.000
 4582.00    0.95169   0.91856    0.000
 4583.00    0.91768   0.91749    0.000
 4584.00    0.88914   0.91791    0.000
 4585.00    0.88263   0.91872    0.000
 4586.00    0.89791   0.91974    0.000
 4587.00    0.92207   0.92131    0.000
 4588.00    0.94225   0.92280    0.000
 4589.00    0.96197   0.92336    0.000
 4590.00    0.98643   0.92316    0.000
 4591.00    1.00140   0.92261    0.000
 4592.00    0.99217   0.92193    0.000
 4593.00    0.96838   0.92099    0.000
 4594.00    0.94478   0.91986    0.000
 4595.00    0.91791   0.91927    0.000
 4596.00    0.88757   0.91918    0.000
 4597.00    0.87844   0.91920    0.000
 4598.00    0.90253   0.91954    0.000
 4599.00    0.92590   0.91983    0.000
 4600.00    0.92004   0.92014    0.000
 4601.00    0.90620   0.92101    0.000
 4602.00    0.91185   0.92206    0.000
 4603.00    0.93390   0.92330    0.000
 4604.00    0.96030   0.92515    0.000
 4605.00    0.98686   0.92754    0.000
 4606.00    1.00305   0.93013    0.000
 4607.00    0.98679   0.93302    0.000
 4608.00    0.94343   0.93580    0.000
 4609.00    0.92103   0.93776    0.000
 4610.00    0.94299   0.93936    0.000
 4611.00    0.97599   0.94050    0.000
 4612.00    0.98807   0.94041    0.000
 4613.00    0.97886   0.94017    0.000
 4614.00    0.95848   0.94002    0.000
 4615.00    0.93628   0.93886    0.000
 4616.00    0.92412   0.93814    0.000
 4617.00    0.93342   0.93804    0.000
 4618.00    0.95529   0.93716    0.000
 4619.00    0.96201   0.93702    0.000
 4620.00    0.94945   0.93816    0.000
 4621.00    0.94388   0.93848    0.000
 4622.00    0.96096   0.93868    0.000
 4623.00    0.99171   0.93988    0.000
 4624.00    1.01058   0.94017    0.000
 4625.00    0.99174   0.93927    0.000
 4626.00    0.95019   0.93896    0.000
 4627.00    0.93142   0.93846    0.000
 4628.00    0.94235   0.93648    0.000
 4629.00    0.95126   0.93464    0.000
 4630.00    0.94454   0.93381    0.000
 4631.00    0.93365   0.93230    0.000
 4632.00    0.93206   0.92995    0.000
 4633.00    0.94405   0.92819    0.000
 4634.00    0.95374   0.92667    0.000
 4635.00    0.93990   0.92451    0.000
 4636.00    0.91211   0.92205    0.000
 4637.00    0.89844   0.92006    0.000
 4638.00    0.90585   0.91836    0.000
 4639.00    0.92260   0.91653    0.000
 4640.00    0.93766   0.91505    0.000
 4641.00    0.94618   0.91380    0.000
 4642.00    0.95213   0.91190    0.000
 4643.00    0.95864   0.90966    0.000
 4644.00    0.95349   0.90729    0.000
 4645.00    0.92737   0.90394    0.000
 4646.00    0.90202   0.90036    0.000
 4647.00    0.90409   0.89794    0.000
 4648.00    0.92586   0.89650    0.000
 4649.00    0.94186   0.89577    0.000
 4650.00    0.93658   0.89637    0.000
 4651.00    0.91356   0.89877    0.000
 4652.00    0.89960   0.90201    0.000
 4653.00    0.91583   0.90494    0.000
 4654.00    0.94846   0.90860    0.000
 4655.00    0.97342   0.91299    0.000
 4656.00    0.98296   0.91664    0.000
 4657.00    0.98081   0.92002    0.000
 4658.00    0.97446   0.92341    0.000
 4659.00    0.96735   0.92555    0.000
 4660.00    0.95441   0.92597    0.000
 4661.00    0.93597   0.92513    0.000
 4662.00    0.92630   0.92258    0.000
 4663.00    0.93221   0.91839    0.000
 4664.00    0.94028   0.91377    0.000
 4665.00    0.93895   0.90870    0.000
 4666.00    0.93169   0.90362    0.000
 4667.00    0.92230   0.90040    0.000
 4668.00    0.90771   0.89902    0.000
 4669.00    0.89257   0.89872    0.000
 4670.00    0.89272   0.90030    0.000
 4671.00    0.90838   0.90332    0.000
 4672.00    0.91780   0.90641    0.000
 4673.00    0.91750   0.90948    0.000
 4674.00    0.93111   0.91228    0.000
 4675.00    0.95875   0.91423    0.000
 4676.00    0.96749   0.91520    0.000
 4677.00    0.94893   0.91506    0.000
 4678.00    0.93079   0.91414    0.000
 4679.00    0.92637   0.91301    0.000
 4680.00    0.92336   0.91125    0.000
 4681.00    0.91514   0.90903    0.000
 4682.00    0.90786   0.90771    0.000
 4683.00    0.90595   0.90674    0.000
 4684.00    0.90931   0.90535    0.000
 4685.00    0.91970   0.90504    0.000
 4686.00    0.93785   0.90582    0.000
 4687.00    0.95025   0.90638    0.000
 4688.00    0.93793   0.90755    0.000
 4689.00    0.90759   0.90957    0.000
 4690.00    0.88622   0.91126    0.000
 4691.00    0.88916   0.91310    0.000
 4692.00    0.91403   0.91518    0.000
 4693.00    0.94489   0.91645    0.000
 4694.00    0.96237   0.91687    0.000
 4695.00    0.96173   0.91689    0.000
 4696.00    0.94982   0.91605    0.000
 4697.00    0.93256   0.91367    0.000
 4698.00    0.91554   0.91061    0.000
 4699.00    0.90846   0.90784    0.000
 4700.00    0.91410   0.90483    0.000
 4701.00    0.91109   0.90153    0.000
 4702.00    0.88203   0.89902    0.000
 4703.00    0.85633   0.89757    0.000
 4704.00    0.86938   0.89644    0.000
 4705.00    0.90095   0.89538    0.000
 4706.00    0.91148   0.89499    0.000
 4707.00    0.89754   0.89525    0.000
 4708.00    0.87901   0.89500    0.000
 4709.00    0.87522   0.89473    0.000
 4710.00    0.89301   0.89568    0.000
 4711.00    0.91796   0.89645    0.000
 4712.00    0.92970   0.89693    0.000
 4713.00    0.91897   0.89898    0.000
 4714.00    0.89491   0.90202    0.000
 4715.00    0.88654   0.90513    0.000
 4716.00    0.90721   0.90921    0.000
 4717.00    0.92942   0.91393    0.000
 4718.00    0.93224   0.91831    0.000
 4719.00    0.93482   0.92230    0.000
 4720.00    0.94871   0.92562    0.000
 4721.00    0.94856   0.92766    0.000
 4722.00    0.92721   0.92848    0.000
 4723.00    0.92341   0.92803    0.000
 4724.00    0.94771   0.92632    0.000
 4725.00    0.94966   0.92370    0.000
 4726.00    0.90957   0.92004    0.000
 4727.00    0.87718   0.91593    0.000
 4728.00    0.88157   0.91256    0.000
 4729.00    0.89314   0.90943    0.000
 4730.00    0.88584   0.90679    0.000
 4731.00    0.86614   0.90603    0.000
 4732.00    0.85573   0.90604    0.000
 4733.00    0.87458   0.90626    0.000
 4734.00    0.90744   0.90800    0.000
 4735.00    0.90942   0.90967    0.000
 4736.00    0.88198   0.91059    0.000
 4737.00    0.87654   0.91245    0.000
 4738.00    0.89891   0.91416    0.000
 4739.00    0.90413   0.91498    0.000
 4740.00    0.89558   0.91617    0.000
 4741.00    0.92237   0.91756    0.000
 4742.00    0.96880   0.91882    0.000
 4743.00    0.96559   0.92001    0.000
 4744.00    0.91776   0.92096    0.000
 4745.00    0.89431   0.92220    0.000
 4746.00    0.90561   0.92336    0.000
 4747.00    0.90933   0.92356    0.000
 4748.00    0.90281   0.92355    0.000
 4749.00    0.91609   0.92348    0.000
 4750.00    0.94594   0.92240    0.000
 4751.00    0.96256   0.92072    0.000
 4752.00    0.95402   0.91909    0.000
 4753.00    0.92919   0.91716    0.000
 4754.00    0.90512   0.91503    0.000
 4755.00    0.89606   0.91318    0.000
 4756.00    0.89931   0.91165    0.000
 4757.00    0.90329   0.91002    0.000
 4758.00    0.90446   0.90818    0.000
 4759.00    0.90499   0.90655    0.000
 4760.00    0.90523   0.90454    0.000
 4761.00    0.90525   0.90174   68.350
 4762.00    0.90803   0.89925   68.809
 4763.00    0.91250   0.89726   70.003
 4764.00    0.90538   0.89516   70.492
 4765.00    0.88095   0.89405   69.460
 4766.00    0.86315   0.89449   68.786
 4767.00    0.87458   0.89535   69.915
 4768.00    0.90166   0.89690   70.802
 4769.00    0.91992   0.89960   69.432
 4770.00    0.92312   0.90231   67.887
 4771.00    0.91677   0.90469   68.323
 4772.00    0.90898   0.90723   69.856
 4773.00    0.90533   0.90975   70.718
 4774.00    0.90528   0.91158   70.475
 4775.00    0.90368   0.91263   69.833
 4776.00    0.89379   0.91361   69.907
 4777.00    0.88006   0.91417   70.814
 4778.00    0.88347   0.91338   70.994
 4779.00    0.91190   0.91192   69.982
 4780.00    0.94355   0.91074   69.853
 4781.00    0.95511   0.90890   -1.000
 4782.00    0.94097   0.90593   72.664
 4783.00    0.91339   0.90391   72.008
 4784.00    0.89667   0.90260   71.047
 4785.00    0.89858   0.90020   71.040
 4786.00    0.90128   0.89895   71.568
 4787.00    0.89528   0.89940   72.168
 4788.00    0.89185   0.89927   72.969
 4789.00    0.89794   0.90014   73.651
 4790.00    0.90662   0.90276   73.263
 4791.00    0.90886   0.90502   71.897
 4792.00    0.90054   0.90744   70.845
 4793.00    0.88848   0.91053   70.700
 4794.00    0.88764   0.91272   70.999
 4795.00    0.90246   0.91391   71.013
 4796.00    0.92376   0.91474   70.263
 4797.00    0.94210   0.91471   69.233
 4798.00    0.95158   0.91379   69.043
 4799.00    0.94727   0.91277   70.102
 4800.00    0.92661   0.91173   71.908
 4801.00    0.89606   0.91048   73.353
 4802.00    0.86932   0.90957   73.341
 4803.00    0.85759   0.90873   -1.000
 4804.00    0.86385   0.90756   -1.000
 4805.00    0.87607   0.90681   72.955
 4806.00    0.87814   0.90612   73.605
 4807.00    0.87750   0.90510   73.542
 4808.00    0.89306   0.90475   72.795
 4809.00    0.91761   0.90483   71.846
 4810.00    0.92800   0.90494   71.273
 4811.00    0.91983   0.90558   71.302
 4812.00    0.90571   0.90661   71.628
 4813.00    0.89937   0.90781   71.215
 4814.00    0.90636   0.90911   69.555
 4815.00    0.91448   0.91035   68.450
 4816.00    0.91153   0.91137   69.480
 4817.00    0.91302   0.91203   70.568
 4818.00    0.93361   0.91214   69.124
 4819.00    0.94378   0.91123   67.686
 4820.00    0.91334   0.90977   69.296
 4821.00    0.87251   0.90815   71.933
 4822.00    0.86325   0.90550   -1.000
 4823.00    0.87372   0.90285   70.904
 4824.00    0.87573   0.90102   71.238
 4825.00    0.87331   0.89892   71.966
 4826.00    0.87884   0.89728   71.193
 4827.00    0.88469   0.89639   69.620
 4828.00    0.88306   0.89527   68.705
 4829.00    0.88548   0.89471   68.786
 4830.00    0.90021   0.89439   69.445
 4831.00    0.91311   0.89349   69.883
 4832.00    0.91012   0.89313   69.904
 4833.00    0.89592   0.89310   70.547
 4834.00    0.88350   0.89232   72.143
 4835.00    0.88348   0.89139   73.010
 4836.00    0.89274   0.89063   72.436
 4837.00    0.89185   0.88935   72.513
 4838.00    0.87958   0.88743   73.657
 4839.00    0.88590   0.88538   72.618
 4840.00    0.91163   0.88359   69.322
 4841.00    0.90717   0.88166   68.611
 4842.00    0.86210   0.87939   71.581
 4843.00    0.83634   0.87760   -1.000
 4844.00    0.85592   0.87579   70.554
 4845.00    0.87593   0.87318   68.908
 4846.00    0.86857   0.87049   70.304
 4847.00    0.85424   0.86694   72.213
 4848.00    0.84654   0.86202    0.000
 4849.00    0.83439   0.85665    0.000
 4850.00    0.81219   0.84944    0.000
 4851.00    0.78926   0.83982    0.000
 4852.00    0.77742   0.82923    0.000
 4853.00    0.78353   0.81615    0.000
 4854.00    0.80141   0.79946    0.000
 4855.00    0.81634   0.78156    0.000
 4856.00    0.82792   0.76212    0.000
 4857.00    0.85553   0.74019    0.000
 4858.00    0.93209   0.71977    0.000
 4859.00    1.08546   0.70234    0.000
 4860.00    1.29480   0.68698    0.000
 4861.00    1.49159   0.67829    0.000
 4862.00    1.59321   0.67771    0.000
 4863.00    1.54090   0.68182    0.000
 4864.00    1.36440   0.69233    0.000
 4865.00    1.15505   0.70902    0.000
 4866.00    0.97719   0.72671    0.000
 4867.00    0.85652   0.74436    0.000
 4868.00    0.79598   0.76240    0.000
 4869.00    0.78103   0.77821    0.000
 4870.00    0.78415   0.79071    0.000
 4871.00    0.78084   0.80186    0.000
 4872.00    0.77421   0.81216    0.000
 4873.00    0.78075   0.82055    0.000
 4874.00    0.80202   0.82808    0.000
 4875.00    0.82711   0.83624   75.845
 4876.00    0.84291   0.84371   76.049
 4877.00    0.84345   0.84956   74.895
 4878.00    0.83943   0.85539   73.008
 4879.00    0.84468   0.86057   71.962
 4880.00    0.85845   0.86319   72.241
 4881.00    0.86980   0.86497   73.316
 4882.00    0.86616   0.86638   73.762
 4883.00    0.84528   0.86582   72.885
 4884.00    0.82498   0.86452   72.317
 4885.00    0.82115   0.86369   -1.000
 4886.00    0.82692   0.86250   75.896
 4887.00    0.82917   0.86119   77.531
 4888.00    0.82485   0.86132   77.266
 4889.00    0.81622   0.86259   -1.000
 4890.00    0.80612   0.86421   -1.000
 4891.00    0.80086   0.86803   -1.000
 4892.00    0.81055   0.87335   -1.000
 4893.00    0.83353   0.87837   -1.000
 4894.00    0.84926   0.88460   74.575
 4895.00    0.84715   0.89069   -1.000
 4896.00    0.84231   0.89478   -1.000
 4897.00    0.85038   0.89842   -1.000
 4898.00    0.87207   0.90061   73.704
 4899.00    0.89739   0.90051   73.578
 4900.00    0.91141   0.90032   74.358
 4901.00    0.90882   0.89961   75.377
 4902.00    0.89885   0.89778   75.120
 4903.00    0.89209   0.89657   73.802
 4904.00    0.89344   0.89583   73.642
 4905.00    0.90049   0.89455   75.103
 4906.00    0.90524   0.89316   76.171
 4907.00    0.90304   0.89212   76.034
 4908.00    0.89556   0.89093   76.136
 4909.00    0.88760   0.88916   76.849
 4910.00    0.88402   0.88776   76.960
 4911.00    0.88408   0.88687   76.577
 4912.00    0.88263   0.88536   77.185
 4913.00    0.88048   0.88355   78.354
 4914.00    0.88343   0.88140   77.864
 4915.00    0.88942   0.87777   75.875
 4916.00    0.88998   0.87267   74.611
 4917.00    0.88489   0.86628   74.486
 4918.00    0.88012   0.85925   74.439
 4919.00    0.87254   0.85248   74.561
 4920.00    0.85385   0.84622   75.815
 4921.00    0.82866   0.84241   77.850
 4922.00    0.81092   0.84201   79.267
 4923.00    0.80654   0.84360   -1.000
 4924.00    0.81345   0.84806   -1.000
 4925.00    0.82915   0.85575   80.670
 4926.00    0.84977   0.86347   79.519
 4927.00    0.86564   0.87090   78.559
 4928.00    0.86844   0.87891   79.562
 4929.00    0.86420   0.88426   81.094
 4930.00    0.86534   0.88706   80.552
 4931.00    0.87475   0.88926   78.969
 4932.00    0.88665   0.88858   78.599
 4933.00    0.89190   0.88603   78.764
 4934.00    0.88429   0.88403   77.924
 4935.00    0.86780   0.88094   76.920
 4936.00    0.85488   0.87777   77.159
 4937.00    0.86173   0.87650   78.203
 4938.00    0.89053   0.87563   78.988
 4939.00    0.91243   0.87581   79.549
 4940.00    0.90462   0.87802    0.000
 4941.00    0.88871   0.88048    0.000
 4942.00    0.89152   0.88368    0.000
 4943.00    0.90444   0.88801    0.000
 4944.00    0.90629   0.89147    0.000
 4945.00    0.88848   0.89457    0.000
 4946.00    0.85996   0.89796    0.000
 4947.00    0.84649   0.90018    0.000
 4948.00    0.86405   0.90132    0.000
 4949.00    0.89970   0.90217    0.000
 4950.00    0.92726   0.90198    0.000
 4951.00    0.92340   0.90033    0.000
 4952.00    0.89179   0.89794    0.000
 4953.00    0.87085   0.89458    0.000
 4954.00    0.88258   0.89038    0.000
 4955.00    0.90766   0.88650    0.000
 4956.00    0.93140   0.88238    0.000
 4957.00    0.96512   0.87913    0.000
 4958.00    1.01215   0.87804    0.000
 4959.00    1.05365   0.87716    0.000
 4960.00    1.07301   0.87729    0.000
 4961.00    1.06646   0.87901    0.000
 4962.00    1.03418   0.88016    0.000
 4963.00    0.97923   0.88087    0.000
 4964.00    0.92061   0.88132    0.000
 4965.00    0.88739   0.88129    0.000
 4966.00    0.87531   0.88097    0.000
 4967.00    0.84965   0.88029    0.000
 4968.00    0.81527   0.88029    0.000
 4969.00    0.81710   0.88085    0.000
 4970.00    0.85810   0.88153    0.000
 4971.00    0.89351   0.88290    0.000
 4972.00    0.89728   0.88416    0.000
 4973.00    0.87701   0.88507    0.000
 4974.00    0.85603   0.88540    0.000
 4975.00    0.85573   0.88433    0.000
 4976.00    0.86496   0.88235    0.000
 4977.00    0.85492   0.87904    0.000
 4978.00    0.83258   0.87429    0.000
 4979.00    0.82854   0.86930    0.000
 4980.00    0.84233   0.86400    0.000
 4981.00    0.84956   0.85864    0.000
 4982.00    0.84147   0.85465    0.000
 4983.00    0.82660   0.85224    0.000
 4984.00    0.81809   0.85082    0.000
 4985.00    0.82458   0.85113    0.000
 4986.00    0.83928   0.85335    0.000
 4987.00    0.84947   0.85566    0.000
 4988.00    0.85427   0.85834    0.000
 4989.00    0.85948   0.86161    0.000
 4990.00    0.86559   0.86367    0.000
 4991.00    0.86864   0.86552    0.000
 4992.00    0.86410   0.86709    0.000
 4993.00    0.85257   0.86715    0.000
 4994.00    0.84527   0.86752    0.000
 4995.00    0.85011   0.86714    0.000
 4996.00    0.85597   0.86517    0.000
 4997.00    0.85197   0.86366    0.000
 4998.00    0.84860   0.86111    0.000
 4999.00    0.85635   0.85740    0.000
 5000.00    0.86415   0.85433    0.000
 5001.00    0.86402   0.85079    0.000
 5002.00    0.87467   0.84732    0.000
 5003.00    0.92750   0.84486    0.000
 5004.00    1.04927   0.84268    0.000
 5005.00    1.23288   0.84111    0.000
 5006.00    1.42035   0.84029    0.000
 5007.00    1.54559   0.83979    0.000
 5008.00    1.56907   0.83889    0.000
 5009.00    1.48814   0.83777    0.000
 5010.00    1.33820   0.83654    0.000
 5011.00    1.16308   0.83385    0.000
 5012.00    0.99693   0.83086    0.000
 5013.00    0.87135   0.82840    0.000
 5014.00    0.81432   0.82530    0.000
 5015.00    0.81897   0.82339    0.000
 5016.00    0.83738   0.82302    0.000
 5017.00    0.83570   0.82303    0.000
 5018.00    0.81717   0.82483    0.000
 5019.00    0.79699   0.82801    0.000
 5020.00    0.78811   0.83110    0.000
 5021.00    0.79393   0.83456    0.000
 5022.00    0.80771   0.83876    0.000
 5023.00    0.82211   0.84236    0.000
 5024.00    0.83331   0.84502    0.000
 5025.00    0.84173   0.84836    0.000
 5026.00    0.84995   0.85121    0.000
 5027.00    0.85525   0.85313    0.000
 5028.00    0.85225   0.85590    0.000
 5029.00    0.84819   0.85789   83.164
 5030.00    0.85797   0.85915   81.226
 5031.00    0.87673   0.86072   78.780
 5032.00    0.88309   0.86066   78.658
 5033.00    0.86848   0.85952   81.225
 5034.00    0.84083   0.85752   84.481
 5035.00    0.81377   0.85385   -1.000
 5036.00    0.79944   0.84993   -1.000
 5037.00    0.79871   0.84512   -1.000
 5038.00    0.80405   0.84012   82.204
 5039.00    0.80997   0.83709   83.921
 5040.00    0.81523   0.83442   84.541
 5041.00    0.82267   0.83334   83.650
 5042.00    0.83353   0.83489   82.832
 5043.00    0.83818   0.83649   82.892
 5044.00    0.82671   0.83945   83.615
 5045.00    0.80835   0.84342   84.006
 5046.00    0.80117   0.84565   -1.000
 5047.00    0.81158   0.84761   -1.000
 5048.00    0.83280   0.84955   82.664
 5049.00    0.84789   0.85030   83.878
 5050.00    0.84419   0.85071   85.169
 5051.00    0.83044   0.85176   86.183
 5052.00    0.82256   0.85350   86.948
 5053.00    0.82425   0.85543   87.419
 5054.00    0.83046   0.85791   87.552
 5055.00    0.83447   0.86099   87.433
 5056.00    0.83543   0.86393   87.152
 5057.00    0.84368   0.86658   86.658
 5058.00    0.86323   0.86840   85.808
 5059.00    0.87706   0.86950   84.509
 5060.00    0.87284   0.86998   83.326
 5061.00    0.86393   0.86880   83.697
 5062.00    0.86373   0.86691   85.965
 5063.00    0.86537   0.86449   87.911
 5064.00    0.85818   0.86114   87.938
 5065.00    0.84123   0.85824   87.842
 5066.00    0.82129   0.85525   88.994
 5067.00    0.80938   0.85233   -1.000
 5068.00    0.81126   0.85081   -1.000
 5069.00    0.82257   0.84972   88.789
 5070.00    0.83613   0.84843   88.884
 5071.00    0.84643   0.84757   89.442
 5072.00    0.84925   0.84733   90.336
 5073.00    0.84239   0.84645   92.172
 5074.00    0.83072   0.84464   94.319
 5075.00    0.82529   0.84311   94.442
 5076.00    0.82680   0.84129   92.887
 5077.00    0.82291   0.83866   93.210
 5078.00    0.81093   0.83587   95.858
 5079.00    0.80312   0.83381   96.969
 5080.00    0.80723   0.83258   95.436
 5081.00    0.81960   0.83143   94.595
 5082.00    0.82998   0.83145   95.331
 5083.00    0.82807   0.83337   95.183
 5084.00    0.81858   0.83582   93.146
 5085.00    0.81801   0.83845   90.731
 5086.00    0.82833   0.84187   89.560
 5087.00    0.83625   0.84551   90.367
 5088.00    0.83556   0.84868   91.972
 5089.00    0.83090   0.85126   92.025
 5090.00    0.82946   0.85333   90.791
 5091.00    0.83541   0.85486   90.574
 5092.00    0.84224   0.85529   91.765
 5093.00    0.83992   0.85458   93.001
 5094.00    0.83482   0.85324   93.487
 5095.00    0.83824   0.85111   93.254
 5096.00    0.83350   0.84829   92.292
 5097.00    0.80032   0.84539   -1.000
 5098.00    0.77336   0.84251   -1.000
 5099.00    0.80002   0.84034   -1.000
 5100.00    0.84679   0.83887   86.738
 5101.00    0.84991   0.83745   79.938
 5102.00    0.82497   0.83706   73.285
 5103.00    0.82653   0.83703   70.358
 5104.00    0.85875   0.83643   69.615
 5105.00    0.88878   0.83619   -1.000
 5106.00    0.88654   0.83562   -1.000
 5107.00    0.84698   0.83511   66.092
 5108.00    0.80861   0.83548   65.923
 5109.00    0.80610   0.83543   65.550
 5110.00    0.81393   0.83644   65.334
 5111.00    0.80104   0.83879   65.628
 5112.00    0.79546   0.84045   -1.000
 5113.00    0.82707   0.84310   64.698
 5114.00    0.86542   0.84614   65.093
 5115.00    0.87423   0.84786   67.900
 5116.00    0.86626   0.84952   70.524
 5117.00    0.86439   0.85012   69.954
 5118.00    0.86447   0.84916   67.779
 5119.00    0.85620   0.84753   67.465
 5120.00    0.84225   0.84447   71.941
 5121.00    0.83081   0.84054   81.925
 5122.00    0.82804   0.83627   90.536
 5123.00    0.83327   0.83168   90.110
 5124.00    0.83733   0.82785   87.460
 5125.00    0.83224   0.82448   88.699
 5126.00    0.81777   0.82183   90.812
 5127.00    0.80083   0.82077   90.544
 5128.00    0.79291   0.82054   89.814
 5129.00    0.79856   0.82097   90.283
 5130.00    0.81099   0.82230   90.718
 5131.00    0.82266   0.82401   90.246
 5132.00    0.83031   0.82574   89.764
 5133.00    0.83108   0.82723   89.861
 5134.00    0.82305   0.82864   90.151
 5135.00    0.81587   0.82903   90.685
 5136.00    0.82783   0.82830   92.152
 5137.00    0.85505   0.82814   93.893
 5138.00    0.86932   0.82658   -1.000
 5139.00    0.85794   0.82431   -1.000
 5140.00    0.83387   0.82332   93.657
 5141.00    0.81643   0.82100   94.827
 5142.00    0.81910   0.81936   92.076
 5143.00    0.83342   0.81938   91.567
 5144.00    0.83624   0.81764  103.618
 5145.00    0.82534   0.81660  107.504
 5146.00    0.81871   0.81716   78.518
 5147.00    0.82330   0.81647   74.652
 5148.00    0.83183   0.81607   -1.000
 5149.00    0.83724   0.81632   -1.000
 5150.00    0.83657   0.81616   32.736
 5151.00    0.83107   0.81702   33.520
 5152.00    0.82422   0.81813   -2.000
 5153.00    0.81775   0.81915   -2.000
 5154.00    0.81260   0.82150    5.641
 5155.00    0.81262   0.82418    7.577
 5156.00    0.82016   0.82648   -2.000
 5157.00    0.82734   0.82910   -2.000
 5158.00    0.82561   0.83078    0.717
 5159.00    0.82392   0.83104    1.386
 5160.00    0.83452   0.83004   -2.000
 5161.00    0.84692   0.82622   -2.000
 5162.00    0.84145   0.82079    0.088
 5163.00    0.81463   0.81388    0.280
 5164.00    0.77681   0.80459   -2.000
 5165.00    0.74364   0.79486   -2.000
 5166.00    0.72771   0.78517    0.011
 5167.00    0.72963   0.77590    0.086
 5168.00    0.73900   0.76845   -2.000
 5169.00    0.73832   0.76277   -2.000
 5170.00    0.72166   0.75962    0.001
 5171.00    0.71114   0.75946   -2.000
 5172.00    0.72357   0.76222   -2.000
 5173.00    0.73968   0.76679    0.003
 5174.00    0.74249   0.77159    0.000
 5175.00    0.75059   0.77760   -2.000
 5176.00    0.77752   0.78457   -2.000
 5177.00    0.79983   0.78959    0.000
 5178.00    0.79765   0.79224    0.000
 5179.00    0.78433   0.79350   -2.000
 5180.00    0.77508   0.79288   -2.000
 5181.00    0.76564   0.79093    0.000
 5182.00    0.75417   0.78819    0.000
 5183.00    0.75321   0.78621   -2.000
 5184.00    0.76603   0.78619   -2.000
 5185.00    0.77608   0.78602    0.000
 5186.00    0.77444   0.78771    0.000
 5187.00    0.77208   0.79219   -2.000
 5188.00    0.77809   0.79608   -2.000
 5189.00    0.78936   0.79972    0.000
 5190.00    0.79911   0.80268    0.000
 5191.00    0.80221   0.80472   -2.000
 5192.00    0.79931   0.80734   -2.000
 5193.00    0.79717   0.80892    0.000
 5194.00    0.80249   0.80944    0.000
 5195.00    0.81827   0.81151   -2.000
 5196.00    0.83987   0.81401   -2.000
 5197.00    0.85766   0.81537    0.000
 5198.00    0.87105   0.81700    0.000
 5199.00    0.88649   0.81802    0.000
 5200.00    0.89495   0.81781    0.000
 5201.00    0.87739   0.81675    0.000
 5202.00    0.84278   0.81418    0.000
 5203.00    0.82175   0.81074    0.000
 5204.00    0.81732   0.80676    0.000
 5205.00    0.80781   0.80308    0.000
 5206.00    0.79014   0.80025    0.000
 5207.00    0.78014   0.79787    0.000
 5208.00    0.78644   0.79762    0.000
 5209.00    0.80525   0.79963    0.000
 5210.00    0.82328   0.80206    0.000
 5211.00    0.82642   0.80606   -2.000
 5212.00    0.81524   0.81113   -2.000
 5213.00    0.80151   0.81591    0.000
 5214.00    0.79556   0.82061    0.000
 5215.00    0.80143   0.82489   -2.000
 5216.00    0.81294   0.82852   -2.000
 5217.00    0.81980   0.83111    0.000
 5218.00    0.81828   0.83286    0.000
 5219.00    0.81177   0.83389   -2.000
 5220.00    0.80870   0.83385   -2.000
 5221.00    0.81488   0.83251    0.000
 5222.00    0.82403   0.83014    0.000
 5223.00    0.82539   0.82685   -2.000
 5224.00    0.81501   0.82297   -2.000
 5225.00    0.79679   0.81944    0.000
 5226.00    0.78148   0.81611    0.000
 5227.00    0.77878   0.81422   -2.000
 5228.00    0.78909   0.81373    0.001
 5229.00    0.80605   0.81365    0.000
 5230.00    0.82059   0.81602   -2.000
 5231.00    0.82897   0.81900   -2.000
 5232.00    0.83792   0.82122    0.001
 5233.00    0.84740   0.82481    0.000
 5234.00    0.83933   0.82799   -2.000
 5235.00    0.81155   0.83090   -2.000
 5236.00    0.79870   0.83448    0.004
 5237.00    0.81867   0.83752    0.002
 5238.00    0.83979   0.84078   -2.000
 5239.00    0.83752   0.84365   -2.000
 5240.00    0.82880   0.84539    0.021
 5241.00    0.83187   0.84648    0.013
 5242.00    0.84203   0.84682   -2.000
 5243.00    0.84759   0.84636   -2.000
 5244.00    0.84140   0.84468    0.126
 5245.00    0.82792   0.84218    0.107
 5246.00    0.82251   0.83948   -2.000
 5247.00    0.83037   0.83682   -2.000
 5248.00    0.83961   0.83387    0.816
 5249.00    0.83862   0.83068    0.901
 5250.00    0.82491   0.82931   -2.000
 5251.00    0.80739   0.82897   -2.000
 5252.00    0.80222   0.82843    5.284
 5253.00    0.81369   0.82922    7.246
 5254.00    0.83122   0.83058   -2.000
 5255.00    0.84533   0.83205   -2.000
 5256.00    0.85200   0.83318   27.378
 5257.00    0.84679   0.83283   39.100
 5258.00    0.82681   0.83182  258.703
 5259.00    0.80244   0.82938   -1.000
 5260.00    0.79144   0.82475   68.210
 5261.00    0.79256   0.81896   78.735
 5262.00    0.78949   0.81192  102.219
 5263.00    0.78075   0.80387   94.684
 5264.00    0.77844   0.79639   86.455
 5265.00    0.78614   0.78981   88.947
 5266.00    0.79728   0.78439   92.138
 5267.00    0.80395   0.78062   91.627
 5268.00    0.80056   0.77837   91.074
 5269.00    0.78724   0.77862   91.727
 5270.00    0.77071   0.78118   92.150
 5271.00    0.76403   0.78422   91.895
 5272.00    0.77683   0.78829   91.550
 5273.00    0.79900   0.79479   91.438
 5274.00    0.81230   0.80154   91.616
 5275.00    0.81347   0.80747   92.209
 5276.00    0.81001   0.81379   93.207
 5277.00    0.80803   0.81889   94.041
 5278.00    0.81159   0.82305   93.988
 5279.00    0.82373   0.82738   92.924
 5280.00    0.84149   0.83019   91.499
 5281.00    0.85038   0.83222   90.992
 5282.00    0.84077   0.83427   91.782
 5283.00    0.82673   0.83616   91.826
 5284.00    0.82658   0.83894   89.793
 5285.00    0.83981   0.84184   88.329
 5286.00    0.85285   0.84459   89.531
 5287.00    0.84938   0.84798   91.198
 5288.00    0.82938   0.85109   90.622
 5289.00    0.82163   0.85312   88.911
 5290.00    0.84055   0.85385   87.976
 5291.00    0.85362   0.85345   87.833
 5292.00    0.83649   0.85198   88.008
 5293.00    0.81393   0.84954   -1.000
 5294.00    0.81292   0.84594   89.530
 5295.00    0.82801   0.84153   90.109
 5296.00    0.84374   0.83769   89.771
 5297.00    0.85175   0.83443   88.807
 5298.00    0.84938   0.83201   88.440
 5299.00    0.83868   0.83065   90.391
 5300.00    0.82922   0.83045   94.123
 5301.00    0.83521   0.83234   95.419
 5302.00    0.85090   0.83534   93.233
 5303.00    0.84722   0.83848   92.473
 5304.00    0.82318   0.84199   95.080
 5305.00    0.81797   0.84561   97.458
 5306.00    0.84355   0.84918   96.927
 5307.00    0.86666   0.85206   95.149
 5308.00    0.87023   0.85404   94.172
 5309.00    0.87004   0.85521   94.649
 5310.00    0.87202   0.85566   96.028
 5311.00    0.86315   0.85575   96.992
 5312.00    0.84280   0.85506   97.364
 5313.00    0.82651   0.85357   98.229
 5314.00    0.81869   0.85184   -1.000
 5315.00    0.81080   0.84978   -1.000
 5316.00    0.80502   0.84765   -1.000
 5317.00    0.81365   0.84553   -1.000
 5318.00    0.83566   0.84281  103.294
 5319.00    0.85596   0.84006  102.131
 5320.00    0.86191   0.83735   98.767
 5321.00    0.84983   0.83368   97.502
 5322.00    0.82927   0.82942   99.059
 5323.00    0.81476   0.82502  101.198
 5324.00    0.80526   0.82032  102.091
 5325.00    0.79115   0.81554  101.369
 5326.00    0.77833   0.81108   -1.000
 5327.00    0.78049   0.80782   99.921
 5328.00    0.79501   0.80668  100.645
 5329.00    0.80844   0.80663  101.291
 5330.00    0.81469   0.80727  101.038
 5331.00    0.81442   0.81015   99.663
 5332.00    0.80868   0.81439   97.650
 5333.00    0.80247   0.81871   95.865
 5334.00    0.81063   0.82223   95.136
 5335.00    0.83904   0.82489   95.661
 5336.00    0.85930   0.82728   96.267
 5337.00    0.84458   0.82863   95.574
 5338.00    0.81824   0.82895   93.839
 5339.00    0.81550   0.82852   92.387
 5340.00    0.83115   0.82803   92.571
 5341.00    0.84069   0.82799   94.712
 5342.00    0.83124   0.82728   96.922
 5343.00    0.80761   0.82711   96.989
 5344.00    0.79262   0.82794   -1.000
 5345.00    0.79995   0.82861   93.232
 5346.00    0.81133   0.82982   92.289
 5347.00    0.80978   0.83098   92.693
 5348.00    0.80780   0.83257   93.615
 5349.00    0.81853   0.83537   94.254
 5350.00    0.83272   0.83816   94.766
 5351.00    0.84066   0.84121   95.130
 5352.00    0.84800   0.84482   94.443
 5353.00    0.85919   0.84858   92.941
 5354.00    0.86725   0.85226   92.764
 5355.00    0.86975   0.85507   94.506
 5356.00    0.87635   0.85719   95.615
 5357.00    0.88803   0.85867   94.537
 5358.00    0.88885   0.85883   93.109
 5359.00    0.87232   0.85778   92.723
 5360.00    0.85259   0.85578   -2.000
 5361.00    0.84384   0.85281   -2.000
 5362.00    0.84843   0.84928   -2.000
 5363.00    0.85420   0.84521   -2.000
 5364.00    0.84092   0.84059   -2.000
 5365.00    0.81296   0.83641   -2.000
 5366.00    0.80094   0.83242   -2.000
 5367.00    0.81073   0.82856   -2.000
 5368.00    0.81583   0.82551   -2.000
 5369.00    0.80784   0.82328   -2.000
 5370.00    0.80504   0.82243   -2.000
 5371.00    0.81532   0.82274   -2.000
 5372.00    0.82860   0.82405   -2.000
 5373.00    0.83508   0.82620   -2.000
 5374.00    0.83207   0.82926   -2.000
 5375.00    0.82580   0.83301   97.986
 5376.00    0.82717   0.83624   97.343
 5377.00    0.83920   0.83891   96.081
 5378.00    0.85610   0.84083   96.248
 5379.00    0.86979   0.84196   97.192
 5380.00    0.87364   0.84263   96.527
 5381.00    0.86697   0.84268   94.628
 5382.00    0.85453   0.84215   93.810
 5383.00    0.84303   0.84134   94.751
 5384.00    0.83790   0.84050   96.371
 5385.00    0.83873   0.83929   96.508
 5386.00    0.84048   0.83794   94.047
 5387.00    0.83773   0.83637   92.029
 5388.00    0.82986   0.83425   93.592
 5389.00    0.82773   0.83187   96.226
 5390.00    0.83875   0.82911   95.308
 5391.00    0.84366   0.82604   92.757
 5392.00    0.82308   0.82310   92.607
 5393.00    0.79869   0.82009   93.848
 5394.00    0.80166   0.81714   93.831
 5395.00    0.82458   0.81486   93.671
 5396.00    0.84087   0.81289   95.121
 5397.00    0.83690   0.81146   95.976
 5398.00    0.81690   0.81023   93.956
 5399.00    0.80226   0.80883   91.819
 5400.00    0.80837   0.80789   92.538
 5401.00    0.82224   0.80683   95.129
 5402.00    0.82535   0.80500   97.106
 5403.00    0.81726   0.80291   97.416
 5404.00    0.80583   0.80101   96.769
 5405.00    0.79658   0.79928   97.014
 5406.00    0.79336   0.79784   98.767
 5407.00    0.79897   0.79677   99.873
 5408.00    0.80912   0.79688   99.212
 5409.00    0.81037   0.79842   99.470
 5410.00    0.79939   0.80102  102.106
 5411.00    0.79301   0.80411  104.200
 5412.00    0.80061   0.80753  103.554
 5413.00    0.80941   0.81191  102.443
 5414.00    0.81075   0.81646  102.703
 5415.00    0.81371   0.82070  103.251
 5416.00    0.82641   0.82428  102.895
 5417.00    0.84547   0.82682  101.941
 5418.00    0.85954   0.82905   -1.000
 5419.00    0.85564   0.83072  102.402
 5420.00    0.83893   0.83129  104.353
 5421.00    0.83356   0.83108  105.090
 5422.00    0.84416   0.83042  104.039
 5423.00    0.84801   0.82940  103.091
 5424.00    0.83492   0.82847  102.906
 5425.00    0.81801   0.82699  102.335
 5426.00    0.80986   0.82440  101.455
 5427.00    0.81295   0.82223  101.755
 5428.00    0.81981   0.82011  102.992
 5429.00    0.81862   0.81783  103.101
 5430.00    0.81027   0.81599  101.810
 5431.00    0.80732   0.81353  100.790
 5432.00    0.81413   0.81226  100.365
 5433.00    0.82413   0.81259   99.613
 5434.00    0.82904   0.81333   98.879
 5435.00    0.82499   0.81540   99.286
 5436.00    0.82061   0.81793   99.992
 5437.00    0.82859   0.82113   98.983
 5438.00    0.84166   0.82478   96.821
 5439.00    0.84239   0.82794   95.642
 5440.00    0.83606   0.83063   95.730
 5441.00    0.83994   0.83206   96.007
 5442.00    0.84822   0.83240   95.938
 5443.00    0.84392   0.83134   95.599
 5444.00    0.83309   0.82943   95.087
 5445.00    0.83167   0.82747   94.597
 5446.00    0.83314   0.82508   94.721
 5447.00    0.82312   0.82299   95.844
 5448.00    0.81018   0.82099   97.132
 5449.00    0.81117   0.81943   97.428
 5450.00    0.82324   0.81883   97.033
 5451.00    0.83381   0.81827   97.014
 5452.00    0.83928   0.81751   97.863
 5453.00    0.84091   0.81700   99.451
 5454.00    0.83697   0.81657  101.123
 5455.00    0.82866   0.81647  102.086
 5456.00    0.82699   0.81667  102.029
 5457.00    0.84007   0.81651  101.365
 5458.00    0.85959   0.81693   -1.000
 5459.00    0.87184   0.81761   -1.000
 5460.00    0.87013   0.81812   -1.000
 5461.00    0.85658   0.81888   -1.000
 5462.00    0.84149   0.81922  104.347
 5463.00    0.83356   0.81948  103.944
 5464.00    0.83230   0.81985  103.612
 5465.00    0.83439   0.81987  103.074
 5466.00    0.83901   0.82010  101.177
 5467.00    0.84610   0.82006   98.075
 5468.00    0.85472   0.81946   -1.000
 5469.00    0.86167   0.81866   -1.000
 5470.00    0.86199   0.81718   -2.000
 5471.00    0.85690   0.81541   -2.000
 5472.00    0.85562   0.81328   -2.000
 5473.00    0.85644   0.81044   -2.000
 5474.00    0.84343   0.80797   -2.000
 5475.00    0.82762   0.80576   -2.000
 5476.00    0.85105   0.80418   -2.000
 5477.00    0.89749   0.80342   -2.000
 5478.00    0.87990   0.80264   -2.000
 5479.00    0.78586   0.80297   -2.000
 5480.00    0.70846   0.80421   -2.000
 5481.00    0.69279   0.80602   -2.000
 5482.00    0.69692   0.80825   -2.000
 5483.00    0.69872   0.81008   -2.000
 5484.00    0.72057   0.81194   -2.000
 5485.00    0.76476   0.81372   -2.000
 5486.00    0.80349   0.81547   -2.000
 5487.00    0.82467   0.81684   -2.000
 5488.00    0.83882   0.81784   -2.000
 5489.00    0.85241   0.81844   -2.000
 5490.00    0.86316   0.81872   -2.000
 5491.00    0.87056   0.81921   -2.000
 5492.00    0.87596   0.81937   -2.000
 5493.00    0.87499   0.81940   -2.000
 5494.00    0.86127   0.81918    0.307
 5495.00    0.83961   0.81872    0.304
 5496.00    0.82326   0.81851   -2.000
 5497.00    0.82086   0.81794   -2.000
 5498.00    0.83289   0.81703    0.037
 5499.00    0.85087   0.81595    0.048
 5500.00    0.86314   0.81486   -2.000
 5501.00    0.86603   0.81394   -2.000
 5502.00    0.86312   0.81279    0.004
 5503.00    0.85995   0.81128    0.008
 5504.00    0.85815   0.80993   -2.000
 5505.00    0.84811   0.80894   -2.000
 5506.00    0.82406   0.80792    0.001
 5507.00    0.80653   0.80727    0.002
 5508.00    0.81767   0.80635   -2.000
 5509.00    0.84429   0.80553   -2.000
 5510.00    0.85881   0.80540    0.000
 5511.00    0.85213   0.80521    0.000
 5512.00    0.83251   0.80573   -2.000
 5513.00    0.81805   0.80653   -2.000
 5514.00    0.82112   0.80755    0.000
 5515.00    0.83337   0.80950   -2.000
 5516.00    0.83927   0.81157   -2.000
 5517.00    0.83179   0.81393    0.000
 5518.00    0.81684   0.81626    0.000
 5519.00    0.81354   0.81807   -2.000
 5520.00    0.83244   0.81958   -2.000
 5521.00    0.85862   0.82032    0.000
 5522.00    0.87125   0.82025    0.000
 5523.00    0.86098   0.81946   -2.000
 5524.00    0.83490   0.81794   -2.000
 5525.00    0.81561   0.81600    0.000
 5526.00    0.81527   0.81428    0.000
 5527.00    0.82136   0.81269   -2.000
 5528.00    0.82097   0.81146   -2.000
 5529.00    0.81559   0.81062    0.000
 5530.00    0.81243   0.81014    0.000
 5531.00    0.81755   0.81038   -2.000
 5532.00    0.82923   0.81098   -2.000
 5533.00    0.83669   0.81207    0.000
 5534.00    0.83093   0.81325    0.000
 5535.00    0.81173   0.81436    0.000
 5536.00    0.79361   0.81564    0.000
 5537.00    0.80027   0.81684    0.000
 5538.00    0.83057   0.81820    0.000
 5539.00    0.85466   0.81936    0.000
 5540.00    0.85635   0.82020    0.000
 5541.00    0.84535   0.82109    0.000
 5542.00    0.83850   0.82176    0.000
 5543.00    0.84781   0.82231    0.000
 5544.00    0.86520   0.82292    0.000
 5545.00    0.86766   0.82344    0.000
 5546.00    0.84849   0.82404    0.000
 5547.00    0.82250   0.82469   -2.000
 5548.00    0.81213   0.82527   -2.000
 5549.00    0.83349   0.82580    0.000
 5550.00    0.87168   0.82608    0.000
 5551.00    0.89184   0.82603   -2.000
 5552.00    0.88130   0.82580   -2.000
 5553.00    0.85279   0.82533    0.000
 5554.00    0.82760   0.82447    0.000
 5555.00    0.82204   0.82348   -2.000
 5556.00    0.82844   0.82242   -2.000
 5557.00    0.82849   0.82122    0.000
 5558.00    0.82550   0.82010    0.000
 5559.00    0.83227   0.81872   -2.000
 5560.00    0.83948   0.81727   -2.000
 5561.00    0.83125   0.81590    0.000
 5562.00    0.81859   0.81423    0.000
 5563.00    0.82051   0.81273   -2.000
 5564.00    0.82850   0.81117   -2.000
 5565.00    0.82603   0.80973    0.000
 5566.00    0.82176   0.80852    0.000
 5567.00    0.82892   0.80748   -2.000
 5568.00    0.83441   0.80701   -2.000
 5569.00    0.82259   0.80652    0.000
 5570.00    0.80686   0.80632    0.004
 5571.00    0.80777   0.80673   -2.000
 5572.00    0.82541   0.80719    0.145
 5573.00    0.84723   0.80793    0.001
 5574.00    0.85981   0.80877   -2.000
 5575.00    0.85597   0.80956   -2.000
 5576.00    0.84005   0.81048    0.044
 5577.00    0.82247   0.81113    0.008
 5578.00    0.81387   0.81138   -2.000
 5579.00    0.81845   0.81124   -2.000
 5580.00    0.82990   0.81048    0.177
 5581.00    0.83955   0.80906    0.068
 5582.00    0.84248   0.80708   -2.000
 5583.00    0.83571   0.80424   -2.000
 5584.00    0.81774   0.80087    0.943
 5585.00    0.79603   0.79742    0.556
 5586.00    0.78814   0.79385   -2.000
 5587.00    0.79958   0.79094   -2.000
 5588.00    0.81476   0.78846    5.424
 5589.00    0.82189   0.78657    4.443
 5590.00    0.82404   0.78562   -2.000
 5591.00    0.82290   0.78533   -2.000
 5592.00    0.81317   0.78609   26.567
 5593.00    0.79733   0.78756   27.705
 5594.00    0.78887   0.78888  258.703
 5595.00    0.79516   0.79003  258.703
 5596.00    0.81049   0.79115   69.394
 5597.00    0.81972   0.79210   73.591
 5598.00    0.80663   0.79295  109.833
 5599.00    0.77834   0.79363  107.507
 5600.00    0.76252   0.79437   93.392
 5601.00    0.76733   0.79584   94.289
 5602.00    0.77761   0.79747   98.038
 5603.00    0.78678   0.79984   96.933
 5604.00    0.79992   0.80268   95.391
 5605.00    0.81268   0.80561   96.128
 5606.00    0.81384   0.80879   97.743
 5607.00    0.80855   0.81139   98.797
 5608.00    0.81343   0.81379   98.673
 5609.00    0.82932   0.81521   96.929
 5610.00    0.84267   0.81557   93.917
 5611.00    0.84463   0.81477   92.012
 5612.00    0.83553   0.81271   93.454
 5613.00    0.82438   0.81061   96.407
 5614.00    0.82156   0.80839   96.694
 5615.00    0.82527   0.80597   94.742
 5616.00    0.82699   0.80368   93.801
 5617.00    0.82561   0.80158   93.947
 5618.00    0.82353   0.80032   93.879
 5619.00    0.81615   0.79958   94.966
 5620.00    0.80069   0.79924   98.729
 5621.00    0.79115   0.79918  101.462
 5622.00    0.79978   0.79926   98.757
 5623.00    0.80906   0.79979   95.216
 5624.00    0.79655   0.80044   96.390
 5625.00    0.77134   0.80130  100.356
 5626.00    0.75706   0.80249   -1.000
 5627.00    0.76514   0.80371   -1.000
 5628.00    0.79152   0.80508  105.325
 5629.00    0.81797   0.80646  106.285
 5630.00    0.82900   0.80773  104.231
 5631.00    0.82831   0.80870  102.340
 5632.00    0.82566   0.80899  103.340
 5633.00    0.82274   0.80880  105.014
 5634.00    0.81605   0.80806  104.508
 5635.00    0.80144   0.80699  102.773
 5636.00    0.78325   0.80574  101.744
 5637.00    0.77856   0.80428  101.804
 5638.00    0.79347   0.80275  102.425
 5639.00    0.80852   0.80169  102.760
 5640.00    0.80828   0.80092  102.440
 5641.00    0.80068   0.80044  101.952
 5642.00    0.79891   0.80048  101.151
 5643.00    0.80785   0.80070   98.850
 5644.00    0.81905   0.80138   95.825
 5645.00    0.81343   0.80204   95.131
 5646.00    0.79075   0.80282   97.166
 5647.00    0.77816   0.80366   98.224
 5648.00    0.78801   0.80425   96.768
 5649.00    0.80248   0.80472   95.915
 5650.00    0.80815   0.80469   96.455
 5651.00    0.80979   0.80412   95.316
 5652.00    0.81509   0.80303   92.562
 5653.00    0.82558   0.80170   92.242
 5654.00    0.82966   0.79974   95.495
 5655.00    0.80942   0.79710   99.194
 5656.00    0.77575   0.79472   99.953
 5657.00    0.76510   0.79270   97.269
 5658.00    0.78251   0.79069   94.423
 5659.00    0.79787   0.78892   95.531
 5660.00    0.79878   0.78788   99.897
 5661.00    0.79754   0.78779  102.146
 5662.00    0.80036   0.78810  100.871
 5663.00    0.80300   0.78899   99.787
 5664.00    0.80441   0.79038   99.523
 5665.00    0.80673   0.79192   97.996
 5666.00    0.80550   0.79362   96.149
 5667.00    0.79457   0.79547   96.470
 5668.00    0.78259   0.79750   97.387
 5669.00    0.78551   0.79950   95.293
 5670.00    0.80256   0.80146   91.884
 5671.00    0.82001   0.80323   91.157
 5672.00    0.82911   0.80480   92.832
 5673.00    0.82946   0.80632   94.243
 5674.00    0.82804   0.80757   95.215
 5675.00    0.83214   0.80824   97.072
 5676.00    0.83806   0.80840   -1.000
 5677.00    0.83652   0.80810   98.457
 5678.00    0.82413   0.80733   97.241
 5679.00    0.80439   0.80591   97.206
 5680.00    0.78610   0.80427   97.679
 5681.00    0.77765   0.80272   97.127
 5682.00    0.77971   0.80101   96.209
 5683.00    0.78744   0.79940   95.990
 5684.00    0.79457   0.79792   95.515
 5685.00    0.79664   0.79701   93.689
 5686.00    0.79394   0.79652   91.503
 5687.00    0.78911   0.79662   90.156
 5688.00    0.78436   0.79722   89.321
 5689.00    0.78156   0.79820   88.222
 5690.00    0.78257   0.79930   86.673
 5691.00    0.78863   0.80031   85.072
 5692.00    0.79960   0.80134   84.224
 5693.00    0.81279   0.80210   84.881
 5694.00    0.82272   0.80257   87.423
 5695.00    0.82738   0.80221   91.073
 5696.00    0.83165   0.80152   93.135
 5697.00    0.83552   0.80024   -1.000
 5698.00    0.82850   0.79840   92.821
 5699.00    0.81075   0.79641   95.630
 5700.00    0.80270   0.79428   98.419
 5701.00    0.81338   0.79218   98.802
 5702.00    0.82525   0.78981   -1.000
 5703.00    0.82271   0.78744   -1.000
 5704.00    0.80751   0.78527   97.821
 5705.00    0.79006   0.78309   96.975
 5706.00    0.78258   0.78113   96.554
 5707.00    0.79061   0.77983   96.632
 5708.00    0.80956   0.77891   96.010
 5709.00    0.82715   0.77845   -1.000
 5710.00    0.82960   0.77902   -1.000
 5711.00    0.82093   0.78020   -1.000
 5712.00    0.82178   0.78226   -1.000
 5713.00    0.83419   0.78489   -1.000
 5714.00    0.83832   0.78811   -1.000
 5715.00    0.82960   0.79170   -1.000
 5716.00    0.82308   0.79518   94.355
 5717.00    0.82377   0.79876   95.423
 5718.00    0.82402   0.80193   96.105
 5719.00    0.82552   0.80458   94.914
 5720.00    0.83796   0.80680   91.590
 5721.00    0.85657   0.80843   -1.000
 5722.00    0.86425   0.80952   -1.000
 5723.00    0.85291   0.81012   -1.000
 5724.00    0.82884   0.81017   92.254
 5725.00    0.81138   0.80999   90.721
 5726.00    0.81867   0.80958   92.189
 5727.00    0.83854   0.80901   94.617
 5728.00    0.84260   0.80819   -1.000
 5729.00    0.82723   0.80757   88.982
 5730.00    0.81030   0.80724   90.425
 5731.00    0.80916   0.80689   94.372
 5732.00    0.82900   0.80696   93.847
 5733.00    0.85117   0.80706   -1.000
 5734.00    0.85212   0.80722   -1.000
 5735.00    0.83583   0.80727   94.326
 5736.00    0.82182   0.80730   97.430
 5737.00    0.81990   0.80757   98.035
 5738.00    0.82900   0.80745   96.561
 5739.00    0.84109   0.80748   -1.000
 5740.00    0.84757   0.80718    0.000
 5741.00    0.84655   0.80705    0.000
 5742.00    0.84010   0.80687    0.000
 5743.00    0.83025   0.80656    0.000
 5744.00    0.82078   0.80629    0.000
 5745.00    0.81897   0.80566    0.000
 5746.00    0.82699   0.80533    0.000
 5747.00    0.83435   0.80462    0.000
 5748.00    0.83138   0.80392    0.000
 5749.00    0.82160   0.80299    0.000
 5750.00    0.81439   0.80192    0.000
 5751.00    0.81687   0.80095    0.000
 5752.00    0.82670   0.80009    0.000
 5753.00    0.82977   0.79979    0.000
 5754.00    0.82341   0.79956    0.000
 5755.00    0.82811   0.79947    0.000
 5756.00    0.84826   0.79931    0.000
 5757.00    0.85313   0.79923    0.000
 5758.00    0.83117   0.79928    0.000
 5759.00    0.81555   0.79949    0.000
 5760.00    0.82608   0.79981    0.000
 5761.00    0.84238   0.80022    0.000
 5762.00    0.84890   0.80065    0.000
 5763.00    0.85399   0.80114    0.000
 5764.00    0.85888   0.80179    0.000
 5765.00    0.84937   0.80254    0.000
 5766.00    0.83181   0.80346    0.000
 5767.00    0.83666   0.80423    0.000
 5768.00    0.86309   0.80515    0.000
 5769.00    0.87271   0.80553    0.000
 5770.00    0.85839   0.80556    0.000
 5771.00    0.85312   0.80515    0.000
 5772.00    0.86322   0.80436    0.000
 5773.00    0.86092   0.80331    0.000
 5774.00    0.84142   0.80181    0.000
 5775.00    0.82826   0.80006    0.000
 5776.00    0.83020   0.79781    0.000
 5777.00    0.83503   0.79537    0.000
 5778.00    0.83084   0.79261    0.000
 5779.00    0.81438   0.78984    0.000
 5780.00    0.79601   0.78727    0.000
 5781.00    0.79203   0.78485    0.000
 5782.00    0.80357   0.78278    0.000
 5783.00    0.81816   0.78131   -2.000
 5784.00    0.82464   0.78065   -2.000
 5785.00    0.81833   0.78041   -2.000
 5786.00    0.80416   0.78119   -2.000
 5787.00    0.79264   0.78251   -2.000
 5788.00    0.79078   0.78410   -2.000
 5789.00    0.79804   0.78606   -2.000
 5790.00    0.80273   0.78814   -2.000
 5791.00    0.79349   0.79046   -2.000
 5792.00    0.77812   0.79235   -2.000
 5793.00    0.77269   0.79419   -2.000
 5794.00    0.78085   0.79571   -2.000
 5795.00    0.79572   0.79694   -2.000
 5796.00    0.80726   0.79841   -2.000
 5797.00    0.81081   0.79962   -2.000
 5798.00    0.81558   0.80068   -2.000
 5799.00    0.82926   0.80153   -2.000
 5800.00    0.83999   0.80222   -2.000
 5801.00    0.83606   0.80256   -2.000
 5802.00    0.82832   0.80283    0.000
 5803.00    0.83139   0.80319    0.000
 5804.00    0.84307   0.80335    0.000
 5805.00    0.85406   0.80339    0.000
 5806.00    0.85895   0.80325    0.000
 5807.00    0.85600   0.80324    0.000
 5808.00    0.84633   0.80299    0.000
 5809.00    0.83571   0.80295    0.000
 5810.00    0.83471   0.80290    0.000
 5811.00    0.84831   0.80290    0.000
 5812.00    0.86876   0.80291    0.000
 5813.00    0.88098   0.80290    0.000
 5814.00    0.86968   0.80310    0.000
 5815.00    0.83874   0.80338    0.000
 5816.00    0.81748   0.80381    0.000
 5817.00    0.82458   0.80432    0.000
 5818.00    0.84925   0.80505    0.000
 5819.00    0.86941   0.80573    0.000
 5820.00    0.86571   0.80655    0.000
 5821.00    0.83872   0.80736    0.000
 5822.00    0.81119   0.80828    0.000
 5823.00    0.79938   0.80891    0.000
 5824.00    0.80146   0.80942    0.000
 5825.00    0.80725   0.80977    0.000
 5826.00    0.80617   0.80993    0.000
 5827.00    0.80015   0.81000    0.000
 5828.00    0.80253   0.80988    0.000
 5829.00    0.81547   0.80976    0.000
 5830.00    0.82664   0.80945    0.000
 5831.00    0.82677   0.80908    0.000
 5832.00    0.81610   0.80865    0.000
 5833.00    0.80484   0.80823    0.000
 5834.00    0.80628   0.80785    0.000
 5835.00    0.81736   0.80744    0.000
 5836.00    0.82319   0.80722    0.000
 5837.00    0.82359   0.80708    0.000
 5838.00    0.83018   0.80701    0.000
 5839.00    0.84194   0.80693    0.000
 5840.00    0.84650   0.80688    0.000
 5841.00    0.83689   0.80670    0.000
 5842.00    0.81705   0.80622    0.000
 5843.00    0.80421   0.80561    0.000
 5844.00    0.81313   0.80469    0.000
 5845.00    0.82601   0.80355    0.000
 5846.00    0.81550   0.80205    0.000
 5847.00    0.79451   0.80027    0.000
 5848.00    0.79264   0.79820    0.000
 5849.00    0.80383   0.79596    0.000
 5850.00    0.80315   0.79357    0.000
 5851.00    0.78545   0.79117    0.000
 5852.00    0.76382   0.78877    0.000
 5853.00    0.75800   0.78651    0.000
 5854.00    0.77570   0.78437    0.000
 5855.00    0.79279   0.78255    0.000
 5856.00    0.78746   0.78120    0.000
 5857.00    0.78140   0.78014    0.000
 5858.00    0.79951   0.77978    0.000
 5859.00    0.82238   0.77983    0.000
 5860.00    0.82213   0.78031    0.000
 5861.00    0.80296   0.78101    0.000
 5862.00    0.78251   0.78199    0.000
 5863.00    0.77015   0.78323    0.000
 5864.00    0.76853   0.78441    0.000
 5865.00    0.77642   0.78562    0.000
 5866.00    0.78717   0.78655    0.000
 5867.00    0.78898   0.78711    0.000
 5868.00    0.77983   0.78755    0.000
 5869.00    0.77573   0.78731    0.000
 5870.00    0.78768   0.78673    0.000
 5871.00    0.80751   0.78566    0.000
 5872.00    0.82576   0.78421    0.000
 5873.00    0.84295   0.78290    0.000
 5874.00    0.86315   0.78088    0.000
 5875.00    0.88859   0.77957    0.000
 5876.00    0.91405   0.77754    0.000
 5877.00    0.92607   0.77630    0.000
 5878.00    0.91455   0.77476    0.000
 5879.00    0.87957   0.77330    0.000
 5880.00    0.83439   0.77191    0.000
 5881.00    0.80166   0.76970    0.000
 5882.00    0.79125   0.76741    0.000
 5883.00    0.79366   0.76337    0.000
 5884.00    0.79346   0.75850    0.000
 5885.00    0.77905   0.75206    0.000
 5886.00    0.75671   0.74509    0.000
 5887.00    0.74587   0.73737    0.000
 5888.00    0.74538   0.72968    0.000
 5889.00    0.73302   0.72251    0.000
 5890.00    0.70130   0.71568    0.000
 5891.00    0.66421   0.71034    0.000
 5892.00    0.64233   0.70646    0.000
 5893.00    0.65056   0.70444    0.000
 5894.00    0.67835   0.70446    0.000
 5895.00    0.69883   0.70672    0.000
 5896.00    0.70459   0.71077    0.000
 5897.00    0.70639   0.71596    0.000
 5898.00    0.70944   0.72242    0.000
 5899.00    0.71361   0.72915    0.000
 5900.00    0.72547   0.73620    0.000
 5901.00    0.75062   0.74359   90.032
 5902.00    0.77435   0.75055   89.472
 5903.00    0.77727   0.75692   90.293
 5904.00    0.76928   0.76245   92.915
 5905.00    0.77381   0.76698   96.125
 5906.00    0.79140   0.77056   97.308
 5907.00    0.80743   0.77321   -1.000
 5908.00    0.81346   0.77510   -1.000
 5909.00    0.80975   0.77611   -1.000
 5910.00    0.80344   0.77673   94.594
 5911.00    0.79963   0.77675   95.703
 5912.00    0.79080   0.77667   96.380
 5913.00    0.77063   0.77632   98.070
 5914.00    0.75146   0.77596   99.040
 5915.00    0.74809   0.77577   97.231
 5916.00    0.75775   0.77559   94.333
 5917.00    0.76919   0.77573   92.727
 5918.00    0.77491   0.77595   92.629
 5919.00    0.77461   0.77650   93.045
 5920.00    0.77618   0.77709   92.657
 5921.00    0.78362   0.77785   91.015
 5922.00    0.78783   0.77850   89.300
 5923.00    0.78417   0.77903   88.563
 5924.00    0.78483   0.77937   88.592
 5925.00    0.79368   0.77948   88.623
 5926.00    0.79141   0.77949   87.981
 5927.00    0.77491   0.77936   86.868
 5928.00    0.77749   0.77916   86.491
 5929.00    0.80712   0.77883   86.963
 5930.00    0.81712   0.77858   -1.000
 5931.00    0.78677   0.77837   85.293
 5932.00    0.75951   0.77822   86.329
 5933.00    0.76916   0.77821   90.263
 5934.00    0.80204   0.77821   92.702
 5935.00    0.82808   0.77834   -1.000
 5936.00    0.82345   0.77841   -1.000
 5937.00    0.79405   0.77854   91.188
 5938.00    0.77564   0.77859   94.126
 5939.00    0.78561   0.77859   96.641
 5940.00    0.80797   0.77859   -1.000
 5941.00    0.82280   0.77851   -1.000
 5942.00    0.82012   0.77844   -1.000
 5943.00    0.80377   0.77822   93.952
 5944.00    0.78849   0.77793   94.943
 5945.00    0.78536   0.77761   96.159
 5946.00    0.79509   0.77728   96.939
 5947.00    0.80375   0.77680   96.665
 5948.00    0.79262   0.77628   95.040
 5949.00    0.76997   0.77583   92.691
 5950.00    0.76369   0.77532   90.754
 5951.00    0.77492   0.77479   89.767
 5952.00    0.78042   0.77434   89.530
 5953.00    0.77135   0.77405   89.146
 5954.00    0.75795   0.77400   87.746
 5955.00    0.75602   0.77421   86.091
 5956.00    0.77503   0.77464   85.621
 5957.00    0.80027   0.77534   86.212
 5958.00    0.80594   0.77615   86.835
 5959.00    0.78839   0.77717   87.613
 5960.00    0.76407   0.77822   89.191
 5961.00    0.75275   0.77930   90.639
 5962.00    0.76504   0.78038   90.502
 5963.00    0.78751   0.78130   89.668
 5964.00    0.79879   0.78225   89.778
 5965.00    0.79838   0.78297   90.190
 5966.00    0.79817   0.78362   89.675
 5967.00    0.80371   0.78403   89.467
 5968.00    0.81265   0.78430   91.194
 5969.00    0.81714   0.78437   -1.000
 5970.00    0.81278   0.78413   94.882
 5971.00    0.80832   0.78372   94.852
 5972.00    0.81169   0.78296   95.017
 5973.00    0.81367   0.78205   -1.000
 5974.00    0.80398   0.78090   96.867
 5975.00    0.78936   0.77962   97.347
 5976.00    0.78085   0.77825   96.607
 5977.00    0.77981   0.77685   94.768
 5978.00    0.78296   0.77549   92.440
 5979.00    0.78816   0.77414   90.320
 5980.00    0.79439   0.77310   88.889
 5981.00    0.80087   0.77220   88.283
 5982.00    0.80379   0.77152   -1.000
 5983.00    0.79548   0.77104   88.605
 5984.00    0.77747   0.77084   88.568
 5985.00    0.76664   0.77086   87.847
 5986.00    0.77212   0.77107   86.348
 5987.00    0.78209   0.77150   84.380
 5988.00    0.78293   0.77212   82.890
 5989.00    0.77237   0.77290   83.214
 5990.00    0.76247   0.77367   85.196
 5991.00    0.77436   0.77448   86.519
 5992.00    0.80323   0.77519   86.395
 5993.00    0.81148   0.77569   -1.000
 5994.00    0.78739   0.77598   89.734
 5995.00    0.76292   0.77604   92.040
 5996.00    0.76019   0.77590   92.351
 5997.00    0.77150   0.77543   91.349
 5998.00    0.78162   0.77481   90.529
 5999.00    0.78112   0.77415   90.952
 6000.00    0.77847   0.77333   91.961
 6001.00    0.79315   0.77239   91.537
 6002.00    0.81529   0.77139   -1.000
 6003.00    0.81040   0.77039   -1.000
 6004.00    0.78146   0.76951   89.631
 6005.00    0.76671   0.76880   89.806
 6006.00    0.77017   0.76810   89.519
 6007.00    0.76318   0.76753   90.054
 6008.00    0.74867   0.76697   90.691
 6009.00    0.75532   0.76662   89.407
 6010.00    0.77608   0.76639   87.349
 6011.00    0.77684   0.76621   87.234
 6012.00    0.75523   0.76593   88.092
 6013.00    0.73751   0.76573   86.814
 6014.00    0.73999   0.76541   84.221
 6015.00    0.76041   0.76510   83.377
 6016.00    0.77889   0.76484   84.663
 6017.00    0.77456   0.76449   86.397
 6018.00    0.75533   0.76422   86.951
 6019.00    0.74386   0.76400   85.871
 6020.00    0.74413   0.76413   84.775
 6021.00    0.75008   0.76446   85.339
 6022.00    0.76781   0.76501   86.499
 6023.00    0.79965   0.76586   86.374
 6024.00    0.81730   0.76702   -1.000
 6025.00    0.79714   0.76841   87.107
 6026.00    0.77080   0.76986   89.066
 6027.00    0.77663   0.77154   90.162
 6028.00    0.79297   0.77322   90.742
 6029.00    0.78554   0.77487   91.659
 6030.00    0.76985   0.77638   91.870
 6031.00    0.77290   0.77776   90.467
 6032.00    0.78584   0.77898   89.026
 6033.00    0.78934   0.77988   89.085
 6034.00    0.78326   0.78063   89.950
 6035.00    0.77751   0.78112   90.200
 6036.00    0.77997   0.78146   89.292
 6037.00    0.78823   0.78158   87.594
 6038.00    0.78645   0.78169   85.982
 6039.00    0.77156   0.78170   84.761
 6040.00    0.76903   0.78175   83.231
 6041.00    0.78977   0.78179   81.432
 6042.00    0.80408   0.78193   80.844
 6043.00    0.79200   0.78213   81.944
 6044.00    0.77322   0.78234   83.017
 6045.00    0.76691   0.78262   82.746
 6046.00    0.76877   0.78275   81.928
 6047.00    0.77468   0.78289   81.504
 6048.00    0.79081   0.78277   81.494
 6049.00    0.80788   0.78254   81.730
 6050.00    0.79706   0.78210   82.223
 6051.00    0.76061   0.78142   82.975
 6052.00    0.74274   0.78067   -1.000
 6053.00    0.76035   0.77974   84.937
 6054.00    0.78300   0.77887   86.068
 6055.00    0.78804   0.77790   87.029
 6056.00    0.78078   0.77708   87.382
 6057.00    0.77715   0.77625   87.349
 6058.00    0.79050   0.77547   87.753
 6059.00    0.81111   0.77483   -1.000
 6060.00    0.81144   0.77418   -1.000
 6061.00    0.78785   0.77376   89.083
 6062.00    0.76258   0.77339   89.479
 6063.00    0.74609   0.77329   90.133
 6064.00    0.73404   0.77336   -1.000
 6065.00    0.73287   0.77373   -1.000
 6066.00    0.75451   0.77440   85.034
 6067.00    0.78392   0.77530   82.691
 6068.00    0.79109   0.77644   82.527
 6069.00    0.78037   0.77760   83.279
 6070.00    0.78052   0.77877   82.253
 6071.00    0.79578   0.77966   80.008
 6072.00    0.80978   0.78029   79.004
 6073.00    0.81644   0.78053   79.453
 6074.00    0.81894   0.78025   -1.000
 6075.00    0.81520   0.77953   -1.000
 6076.00    0.80168   0.77835   80.555
 6077.00    0.78444   0.77688   80.483
 6078.00    0.77236   0.77518   80.095
 6079.00    0.76321   0.77347   80.639
 6080.00    0.75265   0.77171   83.219
 6081.00    0.75020   0.77018   86.240
 6082.00    0.76392   0.76876   86.908
 6083.00    0.77735   0.76764   85.376
 6084.00    0.77307   0.76671   83.916
 6085.00    0.76542   0.76603   84.403
 6086.00    0.77311   0.76557   87.187
 6087.00    0.78362   0.76528   89.745
 6088.00    0.77849   0.76515   89.485
 6089.00    0.76461   0.76513   88.171
 6090.00    0.75820   0.76523   88.090
 6091.00    0.76495   0.76538   88.109
 6092.00    0.77881   0.76562   86.806
 6093.00    0.78463   0.76582   85.400
 6094.00    0.77515   0.76602   84.919
 6095.00    0.76377   0.76593   84.135
 6096.00    0.76605   0.76573   82.304
 6097.00    0.78355   0.76524   80.930
 6098.00    0.80335   0.76458   -1.000
 6099.00    0.80285   0.76368   -1.000
 6100.00    0.78061   0.76267   80.912
 6101.00    0.76953   0.76166   80.249
 6102.00    0.78180   0.76077   79.882
 6103.00    0.78371   0.76018   79.688
 6104.00    0.76385   0.75989   79.498
 6105.00    0.76061   0.76003   79.473
 6106.00    0.78120   0.76055   79.968
 6107.00    0.77551   0.76140   81.334
 6108.00    0.73832   0.76242   83.211
 6109.00    0.73560   0.76349   84.345
 6110.00    0.77689   0.76456   84.249
 6111.00    0.78671   0.76543   83.889
 6112.00    0.74752   0.76605   84.263
 6113.00    0.73039   0.76629   -1.000
 6114.00    0.76222   0.76606   86.936
 6115.00    0.79551   0.76537   86.210
 6116.00    0.79971   0.76437   -1.000
 6117.00    0.78639   0.76304   84.675
 6118.00    0.77426   0.76150   87.038
 6119.00    0.77446   0.75980   88.096
 6120.00    0.78421   0.75815   86.493
 6121.00    0.79047   0.75671   84.116
 6122.00    0.78582   0.75553   82.410
 6123.00    0.77301   0.75479   81.480
 6124.00    0.76369   0.75440   80.329
 6125.00    0.76889   0.75444   77.774
 6126.00    0.77715   0.75473   74.299
 6127.00    0.76696   0.75518   71.387
 6128.00    0.74657   0.75553   69.946
 6129.00    0.74132   0.75568   70.185
 6130.00    0.74860   0.75543   71.492
 6131.00    0.74931   0.75484   72.753
 6132.00    0.74812   0.75386   73.339
 6133.00    0.76218   0.75239   73.401
 6134.00    0.78675   0.75062   73.799
 6135.00    0.80107   0.74881   -1.000
 6136.00    0.78891   0.74723   -1.000
 6137.00    0.75156   0.74602   82.028
 6138.00    0.72053   0.74542   84.016
 6139.00    0.72469   0.74539   83.492
 6140.00    0.74357   0.74607   83.129
 6141.00    0.74612   0.74721   85.487
 6142.00    0.74743   0.74884   88.185
 6143.00    0.76946   0.75058   87.552
 6144.00    0.78773   0.75240   85.435
 6145.00    0.77490   0.75400   84.628
 6146.00    0.75374   0.75541   83.618
 6147.00    0.75742   0.75644   80.612
 6148.00    0.78315   0.75702   77.365
 6149.00    0.80534   0.75720   -1.000
 6150.00    0.79608   0.75698   75.287
 6151.00    0.75871   0.75650   75.028
 6152.00    0.74692   0.75559   74.459
 6153.00    0.78201   0.75433   73.788
 6154.00    0.79697   0.75252   -1.000
 6155.00    0.75295   0.75035   74.890
 6156.00    0.71593   0.74765   76.269
 6157.00    0.73289   0.74460   76.931
 6158.00    0.75522   0.74119   76.432
 6159.00    0.74618   0.73757   75.196
 6160.00    0.74094   0.73399   74.345
 6161.00    0.75650   0.73058   74.775
 6162.00    0.75001   0.72760   76.771
 6163.00    0.70850   0.72519   79.897
 6164.00    0.68396   0.72355   -1.000
 6165.00    0.70345   0.72265   84.336
 6166.00    0.73387   0.72242   84.352
 6167.00    0.74516   0.72290   83.579
 6168.00    0.73696   0.72386   83.045
 6169.00    0.71606   0.72531   83.561
 6170.00    0.68858   0.72702   -1.000
 6171.00    0.67161   0.72908   -1.000
 6172.00    0.68724   0.73126   -1.000
 6173.00    0.72272   0.73354   82.193
 6174.00    0.73519   0.73584   80.001
 6175.00    0.71958   0.73806   79.263
 6176.00    0.71254   0.74023   77.411
 6177.00    0.72803   0.74212   74.054
 6178.00    0.74775   0.74387   71.172
 6179.00    0.75568   0.74525   70.293
 6180.00    0.74937   0.74632   71.869
 6181.00    0.74059   0.74689   74.238
 6182.00    0.74526   0.74701   74.293
 6183.00    0.75861   0.74665   72.201
 6184.00    0.75826   0.74581   70.820
 6185.00    0.72665   0.74461   71.371
 6186.00    0.66556   0.74307   -1.000
 6187.00    0.61420   0.74141   -2.000
 6188.00    0.62413   0.73970   -2.000
 6189.00    0.70260   0.73818   -2.000
 6190.00    0.81081   0.73696   -2.000
 6191.00    0.88369   0.73614   -2.000
 6192.00    0.87456   0.73582   -2.000
 6193.00    0.82055   0.73594   -2.000
 6194.00    0.78430   0.73651   -2.000
 6195.00    0.74952   0.73736   -2.000
 6196.00    0.68091   0.73844   -2.000
 6197.00    0.62931   0.73962   -2.000
 6198.00    0.65568   0.74081   -2.000
 6199.00    0.71489   0.74198   70.491
 6200.00    0.73565   0.74308   72.649
 6201.00    0.73348   0.74410   75.421
 6202.00    0.74871   0.74500   78.519
 6203.00    0.76380   0.74578   79.954
 6204.00    0.75349   0.74631   78.666
 6205.00    0.74324   0.74657   77.258
 6206.00    0.75952   0.74644   77.832
 6207.00    0.77953   0.74590   78.777
 6208.00    0.77582   0.74488   78.162
 6209.00    0.75824   0.74339   77.048
 6210.00    0.74615   0.74145   76.609
 6211.00    0.74285   0.73920   75.946
 6212.00    0.74325   0.73674   74.669
 6213.00    0.74221   0.73422   74.449
 6214.00    0.73960   0.73182   76.198
 6215.00    0.74174   0.72966   78.443
 6216.00    0.74870   0.72787   79.803
 6217.00    0.74890   0.72649   80.891
 6218.00    0.73963   0.72555   81.713
 6219.00    0.73529   0.72500   80.391
 6220.00    0.74044   0.72477   77.297
 6221.00    0.73954   0.72474   75.832
 6222.00    0.72752   0.72483   77.477
 6223.00    0.72056   0.72490   80.696
 6224.00    0.72772   0.72488   83.471
 6225.00    0.73967   0.72470   84.858
 6226.00    0.74312   0.72433   85.285
 6227.00    0.73006   0.72383   85.983
 6228.00    0.70707   0.72320   86.588
 6229.00    0.69351   0.72261   85.144
 6230.00    0.70024   0.72207   82.264
 6231.00    0.72215   0.72174   80.780
 6232.00    0.74175   0.72158   80.994
 6233.00    0.73951   0.72160   80.751
 6234.00    0.72177   0.72172   79.321
 6235.00    0.71562   0.72183   77.977
 6236.00    0.72640   0.72188   77.799
 6237.00    0.73595   0.72170   78.929
 6238.00    0.73395   0.72133   79.864
 6239.00    0.72390   0.72071   78.630
 6240.00    0.71492   0.71994   76.806
 6241.00    0.71603   0.71908   77.539
 6242.00    0.72837   0.71826   80.074
 6243.00    0.74601   0.71752   80.872
 6244.00    0.76185   0.71697   -1.000
 6245.00    0.76736   0.71656   -1.000
 6246.00    0.74977   0.71632   80.905
 6247.00    0.70726   0.71608   81.547
 6248.00    0.67621   0.71585   -1.000
 6249.00    0.69330   0.71543   80.146
 6250.00    0.72493   0.71485   76.547
 6251.00    0.71890   0.71401   70.042
 6252.00    0.70240   0.71301   63.773
 6253.00    0.72613   0.71191   60.053
 6254.00    0.76298   0.71081   -1.000
 6255.00    0.76141   0.70998   57.253
 6256.00    0.73524   0.70937   58.063
 6257.00    0.72084   0.70934   61.722
 6258.00    0.71070   0.70970   67.126
 6259.00    0.68700   0.71069   71.655
 6260.00    0.66779   0.71206   -1.000
 6261.00    0.67554   0.71385   76.751
 6262.00    0.69952   0.71585   78.382
 6263.00    0.71773   0.71794   79.335
 6264.00    0.72264   0.72003   80.146
 6265.00    0.72044   0.72194   81.064
 6266.00    0.72579   0.72372   81.173
 6267.00    0.74118   0.72519   80.135
 6268.00    0.74422   0.72651   79.496
 6269.00    0.72643   0.72752   80.520
 6270.00    0.71828   0.72840   82.756
 6271.00    0.73686   0.72902   84.856
 6272.00    0.75317   0.72952   85.413
 6273.00    0.74419   0.72979   84.461
 6274.00    0.72520   0.72990   83.908
 6275.00    0.71693   0.72986   84.606
 6276.00    0.72377   0.72969   85.171
 6277.00    0.73527   0.72946   84.960
 6278.00    0.73294   0.72920   85.364
 6279.00    0.71782   0.72906   86.436
 6280.00    0.71576   0.72900    0.000
 6281.00    0.72964   0.72920    0.000
 6282.00    0.72889   0.72958    0.000
 6283.00    0.71148   0.73022    0.000
 6284.00    0.71510   0.73100    0.000
 6285.00    0.74178   0.73189    0.000
 6286.00    0.74661   0.73276    0.000
 6287.00    0.72074   0.73351    0.000
 6288.00    0.70443   0.73405    0.000
 6289.00    0.71469   0.73428    0.000
 6290.00    0.73057   0.73417    0.000
 6291.00    0.73394   0.73369    0.000
 6292.00    0.72407   0.73290    0.000
 6293.00    0.71799   0.73181    0.000
 6294.00    0.73617   0.73055    0.000
 6295.00    0.76348   0.72918    0.000
 6296.00    0.76459   0.72784    0.000
 6297.00    0.75144   0.72660    0.000
 6298.00    0.76849   0.72558    0.000
 6299.00    0.81514   0.72485    0.000
 6300.00    0.85243   0.72446    0.000
 6301.00    0.86005   0.72444    0.000
 6302.00    0.84222   0.72478    0.000
 6303.00    0.81259   0.72542    0.000
 6304.00    0.78586   0.72629    0.000
 6305.00    0.76829   0.72726    0.000
 6306.00    0.75736   0.72823    0.000
 6307.00    0.74479   0.72905    0.000
 6308.00    0.72603   0.72964    0.000
 6309.00    0.71363   0.72990    0.000
 6310.00    0.72026   0.72981    0.000
 6311.00    0.73152   0.72938    0.000
 6312.00    0.72714   0.72867    0.000
 6313.00    0.71472   0.72777    0.000
 6314.00    0.71117   0.72681    0.000
 6315.00    0.71413   0.72591    0.000
 6316.00    0.71532   0.72521    0.000
 6317.00    0.71941   0.72482    0.000
 6318.00    0.72956   0.72478    0.000
 6319.00    0.73102   0.72518    0.000
 6320.00    0.71421   0.72594    0.000
 6321.00    0.69733   0.72708   88.342
 6322.00    0.69957   0.72842   90.345
 6323.00    0.71540   0.72994   90.360
 6324.00    0.72943   0.73145   89.716
 6325.00    0.73242   0.73289   89.003
 6326.00    0.72801   0.73413   88.280
 6327.00    0.73329   0.73508   87.508
 6328.00    0.74753   0.73571   87.126
 6329.00    0.73737   0.73596   88.168
 6330.00    0.69941   0.73587   -1.000
 6331.00    0.68963   0.73544   -1.000
 6332.00    0.72553   0.73474   86.510
 6333.00    0.74136   0.73385   82.983
 6334.00    0.70693   0.73285   81.283
 6335.00    0.68003   0.73183   -1.000
 6336.00    0.69447   0.73090   80.103
 6337.00    0.71208   0.73008   80.336
 6338.00    0.70286   0.72948   81.454
 6339.00    0.68076   0.72903   -1.000
 6340.00    0.67208   0.72881   -1.000
 6341.00    0.69347   0.72871   83.328
 6342.00    0.72631   0.72881   82.886
 6343.00    0.72478   0.72897   83.915
 6344.00    0.68964   0.72929   -1.000
 6345.00    0.67344   0.72964   -1.000
 6346.00    0.69151   0.73008   -1.000
 6347.00    0.70965   0.73052   88.195
 6348.00    0.71569   0.73090   90.460
 6349.00    0.72852   0.73118   90.241
 6350.00    0.74900   0.73121   87.056
 6351.00    0.75767   0.73100   83.887
 6352.00    0.75308   0.73041   82.001
 6353.00    0.75043   0.72950   80.857
 6354.00    0.74815   0.72819   79.953
 6355.00    0.73274   0.72664   79.136
 6356.00    0.71217   0.72487   78.399
 6357.00    0.70798   0.72304   77.731
 6358.00    0.71909   0.72128   76.916
 6359.00    0.72649   0.71975   75.862
 6360.00    0.72035   0.71855   75.284
 6361.00    0.70529   0.71780   75.997
 6362.00    0.69842   0.71757   77.467
 6363.00    0.71302   0.71786   78.462
 6364.00    0.73166   0.71867   78.999
 6365.00    0.72964   0.71992   79.954
 6366.00    0.71986   0.72153   81.593
 6367.00    0.72804   0.72339   83.496
 6368.00    0.74505   0.72537   84.865
 6369.00    0.74707   0.72735   85.115
 6370.00    0.73363   0.72923   84.734
 6371.00    0.71929   0.73093   84.927
 6372.00    0.71551   0.73237   86.961
 6373.00    0.72440   0.73352   90.850
 6374.00    0.73495   0.73434   93.298
 6375.00    0.73581   0.73487   91.703
 6376.00    0.72922   0.73509   89.857
 6377.00    0.72117   0.73509   91.020
 6378.00    0.71069   0.73490   92.017
 6379.00    0.70055   0.73460   89.371
 6380.00    0.70610   0.73425   85.769
 6381.00    0.73081   0.73390   83.788
 6382.00    0.74850   0.73359   81.870
 6383.00    0.74348   0.73331   78.581
 6384.00    0.73866   0.73305   75.177
 6385.00    0.74525   0.73277   73.167
 6386.00    0.73177   0.73244   73.018
 6387.00    0.69132   0.73200   74.061
 6388.00    0.67721   0.73143   -1.000
 6389.00    0.71195   0.73074   74.047
 6390.00    0.74131   0.72992   75.290
 6391.00    0.72921   0.72903   79.116
 6392.00    0.70567   0.72813   82.330
 6393.00    0.70154   0.72727   82.864
 6394.00    0.71371   0.72653   83.538
 6395.00    0.72393   0.72593   86.234
 6396.00    0.71446   0.72553   89.166
 6397.00    0.69090   0.72532   -1.000
 6398.00    0.68285   0.72532   -1.000
 6399.00    0.69989   0.72549   88.655
 6400.00    0.72027   0.72582   87.657
 6401.00    0.72473   0.72625   87.216
 6402.00    0.71140   0.72673   87.053
 6403.00    0.69753   0.72721   86.434
 6404.00    0.70768   0.72761   84.671
 6405.00    0.73279   0.72792   82.467
 6406.00    0.73625   0.72808   81.296
 6407.00    0.71684   0.72812   81.061
 6408.00    0.70806   0.72801   80.429
 6409.00    0.71659   0.72781   79.304
 6410.00    0.72133   0.72756   78.740
 6411.00    0.72017   0.72729   78.992
 6412.00    0.72766   0.72704   79.578
 6413.00    0.73747   0.72684   80.507
 6414.00    0.73084   0.72668   81.940
 6415.00    0.71722   0.72659   82.565
 6416.00    0.72123   0.72657   80.951
 6417.00    0.73561   0.72664   79.265
 6418.00    0.73437   0.72681   80.562
 6419.00    0.71765   0.72709   83.599
 6420.00    0.70558   0.72751   84.540
 6421.00    0.71063   0.72804   83.488
 6422.00    0.73016   0.72867   83.145
 6423.00    0.74358   0.72932   83.647
 6424.00    0.73281   0.72995   83.821
 6425.00    0.71332   0.73046   84.166
 6426.00    0.71166   0.73079   85.386
 6427.00    0.72715   0.73091   85.619
 6428.00    0.74006   0.73081   83.210
 6429.00    0.73090   0.73054   80.705
 6430.00    0.69982   0.73012   80.518
 6431.00    0.68338   0.72966   -1.000
 6432.00    0.70444   0.72921   79.247
 6433.00    0.71911   0.72886   76.786
 6434.00    0.69098   0.72863   75.692
 6435.00    0.66765   0.72858   -1.000
 6436.00    0.69590   0.72870   79.354
 6437.00    0.73850   0.72900   80.206
 6438.00    0.74481   0.72945   77.995
 6439.00    0.71871   0.73001   76.381
 6440.00    0.69215   0.73063   -1.000
 6441.00    0.69483   0.73121   79.988
 6442.00    0.72729   0.73168   80.342
 6443.00    0.74931   0.73193   80.293
 6444.00    0.73700   0.73190   81.556
 6445.00    0.71737   0.73153   83.396
 6446.00    0.71811   0.73083   84.363
 6447.00    0.73505   0.72985   83.822
 6448.00    0.74909   0.72869   82.146
 6449.00    0.74115   0.72747   80.369
 6450.00    0.71130   0.72633   79.111
 6451.00    0.68325   0.72539   -1.000
 6452.00    0.67310   0.72472   -1.000
 6453.00    0.67655   0.72435   -1.000
 6454.00    0.68868   0.72426   79.393
 6455.00    0.71012   0.72437   78.121
 6456.00    0.73027   0.72462   76.018
 6457.00    0.72828   0.72489   76.953
 6458.00    0.70822   0.72514   81.056
 6459.00    0.70034   0.72530   83.291
 6460.00    0.71090   0.72538   81.566
 6461.00    0.71619   0.72540   79.705
 6462.00    0.70989   0.72540   79.879
 6463.00    0.70942   0.72544   81.260
 6464.00    0.72136   0.72555   82.138
 6465.00    0.73525   0.72575   81.350
 6466.00    0.73961   0.72604   80.709
 6467.00    0.73013   0.72640   83.367
 6468.00    0.71783   0.72677   88.253
 6469.00    0.71990   0.72713   90.024
 6470.00    0.73179   0.72743   87.923
 6471.00    0.73413   0.72764   86.231
 6472.00    0.72553   0.72776   86.487
 6473.00    0.71766   0.72776   87.451
 6474.00    0.70833   0.72766   87.531
 6475.00    0.69190   0.72745   85.789
 6476.00    0.69053   0.72714   82.886
 6477.00    0.72768   0.72672   80.332
 6478.00    0.77012   0.72621   -1.000
 6479.00    0.76740   0.72560   -1.000
 6480.00    0.73519   0.72494   81.274
 6481.00    0.72176   0.72421   81.525
 6482.00    0.73379   0.72343   80.606
 6483.00    0.74729   0.72257   79.738
 6484.00    0.74157   0.72159   80.298
 6485.00    0.71429   0.72039   82.839
 6486.00    0.69281   0.71890   85.754
 6487.00    0.70259   0.71702   86.718
 6488.00    0.72806   0.71467   85.865
 6489.00    0.74146   0.71184   84.839
 6490.00    0.74038   0.70858   84.713
 6491.00    0.73086   0.70503   85.655
 6492.00    0.70683   0.70138   86.824
 6493.00    0.67125   0.69789   87.324
 6494.00    0.65499   0.69484   -1.000
 6495.00    0.67398   0.69251   87.198
 6496.00    0.69420   0.69110   87.229
 6497.00    0.68796   0.69075   86.980
 6498.00    0.67849   0.69147   85.631
 6499.00    0.68888   0.69321   83.358
 6500.00    0.70400   0.69576   81.835
 6501.00    0.70873   0.69895   81.685
 6502.00    0.71369   0.70245   81.417
 6503.00    0.72454   0.70607   80.342
 6504.00    0.72529   0.70952   80.047
 6505.00    0.71207   0.71266   81.468
 6506.00    0.70801   0.71534   83.483
 6507.00    0.72212   0.71749   84.926
 6508.00    0.73238   0.71911   85.885
 6509.00    0.72653   0.72019   86.682
 6510.00    0.71858   0.72080   87.261
 6511.00    0.71948   0.72100   87.671
 6512.00    0.72486   0.72087   88.229
 6513.00    0.72848   0.72051   89.006
 6514.00    0.72860   0.72001   89.667
 6515.00    0.72730   0.71946   89.857
 6516.00    0.72846   0.71896   89.427
 6517.00    0.73146   0.71855   88.508
 6518.00    0.73100   0.71829   87.332
 6519.00    0.72476   0.71819   85.641
 6520.00    0.71598   0.71823   83.101
 6521.00    0.71198   0.71838   80.899
 6522.00    0.71997   0.71859   80.809
 6523.00    0.73603   0.71881   82.144
 6524.00    0.74756   0.71899   82.348
 6525.00    0.74894   0.71909   81.582
 6526.00    0.74367   0.71910   82.175
 6527.00    0.73798   0.71902   83.674
 6528.00    0.73567   0.71888    0.000
 6529.00    0.73052   0.71870    0.000
 6530.00    0.71521   0.71852    0.000
 6531.00    0.70410   0.71835    0.000
 6532.00    0.71811   0.71820    0.000
 6533.00    0.74497   0.71808    0.000
 6534.00    0.75517   0.71796    0.000
 6535.00    0.74645   0.71780    0.000
 6536.00    0.73605   0.71755    0.000
 6537.00    0.73269   0.71716    0.000
 6538.00    0.73466   0.71656    0.000
 6539.00    0.73516   0.71570    0.000
 6540.00    0.72996   0.71455    0.000
 6541.00    0.72681   0.71309    0.000
 6542.00    0.73775   0.71133    0.000
 6543.00    0.76691   0.70929    0.000
 6544.00    0.81357   0.70699    0.000
 6545.00    0.87791   0.70448    0.000
 6546.00    0.95689   0.70176    0.000
 6547.00    1.03887   0.69882    0.000
 6548.00    1.10469   0.69561    0.000
 6549.00    1.13117   0.69206    0.000
 6550.00    1.10759   0.68805    0.000
 6551.00    1.05029   0.68344    0.000
 6552.00    0.98312   0.67813    0.000
 6553.00    0.91866   0.67199    0.000
 6554.00    0.86574   0.66497    0.000
 6555.00    0.83582   0.65710    0.000
 6556.00    0.82969   0.64848    0.000
 6557.00    0.83698   0.63939    0.000
 6558.00    0.91664   0.63017    0.000
 6559.00    1.22887   0.62133    0.000
 6560.00    1.83637   0.61341    0.000
 6561.00    2.58931   0.60696    0.000
 6562.00    3.28431   0.60250    0.000
 6563.00    3.76827   0.60038    0.000
 6564.00    3.92103   0.60074    0.000
 6565.00    3.66352   0.60356    0.000
 6566.00    3.07306   0.60851    0.000
 6567.00    2.39980   0.61520    0.000
 6568.00    1.83538   0.62302    0.000
 6569.00    1.41544   0.63146    0.000
 6570.00    1.12003   0.63996    0.000
 6571.00    0.92547   0.64815    0.000
 6572.00    0.81319   0.65572    0.000
 6573.00    0.76826   0.66255    0.000
 6574.00    0.76143   0.66859    0.000
 6575.00    0.75427   0.67389    0.000
 6576.00    0.74294   0.67850    0.000
 6577.00    0.75863   0.68256    0.000
 6578.00    0.81583   0.68607    0.000
 6579.00    0.90941   0.68919    0.000
 6580.00    1.05992   0.69187    0.000
 6581.00    1.29870   0.69424    0.000
 6582.00    1.58661   0.69622    0.000
 6583.00    1.82460   0.69789    0.000
 6584.00    1.94285   0.69922    0.000
 6585.00    1.92206   0.70020    0.000
 6586.00    1.78495   0.70090    0.000
 6587.00    1.58005   0.70122    0.000
 6588.00    1.35109   0.70132    0.000
 6589.00    1.13294   0.70111    0.000
 6590.00    0.95768   0.70079    0.000
 6591.00    0.84578   0.70033    0.000
 6592.00    0.78786   0.69993    0.000
 6593.00    0.75650   0.69961    0.000
 6594.00    0.73359   0.69949    0.000
 6595.00    0.71451   0.69961    0.000
 6596.00    0.70646   0.69997    0.000
 6597.00    0.71395   0.70056    0.000
 6598.00    0.71909   0.70129    0.000
 6599.00    0.70636   0.70210    0.000
 6600.00    0.69883   0.70287    0.000
 6601.00    0.72182   0.70355    0.000
 6602.00    0.75241   0.70405    0.000
 6603.00    0.75637   0.70437    0.000
 6604.00    0.73837   0.70452    0.000
 6605.00    0.72112   0.70454    0.000
 6606.00    0.71569   0.70450    0.000
 6607.00    0.72162   0.70449    0.000
 6608.00    0.73065   0.70457    0.000
 6609.00    0.73110   0.70483   83.037
 6610.00    0.71359   0.70526   82.487
 6611.00    0.68832   0.70592   83.042
 6612.00    0.69316   0.70671   82.689
 6613.00    0.73631   0.70765   80.644
 6614.00    0.75997   0.70861   -1.000
 6615.00    0.73035   0.70955   79.899
 6616.00    0.69559   0.71038   81.829
 6617.00    0.69569   0.71102   83.469
 6618.00    0.70610   0.71147   84.403
 6619.00    0.70248   0.71163   85.054
 6620.00    0.69870   0.71157   86.170
 6621.00    0.70726   0.71122   87.716
 6622.00    0.71860   0.71068   88.468
 6623.00    0.72661   0.70993   88.183
 6624.00    0.73868   0.70907   88.399
 6625.00    0.75130   0.70810   -1.000
 6626.00    0.74481   0.70710   -1.000
 6627.00    0.71872   0.70610   89.492
 6628.00    0.69883   0.70511   88.789
 6629.00    0.69453   0.70421   88.331
 6630.00    0.69000   0.70339   87.026
 6631.00    0.68495   0.70271   84.973
 6632.00    0.69850   0.70215   83.608
 6633.00    0.72220   0.70177   83.304
 6634.00    0.72060   0.70153   83.252
 6635.00    0.69319   0.70145   83.296
 6636.00    0.67625   0.70149   84.011
 6637.00    0.68179   0.70162   85.052
 6638.00    0.69245   0.70181   85.280
 6639.00    0.70374   0.70201   84.980
 6640.00    0.72424   0.70221   85.629
 6641.00    0.74284   0.70238   -1.000
 6642.00    0.73594   0.70254   -1.000
 6643.00    0.70696   0.70268   91.350
 6644.00    0.68173   0.70283   93.041
 6645.00    0.67539   0.70301   94.444
 6646.00    0.68751   0.70320   95.000
 6647.00    0.70841   0.70344   94.393
 6648.00    0.72463   0.70367   92.768
 6649.00    0.72663   0.70390   90.716
 6650.00    0.71387   0.70410   88.778
 6651.00    0.70017   0.70421   86.826
 6652.00    0.69955   0.70424   84.704
 6653.00    0.70230   0.70412   83.153
 6654.00    0.69406   0.70389   82.875
 6655.00    0.68951   0.70346   83.241
 6656.00    0.70529   0.70292   83.291
 6657.00    0.71678   0.70220   83.368
 6658.00    0.69773   0.70139   84.151
 6659.00    0.67668   0.70047   85.124
 6660.00    0.68739   0.69953   85.534
 6661.00    0.70360   0.69862   85.883
 6662.00    0.69065   0.69779   87.066
 6663.00    0.66852   0.69713   89.181
 6664.00    0.66923   0.69662   91.502
 6665.00    0.68716   0.69635   92.652
 6666.00    0.70106   0.69623   91.987
 6667.00    0.70033   0.69628   90.854
 6668.00    0.68683   0.69639   90.548
 6669.00    0.67326   0.69647   90.751
 6670.00    0.67153   0.69647   90.781
 6671.00    0.68314   0.69624   90.592
 6672.00    0.69927   0.69583   90.119
 6673.00    0.70405   0.69512   88.870
 6674.00    0.69507   0.69425   87.009
 6675.00    0.69284   0.69322   85.689
 6676.00    0.70781   0.69220   85.020
 6677.00    0.72303   0.69130   83.487
 6678.00    0.72616   0.69061   81.185
 6679.00    0.72537   0.69030   80.591
 6680.00    0.72470   0.69032   82.373
 6681.00    0.71431   0.69080   84.062
 6682.00    0.69479   0.69153   84.250
 6683.00    0.68434   0.69262   84.707
 6684.00    0.69035   0.69377   86.625
 6685.00    0.69999   0.69504   89.138
 6686.00    0.70059   0.69619   91.436
 6687.00    0.68992   0.69722   93.586
 6688.00    0.67954   0.69803   94.888
 6689.00    0.68776   0.69860   93.880
 6690.00    0.70970   0.69894   91.598
 6691.00    0.71837   0.69903   90.873
 6692.00    0.70747   0.69895   91.369
 6693.00    0.69497   0.69868   90.114
 6694.00    0.68601   0.69836   87.786
 6695.00    0.67203   0.69793   87.574
 6696.00    0.66344   0.69755    0.000
 6697.00    0.68144   0.69715    0.000
 6698.00    0.71006   0.69684    0.000
 6699.00    0.71135   0.69656    0.000
 6700.00    0.69529   0.69636    0.000
 6701.00    0.70238   0.69620    0.000
 6702.00    0.72318   0.69606    0.000
 6703.00    0.71745   0.69594    0.000
 6704.00    0.69425   0.69577    0.000
 6705.00    0.69368   0.69556    0.000
 6706.00    0.71691   0.69525    0.000
 6707.00    0.73524   0.69484    0.000
 6708.00    0.73246   0.69431    0.000
 6709.00    0.71112   0.69362    0.000
 6710.00    0.68942   0.69281    0.000
 6711.00    0.69445   0.69186    0.000
 6712.00    0.75180   0.69085    0.000
 6713.00    0.87019   0.68978    0.000
 6714.00    1.02317   0.68875    0.000
 6715.00    1.17035   0.68782    0.000
 6716.00    1.28834   0.68703    0.000
 6717.00    1.35748   0.68650    0.000
 6718.00    1.34358   0.68620    0.000
 6719.00    1.23837   0.68619    0.000
 6720.00    1.10307   0.68643    0.000
 6721.00    1.00200   0.68690    0.000
 6722.00    0.93126   0.68757    0.000
 6723.00    0.86426   0.68831    0.000
 6724.00    0.80247   0.68917    0.000
 6725.00    0.76356   0.68996    0.000
 6726.00    0.76513   0.69077    0.000
 6727.00    0.81449   0.69144    0.000
 6728.00    0.90185   0.69206    0.000
 6729.00    1.00668   0.69250    0.000
 6730.00    1.10378   0.69284    0.000
 6731.00    1.16764   0.69301    0.000
 6732.00    1.17727   0.69305    0.000
 6733.00    1.12890   0.69294    0.000
 6734.00    1.04204   0.69267    0.000
 6735.00    0.94451   0.69230    0.000
 6736.00    0.86071   0.69178    0.000
 6737.00    0.79985   0.69121    0.000
 6738.00    0.75337   0.69052    0.000
 6739.00    0.71526   0.68985    0.000
 6740.00    0.69057   0.68911    0.000
 6741.00    0.68331   0.68842    0.000
 6742.00    0.69024   0.68772    0.000
 6743.00    0.70129   0.68710    0.000
 6744.00    0.70242   0.68651    0.000
 6745.00    0.68554   0.68601    0.000
 6746.00    0.65413   0.68558    0.000
 6747.00    0.62766   0.68525    0.000
 6748.00    0.63279   0.68506    0.000
 6749.00    0.66764   0.68498    0.000
 6750.00    0.70174   0.68511    0.000
 6751.00    0.71702   0.68537    0.000
 6752.00    0.71722   0.68585    0.000
 6753.00    0.71390   0.68646   68.596
 6754.00    0.71745   0.68722   69.315
 6755.00    0.72512   0.68809   70.705
 6756.00    0.72631   0.68895   71.090
 6757.00    0.72426   0.68984   70.430
 6758.00    0.73004   0.69057   70.128
 6759.00    0.73556   0.69121   -1.000
 6760.00    0.72350   0.69158   70.785
 6761.00    0.70197   0.69178   71.417
 6762.00    0.69315   0.69172   73.179
 6763.00    0.69550   0.69145   75.907
 6764.00    0.69278   0.69104   78.443
 6765.00    0.68471   0.69050   79.691
 6766.00    0.68243   0.68998   79.343
 6767.00    0.69065   0.68946   78.389
 6768.00    0.70386   0.68911   78.144
 6769.00    0.70616   0.68888   78.919
 6770.00    0.68772   0.68890   80.147
 6771.00    0.66730   0.68908   80.729
 6772.00    0.66901   0.68947   80.057
 6773.00    0.68742   0.68996   79.287
 6774.00    0.70436   0.69050   79.623
 6775.00    0.71558   0.69104   80.298
 6776.00    0.72408   0.69143   79.990
 6777.00    0.72898   0.69170   -1.000
 6778.00    0.72846   0.69170   77.413
 6779.00    0.72396   0.69152   75.906
 6780.00    0.71573   0.69105   74.414
 6781.00    0.69928   0.69045   73.603
 6782.00    0.67917   0.68968   73.598
 6783.00    0.67865   0.68888   73.285
 6784.00    0.70760   0.68807   72.521
 6785.00    0.73858   0.68735   -1.000
 6786.00    0.74374   0.68676   -1.000
 6787.00    0.72432   0.68631   -1.000
 6788.00    0.69890   0.68602   83.453
 6789.00    0.69037   0.68587   81.648
 6790.00    0.70765   0.68585   78.820
 6791.00    0.73567   0.68592   -1.000
 6792.00    0.74850   0.68605   -1.000
 6793.00    0.72381   0.68623   75.715
 6794.00    0.67502   0.68642   77.859
 6795.00    0.65551   0.68665   77.942
 6796.00    0.68231   0.68687   75.952
 6797.00    0.70991   0.68711   76.599
 6798.00    0.70773   0.68733   80.891
 6799.00    0.69157   0.68753   83.211
 6800.00    0.68497   0.68771   80.265
 6801.00    0.69853   0.68784   75.997
 6802.00    0.72251   0.68794   72.777
 6803.00    0.73207   0.68795   -1.000
 6804.00    0.71823   0.68794   67.862
 6805.00    0.69537   0.68785   68.084
 6806.00    0.68362   0.68774   70.454
 6807.00    0.69502   0.68758   72.952
 6808.00    0.71110   0.68742   75.048
 6809.00    0.69662   0.68726   78.416
 6810.00    0.66270   0.68711   83.157
 6811.00    0.65755   0.68701   86.821
 6812.00    0.68594   0.68694   88.112
 6813.00    0.70941   0.68692   88.292
 6814.00    0.70709   0.68695   88.907
 6815.00    0.68602   0.68704   90.395
 6816.00    0.66575   0.68718   90.644
 6817.00    0.66431   0.68735   87.089
 6818.00    0.67659   0.68756   82.070
 6819.00    0.68258   0.68777   79.375
 6820.00    0.67402   0.68799   79.117
 6821.00    0.65831   0.68817   79.490
 6822.00    0.65446   0.68831   79.623
 6823.00    0.67570   0.68840   79.529
 6824.00    0.70214   0.68842   79.132
 6825.00    0.70437   0.68837   78.220
 6826.00    0.68833   0.68826   76.666
 6827.00    0.67707   0.68808   74.766
 6828.00    0.67356   0.68787   73.518
 6829.00    0.67097   0.68757   73.778
 6830.00    0.67382   0.68725   75.346
 6831.00    0.68605   0.68683   77.521
 6832.00    0.69352   0.68639   79.948
 6833.00    0.68410   0.68581   82.628
 6834.00    0.67218   0.68518   85.754
 6835.00    0.67490   0.68441   89.070
 6836.00    0.68463   0.68359   91.042
 6837.00    0.68799   0.68271   90.353
 6838.00    0.68711   0.68182   87.880
 6839.00    0.68968   0.68101   85.197
 6840.00    0.69765   0.68028   83.075
 6841.00    0.70777   0.67977   81.864
 6842.00    0.71364   0.67940   81.840
 6843.00    0.71213   0.67931   82.643
 6844.00    0.70736   0.67935   82.914
 6845.00    0.70193   0.67963   81.976
 6846.00    0.69204   0.67994   80.943
 6847.00    0.68056   0.68034   80.813
 6848.00    0.68226   0.68066   81.405
 6849.00    0.69705   0.68089   82.287
 6850.00    0.69941   0.68096   83.376
 6851.00    0.68056   0.68086   85.036
 6852.00    0.66586   0.68060   87.827
 6853.00    0.66999   0.68017   90.485
 6854.00    0.67780   0.67966   89.478
 6855.00    0.67632   0.67907   85.524
 6856.00    0.66899   0.67850   83.779
 6857.00    0.66291   0.67796   84.495
 6858.00    0.66179   0.67752   82.499
 6859.00    0.66315   0.67720   78.128
 6860.00    0.66052   0.67700   77.364
 6861.00    0.65585   0.67691   80.694
 6862.00    0.65916   0.67690   82.259
 6863.00    0.66912   0.67697   80.378
 6864.00    0.67254   0.67706   79.981
 6865.00    0.66730   0.67716   82.376
 6866.00    0.66410   0.67726   84.272
 6867.00    0.66759   0.67732   84.402
 6868.00    0.67314   0.67740   84.885
 6869.00    0.67537   0.67745   86.606
 6870.00    0.67231   0.67754   88.609
 6871.00    0.66928   0.67762   90.322
 6872.00    0.67414   0.67779   91.835
 6873.00    0.68336   0.67797   92.655
 6874.00    0.68642   0.67820   92.169
 6875.00    0.68301   0.67846   91.516
 6876.00    0.67968   0.67868   92.160
 6877.00    0.67479   0.67895   92.442
 6878.00    0.66329   0.67913   89.724
 6879.00    0.65163   0.67938   85.918
 6880.00    0.64837   0.67949   84.360
 6881.00    0.64355   0.67971   -1.000
 6882.00    0.62779   0.67985   -1.000
 6883.00    0.62763   0.68012   -1.000
 6884.00    0.66813   0.68040   83.057
 6885.00    0.71059   0.68078   81.729
 6886.00    0.70540   0.68126   82.318
 6887.00    0.67595   0.68176   83.503
 6888.00    0.66886   0.68237   83.436
 6889.00    0.67639   0.68290   83.164
 6890.00    0.67104   0.68351   84.443
 6891.00    0.65770   0.68396   86.699
 6892.00    0.65330   0.68445   88.370
 6893.00    0.65833   0.68478   89.121
 6894.00    0.66648   0.68509   89.513
 6895.00    0.67722   0.68527   90.114
 6896.00    0.68848   0.68543   91.073
 6897.00    0.69017   0.68558   91.828
 6898.00    0.67931   0.68570   91.566
 6899.00    0.67137   0.68585   89.874
 6900.00    0.67649   0.68601   87.620
 6901.00    0.68217   0.68620   86.908
 6902.00    0.67775   0.68638   88.059
 6903.00    0.67201   0.68658   88.070
 6904.00    0.67701   0.68671   85.454
 6905.00    0.69505   0.68681   83.096
 6906.00    0.71376   0.68680   83.178
 6907.00    0.70920   0.68670   85.157
 6908.00    0.68120   0.68647   87.610
 6909.00    0.66490   0.68612   89.214
 6910.00    0.67584   0.68567   89.371
 6911.00    0.68853   0.68516   88.627
 6912.00    0.68739   0.68461   88.208
 6913.00    0.68613   0.68404   89.379
 6914.00    0.69041   0.68353   91.847
 6915.00    0.68693   0.68308   93.396
 6916.00    0.67601   0.68273   93.110
 6917.00    0.67616   0.68248   92.470
 6918.00    0.68374   0.68230   92.043
 6919.00    0.67239   0.68224   90.780
 6920.00    0.65220   0.68218   88.366
 6921.00    0.66662   0.68219   85.658
 6922.00    0.70586   0.68219   83.427
 6923.00    0.71042   0.68219   81.979
 6924.00    0.67703   0.68222   81.104
 6925.00    0.65914   0.68219   80.415
 6926.00    0.66859   0.68227   80.232
 6927.00    0.67157   0.68223   81.264
 6928.00    0.65707   0.68237   83.138
 6929.00    0.64211   0.68240   -1.000
 6930.00    0.63745   0.68257   -1.000
 6931.00    0.64246   0.68271   -1.000
 6932.00    0.65398   0.68288   88.072
 6933.00    0.66696   0.68309   90.345
 6934.00    0.67163   0.68321   92.494
 6935.00    0.66183   0.68341   93.581
 6936.00    0.65157   0.68344   93.062
 6937.00    0.66045   0.68350   91.214
 6938.00    0.68222   0.68342   89.252
 6939.00    0.69581   0.68329   88.163
 6940.00    0.69334   0.68310   87.312
 6941.00    0.68000   0.68279   85.788
 6942.00    0.66615   0.68252   84.445
 6943.00    0.65989   0.68211   84.432
 6944.00    0.65869   0.68179   85.128
 6945.00    0.65612   0.68141   85.379
 6946.00    0.65226   0.68112   85.467
 6947.00    0.65053   0.68089   86.083
 6948.00    0.65206   0.68071   86.785
 6949.00    0.65437   0.68066   87.059
 6950.00    0.65125   0.68062   87.722
 6951.00    0.64108   0.68076   -1.000
 6952.00    0.63426   0.68087   -1.000
 6953.00    0.63838   0.68119   -1.000
 6954.00    0.64458   0.68149   -1.000
 6955.00    0.64361   0.68193   -1.000
 6956.00    0.64011   0.68236   -1.000
 6957.00    0.64089   0.68286   -1.000
 6958.00    0.64490   0.68334   -1.000
 6959.00    0.65075   0.68384   -1.000
 6960.00    0.66187   0.68437   91.625
 6961.00    0.67718   0.68479   87.473
 6962.00    0.68624   0.68523   84.381
 6963.00    0.68342   0.68550   83.815
 6964.00    0.67526   0.68577   84.055
 6965.00    0.66559   0.68585   83.831
 6966.00    0.64985   0.68584   -1.000
 6967.00    0.63625   0.68563   -1.000
 6968.00    0.64914   0.68525   -1.000
 6969.00    0.68237   0.68470   87.153
 6970.00    0.69000   0.68388   88.334
 6971.00    0.66078   0.68292   90.341
 6972.00    0.63816   0.68179   -1.000
 6973.00    0.64516   0.68057   -1.000
 6974.00    0.66111   0.67930   93.232
 6975.00    0.66783   0.67808   92.875
 6976.00    0.66574   0.67698   92.551
 6977.00    0.65907   0.67607   92.800
 6978.00    0.65004   0.67548   93.878
 6979.00    0.63948   0.67520   -1.000
 6980.00    0.62909   0.67531   -1.000
 6981.00    0.62747   0.67570   -1.000
 6982.00    0.64429   0.67639   86.464
 6983.00    0.66767   0.67730   86.882
 6984.00    0.67253   0.67834   86.647
 6985.00    0.66126   0.67940   85.370
 6986.00    0.65722   0.68041   84.897
 6987.00    0.65989   0.68141   85.583
 6988.00    0.65128   0.68221   86.659
 6989.00    0.63728   0.68282   -1.000
 6990.00    0.63869   0.68321   -1.000
 6991.00    0.65110   0.68341   -1.000
 6992.00    0.65427   0.68341   87.673
 6993.00    0.64774   0.68332   78.591
 6994.00    0.64493   0.68309   75.366
 6995.00    0.64910   0.68275   76.440
 6996.00    0.65549   0.68225   77.230
 6997.00    0.66239   0.68175   77.187
 6998.00    0.66892   0.68117   78.454
 6999.00    0.66888   0.68061   81.366
 7000.00    0.65938   0.68000   84.661
 7001.00    0.65357   0.67947   -2.000
 7002.00    0.66284   0.67895   -2.000
 7003.00    0.67199   0.67856   -2.000
 7004.00    0.66368   0.67822   -2.000
 7005.00    0.65107   0.67796   -2.000
 7006.00    0.65274   0.67776   -2.000
 7007.00    0.66073   0.67754   -2.000
 7008.00    0.66123   0.67735   -2.000
 7009.00    0.65913   0.67716   -2.000
 7010.00    0.66305   0.67693   -2.000
 7011.00    0.66903   0.67662   -2.000
 7012.00    0.67029   0.67631   -2.000
 7013.00    0.66702   0.67600   -2.000
 7014.00    0.66096   0.67570   -2.000
 7015.00    0.65078   0.67538   -2.000
 7016.00    0.63817   0.67516   -2.000
 7017.00    0.63134   0.67496   -2.000
 7018.00    0.63370   0.67493   -2.000
 7019.00    0.63772   0.67493   -2.000
 7020.00    0.64191   0.67515   -2.000
 7021.00    0.65782   0.67535   -2.000
 7022.00    0.67954   0.67568   -2.000
 7023.00    0.67418   0.67601   -2.000
 7024.00    0.63917   0.67647   -2.000
 7025.00    0.62144   0.67704   -2.000
 7026.00    0.64006   0.67754   -2.000
 7027.00    0.65802   0.67805   -2.000
 7028.00    0.65223   0.67855   -2.000
 7029.00    0.64048   0.67908   -2.000
 7030.00    0.64178   0.67954   -2.000
 7031.00    0.65793   0.68010   -2.000
 7032.00    0.67626   0.68064   -2.000
 7033.00    0.67804   0.68126   -2.000
 7034.00    0.66471   0.68188   -2.000
 7035.00    0.65707   0.68253   -2.000
 7036.00    0.65689   0.68327   -2.000
 7037.00    0.64552   0.68405   -2.000
 7038.00    0.62520   0.68497   -2.000
 7039.00    0.61957   0.68592   -2.000
 7040.00    0.63348   0.68699   -2.000
 7041.00    0.65067   0.68805   -2.000
 7042.00    0.66199   0.68909   -2.000
 7043.00    0.66992   0.69000   -2.000
 7044.00    0.67867   0.69071   -2.000
 7045.00    0.68785   0.69119   -2.000
 7046.00    0.68439   0.69135   -2.000
 7047.00    0.65790   0.69128   -2.000
 7048.00    0.63677   0.69081   -2.000
 7049.00    0.65891   0.69000   -2.000
 7050.00    0.69820   0.68892   -2.000
 7051.00    0.70006   0.68759   -2.000
 7052.00    0.67407   0.68612   -2.000
 7053.00    0.66490   0.68454   -2.000
 7054.00    0.67283   0.68297   -2.000
 7055.00    0.67077   0.68139   -2.000
 7056.00    0.65329   0.67990   -2.000
 7057.00    0.63194   0.67852   -2.000
 7058.00    0.61641   0.67722   -2.000
 7059.00    0.61068   0.67618   -2.000
 7060.00    0.61228   0.67514   -2.000
 7061.00    0.61903   0.67440   -2.000
 7062.00    0.63672   0.67370   -2.000
 7063.00    0.66282   0.67321   -2.000
 7064.00    0.66914   0.67281   -2.000
 7065.00    0.63847   0.67257   -2.000
 7066.00    0.60238   0.67248   -2.000
 7067.00    0.59490   0.67255   -2.000
 7068.00    0.60510   0.67284   -2.000
 7069.00    0.61248   0.67322   -2.000
 7070.00    0.62180   0.67380   -2.000
 7071.00    0.63975   0.67432   -2.000
 7072.00    0.65437   0.67500   -2.000
 7073.00    0.65415   0.67553   -2.000
 7074.00    0.64335   0.67604   -2.000
 7075.00    0.63177   0.67638   -2.000
 7076.00    0.62603   0.67643   -2.000
 7077.00    0.62808   0.67620   -2.000
 7078.00    0.63489   0.67555   -2.000
 7079.00    0.64047   0.67457   -2.000
 7080.00    0.63890   0.67325   -2.000
 7081.00    0.63367   0.67161   -2.000
 7082.00    0.63848   0.66969   -2.000
 7083.00    0.65183   0.66760   -2.000
 7084.00    0.65091   0.66540   -2.000
 7085.00    0.63063   0.66316   -2.000
 7086.00    0.61422   0.66106   -2.000
 7087.00    0.60973   0.65898   -2.000
 7088.00    0.59997   0.65721   -2.000
 7089.00    0.58705   0.65563   -2.000
 7090.00    0.59743   0.65437   -2.000
 7091.00    0.62543   0.65360   -2.000
 7092.00    0.63073   0.65295   -2.000
 7093.00    0.61068   0.65293   -2.000
 7094.00    0.60433   0.65283   -2.000
 7095.00    0.61721   0.65331   -2.000
 7096.00    0.61665   0.65362   -2.000
 7097.00    0.59667   0.65445   -2.000
 7098.00    0.58218   0.65510   -2.000
 7099.00    0.58259   0.65597   -2.000
 7100.00    0.58820   0.65680   -2.000
 7101.00    0.59642   0.65741   -2.000
 7102.00    0.61092   0.65824   -2.000
 7103.00    0.62291   0.65859   -2.000
 7104.00    0.61840   0.65922   -2.000
 7105.00    0.60422   0.65930   -2.000
 7106.00    0.59832   0.65959   -2.000
 7107.00    0.59836   0.65957   -2.000
 7108.00    0.59271   0.65963   -2.000
 7109.00    0.59305   0.65956   -2.000
 7110.00    0.61459   0.65960   -2.000
 7111.00    0.63186   0.65956   -2.000
 7112.00    0.60789   0.65960   -2.000
 7113.00    0.55302   0.65965   -2.000
 7114.00    0.50500   0.65972   -2.000
 7115.00    0.48472   0.65984   -2.000
 7116.00    0.49330   0.65983   -2.000
 7117.00    0.51816   0.65994   -2.000
 7118.00    0.54532   0.65990   -2.000
 7119.00    0.57321   0.65981   -2.000
 7120.00    0.60075   0.65950   -2.000
 7121.00    0.61295   0.65912   -2.000
 7122.00    0.60578   0.65861   -2.000
 7123.00    0.61135   0.65792   -2.000
 7124.00    0.64952   0.65720   -2.000
 7125.00    0.68124   0.65632   -2.000
 7126.00    0.66949   0.65563   -2.000
 7127.00    0.63650   0.65485   -2.000
 7128.00    0.61551   0.65430   -2.000
 7129.00    0.60662   0.65389   -2.000
 7130.00    0.60160   0.65353   -2.000
 7131.00    0.60504   0.65348   -2.000
 7132.00    0.61867   0.65348   -2.000
 7133.00    0.63072   0.65380   -2.000
 7134.00    0.63379   0.65413   -2.000
 7135.00    0.63525   0.65471   -2.000
 7136.00    0.63942   0.65519   -2.000
 7137.00    0.63851   0.65583   -2.000
 7138.00    0.63036   0.65639   -2.000
 7139.00    0.62618   0.65681   -2.000
 7140.00    0.63266   0.65720   -2.000
 7141.00    0.64327   0.65728   -2.000
 7142.00    0.64664   0.65728   -2.000
 7143.00    0.63499   0.65720   -2.000
 7144.00    0.62191   0.65708   -2.000
 7145.00    0.63821   0.65696   -2.000
 7146.00    0.67888   0.65693   -2.000
 7147.00    0.69545   0.65696   -2.000
 7148.00    0.65826   0.65707   -2.000
 7149.00    0.57917   0.65727   -2.000
 7150.00    0.49944   0.65767   -2.000
 7151.00    0.46832   0.65824   -2.000
 7152.00    0.48936   0.65887   -2.000
 7153.00    0.52509   0.65944   -2.000
 7154.00    0.56893   0.66012   -2.000
 7155.00    0.64180   0.66085   -2.000
 7156.00    0.71674   0.66138   -2.000
 7157.00    0.73281   0.66177   -2.000
 7158.00    0.69016   0.66191   -2.000
 7159.00    0.64319   0.66178   -2.000
 7160.00    0.61988   0.66168   -2.000
 7161.00    0.61554   0.66145   -2.000
 7162.00    0.62525   0.66134   -2.000
 7163.00    0.64749   0.66108   -2.000
 7164.00    0.67550   0.66091   -2.000
 7165.00    0.69820   0.66090   -2.000
 7166.00    0.70564   0.66107   -2.000
 7167.00    0.69276   0.66146   -2.000
 7168.00    0.66412   0.66184   -2.000
 7169.00    0.63097   0.66230   -2.000
 7170.00    0.60474   0.66271   -2.000
 7171.00    0.59243   0.66335   -2.000
 7172.00    0.59135   0.66390   -2.000
 7173.00    0.59214   0.66422   -2.000
 7174.00    0.58479   0.66423   -2.000
 7175.00    0.56888   0.66404   -2.000
 7176.00    0.56413   0.66373   -2.000
 7177.00    0.58454   0.66339   -2.000
 7178.00    0.60783   0.66282   -2.000
 7179.00    0.60879   0.66212   -2.000
 7180.00    0.59846   0.66135   -2.000
 7181.00    0.59677   0.66039   -2.000
 7182.00    0.60122   0.65960   -2.000
 7183.00    0.60465   0.65886   -2.000
 7184.00    0.61376   0.65812   -2.000
 7185.00    0.63298   0.65747   -2.000
 7186.00    0.64948   0.65684   -2.000
 7187.00    0.64191   0.65651   -2.000
 7188.00    0.59216   0.65626   -2.000
 7189.00    0.51215   0.65628   -2.000
 7190.00    0.45549   0.65615   -2.000
 7191.00    0.45550   0.65623   -2.000
 7192.00    0.48862   0.65642   -2.000
 7193.00    0.53119   0.65668   -2.000
 7194.00    0.59129   0.65733   -2.000
 7195.00    0.66403   0.65769   -2.000
 7196.00    0.71196   0.65831   -2.000
 7197.00    0.71576   0.65866   -2.000
 7198.00    0.69549   0.65903   -2.000
 7199.00    0.66763   0.65929   -2.000
 7200.00    0.62797   0.65944   -2.000
 7201.00    0.57997   0.65931   -2.000
 7202.00    0.54290   0.65912   -2.000
 7203.00    0.52488   0.65889   -2.000
 7204.00    0.51699   0.65877   -2.000
 7205.00    0.51875   0.65860   -2.000
 7206.00    0.54121   0.65839   -2.000
 7207.00    0.57845   0.65827   -2.000
 7208.00    0.60773   0.65822   -2.000
 7209.00    0.62707   0.65853   -2.000
 7210.00    0.65139   0.65866   -2.000
 7211.00    0.65865   0.65912   -2.000
 7212.00    0.60278   0.65946   -2.000
 7213.00    0.50179   0.66014   -2.000
 7214.00    0.42759   0.66106   -2.000
 7215.00    0.40733   0.66178   -2.000
 7216.00    0.42130   0.66276   -2.000
 7217.00    0.46634   0.66339   -2.000
 7218.00    0.55039   0.66413   -2.000
