###################################################################
## OUTPUT of StarlightChains_v04.for    [Cid@UFSC - 01/Apr/2007] ##
###################################################################

## Some input info
2005au.txt                               [arq_obs]
Base.CB07.vall.4m                        [arq_base]
Masks.EmLines.NEW.gm                     [arq_masks]
StCv04.C11.config                        [arq_config]
   66                                    [N_base]
    0                                    [N_YAV_components = # of components with extra extinction!]
    0                                    [i_FitPowerLaw (1/0 = Yes/No)]
-9.99                                    [alpha_PowerLaw]
CCM                                      [red_law_option]
 1.458241                                [q_norm = A(l_norm)/A(V)]

## (Re)Sampling Parameters
 3741.00                                 [l_ini (A)]
 7218.00                                 [l_fin (A)]
    1.00                                 [dl    (A)]     (OBS: dl_cushion =    50.00 A)

## Normalization info
 4020.00                                 [l_norm (A) - for base]
 4010.00                                 [llow_norm (A) - window for f_obs]
 4060.00                                 [lupp_norm (A) - window for f_obs]
9.209440E-17                             [fobs_norm (in input units)]

## S/N
 3691.00                                 [llow_SN (A) - window for S/N]
 7268.00                                 [lupp_SN (A) - window for S/N]
   6.376                                 [S/N in S/N window]
   8.434                                 [S/N in norm. window]
  20.185                                 [S/N_err in S/N window]
  26.699                                 [S/N_err in norm. window]
  1.0000                                 [fscale_chi2]

## etc...
    -2007295                             [idum_orig]
  2385                                   [NOl_eff]
  2382                                   [Nl_eff]
     3    NSIGMA                         [Ntot_cliped & clip_method]
  1542520                                [Nglobal_steps]
   7                                     [N_chains]
  19                                     [NEX0s_base = N_base in EX0s-fits]
 0   0   1        0   2.0   4.618E+01    [Clip-Bug, RC-Crash & Burn-In warning-flags, n_censored_weights, wei_nsig_threshold & wei_limit]
    16     16.276     15.751      0.525  [idt_all, wdt_TotTime, wdt_UsrTime & wdt_SysTime (sec)]

## Synthesis Results - Best model ##

 4.35987E-01                             [chi2/Nl_eff]
     2.52372                             [adev (%)]

   100.77673                             [sum-of-x (%)]
 2.20380E-16                             [Flux_tot (units of input spectrum!)]
 1.75071E-13                             [Mini_tot (???)]
 1.10835E-13                             [Mcor_tot (???)]

-139.16                                  [v0_min  (km/s)]
 189.06                                  [vd_min  (km/s)]
 0.6439                                  [AV_min  (mag)]
 0.0000                                  [YAV_min (mag)]

# j     x_j(%)      Mini_j(%)     Mcor_j(%)     age_j(yr)     Z_j      (L/M)_j    YAV?  Mstars   component_j        a/Fe...       SSP_chi2r SSP_adev(%)   SSP_AV   SSP_x(%)
  1      0.0000     0.0000E+00    0.0000E+00    1.000000E+06  0.00400  1.094E-02    0   1.0000   age020_m42            0.0000     1.1449E+00     4.0249   2.3496    89.0742
  2      0.0000     0.0000E+00    0.0000E+00    3.160000E+06  0.00400  4.007E-02    0   0.9999   age045_m42            0.0000     8.0019E-01     3.2985   1.6475    94.2017
  3      0.0000     0.0000E+00    0.0000E+00    5.010000E+06  0.00400  2.539E-02    0   0.9488   age055_m42            0.0000     8.8130E-01     3.4564   1.9563    92.3504
  4      0.0000     0.0000E+00    0.0000E+00    6.610000E+06  0.00400  2.620E-02    0   0.9220   age061_m42            0.0000     7.3686E-01     3.2004   1.5727    94.4898
  5      0.0011     9.9368E-05    1.3910E-04    1.000000E+07  0.00400  1.322E-02    0   0.8862   age070_m42            0.0000     5.8417E-01     2.9314   1.2652    97.7592
  6      0.0000     0.0000E+00    0.0000E+00    1.445000E+07  0.00400  7.883E-03    0   0.8571   age078_m42            0.0000     6.4130E-01     3.0598   1.5896    95.3826
  7      0.0000     0.0000E+00    0.0000E+00    2.512000E+07  0.00400  5.251E-03    0   0.8174   age090_m42            0.0000     6.1869E-01     3.0458   1.1323    98.4701
  8      0.0000     0.0000E+00    0.0000E+00    4.000000E+07  0.00400  3.649E-03    0   0.7851   age104_m42            0.0000     5.8187E-01     2.9585   0.9098    99.0487
  9      0.0000     0.0000E+00    0.0000E+00    5.500000E+07  0.00400  3.098E-03    0   0.7629   age110_m42            0.0000     6.0525E-01     3.0293   1.0792    98.2967
 10      0.0000     0.0000E+00    0.0000E+00    1.015200E+08  0.00400  2.228E-03    0   0.7207   age116_m42            0.0000     6.7315E-01     3.2211   1.1100    97.9884
 11      0.0000     0.0000E+00    0.0000E+00    2.861200E+08  0.00400  1.093E-03    0   0.6648   age125_m42            0.0000     7.5505E-01     3.4502   0.5372   101.1532
 12      0.0045     8.5988E-03    8.6452E-03    5.088000E+08  0.00400  6.597E-04    0   0.6365   age130_m42            0.0000     8.1564E-01     3.5859   0.5431   101.2004
 13      0.0000     0.0000E+00    0.0000E+00    1.434000E+09  0.00400  2.132E-04    0   0.5798   age139_m42            0.0000     9.0481E-01     3.8051  -0.4166   102.5923
 14      0.0000     0.0000E+00    0.0000E+00    4.250000E+09  0.00400  5.895E-05    0   0.5377   age158_m42            0.0000     1.2863E+00     4.1657  -0.8429    97.8916
 15      0.0000     0.0000E+00    0.0000E+00    7.500000E+09  0.00400  3.510E-05    0   0.5212   age171_m42            0.0000     1.6608E+00     4.6527  -1.0000    95.9984
 16      0.0000     0.0000E+00    0.0000E+00    1.300000E+10  0.00400  2.005E-05    0   0.5034   age193_m42            0.0000     2.5319E+00     5.7492  -1.0000    89.3356
 17      0.0000     0.0000E+00    0.0000E+00    1.800000E+10  0.00400  1.525E-05    0   0.4967   age213_m42            0.0000     2.6131E+00     5.8826  -1.0000    88.1197
 18      0.0000     0.0000E+00    0.0000E+00    1.000000E+06  0.00800  1.238E-02    0   1.0000   age020_m52            0.0000     1.1469E+00     4.0314   2.3460    89.2455
 19      0.0000     0.0000E+00    0.0000E+00    3.160000E+06  0.00800  3.074E-02    0   0.9966   age045_m52            0.0000     1.1217E+00     3.9862   2.2728    89.8901
 20      0.0000     0.0000E+00    0.0000E+00    5.010000E+06  0.00800  2.668E-02    0   0.9443   age055_m52            0.0000     8.9754E-01     3.5123   2.0349    91.6950
 21     65.8019     3.8480E+00    5.5779E+00    6.610000E+06  0.00800  2.136E-02    0   0.9177   age061_m52            0.0000     4.6697E-01     2.6510   0.7633    98.9145
 22      0.0000     0.0000E+00    0.0000E+00    1.000000E+07  0.00800  1.215E-02    0   0.8827   age070_m52            0.0000     6.4188E-01     3.1156   1.4338    98.0549
 23      0.0000     0.0000E+00    0.0000E+00    1.445000E+07  0.00800  8.717E-03    0   0.8552   age078_m52            0.0000     6.0065E-01     2.9625   1.5557    96.6752
 24      0.0000     0.0000E+00    0.0000E+00    2.512000E+07  0.00800  5.592E-03    0   0.8162   age090_m52            0.0000     6.2417E-01     3.0566   1.1953    99.6785
 25      0.0000     0.0000E+00    0.0000E+00    4.000000E+07  0.00800  3.896E-03    0   0.7841   age104_m52            0.0000     6.1226E-01     3.0412   1.1176    99.9740
 26      0.0000     0.0000E+00    0.0000E+00    1.015200E+08  0.00800  2.148E-03    0   0.7226   age116_m52            0.0000     6.1567E-01     3.0809   1.0721    99.0348
 27      0.0000     0.0000E+00    0.0000E+00    2.861200E+08  0.00800  9.925E-04    0   0.6683   age125_m52            0.0000     8.0762E-01     3.5645   0.6071   102.1709
 28      0.0000     0.0000E+00    0.0000E+00    9.047900E+08  0.00800  3.141E-04    0   0.6138   age135_m52            0.0000     1.2137E+00     4.2471  -0.1622   104.9228
 29      0.0009     6.2893E-03    5.8146E-03    1.434000E+09  0.00800  1.719E-04    0   0.5853   age139_m52            0.0000     1.2618E+00     4.2978  -0.7453   102.8669
 30      0.0000     0.0000E+00    0.0000E+00    2.500000E+09  0.00800  7.872E-05    0   0.5600   age150_m52            0.0000     1.7968E+00     4.9874  -0.9926    99.1005
 31      0.0000     0.0000E+00    0.0000E+00    4.250000E+09  0.00800  4.336E-05    0   0.5426   age158_m52            0.0000     1.8967E+00     5.0229  -1.0000    97.8596
 32      0.0000     0.0000E+00    0.0000E+00    6.250000E+09  0.00800  3.159E-05    0   0.5319   age166_m52            0.0000     3.0581E+00     6.4209  -1.0000    90.1673
 33      0.0000     0.0000E+00    0.0000E+00    1.300000E+10  0.00800  1.361E-05    0   0.5073   age193_m52            0.0000     9.1471E+00    12.2252  -1.0000    73.2826
 34      0.0000     0.0000E+00    0.0000E+00    1.800000E+10  0.00800  9.886E-06    0   0.4990   age213_m52            0.0000     1.1313E+01    13.6185  -1.0000    69.4773
 35      1.4351     1.1610E-01    1.8339E-01    1.000000E+06  0.02000  1.544E-02    0   1.0000   age020_m62            0.0000     1.1598E+00     4.0671   2.3423    89.4432
 36      2.3271     7.7267E-02    1.2032E-01    3.160000E+06  0.02000  3.762E-02    0   0.9858   age045_m62            0.0000     1.1526E+00     4.0584   2.2824    90.1749
 37      0.0000     0.0000E+00    0.0000E+00    5.010000E+06  0.02000  3.296E-02    0   0.9342   age055_m62            0.0000     8.5083E-01     3.3974   1.9230    93.2058
 38      0.0099     1.0738E-03    1.5029E-03    8.710000E+06  0.02000  1.154E-02    0   0.8861   age067_m62            0.0000     1.9410E+00     5.7110   0.8289   103.7080
 39      0.0000     0.0000E+00    0.0000E+00    1.445000E+07  0.02000  7.663E-03    0   0.8472   age078_m62            0.0000     8.2924E-01     3.5716   1.0646   101.0917
 40      0.0000     0.0000E+00    0.0000E+00    2.512000E+07  0.02000  4.532E-03    0   0.8099   age090_m62            0.0000     9.7608E-01     3.8811   1.0566   100.8494
 41      0.0000     0.0000E+00    0.0000E+00    5.500000E+07  0.02000  2.733E-03    0   0.7595   age110_m62            0.0000     5.8516E-01     2.9753   1.0981    99.3484
 42      0.0000     0.0000E+00    0.0000E+00    1.609000E+08  0.02000  1.369E-03    0   0.6985   age120_m62            0.0000     6.9982E-01     3.2957   0.9601   100.9609
 43      0.0000     0.0000E+00    0.0000E+00    2.861200E+08  0.02000  9.013E-04    0   0.6714   age125_m62            0.0000     8.8691E-01     3.6768   0.7226   103.2129
 44      7.6182     1.8926E+01    1.9279E+01    5.088000E+08  0.02000  5.028E-04    0   0.6449   age130_m62            0.0000     1.1989E+00     4.2714   0.3715   104.6135
 45      0.0009     4.6619E-03    4.5501E-03    9.047900E+08  0.02000  2.428E-04    0   0.6179   age135_m62            0.0000     1.3820E+00     4.4107  -0.2034   103.4013
 46      0.0000     0.0000E+00    0.0000E+00    1.434000E+09  0.02000  1.263E-04    0   0.5908   age139_m62            0.0000     1.6941E+00     4.8039  -0.6441   101.6747
 47      0.0000     0.0000E+00    0.0000E+00    2.500000E+09  0.02000  5.985E-05    0   0.5673   age150_m62            0.0000     2.4040E+00     5.7611  -0.9926    99.4362
 48      0.4054     1.5482E+01    1.3372E+01    4.250000E+09  0.02000  3.271E-05    0   0.5468   age158_m62            0.0000     4.5154E+00     7.9146  -1.0000    87.3231
 49      0.0000     0.0000E+00    0.0000E+00    1.000000E+10  0.02000  1.360E-05    0   0.5167   age181_m62            0.0000     9.5444E+00    12.1183  -1.0000    74.8538
 50      0.0000     0.0000E+00    0.0000E+00    1.800000E+10  0.02000  7.124E-06    0   0.5013   age213_m62            0.0000     1.3638E+01    14.7719  -1.0000    67.6076
 51      2.3121     1.1142E-01    1.7596E-01    1.000000E+06  0.05000  2.592E-02    0   0.9998   age020_m72            0.0000     1.2051E+00     4.1798   2.3304    89.5959
 52      0.0000     0.0000E+00    0.0000E+00    3.160000E+06  0.05000  4.845E-02    0   0.9577   age045_m72            0.0000     1.0785E+00     3.8608   2.1751    90.9688
 53      0.0000     0.0000E+00    0.0000E+00    5.010000E+06  0.05000  3.072E-02    0   0.9147   age055_m72            0.0000     8.0344E-01     3.4404   1.6658    96.5174
 54      4.7870     4.1096E-01    5.7624E-01    6.610000E+06  0.05000  1.455E-02    0   0.8877   age061_m72            0.0000     4.0929E+00     8.2012   0.8596   105.6754
 55      0.0000     0.0000E+00    0.0000E+00    1.000000E+07  0.05000  9.074E-03    0   0.8524   age070_m72            0.0000     1.3455E+00     4.1384   1.8544    96.1094
 56      0.0000     0.0000E+00    0.0000E+00    2.512000E+07  0.05000  4.250E-03    0   0.7902   age090_m72            0.0000     9.9062E-01     3.6800   1.5575    97.7144
 57      0.0000     0.0000E+00    0.0000E+00    4.000000E+07  0.05000  3.087E-03    0   0.7618   age104_m72            0.0000     1.0596E+00     3.8270   1.3274    99.4495
 58      0.0000     0.0000E+00    0.0000E+00    1.015200E+08  0.05000  1.700E-03    0   0.7096   age116_m72            0.0000     7.4409E-01     3.4186   1.0930   101.0044
 59      1.8673     3.1588E+00    3.3096E+00    2.861200E+08  0.05000  7.384E-04    0   0.6633   age125_m72            0.0000     1.0303E+00     3.9572   0.6038   103.9450
 60     11.4825     3.7556E+01    3.7800E+01    5.088000E+08  0.05000  3.819E-04    0   0.6372   age130_m72            0.0000     1.2954E+00     4.4306   0.1313   104.5962
 61      2.7227     2.0292E+01    1.9584E+01    9.047900E+08  0.05000  1.676E-04    0   0.6110   age135_m72            0.0000     2.2120E+00     5.6912  -0.5384   101.4401
 62      0.0000     0.0000E+00    0.0000E+00    1.434000E+09  0.05000  8.837E-05    0   0.5874   age139_m72            0.0000     2.6794E+00     6.0970  -0.9900   100.7114
 63      0.0000     0.0000E+00    0.0000E+00    2.500000E+09  0.05000  4.233E-05    0   0.5598   age150_m72            0.0000     4.8350E+00     8.1794  -1.0000    88.0024
 64      0.0000     0.0000E+00    0.0000E+00    6.250000E+09  0.05000  1.435E-05    0   0.5249   age166_m72            0.0000     1.1330E+01    13.3996  -1.0000    71.3919
 65      0.0000     0.0000E+00    0.0000E+00    1.300000E+10  0.05000  6.513E-06    0   0.5036   age193_m72            0.0000     1.7314E+01    16.8339  -1.0000    63.4557
 66      0.0000     0.0000E+00    0.0000E+00    1.800000E+10  0.05000  4.527E-06    0   0.4945   age213_m72            0.0000     2.1178E+01    18.7176  -1.0000    58.7601


## Synthesis Results - Average & Chains ##

# j      x_j: min, <> & last-chain-values for 1 ...  7 chains
  1      0.0000      0.2289      0.0173      0.5774      0.0000      0.5888      0.0000      0.0000      0.0000
  2      0.0000      0.3376      0.0000      0.0000      0.0000      0.0000      0.0000      0.0000      0.3084
  3      0.0000      0.1953      0.0000      0.0000      0.0000      0.0000      0.0000      0.0000      0.4657
  4      0.0000      0.3970      0.7321      0.7941      0.0000      0.0000      0.0000      1.6151      0.0000
  5      0.0011      0.4708      0.8685      0.0000      0.0000      0.0000      0.2745      0.0000      0.4088
  6      0.0000      0.3066      0.0000      0.3777      0.0000      0.0000      0.0000      0.0000      0.2758
  7      0.0000      0.4106      0.0000      0.0000      0.1052      0.0000      0.0000      0.0600      0.0000
  8      0.0000      0.6105      0.0617      0.0000      0.3210      0.0000      0.1232      0.0000      0.4050
  9      0.0000      0.5126      0.0000      0.0000      0.0000      0.0000      0.0189      0.0000      0.0000
 10      0.0000      0.4369      0.0000      0.0000      0.0000      0.3974      0.0000      0.0000      0.0000
 11      0.0000      0.6804      0.0000      0.0000      0.0000      0.1695      0.5945      0.0000      0.0000
 12      0.0045      1.1415      0.5248      0.0000      0.0000      0.8137      0.0000      0.0000      1.6694
 13      0.0000      0.2704      0.3208      0.0000      1.3199      0.0000      1.0247      0.0000      0.0000
 14      0.0000      0.0591      0.0000      0.2402      0.0000      0.0000      0.0000      0.0000      0.0000
 15      0.0000      0.0175      0.0000      0.0000      0.0000      0.0000      0.0000      0.0000      0.0000
 16      0.0000      0.0549      0.0000      0.0000      0.0000      0.0000      0.0465      0.0000      0.0044
 17      0.0000      0.0462      0.0000      0.0000      0.0000      0.0000      0.0000      0.0000      0.0196
 18      0.0000      0.1628      0.0122      0.0000      0.4390      0.0266      0.0000      0.0000      0.0000
 19      0.0000      0.1974      0.0000      1.4122      0.4880      0.6416      0.0000      0.0499      0.0000
 20      0.0000      0.1569      0.0000      0.2147      0.0000      0.0000      0.0000      0.0000      0.0000
 21     65.8019     59.0417     64.1651     60.4700     66.1764     62.0064     65.1621     62.0995     60.5030
 22      0.0000      0.2464      1.3680      1.7887      0.7614      0.0000      0.0000      0.1907      0.4371
 23      0.0000      0.1875      0.0000      0.0000      0.0000      0.0000      0.0000      0.0000      0.0000
 24      0.0000      0.4242      0.1209      0.0000      0.0000      0.0000      0.1909      0.1517      0.0000
 25      0.0000      0.3492      0.4848      0.0000      0.0000      0.0000      1.6554      0.0000      0.0000
 26      0.0000      0.3395      0.0000      0.0000      0.3373      0.0000      0.0000      0.0000      0.0000
 27      0.0000      0.9101      0.0000      0.0000      0.0000      0.0000      0.0000      1.6652      0.0758
 28      0.0000      1.0612      0.0000      0.0000      1.0614      1.2582      0.0000      0.0000      0.3429
 29      0.0009      0.1224      0.0000      0.0627      0.5421      0.0000      0.0000      0.0000      0.4872
 30      0.0000      0.0346      0.0000      0.0000      0.0000      0.0000      0.0000      0.0000      0.0000
 31      0.0000      0.0238      0.0000      0.0000      0.0000      0.0000      0.0000      0.0000      0.0000
 32      0.0000      0.0419      0.0000      0.0000      0.0000      0.0000      0.0000      0.4396      0.0000
 33      0.0000      0.0141      0.0000      0.0216      0.0000      0.0000      0.0000      0.0560      0.0000
 34      0.0000      0.0078      0.0000      0.0000      0.0000      0.0000      0.0177      0.0000      0.1916
 35      1.4351      3.0191      4.8261      3.4700      2.7888      3.8106      2.8035      3.9100      3.6694
 36      2.3271      1.0760      0.4603      2.2087      0.5615      1.9773      0.8398      2.1071      1.0915
 37      0.0000      0.1703      0.0000      0.0000      0.4258      0.0000      0.4954      0.0000      0.0000
 38      0.0099      1.1224      3.6798      0.0000      2.2335      0.9073      2.1470      1.9242      0.6181
 39      0.0000      0.8252      0.0000      2.8966      0.0000      2.1475      0.0000      1.5809      0.0000
 40      0.0000      0.4758      0.0000      0.0000      0.0000      0.0000      0.0000      0.0000      0.0000
 41      0.0000      0.4308      0.0000      0.2117      0.0000      0.0000      0.0000      0.0000      0.0000
 42      0.0000      0.4155      0.2653      0.0000      0.0000      0.0000      1.2107      0.0000      0.0000
 43      0.0000      0.7180      0.0000      0.7563      0.0000      0.0781      0.0000      0.0000      0.0000
 44      7.6182      3.8417      4.2460      4.3777      7.3221      5.0633      2.7965      0.6871      9.1724
 45      0.0009      2.7313      2.6025      4.3616      2.1291      3.2779      1.6450      2.0000      2.3075
 46      0.0000      0.1425      0.0000      0.6365      0.0000      0.0000      0.0000      0.0000      0.0000
 47      0.0000      0.0405      0.3174      0.0511      0.0000      0.0000      0.0000      0.0000      0.0000
 48      0.4054      0.1037      0.0000      0.0000      0.0000      0.0000      0.0000      0.0000      0.6555
 49      0.0000      0.0382      0.0000      0.0000      0.0000      0.0000      0.0000      0.2925      0.0000
 50      0.0000      0.0092      0.0000      0.0000      0.0000      0.0000      0.0000      0.0000      0.0000
 51      2.3121      0.5639      0.0000      0.0000      0.0000      0.6901      0.0000      0.0000      2.9492
 52      0.0000      0.2007      0.0132      0.1753      0.1665      0.0000      0.0000      1.0452      0.1569
 53      0.0000      0.3160      0.0000      0.0000      0.2930      0.9703      0.0000      0.0000      0.2849
 54      4.7870      0.8146      0.0000      0.6437      1.1750      1.0219      1.8263      0.0000      2.3335
 55      0.0000      0.2412      0.0000      0.7283      0.0000      0.0000      0.0000      0.0000      0.0000
 56      0.0000      0.2482      0.3525      0.1414      0.0000      0.0000      0.0000      0.0000      0.1728
 57      0.0000      0.2580      0.0000      0.0000      0.0000      0.0000      0.4789      0.0000      0.0000
 58      0.0000      0.2796      0.1750      0.0000      0.0000      0.1728      0.3626      0.0000      0.0000
 59      1.8673      1.9877      3.0639      2.9266      3.5850      1.0908      4.5573      9.5891      1.3203
 60     11.4825      9.0507      9.3630      9.0337      7.1889     11.0695     10.5961      8.9811      8.6569
 61      2.7227      1.5211      1.6142      1.1644      1.2935      1.3962      1.6841      1.2114      1.5175
 62      0.0000      0.1287      0.2198      0.0000      0.0000      0.0000      0.0385      0.5697      0.0000
 63      0.0000      0.3275      0.5165      0.6019      0.0000      1.0108      0.2054      0.0000      0.3112
 64      0.0000      0.0331      0.0000      0.0833      0.0000      0.0000      0.0000      0.1946      0.0000
 65      0.0000      0.1006      0.3576      0.3545      0.0000      0.0000      0.0991      0.3299      0.0000
 66      0.0000      0.0138      0.0000      0.0000      0.0000      0.0000      0.0000      0.0000      0.0000

# j      m_j: min, <> & last-chain-values for 1 ...  7 chains
  1  0.0000E+00  2.9385E-02  1.9562E-03  5.9964E-02  0.0000E+00  8.9988E-02  0.0000E+00  0.0000E+00  0.0000E+00
  2  0.0000E+00  1.1833E-02  0.0000E+00  0.0000E+00  0.0000E+00  0.0000E+00  0.0000E+00  0.0000E+00  1.0735E-02
  3  0.0000E+00  1.0251E-02  0.0000E+00  0.0000E+00  0.0000E+00  0.0000E+00  0.0000E+00  0.0000E+00  2.4271E-02
  4  0.0000E+00  1.9619E-02  3.1962E-02  3.1753E-02  0.0000E+00  0.0000E+00  0.0000E+00  5.9487E-02  0.0000E+00
  5  1.3910E-04  4.4320E-02  7.2222E-02  0.0000E+00  0.0000E+00  0.0000E+00  3.2795E-02  0.0000E+00  3.8219E-02
  6  0.0000E+00  4.6811E-02  0.0000E+00  4.6657E-02  0.0000E+00  0.0000E+00  0.0000E+00  0.0000E+00  4.1828E-02
  7  0.0000E+00  8.9755E-02  0.0000E+00  0.0000E+00  3.5693E-02  0.0000E+00  0.0000E+00  9.7768E-03  0.0000E+00
  8  0.0000E+00  1.8447E-01  1.6474E-02  0.0000E+00  1.5057E-01  0.0000E+00  4.7231E-02  0.0000E+00  1.2153E-01
  9  0.0000E+00  1.7727E-01  0.0000E+00  0.0000E+00  0.0000E+00  0.0000E+00  8.2874E-03  0.0000E+00  0.0000E+00
 10  0.0000E+00  1.9849E-01  0.0000E+00  0.0000E+00  0.0000E+00  2.1494E-01  0.0000E+00  0.0000E+00  0.0000E+00
 11  0.0000E+00  5.8121E-01  0.0000E+00  0.0000E+00  0.0000E+00  1.7236E-01  6.4434E-01  0.0000E+00  0.0000E+00
 12  8.6452E-03  1.5467E+00  6.2818E-01  0.0000E+00  0.0000E+00  1.3126E+00  0.0000E+00  0.0000E+00  2.2465E+00
 13  0.0000E+00  1.0327E+00  1.0822E+00  0.0000E+00  7.8266E+00  0.0000E+00  4.9654E+00  0.0000E+00  0.0000E+00
 14  0.0000E+00  7.5690E-01  0.0000E+00  2.4890E+00  0.0000E+00  0.0000E+00  0.0000E+00  0.0000E+00  0.0000E+00
 15  0.0000E+00  3.6448E-01  0.0000E+00  0.0000E+00  0.0000E+00  0.0000E+00  0.0000E+00  0.0000E+00  0.0000E+00
 16  0.0000E+00  1.9351E+00  0.0000E+00  0.0000E+00  0.0000E+00  0.0000E+00  2.0807E+00  0.0000E+00  1.5426E-01
 17  0.0000E+00  2.1130E+00  0.0000E+00  0.0000E+00  0.0000E+00  0.0000E+00  0.0000E+00  0.0000E+00  8.8829E-01
 18  0.0000E+00  1.8465E-02  1.2186E-03  0.0000E+00  7.7319E-02  3.5888E-03  0.0000E+00  0.0000E+00  0.0000E+00
 19  0.0000E+00  8.9854E-03  0.0000E+00  5.2021E-02  3.4501E-02  3.4777E-02  0.0000E+00  1.6932E-03  0.0000E+00
 20  0.0000E+00  7.8012E-03  0.0000E+00  8.6331E-03  0.0000E+00  0.0000E+00  0.0000E+00  0.0000E+00  0.0000E+00
 21  5.5779E+00  3.5624E+00  3.4198E+00  2.9519E+00  6.1995E+00  4.4539E+00  4.9887E+00  2.7924E+00  3.6255E+00
 22  0.0000E+00  2.5144E-02  1.2329E-01  1.4766E-01  1.2062E-01  0.0000E+00  0.0000E+00  1.4500E-02  4.4289E-02
 23  0.0000E+00  2.5835E-02  0.0000E+00  0.0000E+00  0.0000E+00  0.0000E+00  0.0000E+00  0.0000E+00  0.0000E+00
 24  0.0000E+00  8.6957E-02  2.1883E-02  0.0000E+00  0.0000E+00  0.0000E+00  4.9658E-02  2.3177E-02  0.0000E+00
 25  0.0000E+00  9.8709E-02  1.2104E-01  0.0000E+00  0.0000E+00  0.0000E+00  5.9368E-01  0.0000E+00  0.0000E+00
 26  0.0000E+00  1.6038E-01  0.0000E+00  0.0000E+00  2.4746E-01  0.0000E+00  0.0000E+00  0.0000E+00  0.0000E+00
 27  0.0000E+00  8.6059E-01  0.0000E+00  0.0000E+00  0.0000E+00  0.0000E+00  0.0000E+00  1.1735E+00  7.1216E-02
 28  0.0000E+00  2.9124E+00  0.0000E+00  0.0000E+00  4.5227E+00  4.1107E+00  0.0000E+00  0.0000E+00  9.3459E-01
 29  5.8146E-03  5.8539E-01  0.0000E+00  2.4242E-01  4.0250E+00  0.0000E+00  0.0000E+00  0.0000E+00  2.3138E+00
 30  0.0000E+00  3.4611E-01  0.0000E+00  0.0000E+00  0.0000E+00  0.0000E+00  0.0000E+00  0.0000E+00  0.0000E+00
 31  0.0000E+00  4.1857E-01  0.0000E+00  0.0000E+00  0.0000E+00  0.0000E+00  0.0000E+00  0.0000E+00  0.0000E+00
 32  0.0000E+00  9.9151E-01  0.0000E+00  0.0000E+00  0.0000E+00  0.0000E+00  0.0000E+00  7.7475E+00  0.0000E+00
 33  0.0000E+00  7.3835E-01  0.0000E+00  9.1297E-01  0.0000E+00  0.0000E+00  0.0000E+00  2.1845E+00  0.0000E+00
 34  0.0000E+00  5.5554E-01  0.0000E+00  0.0000E+00  0.0000E+00  0.0000E+00  1.5901E+00  0.0000E+00  1.3491E+01
 35  1.8339E-01  2.7460E-01  3.8776E-01  2.5536E-01  3.9385E-01  4.1261E-01  3.2356E-01  2.6505E-01  3.3146E-01
 36  1.2032E-01  3.9598E-02  1.4964E-02  6.5760E-02  3.2084E-02  8.6624E-02  3.9212E-02  5.7789E-02  3.9891E-02
 37  0.0000E+00  6.7768E-03  0.0000E+00  0.0000E+00  2.6317E-02  0.0000E+00  2.5020E-02  0.0000E+00  0.0000E+00
 38  1.5029E-03  1.2103E-01  3.5052E-01  0.0000E+00  3.7395E-01  1.1647E-01  2.9377E-01  1.5464E-01  6.6196E-02
 39  0.0000E+00  1.2812E-01  0.0000E+00  3.6387E-01  0.0000E+00  3.9693E-01  0.0000E+00  1.8293E-01  0.0000E+00
 40  0.0000E+00  1.1941E-01  0.0000E+00  0.0000E+00  0.0000E+00  0.0000E+00  0.0000E+00  0.0000E+00  0.0000E+00
 41  0.0000E+00  1.6814E-01  0.0000E+00  6.6836E-02  0.0000E+00  0.0000E+00  0.0000E+00  0.0000E+00  0.0000E+00
 42  0.0000E+00  2.9776E-01  1.6791E-01  0.0000E+00  0.0000E+00  0.0000E+00  1.1007E+00  0.0000E+00  0.0000E+00
 43  0.0000E+00  7.5115E-01  0.0000E+00  6.4015E-01  0.0000E+00  9.7284E-02  0.0000E+00  0.0000E+00  0.0000E+00
 44  1.9279E+01  6.9199E+00  6.7559E+00  6.3798E+00  2.0478E+01  1.0858E+01  6.3914E+00  9.2240E-01  1.6409E+01
 45  4.5501E-03  9.7617E+00  8.2160E+00  1.2612E+01  1.1815E+01  1.3947E+01  7.4596E+00  5.3270E+00  8.1904E+00
 46  0.0000E+00  9.3609E-01  0.0000E+00  3.3832E+00  0.0000E+00  0.0000E+00  0.0000E+00  0.0000E+00  0.0000E+00
 47  0.0000E+00  5.3913E-01  3.7319E+00  5.4986E-01  0.0000E+00  0.0000E+00  0.0000E+00  0.0000E+00  0.0000E+00
 48  1.3372E+01  2.4354E+00  0.0000E+00  0.0000E+00  0.0000E+00  0.0000E+00  0.0000E+00  0.0000E+00  1.5283E+01
 49  0.0000E+00  2.0377E+00  0.0000E+00  0.0000E+00  0.0000E+00  0.0000E+00  0.0000E+00  1.1631E+01  0.0000E+00
 50  0.0000E+00  9.1242E-01  0.0000E+00  0.0000E+00  0.0000E+00  0.0000E+00  0.0000E+00  0.0000E+00  0.0000E+00
 51  1.7596E-01  3.0549E-02  0.0000E+00  0.0000E+00  0.0000E+00  4.4506E-02  0.0000E+00  0.0000E+00  1.5866E-01
 52  0.0000E+00  5.5702E-03  3.2246E-04  3.9383E-03  7.1780E-03  0.0000E+00  0.0000E+00  2.1623E-02  4.3248E-03
 53  0.0000E+00  1.3214E-02  0.0000E+00  0.0000E+00  1.9021E-02  4.8303E-02  0.0000E+00  0.0000E+00  1.1830E-02
 54  5.7624E-01  6.9796E-02  0.0000E+00  4.4623E-02  1.5631E-01  1.0423E-01  1.9855E-01  0.0000E+00  1.9856E-01
 55  0.0000E+00  3.1817E-02  0.0000E+00  7.7738E-02  0.0000E+00  0.0000E+00  0.0000E+00  0.0000E+00  0.0000E+00
 56  0.0000E+00  6.4799E-02  8.1298E-02  2.9864E-02  0.0000E+00  0.0000E+00  0.0000E+00  0.0000E+00  4.4816E-02
 57  0.0000E+00  8.9399E-02  0.0000E+00  0.0000E+00  0.0000E+00  0.0000E+00  2.1057E-01  0.0000E+00  0.0000E+00
 58  0.0000E+00  1.6388E-01  9.0605E-02  0.0000E+00  0.0000E+00  1.2056E-01  2.6967E-01  0.0000E+00  0.0000E+00
 59  3.3096E+00  2.5075E+00  3.4143E+00  2.9871E+00  7.0221E+00  1.6381E+00  7.2949E+00  9.0155E+00  1.6542E+00
 60  3.7800E+01  2.1207E+01  1.9380E+01  1.7126E+01  2.6154E+01  3.0878E+01  3.1504E+01  1.5684E+01  2.0146E+01
 61  1.9584E+01  7.7876E+00  7.3002E+00  4.8233E+00  1.0282E+01  8.5099E+00  1.0940E+01  4.6222E+00  7.7158E+00
 62  0.0000E+00  1.2015E+00  1.8123E+00  0.0000E+00  0.0000E+00  0.0000E+00  4.5562E-01  3.9635E+00  0.0000E+00
 63  0.0000E+00  6.0820E+00  8.4727E+00  9.0440E+00  0.0000E+00  2.2349E+01  4.8405E+00  0.0000E+00  5.7402E+00
 64  0.0000E+00  1.7024E+00  0.0000E+00  3.4627E+00  0.0000E+00  0.0000E+00  0.0000E+00  7.4517E+00  0.0000E+00
 65  0.0000E+00  1.0925E+01  3.4303E+01  3.1141E+01  0.0000E+00  0.0000E+00  1.3652E+01  2.6695E+01  0.0000E+00
 66  0.0000E+00  2.1231E+00  0.0000E+00  0.0000E+00  0.0000E+00  0.0000E+00  0.0000E+00  0.0000E+00  0.0000E+00

# AV, chi2 & Mass for <> & i_chain = 1 ...  7 solutions
AV       0.6439      0.6359      0.6212      0.6346      0.6365      0.6345      0.6324      0.6340      0.6321
chi2 4.3599E-01  4.4137E-01  4.3925E-01  4.3953E-01  4.3883E-01  4.3834E-01  4.3944E-01  4.3935E-01  4.3817E-01
Mass 1.1083E-13  1.5406E-13  1.7099E-13  1.9009E-13  9.9297E-14  1.2916E-13  1.2084E-13  2.0618E-13  1.5432E-13
-139.16                                  [v0_min (km/s) before EX0s...]
 189.06                                  [vd_min (km/s) before EX0s...]


## Synthetic spectrum (Best Model) ##l_obs f_obs f_syn wei
 3478    [Nl_obs]
 3741.00    0.78141   0.79339    0.000
 3742.00    0.75068   0.77826    0.000
 3743.00    0.71466   0.75504    0.000
 3744.00    0.69808   0.72628    0.000
 3745.00    0.70391   0.69547   10.333
 3746.00    0.72010   0.66747   10.218
 3747.00    0.73662   0.64799   10.299
 3748.00    0.75072   0.64202   10.518
 3749.00    0.76992   0.65172   10.646
 3750.00    0.80135   0.67516   10.518
 3751.00    0.83897   0.70695   10.355
 3752.00    0.86929   0.74018   10.422
 3753.00    0.88004   0.76888   10.698
 3754.00    0.86808   0.78969   11.026
 3755.00    0.84517   0.80240   11.281
 3756.00    0.82449   0.80916   11.365
 3757.00    0.80810   0.81292   11.200
 3758.00    0.79459   0.81571   10.853
 3759.00    0.78595   0.81782   10.570
 3760.00    0.78021   0.81799   10.519
 3761.00    0.76730   0.81421   10.674
 3762.00    0.74574   0.80458   10.882
 3763.00    0.73187   0.78799   10.908
 3764.00    0.73620   0.76463   10.660
 3765.00    0.74963   0.73639   10.317
 3766.00    0.76191   0.70701   10.052
 3767.00    0.77232   0.68169    9.918
 3768.00    0.78105   0.66590    9.972
 3769.00    0.78500   0.66362   10.310
 3770.00    0.78419   0.67582   10.899
 3771.00    0.78375   0.70009   11.442
 3772.00    0.78689   0.73177   11.695
 3773.00    0.79242   0.76592   11.715
 3774.00    0.79955   0.79888   11.591
 3775.00    0.81025   0.82865   11.337
 3776.00    0.82971   0.85455   11.156
 3777.00    0.86396   0.87642   11.372
 3778.00    0.91060   0.89411   11.896
 3779.00    0.95823   0.90724   12.146
 3780.00    0.99613   0.91539   11.971
 3781.00    1.01748   0.91824   11.845
 3782.00    1.01828   0.91585   11.968
 3783.00    0.99804   0.90875   12.148
 3784.00    0.96239   0.89795   12.160
 3785.00    0.92173   0.88478   11.950
 3786.00    0.88553   0.87031   11.812
 3787.00    0.85929   0.85488   12.108
 3788.00    0.84110   0.83786   12.616
 3789.00    0.82341   0.81787   12.701
 3790.00    0.79905   0.79335   12.483
 3791.00    0.76447   0.76342   12.595
 3792.00    0.72332   0.72873   13.055
 3793.00    0.68291   0.69215   13.404
 3794.00    0.64638   0.65878   13.452
 3795.00    0.61616   0.63495   13.372
 3796.00    0.60213   0.62625   13.390
 3797.00    0.61365   0.63534   13.605
 3798.00    0.64523   0.66073   13.819
 3799.00    0.68315   0.69718   13.786
 3800.00    0.71863   0.73770   13.676
 3801.00    0.75036   0.77604   13.730
 3802.00    0.78467   0.80838   13.754
 3803.00    0.82494   0.83391   13.521
 3804.00    0.85970   0.85406   13.304
 3805.00    0.87951   0.87108   13.372
 3806.00    0.89609   0.88647   13.479
 3807.00    0.92113   0.90011   13.343
 3808.00    0.94364   0.91057   13.202
 3809.00    0.94889   0.91622   13.302
 3810.00    0.93814   0.91641   13.445
 3811.00    0.92053   0.91189   13.412
 3812.00    0.90367   0.90431   13.379
 3813.00    0.88949   0.89520   13.538
 3814.00    0.87287   0.88529   13.745
 3815.00    0.85270   0.87472   13.375
 3816.00    0.83828   0.86402   11.802
 3817.00    0.83450   0.85461   10.163
 3818.00    0.83324   0.84834   10.105
 3819.00    0.82842   0.84598   12.141
 3820.00    0.82397   0.84627   14.605
 3821.00    0.82120   0.84633   14.472
 3822.00    0.81341   0.84340   13.667
 3823.00    0.79838   0.83610   13.991
 3824.00    0.78297   0.82455   14.663
 3825.00    0.77046   0.80934   14.762
 3826.00    0.75678   0.79049   14.522
 3827.00    0.74269   0.76728   14.373
 3828.00    0.73581   0.73882   14.406
 3829.00    0.73521   0.70520   14.521
 3830.00    0.72991   0.66838   14.525
 3831.00    0.71810   0.63252   14.305
 3832.00    0.70823   0.60323   13.931
 3833.00    0.69640   0.58592   13.680
 3834.00    0.66822   0.58397   13.868
 3835.00    0.63057   0.59766   14.382
 3836.00    0.61029   0.62429   14.683
 3837.00    0.61952   0.65951   14.557
 3838.00    0.65041   0.69866   14.267
 3839.00    0.68987   0.73783   13.934
 3840.00    0.72703   0.77415   13.510
 3841.00    0.76108   0.80579   13.094
 3842.00    0.79678   0.83192   12.904
 3843.00    0.83009   0.85253   13.167
 3844.00    0.85230   0.86823   14.015
 3845.00    0.86545   0.87996   15.068
 3846.00    0.87961   0.88877   15.516
 3847.00    0.90108   0.89568    0.000
 3848.00    0.92898   0.90151    0.000
 3849.00    0.95366   0.90662    0.000
 3850.00    0.96426   0.91081    0.000
 3851.00    0.96120   0.91354    0.000
 3852.00    0.95303   0.91448    0.000
 3853.00    0.94846   0.91380    0.000
 3854.00    0.95115   0.91220    0.000
 3855.00    0.95489   0.91057    0.000
 3856.00    0.95323   0.90972    0.000
 3857.00    0.95174   0.91028    0.000
 3858.00    0.95719   0.91249    0.000
 3859.00    0.96390   0.91607    0.000
 3860.00    0.96369   0.92013    0.000
 3861.00    0.95783   0.92346    0.000
 3862.00    0.95245   0.92514    0.000
 3863.00    0.95256   0.92485    0.000
 3864.00    0.96028   0.92288    0.000
 3865.00    0.97353   0.91961    0.000
 3866.00    0.98505   0.91517    0.000
 3867.00    0.98293   0.90950    0.000
 3868.00    0.96110   0.90276    0.000
 3869.00    0.92647   0.89578    0.000
 3870.00    0.89131   0.88977    0.000
 3871.00    0.86651   0.88549    0.000
 3872.00    0.85571   0.88254    0.000
 3873.00    0.85314   0.87942    0.000
 3874.00    0.85223   0.87447    0.000
 3875.00    0.85052   0.86680    0.000
 3876.00    0.84761   0.85654    0.000
 3877.00    0.84347   0.84422    0.000
 3878.00    0.83707   0.83005    0.000
 3879.00    0.82602   0.81350    0.000
 3880.00    0.80854   0.79356    0.000
 3881.00    0.78605   0.76908   17.161
 3882.00    0.76983   0.73946   17.600
 3883.00    0.77730   0.70537   17.882
 3884.00    0.80692   0.66951   17.599
 3885.00    0.83527   0.63680   -1.000
 3886.00    0.84318   0.61341   -1.000
 3887.00    0.82481   0.60467   -1.000
 3888.00    0.78514   0.61294   18.069
 3889.00    0.73802   0.63648   18.889
 3890.00    0.70313   0.67023   18.299
 3891.00    0.69818   0.70795   17.923
 3892.00    0.72033   0.74439   18.284
 3893.00    0.75041   0.77647   18.718
 3894.00    0.77679   0.80323   18.718
 3895.00    0.79828   0.82508   18.337
 3896.00    0.81608   0.84301   17.995
 3897.00    0.83140   0.85806   18.081
 3898.00    0.84471   0.87097   18.459
 3899.00    0.85560   0.88196   18.603
 3900.00    0.86283   0.89092   18.179
 3901.00    0.86604   0.89789   17.353
 3902.00    0.86862   0.90343   16.791
 3903.00    0.87494   0.90870   16.966
 3904.00    0.88492   0.91496   17.441
 3905.00    0.89616   0.92283   17.413
 3906.00    0.90840   0.93187   16.988
 3907.00    0.92151   0.94082   16.734
 3908.00    0.93192   0.94819   16.736
 3909.00    0.93673   0.95299   16.850
 3910.00    0.93939   0.95497   17.072
 3911.00    0.94411   0.95452   17.364
 3912.00    0.94883   0.95217   17.396
 3913.00    0.95085   0.94833   17.040
 3914.00    0.95350   0.94319   16.865
 3915.00    0.95957   0.93696   17.271
 3916.00    0.96472   0.93021   17.751
 3917.00    0.96565   0.92386   17.659
 3918.00    0.96721   0.91888   17.220
 3919.00    0.97203   0.91561   16.995
 3920.00    0.97231   0.91344   17.313
 3921.00    0.96204   0.91086   18.086
 3922.00    0.94615   0.90616   18.575
 3923.00    0.93128   0.89816   18.243
 3924.00    0.91912   0.88653   17.592
 3925.00    0.91016   0.87165   17.271
 3926.00    0.90585   0.85408   17.530
 3927.00    0.90449   0.83438   18.112
 3928.00    0.89960   0.81330   18.189
 3929.00    0.88637   0.79245   17.623
 3930.00    0.86526   0.77451   17.392
 3931.00    0.84120   0.76290   17.877
 3932.00    0.82216   0.76054   18.394
 3933.00    0.81512   0.76853   18.349
 3934.00    0.82342   0.78553   17.922
 3935.00    0.84392   0.80822   17.453
 3936.00    0.86834   0.83244   17.124
 3937.00    0.89341   0.85461   17.088
 3938.00    0.92183   0.87244   17.449
 3939.00    0.95015   0.88525   17.882
 3940.00    0.96803   0.89378   17.730
 3941.00    0.97103   0.89957   17.213
 3942.00    0.96281   0.90423   17.234
 3943.00    0.94784   0.90874   17.872
 3944.00    0.92981   0.91319   18.324
 3945.00    0.91408   0.91710   18.054
 3946.00    0.90637   0.91990   17.285
 3947.00    0.90778   0.92130   16.599
 3948.00    0.91546   0.92130   16.444
 3949.00    0.92746   0.92001   16.738
 3950.00    0.94233   0.91756   17.040
 3951.00    0.95589   0.91400   17.071
 3952.00    0.96270   0.90937   16.885
 3953.00    0.96066   0.90362   16.821
 3954.00    0.95039   0.89655   17.197
 3955.00    0.93217   0.88765   17.823
 3956.00    0.90617   0.87600   18.197
 3957.00    0.87379   0.86040   18.228
 3958.00    0.83754   0.83984   18.198
 3959.00    0.80053   0.81392   18.320
 3960.00    0.76500   0.78289    0.000
 3961.00    0.73067   0.74738    0.000
 3962.00    0.69775   0.70808    0.000
 3963.00    0.67110   0.66586    0.000
 3964.00    0.65553   0.62247    0.000
 3965.00    0.64957   0.58120    0.000
 3966.00    0.64778   0.54691    0.000
 3967.00    0.64438   0.52510    0.000
 3968.00    0.63556   0.52009    0.000
 3969.00    0.62159   0.53331    0.000
 3970.00    0.60753   0.56270    0.000
 3971.00    0.60295   0.60346    0.000
 3972.00    0.61476   0.64977    0.000
 3973.00    0.64136   0.69647    0.000
 3974.00    0.67775   0.73995    0.000
 3975.00    0.71989   0.77821    0.000
 3976.00    0.76294   0.81041    0.000
 3977.00    0.80036   0.83639    0.000
 3978.00    0.82839   0.85652    0.000
 3979.00    0.84832   0.87173    0.000
 3980.00    0.86136   0.88351    0.000
 3981.00    0.86627   0.89352   18.142
 3982.00    0.86582   0.90307   18.036
 3983.00    0.86868   0.91275   18.248
 3984.00    0.87899   0.92242   18.368
 3985.00    0.89208   0.93158   18.079
 3986.00    0.90205   0.93973   17.850
 3987.00    0.90597   0.94659   18.588
 3988.00    0.90541   0.95212   18.866
 3989.00    0.90542   0.95623   15.596
 3990.00    0.90847   0.95876   11.963
 3991.00    0.91308   0.95954   10.699
 3992.00    0.91846   0.95876   10.884
 3993.00    0.92503   0.95715   10.587
 3994.00    0.92972   0.95592   10.214
 3995.00    0.92788   0.95623   12.187
 3996.00    0.92425   0.95859   17.436
 3997.00    0.93052   0.96251   16.914
 3998.00    0.94790   0.96660   11.644
 3999.00    0.96659   0.96920    9.731
 4000.00    0.97850   0.96909    9.968
 4001.00    0.98141   0.96610   10.420
 4002.00    0.97983   0.96118   10.289
 4003.00    0.98130   0.95606   10.109
 4004.00    0.98760   0.95246   10.100
 4005.00    0.99559   0.95146   10.073
 4006.00    1.00331   0.95319    9.974
 4007.00    1.00963   0.95711    9.897
 4008.00    1.01142   0.96236    9.886
 4009.00    1.00723   0.96813    9.925
 4010.00    1.00428   0.97378    9.954
 4011.00    1.01115   0.97886    9.909
 4012.00    1.02413   0.98314    9.773
 4013.00    1.03307   0.98654    9.625
 4014.00    1.03319   0.98912    9.660
 4015.00    1.02516   0.99090    9.920
 4016.00    1.01252   0.99166    9.916
 4017.00    1.00000   0.99077    9.526
 4018.00    0.99185   0.98736   10.006
 4019.00    0.99095   0.98071   13.008
 4020.00    0.99799   0.97087   18.873
 4021.00    1.01094   0.95910   21.247
 4022.00    1.02481   0.94770   19.106
 4023.00    1.03543   0.93925   18.149
 4024.00    1.04288   0.93540   18.206
 4025.00    1.04737   0.93602   17.991
 4026.00    1.04577   0.93929   17.990
 4027.00    1.03641   0.94290   18.694
 4028.00    1.02271   0.94545   19.109
 4029.00    1.00860   0.94710   18.476
 4030.00    0.99517   0.94925   17.837
 4031.00    0.98399   0.95345   17.989
 4032.00    0.97887   0.96043   18.586
 4033.00    0.98117   0.96969   19.007
 4034.00    0.98722   0.97972   18.959
 4035.00    0.99278   0.98853   18.566
 4036.00    0.99577   0.99444   18.227
 4037.00    0.99630   0.99654   18.232
 4038.00    0.99629   0.99476   18.628
 4039.00    0.99802   0.98965   19.137
 4040.00    1.00269   0.98207   19.217
 4041.00    1.00755   0.97332   18.994
 4042.00    1.00708   0.96525   19.276
 4043.00    1.00362   0.95990   19.764
 4044.00    1.00740   0.95880   18.916
 4045.00    1.01927   0.96201   17.237
 4046.00    1.02794   0.96797   16.625
 4047.00    1.02472   0.97420   17.341
 4048.00    1.00889   0.97843   18.321
 4049.00    0.98672   0.97941   18.706
 4050.00    0.96808   0.97719   18.614
 4051.00    0.95778   0.97282   18.552
 4052.00    0.95438   0.96775   18.901
 4053.00    0.95436   0.96329   19.434
 4054.00    0.95373   0.96023   19.496
 4055.00    0.94909   0.95868   19.164
 4056.00    0.93845   0.95812   19.092
 4057.00    0.92278   0.95756   19.429
 4058.00    0.90543   0.95603   19.877
 4059.00    0.89042   0.95305   20.217
 4060.00    0.88112   0.94897   20.388
 4061.00    0.87854   0.94487   20.354
 4062.00    0.88191   0.94187   20.141
 4063.00    0.89036   0.94044   19.946
 4064.00    0.90249   0.94014   19.994
 4065.00    0.91516   0.94003   20.314
 4066.00    0.92505   0.93926   20.719
 4067.00    0.93139   0.93752   20.800
 4068.00    0.93551   0.93498   20.316
 4069.00    0.93964   0.93194   19.691
 4070.00    0.94382   0.92852   19.503
 4071.00    0.94262   0.92442   19.994
 4072.00    0.93038   0.91934   20.984
 4073.00    0.90787   0.91366   21.574
 4074.00    0.88204   0.90876   21.106
 4075.00    0.86393   0.90651   20.524
 4076.00    0.85862   0.90814   20.675
 4077.00    0.85678   0.91324   21.015
 4078.00    0.85067   0.91987   20.817
 4079.00    0.84813   0.92546   20.411
 4080.00    0.85534   0.92812   20.273
 4081.00    0.86284   0.92744   20.277
 4082.00    0.86127   0.92435   20.225
 4083.00    0.85361   0.92024   20.237
 4084.00    0.84664   0.91622   20.474
 4085.00    0.84425   0.91266   20.909
 4086.00    0.84785   0.90916   21.184
 4087.00    0.85673   0.90491   20.685
 4088.00    0.86639   0.89903   19.670
 4089.00    0.86841   0.89061   19.282
 4090.00    0.85597   0.87864   19.831
 4091.00    0.82740   0.86227   20.406
 4092.00    0.78759   0.84099    0.000
 4093.00    0.74768   0.81470    0.000
 4094.00    0.72032   0.78375    0.000
 4095.00    0.71591   0.74895    0.000
 4096.00    0.73690   0.71201    0.000
 4097.00    0.77574   0.67611    0.000
 4098.00    0.81656   0.64601    0.000
 4099.00    0.83965   0.62687    0.000
 4100.00    0.83421   0.62263    0.000
 4101.00    0.80267   0.63427    0.000
 4102.00    0.75878   0.65927    0.000
 4103.00    0.72218   0.69246    0.000
 4104.00    0.70447   0.72798    0.000
 4105.00    0.70635   0.76120    0.000
 4106.00    0.72232   0.78967    0.000
 4107.00    0.74452   0.81309    0.000
 4108.00    0.76881   0.83246    0.000
 4109.00    0.79371   0.84904    0.000
 4110.00    0.81411   0.86359    0.000
 4111.00    0.82385   0.87620    0.000
 4112.00    0.82443   0.88644    0.000
 4113.00    0.82306   0.89375   21.998
 4114.00    0.82477   0.89778   21.643
 4115.00    0.83118   0.89892   21.236
 4116.00    0.84137   0.89836   21.016
 4117.00    0.85293   0.89769   20.997
 4118.00    0.86355   0.89841   21.257
 4119.00    0.87190   0.90140   21.810
 4120.00    0.87859   0.90654   22.302
 4121.00    0.88437   0.91272   22.285
 4122.00    0.88752   0.91827   21.861
 4123.00    0.88628   0.92173   21.476
 4124.00    0.88245   0.92246   21.478
 4125.00    0.87919   0.92079   21.935
 4126.00    0.87767   0.91753   22.425
 4127.00    0.87693   0.91374   22.460
 4128.00    0.87446   0.91054   22.153
 4129.00    0.86945   0.90906   21.818
 4130.00    0.86582   0.91021   21.496
 4131.00    0.86829   0.91441   21.235
 4132.00    0.87836   0.92134   21.332
 4133.00    0.89375   0.92986   21.913
 4134.00    0.90901   0.93842   22.551
 4135.00    0.92147   0.94532   22.688
 4136.00    0.93489   0.94892   22.202
 4137.00    0.94954   0.94795   21.444
 4138.00    0.95646   0.94198   20.974
 4139.00    0.95108   0.93203   21.062
 4140.00    0.94084   0.92099   21.525
 4141.00    0.93177   0.91250   21.934
 4142.00    0.92158   0.90907   21.816
 4143.00    0.91137   0.91100   21.332
 4144.00    0.91012   0.91664   21.298
 4145.00    0.92077   0.92335   21.897
 4146.00    0.93502   0.92875   22.295
 4147.00    0.94552   0.93174   22.158
 4148.00    0.95086   0.93230   22.257
 4149.00    0.94994   0.93102   22.828
 4150.00    0.94109   0.92880   23.091
 4151.00    0.92938   0.92658   22.623
 4152.00    0.92590   0.92515   21.908
 4153.00    0.93373   0.92514   21.495
 4154.00    0.94591   0.92694   21.636
 4155.00    0.95738   0.93048   22.028
 4156.00    0.96768   0.93510   21.966
 4157.00    0.97589   0.93991   21.417
 4158.00    0.97948   0.94423   21.028
 4159.00    0.97602   0.94767   21.144
 4160.00    0.96465   0.95001   21.688
 4161.00    0.94867   0.95115   22.245
 4162.00    0.93317   0.95103   22.312
 4163.00    0.91776   0.94961   22.105
 4164.00    0.89974   0.94696   22.214
 4165.00    0.88482   0.94333   22.386
 4166.00    0.88188   0.93879   21.953
 4167.00    0.88705   0.93308   21.317
 4168.00    0.88910   0.92611   21.332
 4169.00    0.88557   0.91853   22.025
 4170.00    0.88121   0.91171   22.779
 4171.00    0.87971   0.90692   22.958
 4172.00    0.88206   0.90462   22.373
 4173.00    0.88662   0.90438   21.606
 4174.00    0.89111   0.90550   21.309
 4175.00    0.89563   0.90750   21.521
 4176.00    0.90135   0.91026   21.935
 4177.00    0.90831   0.91357   22.201
 4178.00    0.91556   0.91695   22.102
 4179.00    0.92185   0.91997   21.738
 4180.00    0.92551   0.92243   21.408
 4181.00    0.92453   0.92409   21.417
 4182.00    0.91831   0.92476   21.886
 4183.00    0.90938   0.92442   22.567
 4184.00    0.90218   0.92349   23.082
 4185.00    0.90138   0.92311   23.276
 4186.00    0.90925   0.92406   23.086
 4187.00    0.92360   0.92637   22.415
 4188.00    0.93931   0.92959   21.501
 4189.00    0.94999   0.93303   20.997
 4190.00    0.95051   0.93554   21.246
 4191.00    0.93910   0.93568   21.994
 4192.00    0.91977   0.93260   22.762
 4193.00    0.90263   0.92673   23.144
 4194.00    0.89466   0.91930   23.022
 4195.00    0.89478   0.91177   22.648
 4196.00    0.89982   0.90570   22.231
 4197.00    0.90816   0.90220   21.776
 4198.00    0.91859   0.90132   21.438
 4199.00    0.92951   0.90274   21.577
 4200.00    0.93844   0.90620   22.206
 4201.00    0.94241   0.91116   22.800
 4202.00    0.94089   0.91700   22.994
 4203.00    0.93637   0.92326   22.938
 4204.00    0.93107   0.92933   22.774
 4205.00    0.92590   0.93452   22.480
 4206.00    0.92237   0.93828   22.296
 4207.00    0.92223   0.94045   22.656
 4208.00    0.92387   0.94122   23.461
 4209.00    0.92258   0.94066   23.977
 4210.00    0.91549   0.93879   23.823
 4211.00    0.90357   0.93583   23.318
 4212.00    0.89254   0.93258   22.886
 4213.00    0.88951   0.93058   22.783
 4214.00    0.89324   0.93120   23.019
 4215.00    0.89665   0.93437   23.409
 4216.00    0.89951   0.93866   23.725
 4217.00    0.90633   0.94217   23.779
 4218.00    0.91399   0.94305   23.527
 4219.00    0.91467   0.93987   23.109
 4220.00    0.90822   0.93228   22.826
 4221.00    0.89973   0.92129   22.951
 4222.00    0.88983   0.90906   23.453
 4223.00    0.87730   0.89848   24.060
 4224.00    0.86695   0.89266   24.482
 4225.00    0.86590   0.89356   24.522
 4226.00    0.87503   0.90045   24.193
 4227.00    0.89023   0.91020   23.707
 4228.00    0.90634   0.91917   23.362
 4229.00    0.91926   0.92477   23.378
 4230.00    0.92774   0.92613   23.731
 4231.00    0.93196   0.92429   24.189
 4232.00    0.93138   0.92101   24.355
 4233.00    0.92667   0.91767   23.981
 4234.00    0.92202   0.91541   23.326
 4235.00    0.92118   0.91498   22.784
 4236.00    0.92319   0.91637   22.508
 4237.00    0.92497   0.91930   22.493
 4238.00    0.92453   0.92335   22.645
 4239.00    0.92207   0.92769   22.836
 4240.00    0.92018   0.93139   22.966
 4241.00    0.91919   0.93381   23.042
 4242.00    0.91413   0.93429   23.226
 4243.00    0.90326   0.93227   23.575
 4244.00    0.89383   0.92804   23.861
 4245.00    0.89273   0.92279   23.918
 4246.00    0.89975   0.91779   23.896
 4247.00    0.90975   0.91384   24.013
 4248.00    0.91551   0.91142   24.337
 4249.00    0.91465   0.91078   24.638
 4250.00    0.91212   0.91142   24.402
 4251.00    0.91068   0.91251   23.634
 4252.00    0.90719   0.91383   23.041
 4253.00    0.90191   0.91530   23.091
 4254.00    0.90116   0.91634   23.757
 4255.00    0.90682   0.91610   24.559
 4256.00    0.91292   0.91454   24.655
 4257.00    0.91369   0.91276   24.028
 4258.00    0.90769   0.91238   23.601
 4259.00    0.89973   0.91464   23.669
 4260.00    0.89895   0.91937   23.737
 4261.00    0.90935   0.92488   23.568
 4262.00    0.92749   0.92902   23.412
 4263.00    0.94655   0.93020   23.421
 4264.00    0.95891   0.92762   23.489
 4265.00    0.95923   0.92157   23.365
 4266.00    0.94604   0.91333   22.857
 4267.00    0.92298   0.90400   22.265
 4268.00    0.89767   0.89461   22.114
 4269.00    0.87757   0.88672   22.490
 4270.00    0.86839   0.88207   23.101
 4271.00    0.87274   0.88134   -2.000
 4272.00    0.88851   0.88402   -2.000
 4273.00    0.90637   0.88943   -2.000
 4274.00    0.91528   0.89659   -2.000
 4275.00    0.91450   0.90368   -2.000
 4276.00    0.90921   0.90895   -2.000
 4277.00    0.89842   0.91145   -2.000
 4278.00    0.88043   0.91134   -2.000
 4279.00    0.86530   0.90951   -2.000
 4280.00    0.86505   0.90667   -2.000
 4281.00    0.87574   0.90322   -2.000
 4282.00    0.88536   0.89930   -2.000
 4283.00    0.88894   0.89479   -2.000
 4284.00    0.88708   0.88989   -2.000
 4285.00    0.88101   0.88480   -2.000
 4286.00    0.87206   0.87982   -2.000
 4287.00    0.86181   0.87584   22.454
 4288.00    0.85263   0.87419   22.237
 4289.00    0.84798   0.87531   22.443
 4290.00    0.84880   0.87784   23.211
 4291.00    0.85026   0.87948   24.147
 4292.00    0.84674   0.87854   24.611
 4293.00    0.83660   0.87465   24.295
 4294.00    0.82088   0.86789   23.543
 4295.00    0.80182   0.85863   23.196
 4296.00    0.78363   0.84792   23.689
 4297.00    0.77267   0.83722   24.616
 4298.00    0.77260   0.82840   25.285
 4299.00    0.78119   0.82259   25.317
 4300.00    0.79284   0.81936   24.921
 4301.00    0.80125   0.81803   24.748
 4302.00    0.80408   0.81803   24.972
 4303.00    0.80463   0.81826   24.987
 4304.00    0.80434   0.81806   24.591
 4305.00    0.79998   0.81766   24.470
 4306.00    0.79247   0.81801   24.966
 4307.00    0.78954   0.82047   25.652
 4308.00    0.79595   0.82555   26.143
 4309.00    0.80957   0.83281   26.476
 4310.00    0.82642   0.84164   26.502
 4311.00    0.84344   0.85171   25.810
 4312.00    0.85982   0.86285   24.665
 4313.00    0.87600   0.87472   23.883
 4314.00    0.88790   0.88611   23.822
 4315.00    0.88817   0.89483   24.348
 4316.00    0.87778   0.89929   25.116
 4317.00    0.86566   0.89893   25.681
 4318.00    0.85479   0.89388   25.883
 4319.00    0.84152   0.88491   25.879
 4320.00    0.82645   0.87324   25.611
 4321.00    0.81476   0.86021   24.926
 4322.00    0.80824   0.84785   24.239
 4323.00    0.80522   0.83859   24.163
 4324.00    0.80561   0.83417   24.613
 4325.00    0.80984   0.83442   24.984
 4326.00    0.81387   0.83673   24.992
 4327.00    0.81186   0.83795   24.748
 4328.00    0.80383   0.83590   24.331
 4329.00    0.79325   0.82971   23.816
 4330.00    0.77973   0.81891    0.000
 4331.00    0.76324   0.80276    0.000
 4332.00    0.75360   0.78068    0.000
 4333.00    0.76741   0.75252    0.000
 4334.00    0.81977   0.71890    0.000
 4335.00    0.91379   0.68234    0.000
 4336.00    1.02751   0.64774    0.000
 4337.00    1.12225   0.62067    0.000
 4338.00    1.15789   0.60592    0.000
 4339.00    1.11447   0.60685    0.000
 4340.00    1.01487   0.62293    0.000
 4341.00    0.90214   0.64936    0.000
 4342.00    0.80981   0.68064    0.000
 4343.00    0.75444   0.71248    0.000
 4344.00    0.73229   0.74142    0.000
 4345.00    0.73007   0.76528    0.000
 4346.00    0.73611   0.78355    0.000
 4347.00    0.74348   0.79667    0.000
 4348.00    0.75146   0.80560    0.000
 4349.00    0.76248   0.81222    0.000
 4350.00    0.77903   0.81934    0.000
 4351.00    0.80141   0.82885   25.145
 4352.00    0.82657   0.84022   24.623
 4353.00    0.85114   0.85185   22.414
 4354.00    0.87343   0.86265   19.732
 4355.00    0.89180   0.87191   18.132
 4356.00    0.90395   0.87933   18.810
 4357.00    0.90913   0.88559   22.045
 4358.00    0.90907   0.89181   25.162
 4359.00    0.90562   0.89817   24.950
 4360.00    0.89970   0.90387   24.106
 4361.00    0.89294   0.90810   24.690
 4362.00    0.88814   0.91047   25.566
 4363.00    0.88747   0.91069   25.696
 4364.00    0.89150   0.90859   25.642
 4365.00    0.89849   0.90492   25.779
 4366.00    0.90461   0.90114   25.673
 4367.00    0.90583   0.89809   25.113
 4368.00    0.89944   0.89561   24.441
 4369.00    0.88673   0.89337   24.217
 4370.00    0.87251   0.89122   24.908
 4371.00    0.86086   0.88925   26.197
 4372.00    0.85445   0.88803   26.921
 4373.00    0.85706   0.88870   26.749
 4374.00    0.87152   0.89172   26.466
 4375.00    0.89248   0.89574   26.253
 4376.00    0.90854   0.89818   25.765
 4377.00    0.91255   0.89693   25.326
 4378.00    0.90405   0.89121   25.563
 4379.00    0.88850   0.88150   26.174
 4380.00    0.87385   0.86902   26.287
 4381.00    0.86371   0.85602   26.064
 4382.00    0.85760   0.84582   26.279
 4383.00    0.85436   0.84096   26.748
 4384.00    0.85292   0.84136   26.757
 4385.00    0.85266   0.84520   26.475
 4386.00    0.85334   0.85119   26.474
 4387.00    0.85501   0.85885   26.552
 4388.00    0.85836   0.86711   26.219
 4389.00    0.86517   0.87486   25.693
 4390.00    0.87549   0.88166   25.431
 4391.00    0.88418   0.88711   25.418
 4392.00    0.88618   0.89096   25.489
 4393.00    0.88368   0.89381   25.757
 4394.00    0.88034   0.89655   26.299
 4395.00    0.87412   0.89894   26.702
 4396.00    0.86346   0.89983   26.607
 4397.00    0.85417   0.89874   26.394
 4398.00    0.85217   0.89635   26.444
 4399.00    0.85595   0.89384   26.415
 4400.00    0.86214   0.89186   26.009
 4401.00    0.87075   0.88998   25.624
 4402.00    0.87975   0.88797   25.650
 4403.00    0.88158   0.88711   25.967
 4404.00    0.87428   0.88865   26.324
 4405.00    0.86850   0.89205   26.633
 4406.00    0.87214   0.89618   26.823
 4407.00    0.88044   0.90062   26.734
 4408.00    0.88681   0.90473   26.294
 4409.00    0.88963   0.90711   25.648
 4410.00    0.88771   0.90677   25.194
 4411.00    0.87825   0.90369   25.467
 4412.00    0.86270   0.89866   26.476
 4413.00    0.84890   0.89378   27.393
 4414.00    0.84456   0.89168   27.573
 4415.00    0.85314   0.89328   27.261
 4416.00    0.87122   0.89771   26.651
 4417.00    0.88962   0.90342   25.575
 4418.00    0.90334   0.90857   24.245
 4419.00    0.91395   0.91178   23.211
 4420.00    0.92171   0.91297   22.720
 4421.00    0.92426   0.91319   22.726
 4422.00    0.92360   0.91334   23.166
 4423.00    0.92593   0.91341   23.947
 4424.00    0.93268   0.91303   24.645
 4425.00    0.93873   0.91210   24.603
 4426.00    0.93656   0.91072   23.906
 4427.00    0.92089   0.90873   23.254
 4428.00    0.89779   0.90595   22.872
 4429.00    0.88023   0.90287   22.501
 4430.00    0.87055   0.90020   21.840
 4431.00    0.86315   0.89811   20.886
 4432.00    0.86137   0.89688   20.290
 4433.00    0.87312   0.89730   20.784
 4434.00    0.89298   0.89983   22.289
 4435.00    0.90724   0.90375   23.916
 4436.00    0.91188   0.90737   24.692
 4437.00    0.91116   0.90904   24.379
 4438.00    0.90851   0.90801   23.961
 4439.00    0.90577   0.90484   24.427
 4440.00    0.90468   0.90121   25.260
 4441.00    0.90676   0.89906   25.265
 4442.00    0.91265   0.89965   24.721
 4443.00    0.92178   0.90282   24.556
 4444.00    0.93217   0.90689   24.696
 4445.00    0.94165   0.91006   24.683
 4446.00    0.94945   0.91173   24.632
 4447.00    0.95467   0.91183   24.723
 4448.00    0.95435   0.91006   24.478
 4449.00    0.94740   0.90660   23.495
 4450.00    0.93861   0.90210   22.248
 4451.00    0.93229   0.89684   21.521
 4452.00    0.92601   0.89105   21.990
 4453.00    0.91776   0.88557   23.754
 4454.00    0.91248   0.88156   25.322
 4455.00    0.91396   0.87935   25.148
 4456.00    0.91810   0.87827   24.484
 4457.00    0.91952   0.87787   24.600
 4458.00    0.91716   0.87827   24.833
 4459.00    0.91266   0.87940   24.555
 4460.00    0.90856   0.88106   24.496
 4461.00    0.90611   0.88304    0.000
 4462.00    0.90427   0.88439    0.000
 4463.00    0.90168   0.88377    0.000
 4464.00    0.89814   0.88088    0.000
 4465.00    0.89499   0.87641    0.000
 4466.00    0.89481   0.87136    0.000
 4467.00    0.89915   0.86720    0.000
 4468.00    0.90742   0.86569    0.000
 4469.00    0.91813   0.86815    0.000
 4470.00    0.92940   0.87507    0.000
 4471.00    0.93885   0.88552    0.000
 4472.00    0.94451   0.89676    0.000
 4473.00    0.94852   0.90561    0.000
 4474.00    0.95584   0.91041    0.000
 4475.00    0.96392   0.91102    0.000
 4476.00    0.96312   0.90787    0.000
 4477.00    0.95152   0.90193    0.000
 4478.00    0.93683   0.89529    0.000
 4479.00    0.92610   0.89081    0.000
 4480.00    0.92285   0.89079    0.000
 4481.00    0.92824   0.89531    0.000
 4482.00    0.94032   0.90199   26.367
 4483.00    0.95113   0.90787   26.405
 4484.00    0.95114   0.91130   26.144
 4485.00    0.94137   0.91186   25.914
 4486.00    0.93072   0.91006   26.303
 4487.00    0.92326   0.90721   27.089
 4488.00    0.91821   0.90494   27.434
 4489.00    0.91547   0.90416   27.108
 4490.00    0.91555   0.90461   26.552
 4491.00    0.91711   0.90552   26.195
 4492.00    0.91836   0.90640   26.150
 4493.00    0.92000   0.90757   25.975
 4494.00    0.92346   0.90972   25.311
 4495.00    0.92741   0.91285   24.810
 4496.00    0.92973   0.91656   25.217
 4497.00    0.93119   0.92038   26.200
 4498.00    0.93434   0.92397   26.813
 4499.00    0.94121   0.92745   26.613
 4500.00    0.95162   0.93137   25.927
 4501.00    0.96184   0.93589   25.542
 4502.00    0.96828   0.93991   25.826
 4503.00    0.97170   0.94212   26.050
 4504.00    0.97347   0.94231   25.596
 4505.00    0.97163   0.94096   25.273
 4506.00    0.96522   0.93869   25.673
 4507.00    0.95815   0.93612   25.835
 4508.00    0.95300   0.93350   25.153
 4509.00    0.94593   0.93046   24.953
 4510.00    0.93448   0.92669   25.773
 4511.00    0.92308   0.92253   25.702
 4512.00    0.91452   0.91867   24.816
 4513.00    0.90473   0.91567   27.337
 4514.00    0.89466   0.91394   32.466
 4515.00    0.89562   0.91329   23.970
 4516.00    0.90892   0.91292   13.856
 4517.00    0.91710   0.91229   10.491
 4518.00    0.91213   0.91107   10.428
 4519.00    0.90743   0.90873   11.194
 4520.00    0.91050   0.90487   11.208
 4521.00    0.91154   0.89962   10.878
 4522.00    0.90308   0.89386   10.919
 4523.00    0.88836   0.88813   11.383
 4524.00    0.87317   0.88245   11.747
 4525.00    0.86200   0.87730   11.275
 4526.00    0.85849   0.87334   10.915
 4527.00    0.86494   0.87094   12.950
 4528.00    0.87931   0.87039   20.280
 4529.00    0.89569   0.87158   30.552
 4530.00    0.90966   0.87392   28.941
 4531.00    0.91944   0.87687   25.432
 4532.00    0.92342   0.88020   25.701
 4533.00    0.92012   0.88445   26.558
 4534.00    0.91061   0.88999   26.320
 4535.00    0.89890   0.89589   26.242
 4536.00    0.89073   0.90050   26.676
 4537.00    0.89125   0.90260   26.765
 4538.00    0.90017   0.90252   26.428
 4539.00    0.91317   0.90140   26.311
 4540.00    0.92776   0.90023   26.424
 4541.00    0.94175   0.89925   26.352
 4542.00    0.94738   0.89778   26.275
 4543.00    0.93695   0.89521   26.645
 4544.00    0.91559   0.89194   27.194
 4545.00    0.89572   0.88840   27.293
 4546.00    0.88292   0.88447   27.113
 4547.00    0.87637   0.88024   27.217
 4548.00    0.87387   0.87676   27.536
 4549.00    0.87366   0.87521   27.682
 4550.00    0.87591   0.87527    0.000
 4551.00    0.88232   0.87605    0.000
 4552.00    0.89498   0.87794    0.000
 4553.00    0.91338   0.88153    0.000
 4554.00    0.93115   0.88677    0.000
 4555.00    0.94168   0.89315    0.000
 4556.00    0.94460   0.89935    0.000
 4557.00    0.94141   0.90389    0.000
 4558.00    0.93037   0.90645    0.000
 4559.00    0.91264   0.90721    0.000
 4560.00    0.89793   0.90640    0.000
 4561.00    0.89521   0.90444    0.000
 4562.00    0.90400   0.90218    0.000
 4563.00    0.91693   0.90090    0.000
 4564.00    0.92386   0.90130    0.000
 4565.00    0.92189   0.90294    0.000
 4566.00    0.92091   0.90477    0.000
 4567.00    0.92729   0.90601    0.000
 4568.00    0.93402   0.90650    0.000
 4569.00    0.93452   0.90633    0.000
 4570.00    0.93124   0.90592    0.000
 4571.00    0.92934   0.90624    0.000
 4572.00    0.93208   0.90711    0.000
 4573.00    0.93844   0.90705    0.000
 4574.00    0.94286   0.90561    0.000
 4575.00    0.94030   0.90311    0.000
 4576.00    0.92904   0.89953    0.000
 4577.00    0.91174   0.89495    0.000
 4578.00    0.89468   0.88999    0.000
 4579.00    0.88312   0.88584    0.000
 4580.00    0.87954   0.88335    0.000
 4581.00    0.88479   0.88257    0.000
 4582.00    0.89860   0.88321    0.000
 4583.00    0.91931   0.88520    0.000
 4584.00    0.94305   0.88805    0.000
 4585.00    0.96163   0.89079    0.000
 4586.00    0.96497   0.89280    0.000
 4587.00    0.95062   0.89370    0.000
 4588.00    0.92481   0.89332    0.000
 4589.00    0.89752   0.89189    0.000
 4590.00    0.87844   0.89016    0.000
 4591.00    0.87076   0.88903    0.000
 4592.00    0.87256   0.88874    0.000
 4593.00    0.88363   0.88888    0.000
 4594.00    0.90418   0.88915    0.000
 4595.00    0.92852   0.88982    0.000
 4596.00    0.94715   0.89088    0.000
 4597.00    0.95342   0.89191    0.000
 4598.00    0.94644   0.89261    0.000
 4599.00    0.93334   0.89312    0.000
 4600.00    0.92388   0.89420    0.000
 4601.00    0.92079   0.89624    0.000
 4602.00    0.92096   0.89884    0.000
 4603.00    0.91985   0.90170    0.000
 4604.00    0.91554   0.90475    0.000
 4605.00    0.91287   0.90795    0.000
 4606.00    0.91739   0.91095    0.000
 4607.00    0.92691   0.91312    0.000
 4608.00    0.93583   0.91392    0.000
 4609.00    0.94164   0.91336    0.000
 4610.00    0.94568   0.91202    0.000
 4611.00    0.95254   0.91038    0.000
 4612.00    0.96384   0.90871    0.000
 4613.00    0.97268   0.90730    0.000
 4614.00    0.97142   0.90607    0.000
 4615.00    0.95944   0.90488    0.000
 4616.00    0.94335   0.90423    0.000
 4617.00    0.93520   0.90417    0.000
 4618.00    0.94163   0.90488    0.000
 4619.00    0.95636   0.90671    0.000
 4620.00    0.96939   0.90886    0.000
 4621.00    0.97447   0.91019    0.000
 4622.00    0.97084   0.91057    0.000
 4623.00    0.96296   0.91005    0.000
 4624.00    0.95351   0.90867    0.000
 4625.00    0.94037   0.90693    0.000
 4626.00    0.92472   0.90513    0.000
 4627.00    0.91410   0.90306    0.000
 4628.00    0.91301   0.90097    0.000
 4629.00    0.91887   0.89953    0.000
 4630.00    0.92676   0.89845    0.000
 4631.00    0.93240   0.89675    0.000
 4632.00    0.93449   0.89438    0.000
 4633.00    0.93457   0.89216    0.000
 4634.00    0.93237   0.89047    0.000
 4635.00    0.92594   0.88900    0.000
 4636.00    0.91907   0.88756    0.000
 4637.00    0.91988   0.88650    0.000
 4638.00    0.92719   0.88588    0.000
 4639.00    0.93060   0.88513    0.000
 4640.00    0.92541   0.88370    0.000
 4641.00    0.91518   0.88111    0.000
 4642.00    0.90490   0.87719    0.000
 4643.00    0.89776   0.87236    0.000
 4644.00    0.89192   0.86736    0.000
 4645.00    0.88328   0.86314    0.000
 4646.00    0.87389   0.86105    0.000
 4647.00    0.86999   0.86181    0.000
 4648.00    0.87317   0.86475    0.000
 4649.00    0.87999   0.86873    0.000
 4650.00    0.88534   0.87316    0.000
 4651.00    0.88603   0.87765    0.000
 4652.00    0.88595   0.88162    0.000
 4653.00    0.89183   0.88489    0.000
 4654.00    0.90468   0.88828    0.000
 4655.00    0.92009   0.89201    0.000
 4656.00    0.93138   0.89549    0.000
 4657.00    0.93357   0.89801    0.000
 4658.00    0.92807   0.89835    0.000
 4659.00    0.91943   0.89551    0.000
 4660.00    0.91004   0.88983    0.000
 4661.00    0.89987   0.88267    0.000
 4662.00    0.88724   0.87536    0.000
 4663.00    0.87277   0.86882    0.000
 4664.00    0.86330   0.86344    0.000
 4665.00    0.86516   0.85955    0.000
 4666.00    0.87700   0.85830    0.000
 4667.00    0.89166   0.86065    0.000
 4668.00    0.89948   0.86564    0.000
 4669.00    0.89528   0.87148    0.000
 4670.00    0.88376   0.87686    0.000
 4671.00    0.87377   0.88090    0.000
 4672.00    0.87282   0.88347    0.000
 4673.00    0.88242   0.88501    0.000
 4674.00    0.89588   0.88560    0.000
 4675.00    0.90504   0.88509    0.000
 4676.00    0.90544   0.88348    0.000
 4677.00    0.89885   0.88118    0.000
 4678.00    0.89316   0.87903    0.000
 4679.00    0.89380   0.87767    0.000
 4680.00    0.89967   0.87703    0.000
 4681.00    0.90936   0.87705    0.000
 4682.00    0.92375   0.87758    0.000
 4683.00    0.94199   0.87800    0.000
 4684.00    0.95932   0.87823    0.000
 4685.00    0.96682   0.87902    0.000
 4686.00    0.95513   0.88039    0.000
 4687.00    0.92961   0.88183    0.000
 4688.00    0.91060   0.88321    0.000
 4689.00    0.91020   0.88452    0.000
 4690.00    0.92443   0.88563    0.000
 4691.00    0.93782   0.88650    0.000
 4692.00    0.93229   0.88674    0.000
 4693.00    0.90894   0.88590    0.000
 4694.00    0.88629   0.88385    0.000
 4695.00    0.87455   0.88049    0.000
 4696.00    0.87169   0.87594    0.000
 4697.00    0.87391   0.87098    0.000
 4698.00    0.87832   0.86701    0.000
 4699.00    0.88208   0.86456    0.000
 4700.00    0.88371   0.86287    0.000
 4701.00    0.88617   0.86148    0.000
 4702.00    0.89331   0.86094    0.000
 4703.00    0.90115   0.86153    0.000
 4704.00    0.90253   0.86261    0.000
 4705.00    0.89900   0.86321    0.000
 4706.00    0.89673   0.86324    0.000
 4707.00    0.89552   0.86320    0.000
 4708.00    0.89170   0.86371    0.000
 4709.00    0.88601   0.86495    0.000
 4710.00    0.88214   0.86672    0.000
 4711.00    0.88255   0.86836    0.000
 4712.00    0.88699   0.87064    0.000
 4713.00    0.89150   0.87471    0.000
 4714.00    0.89311   0.88046    0.000
 4715.00    0.89543   0.88650    0.000
 4716.00    0.90238   0.89182    0.000
 4717.00    0.91057   0.89595    0.000
 4718.00    0.91477   0.89898    0.000
 4719.00    0.91439   0.90058    0.000
 4720.00    0.90946   0.90036    0.000
 4721.00    0.89705   0.89851    0.000
 4722.00    0.87928   0.89560    0.000
 4723.00    0.86913   0.89184    0.000
 4724.00    0.87407   0.88706    0.000
 4725.00    0.88386   0.88153    0.000
 4726.00    0.88698   0.87617    0.000
 4727.00    0.88331   0.87240    0.000
 4728.00    0.87787   0.87085    0.000
 4729.00    0.87546   0.87078    0.000
 4730.00    0.87816   0.87169    0.000
 4731.00    0.88452   0.87366    0.000
 4732.00    0.89339   0.87599    0.000
 4733.00    0.90515   0.87793    0.000
 4734.00    0.91608   0.87940    0.000
 4735.00    0.91732   0.88040    0.000
 4736.00    0.90624   0.88178    0.000
 4737.00    0.89057   0.88392    0.000
 4738.00    0.88036   0.88576    0.000
 4739.00    0.88296   0.88705    0.000
 4740.00    0.89893   0.88844    0.000
 4741.00    0.92126   0.89015    0.000
 4742.00    0.93934   0.89177    0.000
 4743.00    0.94339   0.89284    0.000
 4744.00    0.93411   0.89340    0.000
 4745.00    0.92279   0.89375    0.000
 4746.00    0.92012   0.89353    0.000
 4747.00    0.93025   0.89236    0.000
 4748.00    0.94479   0.89060    0.000
 4749.00    0.94796   0.88847    0.000
 4750.00    0.93499   0.88592    0.000
 4751.00    0.91330   0.88332    0.000
 4752.00    0.89200   0.88126    0.000
 4753.00    0.87799   0.87988    0.000
 4754.00    0.87361   0.87900    0.000
 4755.00    0.87662   0.87826    0.000
 4756.00    0.88151   0.87744    0.000
 4757.00    0.88230   0.87613    0.000
 4758.00    0.87738   0.87394    0.000
 4759.00    0.86928   0.87075    0.000
 4760.00    0.86236   0.86684    0.000
 4761.00    0.86010   0.86327   30.035
 4762.00    0.86148   0.86134   29.679
 4763.00    0.86351   0.86117   29.830
 4764.00    0.86583   0.86230   30.045
 4765.00    0.86914   0.86464   29.666
 4766.00    0.87204   0.86815   29.331
 4767.00    0.87298   0.87219   29.867
 4768.00    0.87320   0.87609   30.839
 4769.00    0.87422   0.87929   31.181
 4770.00    0.87452   0.88170   30.507
 4771.00    0.87181   0.88403   29.377
 4772.00    0.86587   0.88659   28.872
 4773.00    0.85919   0.88880   29.486
 4774.00    0.85690   0.89000   30.406
 4775.00    0.86168   0.89011   30.657
 4776.00    0.86975   0.88949   30.544
 4777.00    0.87665   0.88811   30.622
 4778.00    0.88225   0.88585   30.660
 4779.00    0.88905   0.88318   30.280
 4780.00    0.89975   0.88047   29.546
 4781.00    0.91257   0.87758   28.936
 4782.00    0.91927   0.87469   29.121
 4783.00    0.91495   0.87257   30.153
 4784.00    0.90369   0.87117   30.988
 4785.00    0.89205   0.87016   30.894
 4786.00    0.88474   0.87041   30.503
 4787.00    0.88392   0.87221   30.286
 4788.00    0.88913   0.87481   29.897
 4789.00    0.89846   0.87806   29.287
 4790.00    0.90926   0.88156   28.994
 4791.00    0.91852   0.88449   29.125
 4792.00    0.92333   0.88653   29.162
 4793.00    0.92235   0.88739   28.956
 4794.00    0.91621   0.88678   28.949
 4795.00    0.90680   0.88500   29.217
 4796.00    0.89700   0.88272   29.323
 4797.00    0.89087   0.88034   29.158
 4798.00    0.89172   0.87830   29.099
 4799.00    0.89584   0.87704   29.326
 4800.00    0.89417   0.87643   29.692
 4801.00    0.88390   0.87575   29.960
 4802.00    0.86950   0.87447   29.977
 4803.00    0.85493   0.87277   29.936
 4804.00    0.84199   0.87131   30.166
 4805.00    0.83196   0.87059   30.422
 4806.00    0.82596   0.87035   30.109
 4807.00    0.82495   0.87046   29.331
 4808.00    0.82910   0.87128   28.720
 4809.00    0.83670   0.87265   28.631
 4810.00    0.84514   0.87424   29.009
 4811.00    0.85315   0.87594   29.284
 4812.00    0.86057   0.87772   28.924
 4813.00    0.86691   0.87946   28.612
 4814.00    0.87150   0.88083   29.230
 4815.00    0.87424   0.88135   30.066
 4816.00    0.87569   0.88061   29.818
 4817.00    0.87693   0.87835   29.196
 4818.00    0.87877   0.87511   29.437
 4819.00    0.88063   0.87162   29.932
 4820.00    0.88173   0.86817   29.567
 4821.00    0.88264   0.86472   29.011
 4822.00    0.88343   0.86133   29.248
 4823.00    0.88126   0.85939   29.773
 4824.00    0.87304   0.85927   29.707
 4825.00    0.85873   0.85945   29.375
 4826.00    0.84179   0.85890   29.453
 4827.00    0.82877   0.85785   29.969
 4828.00    0.82414   0.85703   30.568
 4829.00    0.82580   0.85657   30.836
 4830.00    0.82979   0.85589   30.628
 4831.00    0.83452   0.85491   30.282
 4832.00    0.84000   0.85402   30.084
 4833.00    0.84649   0.85274   29.902
 4834.00    0.85226   0.85059   29.542
 4835.00    0.85267   0.84791   29.025
 4836.00    0.84559   0.84507   28.653
 4837.00    0.83455   0.84185   28.913
 4838.00    0.82518   0.83854   29.804
 4839.00    0.82235   0.83586   30.468
 4840.00    0.82742   0.83386   30.332
 4841.00    0.83706   0.83157   29.870
 4842.00    0.84459   0.82837   29.525
 4843.00    0.84244   0.82492   29.266
 4844.00    0.82952   0.82119   29.224
 4845.00    0.81286   0.81627   29.767
 4846.00    0.79844   0.80971   30.415
 4847.00    0.78765   0.80176   29.779
 4848.00    0.78032   0.79281    0.000
 4849.00    0.77579   0.78238    0.000
 4850.00    0.77200   0.76959    0.000
 4851.00    0.76751   0.75415    0.000
 4852.00    0.76957   0.73590    0.000
 4853.00    0.79940   0.71411    0.000
 4854.00    0.89889   0.68909    0.000
 4855.00    1.11106   0.66337    0.000
 4856.00    1.41882   0.64004    0.000
 4857.00    1.74271   0.62061    0.000
 4858.00    1.98446   0.60624    0.000
 4859.00    2.05943   0.59894    0.000
 4860.00    1.94484   0.60147    0.000
 4861.00    1.68248   0.61526    0.000
 4862.00    1.35681   0.63691    0.000
 4863.00    1.06451   0.66071    0.000
 4864.00    0.86319   0.68335    0.000
 4865.00    0.76379   0.70345    0.000
 4866.00    0.73781   0.72054    0.000
 4867.00    0.73967   0.73472    0.000
 4868.00    0.74273   0.74611    0.000
 4869.00    0.74072   0.75491    0.000
 4870.00    0.73923   0.76243    0.000
 4871.00    0.74585   0.77079    0.000
 4872.00    0.75819   0.78038    0.000
 4873.00    0.76914   0.79000    0.000
 4874.00    0.77632   0.79866    0.000
 4875.00    0.78103   0.80610   30.056
 4876.00    0.78514   0.81249   29.791
 4877.00    0.79094   0.81770   29.955
 4878.00    0.80094   0.82142   30.254
 4879.00    0.81453   0.82289   30.204
 4880.00    0.82497   0.82212   29.742
 4881.00    0.82538   0.82067   29.165
 4882.00    0.81501   0.81938   28.918
 4883.00    0.79979   0.81778   29.217
 4884.00    0.79113   0.81578   29.800
 4885.00    0.79569   0.81430   30.208
 4886.00    0.80794   0.81478   30.112
 4887.00    0.81826   0.81735   29.623
 4888.00    0.82015   0.82124   29.313
 4889.00    0.81473   0.82614   29.383
 4890.00    0.81180   0.83251   29.307
 4891.00    0.81886   0.84095   28.828
 4892.00    0.83448   0.84976   28.444
 4893.00    0.85246   0.85638   28.489
 4894.00    0.86554   0.86030   28.746
 4895.00    0.87043   0.86224   29.007
 4896.00    0.86969   0.86253   29.322
 4897.00    0.86762   0.86119   29.670
 4898.00    0.86749   0.85883   29.835
 4899.00    0.86917   0.85695   29.782
 4900.00    0.86928   0.85641   29.762
 4901.00    0.86643   0.85613   29.970
 4902.00    0.86285   0.85532   30.369
 4903.00    0.86195   0.85436   30.547
 4904.00    0.86604   0.85328   30.010
 4905.00    0.87203   0.85168   29.394
 4906.00    0.87287   0.84944   29.975
 4907.00    0.86733   0.84706   31.478
 4908.00    0.86092   0.84510   31.953
 4909.00    0.85938   0.84404   31.045
 4910.00    0.86494   0.84405   30.336
 4911.00    0.87222   0.84406   30.340
 4912.00    0.87122   0.84230   30.530
 4913.00    0.85742   0.83799   30.716
 4914.00    0.83347   0.83138   31.085
 4915.00    0.80687   0.82277   31.485
 4916.00    0.78668   0.81319   31.606
 4917.00    0.77772   0.80400   31.807
 4918.00    0.78047   0.79700   32.591
 4919.00    0.79317   0.79400   33.151
 4920.00    0.81139   0.79592   32.313
 4921.00    0.82660   0.80224   31.091
 4922.00    0.83194   0.81105   30.984
 4923.00    0.83159   0.82099   31.528
 4924.00    0.83428   0.83138   31.474
 4925.00    0.84142   0.84119   31.017
 4926.00    0.84927   0.84829   30.943
 4927.00    0.85451   0.85168   31.012
 4928.00    0.85511   0.85221   30.714
 4929.00    0.85057   0.85097   30.412
 4930.00    0.84270   0.84830   30.588
 4931.00    0.83626   0.84406   30.929
 4932.00    0.83549   0.83866   30.916
 4933.00    0.84047   0.83432   30.623
 4934.00    0.84909   0.83277   30.454
 4935.00    0.85958   0.83296   30.725
 4936.00    0.87084   0.83354   31.070
 4937.00    0.88251   0.83509   30.079
 4938.00    0.89394   0.83871   27.522
 4939.00    0.90338   0.84398   25.189
 4940.00    0.90872   0.84916    0.000
 4941.00    0.90843   0.85324    0.000
 4942.00    0.90430   0.85664    0.000
 4943.00    0.90210   0.85942    0.000
 4944.00    0.90353   0.86113    0.000
 4945.00    0.90274   0.86216    0.000
 4946.00    0.89893   0.86291    0.000
 4947.00    0.90135   0.86291    0.000
 4948.00    0.91288   0.86181    0.000
 4949.00    0.92388   0.85975    0.000
 4950.00    0.92955   0.85643    0.000
 4951.00    0.93745   0.85118    0.000
 4952.00    0.95932   0.84525    0.000
 4953.00    1.00437   0.84094    0.000
 4954.00    1.06900   0.83843    0.000
 4955.00    1.13503   0.83654    0.000
 4956.00    1.18089   0.83549    0.000
 4957.00    1.18853   0.83751    0.000
 4958.00    1.15131   0.84234    0.000
 4959.00    1.07711   0.84638    0.000
 4960.00    0.98858   0.84797    0.000
 4961.00    0.91558   0.84814    0.000
 4962.00    0.87259   0.84771    0.000
 4963.00    0.85519   0.84640    0.000
 4964.00    0.85058   0.84419    0.000
 4965.00    0.84511   0.84244    0.000
 4966.00    0.83538   0.84212    0.000
 4967.00    0.82702   0.84285    0.000
 4968.00    0.82505   0.84429    0.000
 4969.00    0.83057   0.84619    0.000
 4970.00    0.83920   0.84826    0.000
 4971.00    0.84411   0.84977    0.000
 4972.00    0.84267   0.84983    0.000
 4973.00    0.83700   0.84827    0.000
 4974.00    0.83233   0.84515    0.000
 4975.00    0.83298   0.84034    0.000
 4976.00    0.83634   0.83377    0.000
 4977.00    0.83610   0.82609    0.000
 4978.00    0.82892   0.81890    0.000
 4979.00    0.81561   0.81323    0.000
 4980.00    0.80118   0.80916    0.000
 4981.00    0.79262   0.80705    0.000
 4982.00    0.79562   0.80768    0.000
 4983.00    0.81157   0.81091    0.000
 4984.00    0.83465   0.81539    0.000
 4985.00    0.85482   0.82009    0.000
 4986.00    0.86215   0.82455    0.000
 4987.00    0.85368   0.82787    0.000
 4988.00    0.83894   0.82961    0.000
 4989.00    0.82948   0.83049    0.000
 4990.00    0.82848   0.83124    0.000
 4991.00    0.83337   0.83194    0.000
 4992.00    0.83917   0.83185    0.000
 4993.00    0.84100   0.83072    0.000
 4994.00    0.83600   0.82890    0.000
 4995.00    0.82445   0.82604    0.000
 4996.00    0.81085   0.82210    0.000
 4997.00    0.80706   0.81768    0.000
 4998.00    0.83349   0.81308    0.000
 4999.00    0.91353   0.80844    0.000
 5000.00    1.06741   0.80425    0.000
 5001.00    1.29703   0.80150    0.000
 5002.00    1.57496   0.80084    0.000
 5003.00    1.83226   0.80118    0.000
 5004.00    1.96966   0.80132    0.000
 5005.00    1.93999   0.80148    0.000
 5006.00    1.77827   0.80219    0.000
 5007.00    1.55368   0.80249    0.000
 5008.00    1.33681   0.80082    0.000
 5009.00    1.15962   0.79711    0.000
 5010.00    1.01286   0.79267    0.000
 5011.00    0.89681   0.78840    0.000
 5012.00    0.82959   0.78460    0.000
 5013.00    0.80861   0.78197    0.000
 5014.00    0.80724   0.78151    0.000
 5015.00    0.80704   0.78337    0.000
 5016.00    0.80487   0.78605    0.000
 5017.00    0.80251   0.78914    0.000
 5018.00    0.80227   0.79360    0.000
 5019.00    0.80382   0.79903    0.000
 5020.00    0.80483   0.80361    0.000
 5021.00    0.80442   0.80679    0.000
 5022.00    0.80413   0.80958    0.000
 5023.00    0.80797   0.81276    0.000
 5024.00    0.81905   0.81573    0.000
 5025.00    0.83281   0.81782    0.000
 5026.00    0.84152   0.81944    0.000
 5027.00    0.84500   0.82178    0.000
 5028.00    0.84758   0.82459    0.000
 5029.00    0.84935   0.82586   32.370
 5030.00    0.84721   0.82490   31.885
 5031.00    0.83897   0.82287   31.586
 5032.00    0.82488   0.82024   31.668
 5033.00    0.80862   0.81584   32.134
 5034.00    0.79463   0.80918   32.696
 5035.00    0.78432   0.80206   32.648
 5036.00    0.77672   0.79695   31.768
 5037.00    0.77009   0.79438   31.218
 5038.00    0.76501   0.79356   31.806
 5039.00    0.76718   0.79417   32.439
 5040.00    0.78085   0.79709   31.980
 5041.00    0.80207   0.80261   31.586
 5042.00    0.82294   0.80837   32.250
 5043.00    0.83677   0.81204   32.652
 5044.00    0.84021   0.81399   31.670
 5045.00    0.83457   0.81480   30.777
 5046.00    0.82453   0.81407   31.132
 5047.00    0.81638   0.81273   31.931
 5048.00    0.81405   0.81256   32.189
 5049.00    0.81642   0.81402   32.221
 5050.00    0.81957   0.81606   32.433
 5051.00    0.81906   0.81873   32.440
 5052.00    0.81366   0.82250   31.989
 5053.00    0.80703   0.82674   31.495
 5054.00    0.80396   0.83007   31.396
 5055.00    0.80766   0.83249   31.788
 5056.00    0.81763   0.83461   32.238
 5057.00    0.82920   0.83602   31.890
 5058.00    0.83639   0.83558   30.971
 5059.00    0.83440   0.83319   30.846
 5060.00    0.82385   0.83005   31.823
 5061.00    0.81112   0.82688   32.710
 5062.00    0.80203   0.82303   32.780
 5063.00    0.79927   0.81855   32.635
 5064.00    0.80322   0.81527   32.750
 5065.00    0.81232   0.81407   32.987
 5066.00    0.82283   0.81318   33.050
 5067.00    0.82993   0.81185   32.781
 5068.00    0.83132   0.81130   32.538
 5069.00    0.82807   0.81141   32.942
 5070.00    0.82375   0.81048   33.949
 5071.00    0.82248   0.80868   34.805
 5072.00    0.82460   0.80722   34.968
 5073.00    0.82674   0.80525   34.534
 5074.00    0.82486   0.80158   34.162
 5075.00    0.81634   0.79781   34.512
 5076.00    0.80271   0.79550   35.317
 5077.00    0.78883   0.79369   35.634
 5078.00    0.77954   0.79165   35.108
 5079.00    0.77814   0.79145   34.217
 5080.00    0.78476   0.79425   33.803
 5081.00    0.79621   0.79816   34.366
 5082.00    0.80672   0.80160   35.101
 5083.00    0.81188   0.80529   34.728
 5084.00    0.81471   0.80963   33.609
 5085.00    0.82053   0.81334   32.913
 5086.00    0.82792   0.81593   33.058
 5087.00    0.83176   0.81819   33.851
 5088.00    0.82928   0.82025   34.645
 5089.00    0.82166   0.82116   34.780
 5090.00    0.81470   0.82063   34.354
 5091.00    0.81398   0.81895   33.852
 5092.00    0.81930   0.81602   33.518
 5093.00    0.82561   0.81178   33.356
 5094.00    0.82528   0.80705   33.217
 5095.00    0.81464   0.80315   33.058
 5096.00    0.79953   0.80059   33.123
 5097.00    0.78817   0.79904   33.376
 5098.00    0.78412   0.79859   33.071
 5099.00    0.78658   0.79962   31.879
 5100.00    0.79161   0.80149   30.605
 5101.00    0.79625   0.80262   29.743
 5102.00    0.80107   0.80240   28.891
 5103.00    0.80562   0.80174   27.995
 5104.00    0.80601   0.80117   27.807
 5105.00    0.80133   0.80047   28.617
 5106.00    0.79688   0.80021   29.675
 5107.00    0.79655   0.80127   30.325
 5108.00    0.79902   0.80331   30.870
 5109.00    0.80241   0.80579   31.609
 5110.00    0.80670   0.80885   32.235
 5111.00    0.81191   0.81240   32.518
 5112.00    0.81723   0.81554   32.668
 5113.00    0.82183   0.81763   32.897
 5114.00    0.82498   0.81838   33.199
 5115.00    0.82503   0.81789   33.496
 5116.00    0.81973   0.81614   33.684
 5117.00    0.80894   0.81283   33.554
 5118.00    0.79527   0.80794   32.953
 5119.00    0.78239   0.80231   32.364
 5120.00    0.77380   0.79694   32.578
 5121.00    0.77122   0.79216   33.349
 5122.00    0.77461   0.78794   33.434
 5123.00    0.78396   0.78484   32.516
 5124.00    0.79826   0.78338   31.464
 5125.00    0.81135   0.78340   30.979
 5126.00    0.81531   0.78440   31.293
 5127.00    0.81190   0.78579   32.083
 5128.00    0.80964   0.78741   32.650
 5129.00    0.81012   0.78957   32.719
 5130.00    0.80809   0.79197   32.576
 5131.00    0.79907   0.79313   32.667
 5132.00    0.78305   0.79276   33.255
 5133.00    0.76803   0.79172   33.930
 5134.00    0.76396   0.79028   34.021
 5135.00    0.77050   0.78841   33.743
 5136.00    0.77984   0.78603   33.750
 5137.00    0.78536   0.78306   34.009
 5138.00    0.78464   0.78080   34.099
 5139.00    0.78155   0.78043   33.942
 5140.00    0.78155   0.78047   33.706
 5141.00    0.78463   0.77949   33.475
 5142.00    0.78741   0.77886   33.340
 5143.00    0.78730   0.77957   33.543
 5144.00    0.78431   0.78049   34.135
 5145.00    0.78222   0.78044   34.542
 5146.00    0.78404   0.78001   34.382
 5147.00    0.78718   0.78025   34.435
 5148.00    0.78828   0.78098   35.285
 5149.00    0.78833   0.78154   35.950
 5150.00    0.78927   0.78231   35.512
 5151.00    0.79052   0.78419   34.945
 5152.00    0.79072   0.78686   35.139
 5153.00    0.78966   0.78966   35.438
 5154.00    0.78925   0.79230   35.081
 5155.00    0.79353   0.79481   34.399
 5156.00    0.80384   0.79601   33.884
 5157.00    0.81570   0.79480   33.553
 5158.00    0.82261   0.79142   33.344
 5159.00    0.81936   0.78617   33.334
 5160.00    0.80587   0.77834   33.505
 5161.00    0.78814   0.76784   33.656
 5162.00    0.77051   0.75582   33.845
 5163.00    0.75211   0.74407   34.496
 5164.00    0.73240   0.73415   35.508
 5165.00    0.71375   0.72660   35.955
 5166.00    0.69977   0.72042   35.738
 5167.00    0.69389   0.71612   35.983
 5168.00    0.69698   0.71692   36.584
 5169.00    0.70696   0.72330   35.849
 5170.00    0.72081   0.73113   34.063
 5171.00    0.73571   0.73827   33.372
 5172.00    0.74967   0.74722   34.065
 5173.00    0.76156   0.75818   34.535
 5174.00    0.77048   0.76687   34.027
 5175.00    0.77547   0.77099   33.348
 5176.00    0.77512   0.77189   33.127
 5177.00    0.76851   0.76968   33.393
 5178.00    0.75796   0.76349   33.722
 5179.00    0.74823   0.75625   33.512
 5180.00    0.74201   0.75165   32.783
 5181.00    0.73931   0.74907   32.135
 5182.00    0.73880   0.74713   32.191
 5183.00    0.73885   0.74772   33.204
 5184.00    0.73910   0.75273   34.213
 5185.00    0.74010   0.75923   33.856
 5186.00    0.74191   0.76286   33.260
 5187.00    0.74467   0.76387   34.279
 5188.00    0.75010   0.76545   35.711
 5189.00    0.75948   0.76737   34.819
 5190.00    0.76998   0.76710    0.000
 5191.00    0.77866   0.76607    0.000
 5192.00    0.78950   0.76727    0.000
 5193.00    0.80805   0.77012    0.000
 5194.00    0.83223   0.77273    0.000
 5195.00    0.85446   0.77510    0.000
 5196.00    0.86646   0.77742    0.000
 5197.00    0.86325   0.77897    0.000
 5198.00    0.84685   0.77939    0.000
 5199.00    0.82365   0.77782    0.000
 5200.00    0.80051   0.77419    0.000
 5201.00    0.78290   0.77011    0.000
 5202.00    0.77314   0.76670    0.000
 5203.00    0.76962   0.76323    0.000
 5204.00    0.76673   0.76056    0.000
 5205.00    0.76174   0.76069    0.000
 5206.00    0.75986   0.76321    0.000
 5207.00    0.76538   0.76649    0.000
 5208.00    0.77472   0.77053    0.000
 5209.00    0.78276   0.77511    0.000
 5210.00    0.78767   0.77872    0.000
 5211.00    0.78898   0.78104   35.098
 5212.00    0.78614   0.78302   34.933
 5213.00    0.77964   0.78477   35.304
 5214.00    0.77186   0.78592   35.860
 5215.00    0.76708   0.78681   36.112
 5216.00    0.77017   0.78797   35.932
 5217.00    0.77975   0.78873   35.379
 5218.00    0.78668   0.78800   34.598
 5219.00    0.78497   0.78547   34.025
 5220.00    0.77670   0.78130   34.241
 5221.00    0.76934   0.77539   35.044
 5222.00    0.77148   0.76898   35.314
 5223.00    0.78134   0.76432   34.796
 5224.00    0.78651   0.76164   34.469
 5225.00    0.78110   0.76004   34.628
 5226.00    0.76991   0.76041   34.603
 5227.00    0.75938   0.76323   34.067
 5228.00    0.75397   0.76658   33.386
 5229.00    0.75544   0.76928   33.090
 5230.00    0.76287   0.77198   33.493
 5231.00    0.77345   0.77483   34.041
 5232.00    0.78372   0.77759   33.652
 5233.00    0.79238   0.78069   32.576
 5234.00    0.79992   0.78435   31.987
 5235.00    0.80587   0.78837   32.149
 5236.00    0.80846   0.79227   32.571
 5237.00    0.80556   0.79524   32.854
 5238.00    0.79656   0.79700   32.909
 5239.00    0.78576   0.79821   33.004
 5240.00    0.77898   0.79889   33.410
 5241.00    0.77590   0.79778   33.723
 5242.00    0.77192   0.79504   33.403
 5243.00    0.76431   0.79254   33.004
 5244.00    0.75388   0.79031   33.281
 5245.00    0.74578   0.78686   33.606
 5246.00    0.74537   0.78318   32.834
 5247.00    0.75205   0.78142   31.180
 5248.00    0.76140   0.78106   29.746
 5249.00    0.76955   0.78056   29.522
 5250.00    0.77503   0.78063   30.400
 5251.00    0.78004   0.78248   29.893
 5252.00    0.78769   0.78513   27.574
 5253.00    0.79844   0.78685   28.387
 5254.00    0.81078   0.78738   33.891
 5255.00    0.82232   0.78704   28.629
 5256.00    0.82912   0.78492   16.696
 5257.00    0.82552   0.77993   11.982
 5258.00    0.80933   0.77263   11.591
 5259.00    0.78595   0.76404   12.803
 5260.00    0.76264   0.75444   13.474
 5261.00    0.74345   0.74478   13.395
 5262.00    0.72962   0.73729   13.465
 5263.00    0.72055   0.73227   13.957
 5264.00    0.71592   0.72783   14.388
 5265.00    0.71680   0.72490   13.742
 5266.00    0.72328   0.72616   12.860
 5267.00    0.73305   0.72987   14.455
 5268.00    0.74242   0.73280   22.126
 5269.00    0.74776   0.73647   37.086
 5270.00    0.74875   0.74265   38.274
 5271.00    0.74951   0.74943   32.159
 5272.00    0.75430   0.75555   31.507
 5273.00    0.76497   0.76156   33.137
 5274.00    0.77948   0.76672   33.477
 5275.00    0.79244   0.77061   32.528
 5276.00    0.80023   0.77403   31.638
 5277.00    0.80281   0.77676   31.716
 5278.00    0.80188   0.77780   32.622
 5279.00    0.79973   0.77804   33.274
 5280.00    0.79765   0.77953   33.232
 5281.00    0.79587   0.78266   33.100
 5282.00    0.79511   0.78615   33.082
 5283.00    0.79616   0.78975   32.797
 5284.00    0.79746   0.79435   32.210
 5285.00    0.79577   0.79928   31.725
 5286.00    0.79061   0.80275   31.693
 5287.00    0.78489   0.80417   32.222
 5288.00    0.78324   0.80402   32.871
 5289.00    0.78861   0.80266   32.915
 5290.00    0.79551   0.79997   32.444
 5291.00    0.79444   0.79579   32.171
 5292.00    0.78456   0.79036   32.444
 5293.00    0.77223   0.78492   33.139
 5294.00    0.76261   0.78089   33.697
 5295.00    0.75764   0.77825   33.572
 5296.00    0.75563   0.77627   33.188
 5297.00    0.75486   0.77566   33.279
 5298.00    0.75935   0.77765   33.647
 5299.00    0.77395   0.78140   33.607
 5300.00    0.79562   0.78507   33.023
 5301.00    0.81560   0.78836   32.320
 5302.00    0.82493   0.79185   32.132
 5303.00    0.81977   0.79532   32.753
 5304.00    0.80703   0.79803   33.521
 5305.00    0.79675   0.79964   33.611
 5306.00    0.79236   0.80045   33.345
 5307.00    0.79220   0.80073   33.418
 5308.00    0.79277   0.80027   33.877
 5309.00    0.79095   0.79898   34.338
 5310.00    0.78601   0.79707   34.327
 5311.00    0.77886   0.79437   33.774
 5312.00    0.77109   0.79122   33.311
 5313.00    0.76431   0.78884   33.427
 5314.00    0.75989   0.78711   33.915
 5315.00    0.76034   0.78490   34.262
 5316.00    0.76955   0.78272   34.057
 5317.00    0.78524   0.78143   33.386
 5318.00    0.79557   0.77960   32.911
 5319.00    0.79333   0.77567   33.086
 5320.00    0.78414   0.77081   33.817
 5321.00    0.77589   0.76647   34.707
 5322.00    0.77191   0.76151   35.235
 5323.00    0.77161   0.75511   35.223
 5324.00    0.77163   0.75024   35.055
 5325.00    0.76941   0.74926   35.080
 5326.00    0.76488   0.75015   35.326
 5327.00    0.76015   0.75135   35.643
 5328.00    0.75829   0.75481   35.829
 5329.00    0.75940   0.76104   35.914
 5330.00    0.76034   0.76713   36.150
 5331.00    0.76051   0.77101   36.435
 5332.00    0.76290   0.77339   36.293
 5333.00    0.76900   0.77535   35.755
 5334.00    0.77726   0.77614   35.334
 5335.00    0.78464   0.77486   34.930
 5336.00    0.78830   0.77293   34.035
 5337.00    0.78895   0.77224   33.168
 5338.00    0.78973   0.77228   33.357
 5339.00    0.79037   0.77214   34.159
 5340.00    0.78748   0.77244   34.059
 5341.00    0.77992   0.77361   33.411
 5342.00    0.76997   0.77510   33.830
 5343.00    0.76239   0.77634   35.080
 5344.00    0.76173   0.77691   35.371
 5345.00    0.76694   0.77769   34.329
 5346.00    0.77310   0.77980   33.158
 5347.00    0.77720   0.78251   32.844
 5348.00    0.77899   0.78488   33.674
 5349.00    0.78028   0.78797   34.700
 5350.00    0.78383   0.79230   34.519
 5351.00    0.79159   0.79629   33.574
 5352.00    0.80327   0.79907   33.108
 5353.00    0.81452   0.80127   33.095
 5354.00    0.82009   0.80284   -2.000
 5355.00    0.81865   0.80291   -2.000
 5356.00    0.81310   0.80132   -2.000
 5357.00    0.80972   0.79839   -2.000
 5358.00    0.81269   0.79463   -2.000
 5359.00    0.81793   0.79034   -2.000
 5360.00    0.81908   0.78550   -2.000
 5361.00    0.81490   0.78040   -2.000
 5362.00    0.80694   0.77570   -2.000
 5363.00    0.79638   0.77148   -2.000
 5364.00    0.78547   0.76767   -2.000
 5365.00    0.77856   0.76442   -2.000
 5366.00    0.77758   0.76182   -2.000
 5367.00    0.77848   0.76074   -2.000
 5368.00    0.77697   0.76173   33.067
 5369.00    0.77326   0.76398   34.087
 5370.00    0.77024   0.76714   35.258
 5371.00    0.77139   0.77159   35.413
 5372.00    0.77753   0.77638   34.385
 5373.00    0.78518   0.78012   33.836
 5374.00    0.79052   0.78272   34.712
 5375.00    0.79213   0.78403   36.285
 5376.00    0.79138   0.78409   37.246
 5377.00    0.79181   0.78356   36.777
 5378.00    0.79490   0.78259   35.475
 5379.00    0.79881   0.78131   34.860
 5380.00    0.80316   0.78062   35.139
 5381.00    0.81016   0.78038   35.000
 5382.00    0.81887   0.77979   34.200
 5383.00    0.82421   0.77915   34.062
 5384.00    0.82367   0.77850   34.856
 5385.00    0.81905   0.77693   35.351
 5386.00    0.81197   0.77458   34.982
 5387.00    0.80257   0.77206   34.538
 5388.00    0.79126   0.76902   34.743
 5389.00    0.77982   0.76549   35.702
 5390.00    0.77263   0.76264   36.385
 5391.00    0.77421   0.76026   35.294
 5392.00    0.78095   0.75735   33.493
 5393.00    0.78371   0.75507   33.180
 5394.00    0.78103   0.75461   34.089
 5395.00    0.77835   0.75409   34.233
 5396.00    0.77740   0.75252   33.544
 5397.00    0.77553   0.75175   33.531
 5398.00    0.77052   0.75157   34.176
 5399.00    0.76182   0.74974   34.377
 5400.00    0.75072   0.74672   34.243
 5401.00    0.73986   0.74419   34.632
 5402.00    0.73216   0.74215   35.200
 5403.00    0.72937   0.74051   35.097
 5404.00    0.72991   0.73969   35.025
 5405.00    0.73073   0.73990   35.959
 5406.00    0.73093   0.74137   36.563
 5407.00    0.73213   0.74435   35.160
 5408.00    0.73798   0.74797   33.661
 5409.00    0.75101   0.75149   34.148
 5410.00    0.76861   0.75528   35.499
 5411.00    0.78544   0.75963   35.521
 5412.00    0.79724   0.76365   34.778
 5413.00    0.80255   0.76652   34.745
 5414.00    0.80397   0.76859   35.130
 5415.00    0.80464   0.77013   35.127
 5416.00    0.80462   0.77062   34.954
 5417.00    0.80194   0.77038   35.105
 5418.00    0.79440   0.76993   35.501
 5419.00    0.78250   0.76873   35.799
 5420.00    0.77147   0.76708   35.778
 5421.00    0.76654   0.76599   35.583
 5422.00    0.76883   0.76526   35.763
 5423.00    0.77532   0.76403   36.406
 5424.00    0.77979   0.76213   36.622
 5425.00    0.77767   0.75994   36.113
 5426.00    0.76928   0.75836   36.065
 5427.00    0.75809   0.75694   37.053
 5428.00    0.74878   0.75461   38.007
 5429.00    0.74401   0.75298   38.145
 5430.00    0.74291   0.75346   38.206
 5431.00    0.74345   0.75482   38.468
 5432.00    0.74406   0.75659   37.981
 5433.00    0.74487   0.75977   36.825
 5434.00    0.74772   0.76426   36.477
 5435.00    0.75384   0.76872   37.210
 5436.00    0.76269   0.77250   37.594
 5437.00    0.77178   0.77524   36.847
 5438.00    0.77788   0.77651   35.692
 5439.00    0.78202   0.77609   34.664
 5440.00    0.78867   0.77421   33.734
 5441.00    0.79620   0.77118   32.998
 5442.00    0.79656   0.76753   32.761
 5443.00    0.78545   0.76459   33.241
 5444.00    0.76557   0.76311   34.416
 5445.00    0.74583   0.76231   35.575
 5446.00    0.73711   0.76195   35.609
 5447.00    0.74196   0.76242   34.892
 5448.00    0.75429   0.76311   34.784
 5449.00    0.76606   0.76312   35.243
 5450.00    0.77100   0.76215   35.198
 5451.00    0.76901   0.76073   34.666
 5452.00    0.76452   0.76014   34.480
 5453.00    0.76099   0.76033   34.673
 5454.00    0.75985   0.76013   34.738
 5455.00    0.76098   0.76010   34.695
 5456.00    0.76315   0.76115   34.894
 5457.00    0.76472   0.76202   35.271
 5458.00    0.76484   0.76135   35.438
 5459.00    0.76513   0.76043   35.099
 5460.00    0.76798   0.76060   34.368
 5461.00    0.77369   0.76061   33.964
 5462.00    0.78042   0.75982   34.426
 5463.00    0.78480   0.76009   35.189
 5464.00    0.78374   0.76127   -2.000
 5465.00    0.77658   0.76122   -2.000
 5466.00    0.76588   0.76040   -2.000
 5467.00    0.75783   0.75989   -2.000
 5468.00    0.76024   0.75816   -2.000
 5469.00    0.77982   0.75468   -2.000
 5470.00    0.81754   0.75167   -2.000
 5471.00    0.86375   0.74892   -2.000
 5472.00    0.89402   0.74482   -2.000
 5473.00    0.86597   0.74162   -2.000
 5474.00    0.72265   0.74112   -2.000
 5475.00    0.41377   0.74103   -2.000
 5476.00    0.04428   0.74076   -2.000
 5477.00   -0.06464   0.74237   -2.000
 5478.00    0.20968   0.74548   -2.000
 5479.00    0.55512   0.74794   -2.000
 5480.00    0.70334   0.75009   -2.000
 5481.00    0.71901   0.75291   -2.000
 5482.00    0.72636   0.75514   -2.000
 5483.00    0.74217   0.75618   -2.000
 5484.00    0.75142   0.75724   -2.000
 5485.00    0.75360   0.75819   -2.000
 5486.00    0.75330   0.75823   -2.000
 5487.00    0.75411   0.75842   13.160
 5488.00    0.75801   0.75896   13.098
 5489.00    0.76480   0.75867   13.114
 5490.00    0.77074   0.75832   13.006
 5491.00    0.76995   0.75873   12.973
 5492.00    0.76214   0.75846   13.110
 5493.00    0.75361   0.75729   13.275
 5494.00    0.74951   0.75691   13.346
 5495.00    0.75098   0.75691   13.314
 5496.00    0.75593   0.75567   13.227
 5497.00    0.76075   0.75399   13.146
 5498.00    0.76443   0.75297   13.082
 5499.00    0.76854   0.75195   13.011
 5500.00    0.77308   0.75054   12.935
 5501.00    0.77631   0.74907   12.882
 5502.00    0.77711   0.74780   12.868
 5503.00    0.77553   0.74718   12.894
 5504.00    0.77235   0.74680   12.948
 5505.00    0.76863   0.74581   13.010
 5506.00    0.76513   0.74523   13.070
 5507.00    0.76158   0.74540   13.131
 5508.00    0.75572   0.74522   13.232
 5509.00    0.74651   0.74522   13.396
 5510.00    0.73987   0.74636   13.516
 5511.00    0.74358   0.74807   13.449
 5512.00    0.75684   0.74992   13.213
 5513.00    0.77236   0.75241   12.947
 5514.00    0.78260   0.75530   12.778
 5515.00    0.78397   0.75766   12.756
 5516.00    0.78111   0.75936   12.802
 5517.00    0.77976   0.76040   12.823
 5518.00    0.77710   0.76053   12.868
 5519.00    0.76906   0.75962   13.008
 5520.00    0.76017   0.75764   13.155
 5521.00    0.75687   0.75495   13.196
 5522.00    0.75901   0.75226   13.175
 5523.00    0.76281   0.74941   13.154
 5524.00    0.76511   0.74654   13.065
 5525.00    0.76464   0.74509   12.955
 5526.00    0.76276   0.74488   13.135
 5527.00    0.76153   0.74460   13.494
 5528.00    0.76199   0.74497   13.019
 5529.00    0.76370   0.74645   12.159
 5530.00    0.76483   0.74748   13.545
 5531.00    0.76387   0.74807   21.245
 5532.00    0.76082   0.74954   40.014
 5533.00    0.75659   0.75115   43.187
 5534.00    0.75242   0.75210   34.359
 5535.00    0.74969   0.75331   33.525
 5536.00    0.74951   0.75489   36.013
 5537.00    0.75134   0.75594   36.392
 5538.00    0.75293   0.75628   35.484
 5539.00    0.75484   0.75640   35.172
 5540.00    0.76129   0.75675   35.088
 5541.00    0.77279   0.75700   34.780
 5542.00    0.78401   0.75693   34.543
 5543.00    0.79110   0.75748   34.604
 5544.00    0.79412   0.75871   34.846
 5545.00    0.79325   0.75958   35.200
 5546.00    0.78817   0.76016   35.714
 5547.00    0.78192   0.76083   36.194
 5548.00    0.78015   0.76101   36.198
 5549.00    0.78362   0.76042   35.652
 5550.00    0.78778   0.75945   34.971
 5551.00    0.79014   0.75854   34.702
 5552.00    0.79163   0.75767   35.232
 5553.00    0.79353   0.75649   36.181
 5554.00    0.79577   0.75539   36.614
 5555.00    0.79488   0.75459   36.535
 5556.00    0.78640   0.75354   36.731
 5557.00    0.77182   0.75225   37.086
 5558.00    0.75755   0.75066   36.838
 5559.00    0.74867   0.74892   36.184
 5560.00    0.74724   0.74749   35.914
 5561.00    0.75191   0.74579   36.053
 5562.00    0.75918   0.74390   36.097
 5563.00    0.76597   0.74298   35.846
 5564.00    0.76997   0.74241   35.478
 5565.00    0.76941   0.74117   35.337
 5566.00    0.76423   0.74085   35.538
 5567.00    0.75791   0.74168   35.462
 5568.00    0.75479   0.74141   34.582
 5569.00    0.75570   0.74123   33.703
 5570.00    0.75934   0.74292   33.707
 5571.00    0.76488   0.74411   34.160
 5572.00    0.77177   0.74439   34.121
 5573.00    0.77889   0.74585   33.409
 5574.00    0.78396   0.74736   32.522
 5575.00    0.78326   0.74768   32.153
 5576.00    0.77565   0.74800   32.456
 5577.00    0.76622   0.74791   32.483
 5578.00    0.76002   0.74648   31.478
 5579.00    0.75586   0.74438   30.151
 5580.00    0.74992   0.74169   29.330
 5581.00    0.73983   0.73795   29.078
 5582.00    0.72736   0.73354   29.113
 5583.00    0.71951   0.72931   29.078
 5584.00    0.72081   0.72573   28.811
 5585.00    0.72821   0.72293   28.523
 5586.00    0.73677   0.72127   28.503
 5587.00    0.74379   0.72092   28.932
 5588.00    0.74746   0.72176   29.805
 5589.00    0.74633   0.72330   30.865
 5590.00    0.74187   0.72484   31.825
 5591.00    0.73901   0.72670   32.557
 5592.00    0.74032   0.72897   33.066
 5593.00    0.74342   0.73000   33.461
 5594.00    0.74427   0.72974   33.918
 5595.00    0.73962   0.73002   34.593
 5596.00    0.73041   0.73035   35.278
 5597.00    0.72190   0.72994   35.415
 5598.00    0.71794   0.73009   35.129
 5599.00    0.71877   0.73176   35.290
 5600.00    0.72220   0.73457   36.072
 5601.00    0.72516   0.73773   36.722
 5602.00    0.72740   0.74135   36.852
 5603.00    0.73118   0.74535   36.793
 5604.00    0.73628   0.74881   36.733
 5605.00    0.73974   0.75114   36.529
 5606.00    0.74020   0.75235   36.055
 5607.00    0.73839   0.75222   35.385
 5608.00    0.73505   0.75062   34.925
 5609.00    0.73065   0.74825   35.118
 5610.00    0.72625   0.74496   35.761
 5611.00    0.72322   0.74067   36.162
 5612.00    0.72215   0.73744   36.047
 5613.00    0.72290   0.73569   35.661
 5614.00    0.72529   0.73393   35.302
 5615.00    0.72902   0.73289   35.130
 5616.00    0.73335   0.73330   35.036
 5617.00    0.73709   0.73387   34.846
 5618.00    0.73886   0.73426   34.704
 5619.00    0.73802   0.73467   34.863
 5620.00    0.73600   0.73462   35.269
 5621.00    0.73507   0.73480   35.572
 5622.00    0.73625   0.73580   35.292
 5623.00    0.73855   0.73675   34.469
 5624.00    0.73877   0.73786   34.257
 5625.00    0.73499   0.73998   35.460
 5626.00    0.73074   0.74201   36.798
 5627.00    0.72977   0.74321   36.502
 5628.00    0.72967   0.74413   35.450
 5629.00    0.72714   0.74433   35.246
 5630.00    0.72418   0.74342   36.065
 5631.00    0.72419   0.74202   37.282
 5632.00    0.72754   0.74035   38.000
 5633.00    0.73115   0.73810   37.675
 5634.00    0.72929   0.73603   36.762
 5635.00    0.72043   0.73482   36.079
 5636.00    0.71198   0.73369   36.209
 5637.00    0.71175   0.73262   37.093
 5638.00    0.72100   0.73273   37.734
 5639.00    0.73517   0.73346   37.404
 5640.00    0.74586   0.73395   36.665
 5641.00    0.74830   0.73488   36.269
 5642.00    0.74527   0.73623   36.434
 5643.00    0.74100   0.73729   36.839
 5644.00    0.73734   0.73806   36.733
 5645.00    0.73409   0.73861   35.987
 5646.00    0.72972   0.73875   35.402
 5647.00    0.72376   0.73829   35.383
 5648.00    0.71780   0.73741   35.574
 5649.00    0.71424   0.73613   35.688
 5650.00    0.71495   0.73385   35.783
 5651.00    0.71830   0.73077   35.737
 5652.00    0.71937   0.72829   35.242
 5653.00    0.71558   0.72563   34.707
 5654.00    0.70851   0.72192   35.015
 5655.00    0.70177   0.71950   35.783
 5656.00    0.69920   0.71900   35.424
 5657.00    0.70155   0.71836   34.118
 5658.00    0.70634   0.71800   33.493
 5659.00    0.71072   0.71945   33.295
 5660.00    0.71278   0.72163   32.002
 5661.00    0.71239   0.72334   30.225
 5662.00    0.71103   0.72518   29.657
 5663.00    0.71056   0.72733   30.135
 5664.00    0.71232   0.72939   30.317
 5665.00    0.71573   0.73125   30.141
 5666.00    0.71899   0.73316   30.597
 5667.00    0.72136   0.73513   31.783
 5668.00    0.72349   0.73706   32.976
 5669.00    0.72694   0.73897   33.839
 5670.00    0.73301   0.74054   34.505
 5671.00    0.74061   0.74137   34.902
 5672.00    0.74716   0.74182   34.898
 5673.00    0.75066   0.74196   34.820
 5674.00    0.75036   0.74106   35.079
 5675.00    0.74712   0.73930   35.488
 5676.00    0.74208   0.73759   35.663
 5677.00    0.73465   0.73565   35.773
 5678.00    0.72480   0.73297   36.007
 5679.00    0.71597   0.73049   35.745
 5680.00    0.71195   0.72871   34.498
 5681.00    0.71253   0.72710   32.996
 5682.00    0.71574   0.72587   31.972
 5683.00    0.72057   0.72541   31.265
 5684.00    0.72654   0.72564   30.592
 5685.00    0.73277   0.72656   30.156
 5686.00    0.73782   0.72790   30.290
 5687.00    0.73979   0.72938   31.172
 5688.00    0.73784   0.73116   32.575
 5689.00    0.73358   0.73286   33.547
 5690.00    0.73012   0.73384   33.459
 5691.00    0.73086   0.73420   33.075
 5692.00    0.73577   0.73433   33.227
 5693.00    0.73952   0.73367   33.909
 5694.00    0.73764   0.73206   34.629
 5695.00    0.73036   0.73040   34.725
 5696.00    0.71980   0.72877   34.193
 5697.00    0.70808   0.72659   33.926
 5698.00    0.69788   0.72427   34.362
 5699.00    0.69235   0.72240   34.989
 5700.00    0.69316   0.72049   35.276
 5701.00    0.69941   0.71804   35.221
 5702.00    0.70775   0.71556   35.105
 5703.00    0.71343   0.71365   35.227
 5704.00    0.71449   0.71156   35.455
 5705.00    0.71301   0.70949   35.259
 5706.00    0.71225   0.70904   34.686
 5707.00    0.71495   0.70946   34.430
 5708.00    0.72137   0.71026   34.780
 5709.00    0.72948   0.71284   35.422
 5710.00    0.73747   0.71633   35.845
 5711.00    0.74440   0.71955   35.675
 5712.00    0.74905   0.72344   35.251
 5713.00    0.74999   0.72741   35.319
 5714.00    0.74660   0.73044   35.888
 5715.00    0.73985   0.73335   36.253
 5716.00    0.73332   0.73597   36.006
 5717.00    0.73208   0.73768   35.377
 5718.00    0.73939   0.73915   35.100
 5719.00    0.75471   0.74022   35.765
 5720.00    0.77144   0.74044   36.586
 5721.00    0.77988   0.74049   36.089
 5722.00    0.77419   0.74031   34.738
 5723.00    0.75515   0.73946   34.019
 5724.00    0.73211   0.73853   34.228
 5725.00    0.71716   0.73794   34.776
 5726.00    0.71448   0.73733   34.850
 5727.00    0.72034   0.73669   34.103
 5728.00    0.72643   0.73651   33.477
 5729.00    0.72541   0.73673   33.856
 5730.00    0.71807   0.73690   34.426
 5731.00    0.71062   0.73703   33.964
 5732.00    0.70948   0.73733   33.119
 5733.00    0.71713   0.73751   32.995
 5734.00    0.72848   0.73731   33.397
 5735.00    0.73661   0.73706   33.652
 5736.00    0.73977   0.73673   33.656
 5737.00    0.73965   0.73629   33.640
 5738.00    0.73862   0.73598   33.738
 5739.00    0.73884   0.73566   33.930
 5740.00    0.74156   0.73527    0.000
 5741.00    0.74612   0.73489    0.000
 5742.00    0.74950   0.73450    0.000
 5743.00    0.74962   0.73378    0.000
 5744.00    0.74772   0.73269    0.000
 5745.00    0.74568   0.73154    0.000
 5746.00    0.74392   0.73019    0.000
 5747.00    0.74183   0.72856    0.000
 5748.00    0.73840   0.72711    0.000
 5749.00    0.73368   0.72598    0.000
 5750.00    0.72945   0.72501    0.000
 5751.00    0.72747   0.72459    0.000
 5752.00    0.72839   0.72467    0.000
 5753.00    0.73138   0.72480    0.000
 5754.00    0.73451   0.72516    0.000
 5755.00    0.73707   0.72546    0.000
 5756.00    0.74019   0.72534    0.000
 5757.00    0.74407   0.72534    0.000
 5758.00    0.74699   0.72531    0.000
 5759.00    0.74665   0.72519    0.000
 5760.00    0.74129   0.72580    0.000
 5761.00    0.73182   0.72687    0.000
 5762.00    0.72176   0.72788    0.000
 5763.00    0.71421   0.72923    0.000
 5764.00    0.71079   0.73059    0.000
 5765.00    0.71151   0.73125    0.000
 5766.00    0.71541   0.73160    0.000
 5767.00    0.72215   0.73157    0.000
 5768.00    0.73129   0.73087    0.000
 5769.00    0.73900   0.73010    0.000
 5770.00    0.74032   0.72918    0.000
 5771.00    0.73676   0.72777    0.000
 5772.00    0.73459   0.72640    0.000
 5773.00    0.73645   0.72482    0.000
 5774.00    0.74098   0.72245    0.000
 5775.00    0.74606   0.71986    0.000
 5776.00    0.74975   0.71725   -2.000
 5777.00    0.75064   0.71410   -2.000
 5778.00    0.74808   0.71113   -2.000
 5779.00    0.74227   0.70916   -2.000
 5780.00    0.73295   0.70771   -2.000
 5781.00    0.71747   0.70680   -2.000
 5782.00    0.69531   0.70733   -2.000
 5783.00    0.67491   0.70870   -2.000
 5784.00    0.66649   0.71006   -2.000
 5785.00    0.67089   0.71208   -2.000
 5786.00    0.68163   0.71440   -2.000
 5787.00    0.68979   0.71609   -2.000
 5788.00    0.68999   0.71783   -2.000
 5789.00    0.68611   0.71964   -2.000
 5790.00    0.68451   0.72077   -2.000
 5791.00    0.68625   0.72181   -2.000
 5792.00    0.68953   0.72310   -2.000
 5793.00    0.69310   0.72392   -2.000
 5794.00    0.69758   0.72452   -2.000
 5795.00    0.70583   0.72548    0.000
 5796.00    0.71788   0.72627    0.000
 5797.00    0.72758   0.72657    0.000
 5798.00    0.73103   0.72693    0.000
 5799.00    0.73217   0.72722    0.000
 5800.00    0.73435   0.72692    0.000
 5801.00    0.73499   0.72651    0.000
 5802.00    0.73208   0.72624    0.000
 5803.00    0.72779   0.72590    0.000
 5804.00    0.72340   0.72572    0.000
 5805.00    0.71687   0.72577    0.000
 5806.00    0.70800   0.72593    0.000
 5807.00    0.70029   0.72623    0.000
 5808.00    0.69525   0.72641    0.000
 5809.00    0.69048   0.72642    0.000
 5810.00    0.68430   0.72650    0.000
 5811.00    0.67787   0.72657    0.000
 5812.00    0.67427   0.72654    0.000
 5813.00    0.67733   0.72684    0.000
 5814.00    0.68889   0.72756    0.000
 5815.00    0.70767   0.72833    0.000
 5816.00    0.72936   0.72922    0.000
 5817.00    0.74788   0.73036    0.000
 5818.00    0.75933   0.73136    0.000
 5819.00    0.76299   0.73204    0.000
 5820.00    0.76012   0.73261    0.000
 5821.00    0.75285   0.73303    0.000
 5822.00    0.74231   0.73323    0.000
 5823.00    0.72949   0.73327    0.000
 5824.00    0.71870   0.73324    0.000
 5825.00    0.71569   0.73316    0.000
 5826.00    0.72153   0.73300    0.000
 5827.00    0.73157   0.73265    0.000
 5828.00    0.73697   0.73221    0.000
 5829.00    0.73021   0.73187    0.000
 5830.00    0.71512   0.73141    0.000
 5831.00    0.70257   0.73078    0.000
 5832.00    0.69912   0.73050    0.000
 5833.00    0.70562   0.73041    0.000
 5834.00    0.71848   0.73014    0.000
 5835.00    0.73158   0.73012    0.000
 5836.00    0.73902   0.73039    0.000
 5837.00    0.73861   0.73037    0.000
 5838.00    0.73583   0.73016    0.000
 5839.00    0.73674   0.72996    0.000
 5840.00    0.73846   0.72933    0.000
 5841.00    0.73541   0.72825    0.000
 5842.00    0.72786   0.72703    0.000
 5843.00    0.71912   0.72548    0.000
 5844.00    0.71117   0.72363    0.000
 5845.00    0.70460   0.72174    0.000
 5846.00    0.69913   0.71960    0.000
 5847.00    0.69497   0.71726    0.000
 5848.00    0.69381   0.71502    0.000
 5849.00    0.69547   0.71259    0.000
 5850.00    0.69567   0.71002    0.000
 5851.00    0.69210   0.70794    0.000
 5852.00    0.68862   0.70615    0.000
 5853.00    0.68853   0.70448    0.000
 5854.00    0.69013   0.70368    0.000
 5855.00    0.69175   0.70365    0.000
 5856.00    0.69476   0.70392    0.000
 5857.00    0.70002   0.70489    0.000
 5858.00    0.70595   0.70638    0.000
 5859.00    0.71072   0.70784    0.000
 5860.00    0.71357   0.70952    0.000
 5861.00    0.71438   0.71123    0.000
 5862.00    0.71352   0.71255    0.000
 5863.00    0.71213   0.71375    0.000
 5864.00    0.71186   0.71480    0.000
 5865.00    0.71289   0.71533    0.000
 5866.00    0.71414   0.71543    0.000
 5867.00    0.71774   0.71513    0.000
 5868.00    0.72939   0.71415    0.000
 5869.00    0.75281   0.71271    0.000
 5870.00    0.78716   0.71097    0.000
 5871.00    0.82539   0.70909    0.000
 5872.00    0.85545   0.70738    0.000
 5873.00    0.86550   0.70596    0.000
 5874.00    0.84822   0.70518    0.000
 5875.00    0.80806   0.70482    0.000
 5876.00    0.75969   0.70444    0.000
 5877.00    0.71858   0.70431    0.000
 5878.00    0.69582   0.70388    0.000
 5879.00    0.69208   0.70235    0.000
 5880.00    0.69940   0.69978    0.000
 5881.00    0.70828   0.69626    0.000
 5882.00    0.71040   0.69106    0.000
 5883.00    0.70087   0.68423    0.000
 5884.00    0.67943   0.67728    0.000
 5885.00    0.65175   0.67001    0.000
 5886.00    0.62667   0.66224    0.000
 5887.00    0.61114   0.65663    0.000
 5888.00    0.60796   0.65295    0.000
 5889.00    0.61402   0.64962    0.000
 5890.00    0.62303   0.64918    0.000
 5891.00    0.63010   0.65112    0.000
 5892.00    0.63374   0.65292    0.000
 5893.00    0.63735   0.65681    0.000
 5894.00    0.64515   0.66265    0.000
 5895.00    0.65698   0.66793    0.000
 5896.00    0.67059   0.67400    0.000
 5897.00    0.68464   0.68095    0.000
 5898.00    0.69698   0.68672    0.000
 5899.00    0.70299   0.69172    0.000
 5900.00    0.70029   0.69633    0.000
 5901.00    0.69305   0.69969   35.312
 5902.00    0.68746   0.70198   35.732
 5903.00    0.68719   0.70371   35.103
 5904.00    0.69203   0.70478   34.338
 5905.00    0.69775   0.70525   33.985
 5906.00    0.70133   0.70529   34.120
 5907.00    0.70431   0.70494   34.413
 5908.00    0.70863   0.70435   34.617
 5909.00    0.71368   0.70354   34.874
 5910.00    0.71695   0.70258   35.335
 5911.00    0.71518   0.70191   35.906
 5912.00    0.70800   0.70153   36.316
 5913.00    0.69935   0.70137   36.280
 5914.00    0.69322   0.70177   36.011
 5915.00    0.69147   0.70249   36.203
 5916.00    0.69416   0.70330   36.761
 5917.00    0.70007   0.70432   36.580
 5918.00    0.70799   0.70518   35.678
 5919.00    0.71718   0.70579   35.429
 5920.00    0.72706   0.70627   35.852
 5921.00    0.73652   0.70631   35.441
 5922.00    0.74220   0.70609   34.384
 5923.00    0.73932   0.70561   34.521
 5924.00    0.72724   0.70485   35.783
 5925.00    0.71056   0.70416   36.031
 5926.00    0.69644   0.70342   35.043
 5927.00    0.69173   0.70280   34.746
 5928.00    0.69731   0.70260   35.445
 5929.00    0.70775   0.70260   35.834
 5930.00    0.71507   0.70281   35.463
 5931.00    0.71298   0.70325   35.029
 5932.00    0.70422   0.70379   34.937
 5933.00    0.69760   0.70429   35.152
 5934.00    0.69708   0.70452   35.574
 5935.00    0.70090   0.70465   36.066
 5936.00    0.70512   0.70468   36.350
 5937.00    0.70639   0.70432   36.221
 5938.00    0.70543   0.70391   35.990
 5939.00    0.70503   0.70355   36.056
 5940.00    0.70536   0.70301   36.094
 5941.00    0.70504   0.70253   35.684
 5942.00    0.70418   0.70196   35.487
 5943.00    0.70359   0.70130   36.322
 5944.00    0.70286   0.70071   37.692
 5945.00    0.70110   0.69991   38.370
 5946.00    0.69837   0.69911   38.025
 5947.00    0.69589   0.69861   37.213
 5948.00    0.69596   0.69810   36.630
 5949.00    0.69886   0.69764   36.612
 5950.00    0.69980   0.69756   36.844
 5951.00    0.69494   0.69772   36.897
 5952.00    0.68770   0.69787   36.824
 5953.00    0.68374   0.69829   36.828
 5954.00    0.68531   0.69908   36.883
 5955.00    0.69204   0.69991   36.914
 5956.00    0.70205   0.70084   36.959
 5957.00    0.71225   0.70195   36.885
 5958.00    0.71888   0.70300   36.269
 5959.00    0.72003   0.70386   35.266
 5960.00    0.71738   0.70462   34.911
 5961.00    0.71439   0.70528   35.646
 5962.00    0.71452   0.70566   36.591
 5963.00    0.71880   0.70601   36.715
 5964.00    0.72460   0.70638   35.932
 5965.00    0.72737   0.70652   34.961
 5966.00    0.72253   0.70660   34.739
 5967.00    0.70991   0.70654   35.343
 5968.00    0.69495   0.70608   35.773
 5969.00    0.68306   0.70528   35.729
 5970.00    0.67677   0.70420   36.200
 5971.00    0.67625   0.70284   37.181
 5972.00    0.67994   0.70127   37.075
 5973.00    0.68542   0.69984   35.865
 5974.00    0.69005   0.69854   35.501
 5975.00    0.69186   0.69731   36.471
 5976.00    0.69013   0.69645   37.444
 5977.00    0.68638   0.69565   37.729
 5978.00    0.68403   0.69479   37.985
 5979.00    0.68613   0.69420   38.369
 5980.00    0.69423   0.69353   38.275
 5981.00    0.70698   0.69291   37.734
 5982.00    0.72037   0.69275   37.413
 5983.00    0.72944   0.69279   37.453
 5984.00    0.73054   0.69307   37.467
 5985.00    0.72568   0.69371   37.198
 5986.00    0.72040   0.69457   36.684
 5987.00    0.71626   0.69543   36.183
 5988.00    0.71072   0.69611   35.947
 5989.00    0.70080   0.69683   35.874
 5990.00    0.68588   0.69730   35.729
 5991.00    0.67107   0.69728   35.687
 5992.00    0.66375   0.69725   35.938
 5993.00    0.66586   0.69697   35.823
 5994.00    0.67413   0.69632   34.756
 5995.00    0.68289   0.69580   33.820
 5996.00    0.68684   0.69510   34.121
 5997.00    0.68439   0.69430   34.717
 5998.00    0.67709   0.69365   34.171
 5999.00    0.66789   0.69275   33.363
 6000.00    0.66039   0.69190   33.614
 6001.00    0.65795   0.69114   34.294
 6002.00    0.66141   0.69017   34.245
 6003.00    0.66685   0.68950   33.904
 6004.00    0.66997   0.68901   34.170
 6005.00    0.67103   0.68851   34.961
 6006.00    0.67199   0.68842   35.813
 6007.00    0.67329   0.68836   36.619
 6008.00    0.67459   0.68830   37.312
 6009.00    0.67580   0.68838   37.492
 6010.00    0.67700   0.68809   37.139
 6011.00    0.67837   0.68776   37.098
 6012.00    0.68029   0.68743   37.769
 6013.00    0.68322   0.68665   38.259
 6014.00    0.68587   0.68596   37.851
 6015.00    0.68453   0.68541   37.140
 6016.00    0.67719   0.68475   36.719
 6017.00    0.66602   0.68434   36.455
 6018.00    0.65568   0.68427   36.211
 6019.00    0.65145   0.68455   36.184
 6020.00    0.65584   0.68513   36.380
 6021.00    0.66695   0.68601   36.408
 6022.00    0.68021   0.68741   36.001
 6023.00    0.68991   0.68886   35.298
 6024.00    0.69206   0.69034   34.702
 6025.00    0.68594   0.69210   34.630
 6026.00    0.67497   0.69364   34.886
 6027.00    0.66554   0.69502   34.716
 6028.00    0.66093   0.69633   34.206
 6029.00    0.66051   0.69734   34.302
 6030.00    0.66546   0.69812   35.016
 6031.00    0.67838   0.69864   35.269
 6032.00    0.69460   0.69895   34.756
 6033.00    0.70344   0.69901   34.274
 6034.00    0.70107   0.69887   34.312
 6035.00    0.69258   0.69868   34.828
 6036.00    0.68598   0.69834   35.606
 6037.00    0.68740   0.69805   36.328
 6038.00    0.69356   0.69791   36.573
 6039.00    0.69541   0.69775   36.116
 6040.00    0.69122   0.69781   35.490
 6041.00    0.68584   0.69803   35.450
 6042.00    0.68185   0.69816   35.850
 6043.00    0.67878   0.69832   35.953
 6044.00    0.67545   0.69841   35.547
 6045.00    0.67158   0.69825   34.954
 6046.00    0.66974   0.69785   34.518
 6047.00    0.67306   0.69721   34.402
 6048.00    0.68085   0.69640   34.469
 6049.00    0.68994   0.69541   34.520
 6050.00    0.69804   0.69434   34.685
 6051.00    0.70382   0.69346   35.178
 6052.00    0.70652   0.69271   35.829
 6053.00    0.70632   0.69205   36.150
 6054.00    0.70498   0.69173   35.619
 6055.00    0.70385   0.69156   34.330
 6056.00    0.70162   0.69119   33.336
 6057.00    0.69663   0.69095   33.383
 6058.00    0.68972   0.69071   34.023
 6059.00    0.68327   0.69003   34.566
 6060.00    0.67969   0.68970   35.147
 6061.00    0.68034   0.68966   36.042
 6062.00    0.68461   0.68952   36.839
 6063.00    0.69085   0.69013   37.096
 6064.00    0.69735   0.69119   37.100
 6065.00    0.70276   0.69220   37.187
 6066.00    0.70630   0.69360   37.191
 6067.00    0.70698   0.69489   37.116
 6068.00    0.70333   0.69569   37.521
 6069.00    0.69671   0.69617   38.464
 6070.00    0.69257   0.69608   38.866
 6071.00    0.69433   0.69543   38.143
 6072.00    0.70001   0.69421   37.191
 6073.00    0.70569   0.69258   36.727
 6074.00    0.70818   0.69092   36.627
 6075.00    0.70749   0.68895   36.663
 6076.00    0.70699   0.68701   36.785
 6077.00    0.70787   0.68556   36.784
 6078.00    0.70752   0.68416   36.291
 6079.00    0.70409   0.68299   35.516
 6080.00    0.69815   0.68234   35.179
 6081.00    0.69034   0.68176   35.315
 6082.00    0.68103   0.68143   35.254
 6083.00    0.67279   0.68135   35.134
 6084.00    0.66998   0.68119   35.853
 6085.00    0.67416   0.68126   36.892
 6086.00    0.68268   0.68145   36.361
 6087.00    0.68969   0.68151   34.760
 6088.00    0.68896   0.68183   34.337
 6089.00    0.68091   0.68229   35.152
 6090.00    0.67228   0.68260   35.503
 6091.00    0.66952   0.68299   35.211
 6092.00    0.67520   0.68331   35.603
 6093.00    0.68391   0.68307   36.786
 6094.00    0.68622   0.68257   37.681
 6095.00    0.67962   0.68193   37.891
 6096.00    0.66794   0.68046   37.890
 6097.00    0.65498   0.67889   37.943
 6098.00    0.64382   0.67781   37.981
 6099.00    0.63794   0.67643   37.879
 6100.00    0.64001   0.67573   37.671
 6101.00    0.64922   0.67601   37.800
 6102.00    0.66149   0.67632   38.552
 6103.00    0.67078   0.67745   39.084
 6104.00    0.67386   0.67899   38.315
 6105.00    0.67649   0.68014   36.766
 6106.00    0.68584   0.68156   35.519
 6107.00    0.69909   0.68269   34.824
 6108.00    0.70870   0.68330   34.546
 6109.00    0.71082   0.68380   34.657
 6110.00    0.70641   0.68374   35.146
 6111.00    0.70092   0.68342   35.847
 6112.00    0.69894   0.68288   36.446
 6113.00    0.69900   0.68162   36.559
 6114.00    0.69716   0.68042   36.230
 6115.00    0.69138   0.67909   36.213
 6116.00    0.68268   0.67715   36.643
 6117.00    0.67549   0.67579   36.054
 6118.00    0.67249   0.67472   33.772
 6119.00    0.67099   0.67347   31.365
 6120.00    0.66848   0.67311   29.954
 6121.00    0.66647   0.67322   29.432
 6122.00    0.66671   0.67330   29.610
 6123.00    0.66843   0.67388   30.634
 6124.00    0.66942   0.67451   32.356
 6125.00    0.66759   0.67485   33.802
 6126.00    0.66457   0.67503   34.412
 6127.00    0.66644   0.67469   35.012
 6128.00    0.67602   0.67371   35.984
 6129.00    0.68923   0.67231   36.354
 6130.00    0.69935   0.67028   35.889
 6131.00    0.70012   0.66767   35.851
 6132.00    0.68985   0.66530   36.777
 6133.00    0.67265   0.66331   37.848
 6134.00    0.65540   0.66169   38.283
 6135.00    0.64548   0.66087   38.104
 6136.00    0.64706   0.66104   37.766
 6137.00    0.65959   0.66228   37.616
 6138.00    0.67751   0.66386   36.956
 6139.00    0.69250   0.66563   34.718
 6140.00    0.70079   0.66784   31.975
 6141.00    0.70376   0.66964   30.484
 6142.00    0.70251   0.67095   30.013
 6143.00    0.69659   0.67206   29.371
 6144.00    0.68515   0.67265   29.029
 6145.00    0.66859   0.67283   30.443
 6146.00    0.65138   0.67286   33.191
 6147.00    0.63978   0.67272   34.667
 6148.00    0.63483   0.67227   34.426
 6149.00    0.63332   0.67166   34.583
 6150.00    0.63300   0.67108   35.482
 6151.00    0.63328   0.66990   36.004
 6152.00    0.63423   0.66817   36.133
 6153.00    0.63623   0.66629   36.742
 6154.00    0.63985   0.66373   37.997
 6155.00    0.64488   0.66048   39.296
 6156.00    0.64914   0.65718   39.752
 6157.00    0.64974   0.65403   38.971
 6158.00    0.64545   0.65117   37.899
 6159.00    0.63712   0.64890   37.522
 6160.00    0.62760   0.64730   37.488
 6161.00    0.62037   0.64677   37.077
 6162.00    0.61772   0.64708   36.482
 6163.00    0.61982   0.64740   36.223
 6164.00    0.62414   0.64833   36.377
 6165.00    0.62788   0.64996   36.811
 6166.00    0.63067   0.65123   37.435
 6167.00    0.63363   0.65244   37.816
 6168.00    0.63813   0.65417   36.923
 6169.00    0.64496   0.65590   34.771
 6170.00    0.65370   0.65743   33.067
 6171.00    0.66255   0.65911   32.546
 6172.00    0.66831   0.66094   32.104
 6173.00    0.66789   0.66253   31.289
 6174.00    0.65991   0.66383   31.596
 6175.00    0.64726   0.66529   33.876
 6176.00    0.63815   0.66650   36.569
 6177.00    0.64047   0.66720   37.843
 6178.00    0.65831   0.66785   38.390
 6179.00    0.69409   0.66810   -2.000
 6180.00    0.74831   0.66767   -2.000
 6181.00    0.80997   0.66698   -2.000
 6182.00    0.85382   0.66574   -2.000
 6183.00    0.85377   0.66420   -2.000
 6184.00    0.79373   0.66263   -2.000
 6185.00    0.68421   0.66046   -2.000
 6186.00    0.56436   0.65893   -2.000
 6187.00    0.47672   0.65833   -2.000
 6188.00    0.45040   0.65749   -2.000
 6189.00    0.48016   0.65751   -2.000
 6190.00    0.52938   0.65849   -2.000
 6191.00    0.57068   0.65947   29.798
 6192.00    0.59788   0.66085   29.372
 6193.00    0.61425   0.66211   30.400
 6194.00    0.62611   0.66314   32.481
 6195.00    0.63649   0.66440   34.753
 6196.00    0.64456   0.66529   36.454
 6197.00    0.64985   0.66591   37.339
 6198.00    0.65298   0.66677   37.776
 6199.00    0.65426   0.66757   38.018
 6200.00    0.65390   0.66829   38.064
 6201.00    0.65327   0.66894   37.979
 6202.00    0.65413   0.66932   37.838
 6203.00    0.65634   0.66945   37.451
 6204.00    0.65842   0.66909   36.665
 6205.00    0.65980   0.66815   35.972
 6206.00    0.66080   0.66685   36.006
 6207.00    0.66195   0.66491   36.664
 6208.00    0.66357   0.66269   37.169
 6209.00    0.66551   0.66047   36.471
 6210.00    0.66693   0.65806   34.343
 6211.00    0.66620   0.65611   32.210
 6212.00    0.66236   0.65459   31.267
 6213.00    0.65707   0.65320   31.264
 6214.00    0.65295   0.65261   31.631
 6215.00    0.65106   0.65252   32.581
 6216.00    0.65101   0.65258   34.426
 6217.00    0.65151   0.65308   36.322
 6218.00    0.65111   0.65357   37.085
 6219.00    0.64896   0.65415   37.173
 6220.00    0.64545   0.65464   37.603
 6221.00    0.64264   0.65459   38.331
 6222.00    0.64273   0.65444   38.710
 6223.00    0.64647   0.65391   38.227
 6224.00    0.65184   0.65270   37.214
 6225.00    0.65367   0.65166   36.948
 6226.00    0.64938   0.65079   37.917
 6227.00    0.64310   0.64973   38.772
 6228.00    0.64096   0.64936   38.287
 6229.00    0.64692   0.64955   37.179
 6230.00    0.65925   0.64976   36.459
 6231.00    0.66954   0.65031   36.385
 6232.00    0.67086   0.65080   36.959
 6233.00    0.66269   0.65104   38.137
 6234.00    0.64917   0.65080   39.424
 6235.00    0.63682   0.65022   39.723
 6236.00    0.62849   0.64942   38.712
 6237.00    0.62147   0.64796   37.346
 6238.00    0.61382   0.64674   36.201
 6239.00    0.60709   0.64575   35.161
 6240.00    0.60388   0.64438   34.590
 6241.00    0.60656   0.64373   35.100
 6242.00    0.61668   0.64358   35.011
 6243.00    0.63395   0.64323   31.167
 6244.00    0.65346   0.64335   25.642
 6245.00    0.66662   0.64351   21.841
 6246.00    0.66782   0.64313   20.010
 6247.00    0.65671   0.64276   19.541
 6248.00    0.63760   0.64204   20.335
 6249.00    0.61816   0.64082   22.777
 6250.00    0.60603   0.63969   27.091
 6251.00    0.60556   0.63867   32.353
 6252.00    0.61225   0.63783   36.642
 6253.00    0.61629   0.63752   38.717
 6254.00    0.61464   0.63796   39.098
 6255.00    0.61172   0.63869   39.217
 6256.00    0.61381   0.64000   39.491
 6257.00    0.62429   0.64206   39.513
 6258.00    0.63662   0.64388   39.365
 6259.00    0.64064   0.64564   39.358
 6260.00    0.63673   0.64769   39.066
 6261.00    0.63252   0.64930   38.302
 6262.00    0.63237   0.65040   38.745
 6263.00    0.63680   0.65143   39.652
 6264.00    0.64450   0.65225   32.267
 6265.00    0.65393   0.65284   20.985
 6266.00    0.66486   0.65331   15.333
 6267.00    0.67503   0.65364   14.069
 6268.00    0.67599   0.65392   14.733
 6269.00    0.66226   0.65415   15.426
 6270.00    0.64267   0.65428   15.578
 6271.00    0.62858   0.65403   15.673
 6272.00    0.61963   0.65370   16.135
 6273.00    0.61239   0.65335   16.769
 6274.00    0.61042   0.65256   16.351
 6275.00    0.61616   0.65203   15.183
 6276.00    0.62296   0.65169   16.266
 6277.00    0.62421   0.65130   23.501
 6278.00    0.62153   0.65161   40.156
 6279.00    0.61879   0.65209   45.622
 6280.00    0.61687   0.65273    0.000
 6281.00    0.61639   0.65386    0.000
 6282.00    0.61974   0.65469    0.000
 6283.00    0.62944   0.65546    0.000
 6284.00    0.64636   0.65610    0.000
 6285.00    0.66692   0.65620    0.000
 6286.00    0.68256   0.65614    0.000
 6287.00    0.68734   0.65553    0.000
 6288.00    0.68211   0.65459    0.000
 6289.00    0.67163   0.65362    0.000
 6290.00    0.66255   0.65215    0.000
 6291.00    0.66136   0.65064    0.000
 6292.00    0.67294   0.64918    0.000
 6293.00    0.69898   0.64754    0.000
 6294.00    0.73683   0.64608    0.000
 6295.00    0.77793   0.64472    0.000
 6296.00    0.80920   0.64377    0.000
 6297.00    0.82058   0.64342    0.000
 6298.00    0.80842   0.64328    0.000
 6299.00    0.77648   0.64358    0.000
 6300.00    0.73471   0.64456    0.000
 6301.00    0.69421   0.64588    0.000
 6302.00    0.66425   0.64714    0.000
 6303.00    0.64836   0.64823    0.000
 6304.00    0.64407   0.64912    0.000
 6305.00    0.64557   0.64962    0.000
 6306.00    0.64642   0.64948    0.000
 6307.00    0.64427   0.64874    0.000
 6308.00    0.64041   0.64753    0.000
 6309.00    0.63583   0.64593    0.000
 6310.00    0.63052   0.64445    0.000
 6311.00    0.62399   0.64278    0.000
 6312.00    0.61644   0.64095    0.000
 6313.00    0.61075   0.64012    0.000
 6314.00    0.61044   0.63981    0.000
 6315.00    0.61528   0.63956    0.000
 6316.00    0.62194   0.64023    0.000
 6317.00    0.62626   0.64148    0.000
 6318.00    0.62614   0.64309    0.000
 6319.00    0.62496   0.64480    0.000
 6320.00    0.62806   0.64642    0.000
 6321.00    0.63697   0.64817   39.413
 6322.00    0.64881   0.64962   38.430
 6323.00    0.65700   0.65067   38.139
 6324.00    0.65753   0.65113   38.840
 6325.00    0.65571   0.65127   39.349
 6326.00    0.65795   0.65125   38.649
 6327.00    0.66252   0.65050   37.914
 6328.00    0.66431   0.64946   38.266
 6329.00    0.66056   0.64824   38.887
 6330.00    0.65267   0.64684   38.685
 6331.00    0.64678   0.64551   38.048
 6332.00    0.64858   0.64401   37.726
 6333.00    0.65880   0.64271   37.827
 6334.00    0.67214   0.64211   38.156
 6335.00    0.67805   0.64174   38.500
 6336.00    0.67067   0.64133   38.898
 6337.00    0.65501   0.64130   39.715
 6338.00    0.64079   0.64140   40.771
 6339.00    0.63682   0.64147   40.852
 6340.00    0.64391   0.64151   39.618
 6341.00    0.65286   0.64146   38.399
 6342.00    0.65682   0.64188   37.901
 6343.00    0.65747   0.64236   37.554
 6344.00    0.65970   0.64268   36.655
 6345.00    0.66746   0.64339   35.021
 6346.00    0.67768   0.64413   33.196
 6347.00    0.68032   0.64444   32.046
 6348.00    0.67021   0.64455   31.946
 6349.00    0.65091   0.64424   32.763
 6350.00    0.62863   0.64352   33.916
 6351.00    0.60946   0.64235   34.483
 6352.00    0.59822   0.64058   34.409
 6353.00    0.59785   0.63890   34.605
 6354.00    0.60861   0.63725   35.314
 6355.00    0.62811   0.63526   35.950
 6356.00    0.65220   0.63362   36.415
 6357.00    0.67582   0.63261   37.194
 6358.00    0.69485   0.63194   38.099
 6359.00    0.70661   0.63173   38.315
 6360.00    0.71014   0.63206   37.904
 6361.00    0.70588   0.63297   37.713
 6362.00    0.69495   0.63426   38.111
 6363.00    0.67974   0.63567   38.907
 6364.00    0.66542   0.63714   39.645
 6365.00    0.65754   0.63877   39.828
 6366.00    0.65665   0.64035   39.361
 6367.00    0.65956   0.64158   38.645
 6368.00    0.66349   0.64281   38.427
 6369.00    0.66681   0.64396   39.121
 6370.00    0.66889   0.64494   39.775
 6371.00    0.66939   0.64568   39.213
 6372.00    0.66743   0.64590   38.401
 6373.00    0.66329   0.64610   38.643
 6374.00    0.66083   0.64612   39.050
 6375.00    0.66400   0.64575   37.952
 6376.00    0.67182   0.64546   35.472
 6377.00    0.68040   0.64509   32.834
 6378.00    0.68623   0.64473   30.979
 6379.00    0.68708   0.64468   30.228
 6380.00    0.68267   0.64464   30.331
 6381.00    0.67525   0.64453   31.035
 6382.00    0.66966   0.64446   32.499
 6383.00    0.66801   0.64444   34.631
 6384.00    0.66545   0.64428   36.159
 6385.00    0.65669   0.64370   36.178
 6386.00    0.64198   0.64295   36.093
 6387.00    0.62594   0.64197   37.138
 6388.00    0.61552   0.64091   38.513
 6389.00    0.61424   0.63985   39.065
 6390.00    0.61870   0.63853   38.979
 6391.00    0.62330   0.63758   38.922
 6392.00    0.62415   0.63710   39.189
 6393.00    0.62190   0.63661   39.578
 6394.00    0.62218   0.63622   39.482
 6395.00    0.62784   0.63621   38.829
 6396.00    0.63551   0.63616   38.376
 6397.00    0.64102   0.63595   38.493
 6398.00    0.64251   0.63662   38.768
 6399.00    0.64091   0.63730   38.682
 6400.00    0.63953   0.63746   38.016
 6401.00    0.64128   0.63779   37.001
 6402.00    0.64695   0.63779   36.168
 6403.00    0.65339   0.63766   35.879
 6404.00    0.65484   0.63739   36.225
 6405.00    0.65050   0.63663   36.989
 6406.00    0.64548   0.63635   37.675
 6407.00    0.64426   0.63630   37.926
 6408.00    0.64840   0.63560   37.644
 6409.00    0.65665   0.63525   36.729
 6410.00    0.66564   0.63543   35.202
 6411.00    0.67133   0.63523   33.654
 6412.00    0.67053   0.63512   32.819
 6413.00    0.66350   0.63501   32.839
 6414.00    0.65368   0.63479   33.485
 6415.00    0.64540   0.63506   34.696
 6416.00    0.64222   0.63530   36.446
 6417.00    0.64475   0.63557   38.000
 6418.00    0.65053   0.63625   38.317
 6419.00    0.65510   0.63728   37.929
 6420.00    0.65484   0.63862   37.954
 6421.00    0.65177   0.63960   37.557
 6422.00    0.64988   0.64009   35.694
 6423.00    0.64751   0.64049   34.239
 6424.00    0.64036   0.64054   35.080
 6425.00    0.62823   0.64017   36.866
 6426.00    0.61393   0.63956   36.959
 6427.00    0.60018   0.63850   36.525
 6428.00    0.58964   0.63751   37.825
 6429.00    0.58538   0.63714   39.436
 6430.00    0.58887   0.63668   38.356
 6431.00    0.59761   0.63639   35.228
 6432.00    0.60689   0.63641   32.396
 6433.00    0.61241   0.63645   30.978
 6434.00    0.61359   0.63692   31.246
 6435.00    0.61603   0.63724   33.021
 6436.00    0.62461   0.63752   35.642
 6437.00    0.63709   0.63863   37.497
 6438.00    0.64923   0.63970   36.983
 6439.00    0.65956   0.64034   34.516
 6440.00    0.66613   0.64082   31.817
 6441.00    0.66430   0.64069   30.322
 6442.00    0.65232   0.64019   30.275
 6443.00    0.63537   0.63936   30.755
 6444.00    0.62275   0.63793   31.199
 6445.00    0.62427   0.63643   32.323
 6446.00    0.64123   0.63449   34.412
 6447.00    0.66253   0.63258   35.969
 6448.00    0.67600   0.63172   35.988
 6449.00    0.67582   0.63116   35.851
 6450.00    0.66504   0.63072   36.505
 6451.00    0.65430   0.63060   37.201
 6452.00    0.64928   0.63042   37.180
 6453.00    0.64641   0.63039   36.558
 6454.00    0.64202   0.63058   35.498
 6455.00    0.63594   0.63077   34.017
 6456.00    0.62878   0.63080   32.785
 6457.00    0.62089   0.63065   32.837
 6458.00    0.61342   0.63058   34.274
 6459.00    0.60859   0.63018   36.112
 6460.00    0.60916   0.63010   37.570
 6461.00    0.61702   0.63087   38.669
 6462.00    0.62969   0.63137   39.402
 6463.00    0.64104   0.63171   39.554
 6464.00    0.64699   0.63215   39.414
 6465.00    0.64698   0.63252   39.587
 6466.00    0.64336   0.63275   39.953
 6467.00    0.63962   0.63287   39.864
 6468.00    0.63648   0.63274   39.403
 6469.00    0.63301   0.63256   39.176
 6470.00    0.63108   0.63273   39.166
 6471.00    0.63385   0.63260   38.909
 6472.00    0.64036   0.63222   38.329
 6473.00    0.64659   0.63187   37.710
 6474.00    0.64972   0.63149   37.286
 6475.00    0.64886   0.63094   37.076
 6476.00    0.64497   0.63017   36.738
 6477.00    0.64069   0.62946   36.188
 6478.00    0.64016   0.62858   36.458
 6479.00    0.64703   0.62774   38.255
 6480.00    0.66164   0.62719   39.335
 6481.00    0.67938   0.62674   37.226
 6482.00    0.68954   0.62614   34.723
 6483.00    0.68291   0.62512   34.696
 6484.00    0.66139   0.62367   36.535
 6485.00    0.63497   0.62162   38.344
 6486.00    0.61620   0.61868   39.424
 6487.00    0.61136   0.61511   40.057
 6488.00    0.61270   0.61101   40.339
 6489.00    0.60913   0.60691   40.322
 6490.00    0.59755   0.60317   40.303
 6491.00    0.58160   0.59949   40.453
 6492.00    0.56895   0.59733   40.526
 6493.00    0.56585   0.59667   40.421
 6494.00    0.57310   0.59719   40.583
 6495.00    0.58812   0.59939   41.101
 6496.00    0.60694   0.60204   41.114
 6497.00    0.62453   0.60554   40.177
 6498.00    0.63536   0.60973   39.108
 6499.00    0.63682   0.61348   38.646
 6500.00    0.63106   0.61707   38.814
 6501.00    0.62263   0.62005   39.227
 6502.00    0.61655   0.62240   39.319
 6503.00    0.61592   0.62430   39.053
 6504.00    0.62070   0.62540   39.102
 6505.00    0.62797   0.62592   39.667
 6506.00    0.63307   0.62599   40.079
 6507.00    0.63383   0.62562   39.782
 6508.00    0.63202   0.62490   38.916
 6509.00    0.63066   0.62385   38.201
 6510.00    0.63224   0.62264   38.437
 6511.00    0.63629   0.62142   39.253
 6512.00    0.63949   0.62022   39.174
 6513.00    0.63917   0.61921   38.232
 6514.00    0.63450   0.61859   38.004
 6515.00    0.62611   0.61825   38.735
 6516.00    0.61567   0.61824   39.262
 6517.00    0.60540   0.61865   39.245
 6518.00    0.59785   0.61903   39.433
 6519.00    0.59580   0.61935   39.971
 6520.00    0.60093   0.61964   40.270
 6521.00    0.61051   0.61981   39.991
 6522.00    0.61951   0.61993   39.338
 6523.00    0.62717   0.61965   38.894
 6524.00    0.63558   0.61916   39.129
 6525.00    0.64319   0.61884   39.588
 6526.00    0.64622   0.61855   39.418
 6527.00    0.64432   0.61831   38.883
 6528.00    0.63990   0.61800    0.000
 6529.00    0.63490   0.61760    0.000
 6530.00    0.62928   0.61742    0.000
 6531.00    0.62002   0.61735    0.000
 6532.00    0.60673   0.61726    0.000
 6533.00    0.59995   0.61699    0.000
 6534.00    0.61000   0.61641    0.000
 6535.00    0.63012   0.61569    0.000
 6536.00    0.64569   0.61477    0.000
 6537.00    0.64962   0.61341    0.000
 6538.00    0.64637   0.61154    0.000
 6539.00    0.65357   0.60942    0.000
 6540.00    0.69226   0.60716    0.000
 6541.00    0.77472   0.60474    0.000
 6542.00    0.89229   0.60213    0.000
 6543.00    1.00692   0.59926    0.000
 6544.00    1.07776   0.59657    0.000
 6545.00    1.08687   0.59387    0.000
 6546.00    1.03716   0.59069    0.000
 6547.00    0.94765   0.58700    0.000
 6548.00    0.84372   0.58259    0.000
 6549.00    0.74882   0.57738    0.000
 6550.00    0.67939   0.57117    0.000
 6551.00    0.64424   0.56367    0.000
 6552.00    0.66399   0.55488    0.000
 6553.00    0.78653   0.54480    0.000
 6554.00    1.10003   0.53331    0.000
 6555.00    1.71762   0.52149    0.000
 6556.00    2.64806   0.51073    0.000
 6557.00    3.73228   0.50110    0.000
 6558.00    4.70153   0.49322    0.000
 6559.00    5.24653   0.48776    0.000
 6560.00    5.18737   0.48601    0.000
 6561.00    4.55047   0.48949    0.000
 6562.00    3.54254   0.49627    0.000
 6563.00    2.48774   0.50469    0.000
 6564.00    1.63349   0.51464    0.000
 6565.00    1.07656   0.52520    0.000
 6566.00    0.78903   0.53588    0.000
 6567.00    0.66086   0.54583    0.000
 6568.00    0.60428   0.55437    0.000
 6569.00    0.58125   0.56150    0.000
 6570.00    0.57487   0.56755    0.000
 6571.00    0.57850   0.57271    0.000
 6572.00    0.59210   0.57715    0.000
 6573.00    0.62366   0.58121    0.000
 6574.00    0.69545   0.58473    0.000
 6575.00    0.83758   0.58780    0.000
 6576.00    1.06846   0.59046    0.000
 6577.00    1.37911   0.59281    0.000
 6578.00    1.71065   0.59474    0.000
 6579.00    1.97144   0.59647    0.000
 6580.00    2.08252   0.59804    0.000
 6581.00    2.00400   0.59913    0.000
 6582.00    1.76504   0.60012    0.000
 6583.00    1.44578   0.60061    0.000
 6584.00    1.13561   0.60082    0.000
 6585.00    0.90294   0.60083    0.000
 6586.00    0.76052   0.60054    0.000
 6587.00    0.68338   0.60021    0.000
 6588.00    0.64317   0.59959    0.000
 6589.00    0.61879   0.59900    0.000
 6590.00    0.60329   0.59854    0.000
 6591.00    0.59684   0.59875    0.000
 6592.00    0.59696   0.59955    0.000
 6593.00    0.59964   0.60038    0.000
 6594.00    0.60191   0.60142    0.000
 6595.00    0.60317   0.60252    0.000
 6596.00    0.60623   0.60376    0.000
 6597.00    0.61621   0.60502    0.000
 6598.00    0.63835   0.60589    0.000
 6599.00    0.66797   0.60632    0.000
 6600.00    0.68463   0.60644    0.000
 6601.00    0.67600   0.60631    0.000
 6602.00    0.65508   0.60617    0.000
 6603.00    0.63802   0.60611    0.000
 6604.00    0.62751   0.60597    0.000
 6605.00    0.62087   0.60599    0.000
 6606.00    0.61649   0.60622    0.000
 6607.00    0.61468   0.60693    0.000
 6608.00    0.61735   0.60796    0.000
 6609.00    0.62422   0.60893   26.703
 6610.00    0.63137   0.60997   45.120
 6611.00    0.63509   0.61098   45.839
 6612.00    0.63437   0.61209   38.152
 6613.00    0.63276   0.61301   37.378
 6614.00    0.63688   0.61358   39.414
 6615.00    0.64603   0.61389   39.976
 6616.00    0.65084   0.61395   39.039
 6617.00    0.64710   0.61380   38.021
 6618.00    0.63943   0.61346   37.728
 6619.00    0.63322   0.61278   37.937
 6620.00    0.63103   0.61194   37.745
 6621.00    0.63163   0.61104   37.206
 6622.00    0.63129   0.61002   37.274
 6623.00    0.62872   0.60913   37.990
 6624.00    0.62530   0.60809   38.450
 6625.00    0.62123   0.60697   38.503
 6626.00    0.61534   0.60595   38.793
 6627.00    0.60789   0.60500   39.190
 6628.00    0.60075   0.60423   39.011
 6629.00    0.59580   0.60355   38.768
 6630.00    0.59421   0.60300   39.599
 6631.00    0.59572   0.60277   41.130
 6632.00    0.59887   0.60294   41.759
 6633.00    0.60199   0.60330   41.103
 6634.00    0.60392   0.60369   40.126
 6635.00    0.60519   0.60396   39.626
 6636.00    0.60735   0.60427   39.774
 6637.00    0.61167   0.60461   39.811
 6638.00    0.61805   0.60489   38.993
 6639.00    0.62401   0.60507   38.156
 6640.00    0.62716   0.60502   38.328
 6641.00    0.62903   0.60520   38.850
 6642.00    0.63146   0.60558   38.630
 6643.00    0.63128   0.60600   38.273
 6644.00    0.62521   0.60641   38.752
 6645.00    0.61650   0.60672   39.556
 6646.00    0.60950   0.60711   39.707
 6647.00    0.60295   0.60747   39.377
 6648.00    0.59555   0.60767   39.205
 6649.00    0.59215   0.60767   39.310
 6650.00    0.59684   0.60755   39.583
 6651.00    0.60592   0.60729   40.013
 6652.00    0.61197   0.60689   40.537
 6653.00    0.60866   0.60627   40.895
 6654.00    0.59554   0.60549   40.915
 6655.00    0.58061   0.60459   40.742
 6656.00    0.57128   0.60355   40.497
 6657.00    0.56779   0.60256   40.050
 6658.00    0.56772   0.60145   39.471
 6659.00    0.56951   0.60056   39.198
 6660.00    0.57254   0.59980   39.294
 6661.00    0.57704   0.59937   39.164
 6662.00    0.58426   0.59941   38.643
 6663.00    0.59574   0.59946   38.422
 6664.00    0.60878   0.59975   38.876
 6665.00    0.61619   0.60010   39.585
 6666.00    0.61711   0.60044   39.930
 6667.00    0.61979   0.60065   39.564
 6668.00    0.62794   0.60040   38.888
 6669.00    0.63636   0.59965   38.806
 6670.00    0.63998   0.59868   39.373
 6671.00    0.63751   0.59750   39.694
 6672.00    0.63007   0.59613   39.717
 6673.00    0.62054   0.59485   40.433
 6674.00    0.61298   0.59355   41.713
 6675.00    0.61151   0.59300   42.010
 6676.00    0.61686   0.59317   41.002
 6677.00    0.62612   0.59398   39.962
 6678.00    0.63516   0.59518   39.544
 6679.00    0.64022   0.59640   39.569
 6680.00    0.64023   0.59801   39.683
 6681.00    0.63681   0.59966   39.572
 6682.00    0.63270   0.60119   39.146
 6683.00    0.63009   0.60234   38.564
 6684.00    0.62753   0.60304   38.132
 6685.00    0.62162   0.60350   38.129
 6686.00    0.61185   0.60366   38.520
 6687.00    0.60079   0.60354   38.994
 6688.00    0.59241   0.60318   39.158
 6689.00    0.59016   0.60263   38.805
 6690.00    0.59420   0.60202   38.291
 6691.00    0.60170   0.60133   38.129
 6692.00    0.60822   0.60067   38.359
 6693.00    0.61016   0.60003   38.740
 6694.00    0.60815   0.59952   39.160
 6695.00    0.60542   0.59924   39.626
 6696.00    0.60487   0.59898    0.000
 6697.00    0.60801   0.59886    0.000
 6698.00    0.61420   0.59872    0.000
 6699.00    0.61972   0.59858    0.000
 6700.00    0.61751   0.59849    0.000
 6701.00    0.60500   0.59836    0.000
 6702.00    0.59188   0.59823    0.000
 6703.00    0.59047   0.59808    0.000
 6704.00    0.60522   0.59781    0.000
 6705.00    0.63340   0.59734    0.000
 6706.00    0.66848   0.59684    0.000
 6707.00    0.71609   0.59607    0.000
 6708.00    0.80401   0.59524    0.000
 6709.00    0.95236   0.59433    0.000
 6710.00    1.14960   0.59322    0.000
 6711.00    1.35478   0.59231    0.000
 6712.00    1.50569   0.59136    0.000
 6713.00    1.55491   0.59072    0.000
 6714.00    1.49240   0.59044    0.000
 6715.00    1.33625   0.59044    0.000
 6716.00    1.12490   0.59094    0.000
 6717.00    0.91048   0.59156    0.000
 6718.00    0.74815   0.59232    0.000
 6719.00    0.66056   0.59315    0.000
 6720.00    0.62810   0.59406    0.000
 6721.00    0.63060   0.59499    0.000
 6722.00    0.66637   0.59571    0.000
 6723.00    0.74480   0.59623    0.000
 6724.00    0.87551   0.59669    0.000
 6725.00    1.04049   0.59713    0.000
 6726.00    1.19153   0.59746    0.000
 6727.00    1.28264   0.59761    0.000
 6728.00    1.28590   0.59757    0.000
 6729.00    1.20250   0.59748    0.000
 6730.00    1.06131   0.59727    0.000
 6731.00    0.90307   0.59698    0.000
 6732.00    0.76780   0.59654    0.000
 6733.00    0.67453   0.59598    0.000
 6734.00    0.62119   0.59536    0.000
 6735.00    0.59982   0.59471    0.000
 6736.00    0.59949   0.59415    0.000
 6737.00    0.60366   0.59365    0.000
 6738.00    0.59699   0.59316    0.000
 6739.00    0.58122   0.59267    0.000
 6740.00    0.56976   0.59216    0.000
 6741.00    0.56970   0.59178    0.000
 6742.00    0.57929   0.59144    0.000
 6743.00    0.59029   0.59107    0.000
 6744.00    0.59487   0.59074    0.000
 6745.00    0.59609   0.59038    0.000
 6746.00    0.60226   0.59028    0.000
 6747.00    0.61539   0.59029    0.000
 6748.00    0.63010   0.59047    0.000
 6749.00    0.63538   0.59089    0.000
 6750.00    0.62552   0.59135    0.000
 6751.00    0.61293   0.59203    0.000
 6752.00    0.61129   0.59274    0.000
 6753.00    0.61410   0.59351   31.732
 6754.00    0.60917   0.59424   31.659
 6755.00    0.59718   0.59477   32.331
 6756.00    0.58502   0.59518   33.748
 6757.00    0.57695   0.59528   35.309
 6758.00    0.57479   0.59519   36.101
 6759.00    0.57895   0.59488   35.636
 6760.00    0.58772   0.59438   34.234
 6761.00    0.59703   0.59371   32.791
 6762.00    0.60347   0.59288   31.904
 6763.00    0.60649   0.59213   31.590
 6764.00    0.60648   0.59150   31.777
 6765.00    0.60330   0.59107   32.538
 6766.00    0.59759   0.59092   33.759
 6767.00    0.59137   0.59097   34.867
 6768.00    0.58573   0.59124   35.371
 6769.00    0.58002   0.59174   35.287
 6770.00    0.57590   0.59239   34.348
 6771.00    0.57793   0.59315   32.040
 6772.00    0.58457   0.59373   29.513
 6773.00    0.58670   0.59410   28.736
 6774.00    0.58385   0.59425   29.831
 6775.00    0.58736   0.59419   30.942
 6776.00    0.59786   0.59389   31.244
 6777.00    0.60113   0.59327   32.306
 6778.00    0.59331   0.59253   34.675
 6779.00    0.58579   0.59166   36.515
 6780.00    0.58390   0.59088   36.788
 6781.00    0.58241   0.59025   36.770
 6782.00    0.57901   0.58982   36.532
 6783.00    0.57653   0.58960   34.787
 6784.00    0.57464   0.58949   32.415
 6785.00    0.57032   0.58958   31.361
 6786.00    0.56674   0.58969   31.608
 6787.00    0.57063   0.58989   31.958
 6788.00    0.57843   0.59002   32.533
 6789.00    0.57946   0.59009   34.467
 6790.00    0.57259   0.59016   36.836
 6791.00    0.56472   0.59011   36.562
 6792.00    0.55784   0.59014   33.750
 6793.00    0.55036   0.59012   30.934
 6794.00    0.54583   0.59012   28.716
 6795.00    0.54938   0.59015   26.833
 6796.00    0.55772   0.59011   25.631
 6797.00    0.56381   0.59015   25.625
 6798.00    0.56785   0.59011   26.987
 6799.00    0.57349   0.59000   29.648
 6800.00    0.57883   0.58990   33.053
 6801.00    0.57974   0.58971   36.012
 6802.00    0.57665   0.58953   37.778
 6803.00    0.57260   0.58945   38.526
 6804.00    0.56918   0.58926   38.682
 6805.00    0.56602   0.58913   38.708
 6806.00    0.56115   0.58909   39.078
 6807.00    0.55458   0.58908   39.510
 6808.00    0.55187   0.58916   38.253
 6809.00    0.55733   0.58918   34.929
 6810.00    0.56715   0.58925   32.026
 6811.00    0.57713   0.58943   30.775
 6812.00    0.59001   0.58959   30.118
 6813.00    0.60639   0.58983   29.365
 6814.00    0.61729   0.59012   29.615
 6815.00    0.61709   0.59026   31.559
 6816.00    0.61300   0.59045   33.612
 6817.00    0.61213   0.59063   33.605
 6818.00    0.61221   0.59077   31.898
 6819.00    0.61109   0.59095   29.795
 6820.00    0.61261   0.59092   27.846
 6821.00    0.61828   0.59082   26.503
 6822.00    0.62243   0.59062   26.391
 6823.00    0.61756   0.59031   27.784
 6824.00    0.59937   0.59012   30.386
 6825.00    0.57581   0.58990   33.510
 6826.00    0.56642   0.58968   36.117
 6827.00    0.57551   0.58949   37.387
 6828.00    0.58480   0.58918   37.497
 6829.00    0.58231   0.58882   37.244
 6830.00    0.57288   0.58830   37.333
 6831.00    0.56424   0.58761   37.450
 6832.00    0.56096   0.58679   36.488
 6833.00    0.56520   0.58576   34.807
 6834.00    0.57635   0.58455   33.919
 6835.00    0.58841   0.58339   33.928
 6836.00    0.59235   0.58230   33.746
 6837.00    0.58682   0.58151   33.324
 6838.00    0.57818   0.58104   33.640
 6839.00    0.57030   0.58097   34.689
 6840.00    0.56283   0.58132   35.384
 6841.00    0.55528   0.58190   35.278
 6842.00    0.54874   0.58266   34.972
 6843.00    0.54738   0.58345   35.234
 6844.00    0.55580   0.58414   36.420
 6845.00    0.57248   0.58465   37.493
 6846.00    0.59028   0.58495   36.693
 6847.00    0.60095   0.58495   34.499
 6848.00    0.59940   0.58463   32.587
 6849.00    0.58978   0.58399   31.361
 6850.00    0.58104   0.58312   30.614
 6851.00    0.57684   0.58232   30.509
 6852.00    0.57696   0.58152   31.258
 6853.00    0.58247   0.58088   32.403
 6854.00    0.59253   0.58051   33.144
 6855.00    0.59881   0.58026   33.414
 6856.00    0.59449   0.58012   33.726
 6857.00    0.58720   0.58011   34.471
 6858.00    0.58705   0.58034   35.618
 6859.00    0.58991   0.58072   36.394
 6860.00    0.58654   0.58097   36.324
 6861.00    0.57588   0.58116   36.609
 6862.00    0.56306   0.58119   38.241
 6863.00    0.55531   0.58098   39.782
 6864.00    0.55733   0.58088   39.503
 6865.00    0.56742   0.58079   38.749
 6866.00    0.58038   0.58071   39.050
 6867.00    0.59096   0.58057   39.604
 6868.00    0.59624   0.58046   39.194
 6869.00    0.59722   0.58048   38.067
 6870.00    0.59661   0.58044   37.085
 6871.00    0.59674   0.58057   36.831
 6872.00    0.59732   0.58070   37.138
 6873.00    0.59496   0.58079   36.939
 6874.00    0.59005   0.58071   35.754
 6875.00    0.58959   0.58061   34.448
 6876.00    0.59643   0.58049   33.680
 6877.00    0.60412   0.58022   33.370
 6878.00    0.60597   0.58010   33.410
 6879.00    0.60035   0.58008   33.838
 6880.00    0.59012   0.58031   34.009
 6881.00    0.58079   0.58052   32.852
 6882.00    0.57395   0.58094   32.012
 6883.00    0.56566   0.58155   34.927
 6884.00    0.55339   0.58211   38.585
 6885.00    0.53930   0.58281   30.946
 6886.00    0.53076   0.58347   21.420
 6887.00    0.53679   0.58403   17.726
 6888.00    0.55483   0.58438   17.488
 6889.00    0.57122   0.58467   17.832
 6890.00    0.57882   0.58484   17.481
 6891.00    0.58066   0.58493   17.046
 6892.00    0.58240   0.58499   17.016
 6893.00    0.58785   0.58511   17.258
 6894.00    0.59377   0.58519   17.122
 6895.00    0.59250   0.58523   16.284
 6896.00    0.58255   0.58544   16.444
 6897.00    0.56930   0.58563   20.575
 6898.00    0.55984   0.58584   31.747
 6899.00    0.55876   0.58604   41.187
 6900.00    0.56208   0.58621   37.015
 6901.00    0.56224   0.58630   34.258
 6902.00    0.56034   0.58627   35.938
 6903.00    0.56238   0.58615   37.879
 6904.00    0.56787   0.58586   38.332
 6905.00    0.57263   0.58543   38.689
 6906.00    0.57695   0.58479   39.480
 6907.00    0.58285   0.58401   40.136
 6908.00    0.58777   0.58323   40.019
 6909.00    0.58795   0.58229   39.078
 6910.00    0.58442   0.58154   38.236
 6911.00    0.58130   0.58091   38.140
 6912.00    0.58227   0.58034   37.922
 6913.00    0.58828   0.58014   36.562
 6914.00    0.59557   0.57995   34.583
 6915.00    0.59955   0.58001   32.874
 6916.00    0.59919   0.58006   31.634
 6917.00    0.59521   0.58013   30.778
 6918.00    0.58779   0.58019   30.252
 6919.00    0.57761   0.57998   30.027
 6920.00    0.56684   0.57985   30.099
 6921.00    0.55678   0.57964   30.615
 6922.00    0.54647   0.57951   31.962
 6923.00    0.53820   0.57943   34.160
 6924.00    0.54039   0.57931   36.086
 6925.00    0.55511   0.57926   36.733
 6926.00    0.57084   0.57920   36.871
 6927.00    0.57764   0.57925   37.400
 6928.00    0.57686   0.57924   38.061
 6929.00    0.57375   0.57935   38.357
 6930.00    0.57204   0.57952   38.241
 6931.00    0.57167   0.57955   37.963
 6932.00    0.56884   0.57958   37.775
 6933.00    0.56249   0.57947   37.293
 6934.00    0.55659   0.57939   35.695
 6935.00    0.55419   0.57911   33.756
 6936.00    0.55515   0.57881   33.318
 6937.00    0.55881   0.57837   34.290
 6938.00    0.56440   0.57773   34.405
 6939.00    0.56731   0.57704   33.094
 6940.00    0.56097   0.57621   32.318
 6941.00    0.54920   0.57567   32.943
 6942.00    0.54465   0.57517   34.333
 6943.00    0.54749   0.57478   35.559
 6944.00    0.54526   0.57454   35.968
 6945.00    0.53531   0.57435   35.866
 6946.00    0.52741   0.57417   36.195
 6947.00    0.52999   0.57415   37.009
 6948.00    0.54438   0.57431   37.500
 6949.00    0.56102   0.57455   37.438
 6950.00    0.56665   0.57483   37.288
 6951.00    0.56340   0.57521   37.226
 6952.00    0.56369   0.57572   36.993
 6953.00    0.56833   0.57611   36.159
 6954.00    0.56937   0.57666   34.657
 6955.00    0.56581   0.57716   33.416
 6956.00    0.56300   0.57768   33.241
 6957.00    0.56517   0.57813   33.326
 6958.00    0.57342   0.57849   32.449
 6959.00    0.58487   0.57885   31.375
 6960.00    0.59395   0.57902   31.461
 6961.00    0.59495   0.57917   32.641
 6962.00    0.58619   0.57931   34.046
 6963.00    0.57501   0.57940   35.177
 6964.00    0.57037   0.57929   36.010
 6965.00    0.57204   0.57904   36.724
 6966.00    0.57408   0.57851   37.481
 6967.00    0.57121   0.57784   38.195
 6968.00    0.56259   0.57698   38.646
 6969.00    0.55449   0.57588   38.718
 6970.00    0.55241   0.57457   38.524
 6971.00    0.55303   0.57312   38.441
 6972.00    0.55147   0.57173   38.641
 6973.00    0.54872   0.57043   38.716
 6974.00    0.54729   0.56952   38.307
 6975.00    0.54715   0.56935   37.663
 6976.00    0.54886   0.56958   37.035
 6977.00    0.55557   0.57015   36.265
 6978.00    0.56586   0.57109   35.380
 6979.00    0.57010   0.57222   34.852
 6980.00    0.56498   0.57344   34.851
 6981.00    0.56105   0.57465   34.926
 6982.00    0.56463   0.57580   34.786
 6983.00    0.56831   0.57675   34.734
 6984.00    0.56670   0.57740   35.070
 6985.00    0.56386   0.57792   35.772
 6986.00    0.56142   0.57831   36.658
 6987.00    0.55450   0.57848   37.480
 6988.00    0.54526   0.57856   38.071
 6989.00    0.54503   0.57843   38.440
 6990.00    0.55322   0.57824   38.723
 6991.00    0.55401   0.57790   39.009
 6992.00    0.54392   0.57739   38.743
 6993.00    0.53696   0.57677   37.129
 6994.00    0.53896   0.57587   35.212
 6995.00    0.54268   0.57497   34.858
 6996.00    0.54625   0.57416   35.579
 6997.00    0.55492   0.57340   34.921
 6998.00    0.56528   0.57269   33.054
 6999.00    0.56625   0.57198   32.345
 7000.00    0.55742   0.57150   33.205
 7001.00    0.54960   0.57115   -2.000
 7002.00    0.55110   0.57100   -2.000
 7003.00    0.56307   0.57102   -2.000
 7004.00    0.57803   0.57104   -2.000
 7005.00    0.58565   0.57100   -2.000
 7006.00    0.58627   0.57083   -2.000
 7007.00    0.58680   0.57057   -2.000
 7008.00    0.58578   0.57027   -2.000
 7009.00    0.57745   0.56983   -2.000
 7010.00    0.56582   0.56927   -2.000
 7011.00    0.55950   0.56859   -2.000
 7012.00    0.55810   0.56807   -2.000
 7013.00    0.55681   0.56797   -2.000
 7014.00    0.55744   0.56792   -2.000
 7015.00    0.56267   0.56799   -2.000
 7016.00    0.56517   0.56812   -2.000
 7017.00    0.55692   0.56825   -2.000
 7018.00    0.54355   0.56834   -2.000
 7019.00    0.53623   0.56847   -2.000
 7020.00    0.53892   0.56885   -2.000
 7021.00    0.55009   0.56921   -2.000
 7022.00    0.56651   0.56953   -2.000
 7023.00    0.58201   0.56984   -2.000
 7024.00    0.58649   0.57019   -2.000
 7025.00    0.57591   0.57050   -2.000
 7026.00    0.56091   0.57082   -2.000
 7027.00    0.55272   0.57110   -2.000
 7028.00    0.55038   0.57132   -2.000
 7029.00    0.54894   0.57148   -2.000
 7030.00    0.54724   0.57157   -2.000
 7031.00    0.54626   0.57174   -2.000
 7032.00    0.54744   0.57199   -2.000
 7033.00    0.55167   0.57221   -2.000
 7034.00    0.55873   0.57279   -2.000
 7035.00    0.56681   0.57368   -2.000
 7036.00    0.57291   0.57469   -2.000
 7037.00    0.57663   0.57582   -2.000
 7038.00    0.58082   0.57691   -2.000
 7039.00    0.58282   0.57799   -2.000
 7040.00    0.57432   0.57879   -2.000
 7041.00    0.56558   0.57952   -2.000
 7042.00    0.58496   0.58009   -2.000
 7043.00    0.61804   0.58025   -2.000
 7044.00    0.60467   0.58010   -2.000
 7045.00    0.54918   0.57948   -2.000
 7046.00    0.53268   0.57858   -2.000
 7047.00    0.57191   0.57735   -2.000
 7048.00    0.59727   0.57595   -2.000
 7049.00    0.57999   0.57461   -2.000
 7050.00    0.55607   0.57320   -2.000
 7051.00    0.54768   0.57193   -2.000
 7052.00    0.54592   0.57071   -2.000
 7053.00    0.54130   0.56966   -2.000
 7054.00    0.53269   0.56871   -2.000
 7055.00    0.52487   0.56789   -2.000
 7056.00    0.52441   0.56734   -2.000
 7057.00    0.53151   0.56692   -2.000
 7058.00    0.54054   0.56659   -2.000
 7059.00    0.54632   0.56628   -2.000
 7060.00    0.54724   0.56605   -2.000
 7061.00    0.54835   0.56571   -2.000
 7062.00    0.55592   0.56547   -2.000
 7063.00    0.56578   0.56533   -2.000
 7064.00    0.56773   0.56540   -2.000
 7065.00    0.55807   0.56567   -2.000
 7066.00    0.54165   0.56602   -2.000
 7067.00    0.53111   0.56649   -2.000
 7068.00    0.53661   0.56695   -2.000
 7069.00    0.55096   0.56747   -2.000
 7070.00    0.56013   0.56787   -2.000
 7071.00    0.56092   0.56817   -2.000
 7072.00    0.55683   0.56829   -2.000
 7073.00    0.54960   0.56814   -2.000
 7074.00    0.54230   0.56761   -2.000
 7075.00    0.54347   0.56675   -2.000
 7076.00    0.55584   0.56555   -2.000
 7077.00    0.56488   0.56393   -2.000
 7078.00    0.55822   0.56206   -2.000
 7079.00    0.54481   0.55997   -2.000
 7080.00    0.53724   0.55780   -2.000
 7081.00    0.53432   0.55571   -2.000
 7082.00    0.53157   0.55369   -2.000
 7083.00    0.53090   0.55178   -2.000
 7084.00    0.53478   0.55011   -2.000
 7085.00    0.54146   0.54873   -2.000
 7086.00    0.54899   0.54756   -2.000
 7087.00    0.55750   0.54688   -2.000
 7088.00    0.56278   0.54638   -2.000
 7089.00    0.55513   0.54628   -2.000
 7090.00    0.54020   0.54644   -2.000
 7091.00    0.54428   0.54677   -2.000
 7092.00    0.56976   0.54763   -2.000
 7093.00    0.58019   0.54833   -2.000
 7094.00    0.55834   0.54964   -2.000
 7095.00    0.52894   0.55061   -2.000
 7096.00    0.51690   0.55180   -2.000
 7097.00    0.52690   0.55283   -2.000
 7098.00    0.54675   0.55370   -2.000
 7099.00    0.55559   0.55450   -2.000
 7100.00    0.54871   0.55492   -2.000
 7101.00    0.54039   0.55526   -2.000
 7102.00    0.53710   0.55524   -2.000
 7103.00    0.53184   0.55511   -2.000
 7104.00    0.52013   0.55481   -2.000
 7105.00    0.50485   0.55447   -2.000
 7106.00    0.49322   0.55410   -2.000
 7107.00    0.49238   0.55386   -2.000
 7108.00    0.49996   0.55369   -2.000
 7109.00    0.50876   0.55367   -2.000
 7110.00    0.52556   0.55372   -2.000
 7111.00    0.55949   0.55386   -2.000
 7112.00    0.58310   0.55405   -2.000
 7113.00    0.55891   0.55418   -2.000
 7114.00    0.51692   0.55435   -2.000
 7115.00    0.51787   0.55437   -2.000
 7116.00    0.54549   0.55442   -2.000
 7117.00    0.54242   0.55431   -2.000
 7118.00    0.51690   0.55417   -2.000
 7119.00    0.51401   0.55399   -2.000
 7120.00    0.53278   0.55367   -2.000
 7121.00    0.54322   0.55340   -2.000
 7122.00    0.53573   0.55303   -2.000
 7123.00    0.51947   0.55277   -2.000
 7124.00    0.50802   0.55241   -2.000
 7125.00    0.50875   0.55228   -2.000
 7126.00    0.51253   0.55221   -2.000
 7127.00    0.51081   0.55240   -2.000
 7128.00    0.51641   0.55275   -2.000
 7129.00    0.53913   0.55323   -2.000
 7130.00    0.55808   0.55394   -2.000
 7131.00    0.55614   0.55458   -2.000
 7132.00    0.55526   0.55532   -2.000
 7133.00    0.57466   0.55589   -2.000
 7134.00    0.59141   0.55645   -2.000
 7135.00    0.58255   0.55678   -2.000
 7136.00    0.56171   0.55695   -2.000
 7137.00    0.54378   0.55693   -2.000
 7138.00    0.51852   0.55663   -2.000
 7139.00    0.49033   0.55627   -2.000
 7140.00    0.49952   0.55572   -2.000
 7141.00    0.54908   0.55506   -2.000
 7142.00    0.56993   0.55455   -2.000
 7143.00    0.53363   0.55408   -2.000
 7144.00    0.50577   0.55385   -2.000
 7145.00    0.52347   0.55386   -2.000
 7146.00    0.53914   0.55409   -2.000
 7147.00    0.51980   0.55451   -2.000
 7148.00    0.48982   0.55507   -2.000
 7149.00    0.46569   0.55572   -2.000
 7150.00    0.43315   0.55639   -2.000
 7151.00    0.39610   0.55697   -2.000
 7152.00    0.38576   0.55742   -2.000
 7153.00    0.40329   0.55760   -2.000
 7154.00    0.41298   0.55752   -2.000
 7155.00    0.40906   0.55722   -2.000
 7156.00    0.42318   0.55663   -2.000
 7157.00    0.45944   0.55585   -2.000
 7158.00    0.48797   0.55497   -2.000
 7159.00    0.49927   0.55424   -2.000
 7160.00    0.50954   0.55367   -2.000
 7161.00    0.52387   0.55339   -2.000
 7162.00    0.53355   0.55338   -2.000
 7163.00    0.53915   0.55365   -2.000
 7164.00    0.54855   0.55414   -2.000
 7165.00    0.55657   0.55486   -2.000
 7166.00    0.55154   0.55556   -2.000
 7167.00    0.54128   0.55624   -2.000
 7168.00    0.54357   0.55679   -2.000
 7169.00    0.55440   0.55701   -2.000
 7170.00    0.55509   0.55709   -2.000
 7171.00    0.53892   0.55682   -2.000
 7172.00    0.51153   0.55633   -2.000
 7173.00    0.48242   0.55555   -2.000
 7174.00    0.46285   0.55468   -2.000
 7175.00    0.46439   0.55374   -2.000
 7176.00    0.48801   0.55295   -2.000
 7177.00    0.50995   0.55219   -2.000
 7178.00    0.51184   0.55145   -2.000
 7179.00    0.52135   0.55090   -2.000
 7180.00    0.55962   0.55020   -2.000
 7181.00    0.57415   0.54974   -2.000
 7182.00    0.52033   0.54926   -2.000
 7183.00    0.45822   0.54891   -2.000
 7184.00    0.45752   0.54874   -2.000
 7185.00    0.49053   0.54859   -2.000
 7186.00    0.50429   0.54868   -2.000
 7187.00    0.49961   0.54876   -2.000
 7188.00    0.49882   0.54919   -2.000
 7189.00    0.50964   0.54957   -2.000
 7190.00    0.52596   0.55010   -2.000
 7191.00    0.53316   0.55074   -2.000
 7192.00    0.52709   0.55138   -2.000
 7193.00    0.52453   0.55208   -2.000
 7194.00    0.53368   0.55258   -2.000
 7195.00    0.53745   0.55299   -2.000
 7196.00    0.52614   0.55329   -2.000
 7197.00    0.51546   0.55352   -2.000
 7198.00    0.51986   0.55352   -2.000
 7199.00    0.53693   0.55339   -2.000
 7200.00    0.55448   0.55293   -2.000
 7201.00    0.55850   0.55262   -2.000
 7202.00    0.55041   0.55228   -2.000
 7203.00    0.55014   0.55204   -2.000
 7204.00    0.56997   0.55199   -2.000
 7205.00    0.60127   0.55198   -2.000
 7206.00    0.61220   0.55221   -2.000
 7207.00    0.56421   0.55245   -2.000
 7208.00    0.47717   0.55293   -2.000
 7209.00    0.42547   0.55337   -2.000
 7210.00    0.43270   0.55391   -2.000
 7211.00    0.45641   0.55448   -2.000
 7212.00    0.46608   0.55489   -2.000
 7213.00    0.46340   0.55533   -2.000
 7214.00    0.46216   0.55559   -2.000
 7215.00    0.47606   0.55583   -2.000
 7216.00    0.50326   0.55605   -2.000
 7217.00    0.52880   0.55623   -2.000
 7218.00    0.54160   0.55665   -2.000
