###################################################################
## OUTPUT of StarlightChains_v04.for    [Cid@UFSC - 01/Apr/2007] ##
###################################################################

## Some input info
2005P.txt                                [arq_obs]
Base.CB07.vall.4m                        [arq_base]
Masks.EmLines.NEW.gm                     [arq_masks]
StCv04.C11.config                        [arq_config]
   66                                    [N_base]
    0                                    [N_YAV_components = # of components with extra extinction!]
    0                                    [i_FitPowerLaw (1/0 = Yes/No)]
-9.99                                    [alpha_PowerLaw]
CCM                                      [red_law_option]
 1.458241                                [q_norm = A(l_norm)/A(V)]

## (Re)Sampling Parameters
 3741.00                                 [l_ini (A)]
 7218.00                                 [l_fin (A)]
    1.00                                 [dl    (A)]     (OBS: dl_cushion =    50.00 A)

## Normalization info
 4020.00                                 [l_norm (A) - for base]
 4010.00                                 [llow_norm (A) - window for f_obs]
 4060.00                                 [lupp_norm (A) - window for f_obs]
6.747917E-18                             [fobs_norm (in input units)]

## S/N
 3691.00                                 [llow_SN (A) - window for S/N]
 7268.00                                 [lupp_SN (A) - window for S/N]
   3.480                                 [S/N in S/N window]
   5.200                                 [S/N in norm. window]
  10.000                                 [S/N_err in S/N window]
  14.944                                 [S/N_err in norm. window]
  1.0000                                 [fscale_chi2]

## etc...
    -2007309                             [idum_orig]
  2384                                   [NOl_eff]
  2317                                   [Nl_eff]
    67    NSIGMA                         [Ntot_cliped & clip_method]
   792330                                [Nglobal_steps]
   7                                     [N_chains]
  15                                     [NEX0s_base = N_base in EX0s-fits]
 0   0   1       80   2.0   2.614E+01    [Clip-Bug, RC-Crash & Burn-In warning-flags, n_censored_weights, wei_nsig_threshold & wei_limit]
    12     11.995     11.502      0.493  [idt_all, wdt_TotTime, wdt_UsrTime & wdt_SysTime (sec)]

## Synthesis Results - Best model ##

 1.25098E+00                             [chi2/Nl_eff]
     9.06102                             [adev (%)]

   103.44026                             [sum-of-x (%)]
 1.01443E-17                             [Flux_tot (units of input spectrum!)]
 1.04766E-14                             [Mini_tot (???)]
 6.74408E-15                             [Mcor_tot (???)]

-155.34                                  [v0_min  (km/s)]
 165.74                                  [vd_min  (km/s)]
 0.2784                                  [AV_min  (mag)]
 0.0000                                  [YAV_min (mag)]

# j     x_j(%)      Mini_j(%)     Mcor_j(%)     age_j(yr)     Z_j      (L/M)_j    YAV?  Mstars   component_j        a/Fe...       SSP_chi2r SSP_adev(%)   SSP_AV   SSP_x(%)
  1      0.0000     0.0000E+00    0.0000E+00    1.000000E+06  0.00400  1.094E-02    0   1.0000   age020_m42            0.0000     1.4893E+00     9.7620   1.8663    89.8213
  2     14.9883     3.5014E-01    5.4387E-01    3.160000E+06  0.00400  4.007E-02    0   0.9999   age045_m42            0.0000     1.2987E+00     9.2112   1.1246    96.6394
  3      4.6114     1.7001E-01    2.5058E-01    5.010000E+06  0.00400  2.539E-02    0   0.9488   age055_m42            0.0000     1.3507E+00     9.3841   1.4516    94.0020
  4     29.2604     1.0454E+00    1.4973E+00    6.610000E+06  0.00400  2.620E-02    0   0.9220   age061_m42            0.0000     1.2873E+00     9.1820   1.0504    96.8647
  5      0.0000     0.0000E+00    0.0000E+00    1.000000E+07  0.00400  1.322E-02    0   0.8862   age070_m42            0.0000     1.3425E+00     9.4146   0.7723    98.5370
  6      0.0000     0.0000E+00    0.0000E+00    1.445000E+07  0.00400  7.883E-03    0   0.8571   age078_m42            0.0000     1.3683E+00     9.4897   1.1032    95.9233
  7      0.0000     0.0000E+00    0.0000E+00    2.512000E+07  0.00400  5.251E-03    0   0.8174   age090_m42            0.0000     1.3609E+00     9.4857   0.6422    99.0531
  8      0.0000     0.0000E+00    0.0000E+00    4.000000E+07  0.00400  3.649E-03    0   0.7851   age104_m42            0.0000     1.3330E+00     9.3964   0.4110   100.0647
  9      0.0000     0.0000E+00    0.0000E+00    5.500000E+07  0.00400  3.098E-03    0   0.7629   age110_m42            0.0000     1.2977E+00     9.2596   0.5603   100.3549
 10      0.0000     0.0000E+00    0.0000E+00    1.015200E+08  0.00400  2.228E-03    0   0.7207   age116_m42            0.0000     1.3025E+00     9.2595   0.5790   100.6787
 11      0.0000     0.0000E+00    0.0000E+00    2.861200E+08  0.00400  1.093E-03    0   0.6648   age125_m42            0.0000     1.3348E+00     9.3709   0.0045   103.8117
 12      0.0000     0.0000E+00    0.0000E+00    5.088000E+08  0.00400  6.597E-04    0   0.6365   age130_m42            0.0000     1.3543E+00     9.3714  -0.0093   104.9736
 13      0.0000     0.0000E+00    0.0000E+00    1.434000E+09  0.00400  2.132E-04    0   0.5798   age139_m42            0.0000     1.4018E+00     9.5271  -0.9837   107.2186
 14      0.0000     0.0000E+00    0.0000E+00    4.250000E+09  0.00400  5.895E-05    0   0.5377   age158_m42            0.0000     2.2174E+00    11.7750  -1.0000    87.5981
 15      0.0000     0.0000E+00    0.0000E+00    7.500000E+09  0.00400  3.510E-05    0   0.5212   age171_m42            0.0000     3.0580E+00    13.7979  -1.0000    80.3929
 16      0.0000     0.0000E+00    0.0000E+00    1.300000E+10  0.00400  2.005E-05    0   0.5034   age193_m42            0.0000     3.9741E+00    15.7468  -1.0000    74.3580
 17      0.0000     0.0000E+00    0.0000E+00    1.800000E+10  0.00400  1.525E-05    0   0.4967   age213_m42            0.0000     4.0908E+00    16.0547  -1.0000    73.2480
 18      0.0000     0.0000E+00    0.0000E+00    1.000000E+06  0.00800  1.238E-02    0   1.0000   age020_m52            0.0000     1.4867E+00     9.7511   1.8626    90.0019
 19      0.0000     0.0000E+00    0.0000E+00    3.160000E+06  0.00800  3.074E-02    0   0.9966   age045_m52            0.0000     1.4629E+00     9.7036   1.7850    90.8579
 20      0.3269     1.1468E-02    1.6823E-02    5.010000E+06  0.00800  2.668E-02    0   0.9443   age055_m52            0.0000     1.3744E+00     9.4608   1.5366    93.0604
 21     13.5751     5.9491E-01    8.4811E-01    6.610000E+06  0.00800  2.136E-02    0   0.9177   age061_m52            0.0000     1.3423E+00     9.3816   0.2740    99.6255
 22      0.0000     0.0000E+00    0.0000E+00    1.000000E+07  0.00800  1.215E-02    0   0.8827   age070_m52            0.0000     1.3964E+00     9.5985   0.9547    98.1177
 23      0.0000     0.0000E+00    0.0000E+00    1.445000E+07  0.00800  8.717E-03    0   0.8552   age078_m52            0.0000     1.3550E+00     9.4554   1.0674    97.2936
 24      0.0000     0.0000E+00    0.0000E+00    2.512000E+07  0.00800  5.592E-03    0   0.8162   age090_m52            0.0000     1.3640E+00     9.5089   0.7048   100.2539
 25      0.0000     0.0000E+00    0.0000E+00    4.000000E+07  0.00800  3.896E-03    0   0.7841   age104_m52            0.0000     1.3260E+00     9.3762   0.6129   101.2664
 26      0.0000     0.0000E+00    0.0000E+00    1.015200E+08  0.00800  2.148E-03    0   0.7226   age116_m52            0.0000     1.2848E+00     9.2094   0.5468   101.4213
 27      0.0000     0.0000E+00    0.0000E+00    2.861200E+08  0.00800  9.925E-04    0   0.6683   age125_m52            0.0000     1.3601E+00     9.4085   0.0542   105.9859
 28      0.0000     0.0000E+00    0.0000E+00    9.047900E+08  0.00800  3.141E-04    0   0.6138   age135_m52            0.0000     1.4828E+00     9.7318  -0.7520   110.8733
 29      0.0000     0.0000E+00    0.0000E+00    1.434000E+09  0.00800  1.719E-04    0   0.5853   age139_m52            0.0000     1.9435E+00    11.0058  -1.0000    95.6780
 30      0.0000     0.0000E+00    0.0000E+00    2.500000E+09  0.00800  7.872E-05    0   0.5600   age150_m52            0.0000     3.0024E+00    13.6032  -1.0000    83.3968
 31      0.0000     0.0000E+00    0.0000E+00    4.250000E+09  0.00800  4.336E-05    0   0.5426   age158_m52            0.0000     3.0934E+00    13.7701  -1.0000    82.0777
 32      0.0000     0.0000E+00    0.0000E+00    6.250000E+09  0.00800  3.159E-05    0   0.5319   age166_m52            0.0000     4.2488E+00    16.1419  -1.0000    75.0993
 33      0.0000     0.0000E+00    0.0000E+00    1.300000E+10  0.00800  1.361E-05    0   0.5073   age193_m52            0.0000     7.4593E+00    21.7424  -1.0000    59.8301
 34      0.0000     0.0000E+00    0.0000E+00    1.800000E+10  0.00800  9.886E-06    0   0.4990   age213_m52            0.0000     8.3259E+00    22.8487  -1.0000    56.5319
 35      0.0000     0.0000E+00    0.0000E+00    1.000000E+06  0.02000  1.544E-02    0   1.0000   age020_m62            0.0000     1.4918E+00     9.7682   1.8581    90.2289
 36      0.0000     0.0000E+00    0.0000E+00    3.160000E+06  0.02000  3.762E-02    0   0.9858   age045_m62            0.0000     1.4814E+00     9.7581   1.7974    91.0358
 37      0.0000     0.0000E+00    0.0000E+00    5.010000E+06  0.02000  3.296E-02    0   0.9342   age055_m62            0.0000     1.3156E+00     9.2695   1.4073    95.3677
 38      0.0000     0.0000E+00    0.0000E+00    8.710000E+06  0.02000  1.154E-02    0   0.8861   age067_m62            0.0000     1.9663E+00    11.3371   0.4147    99.8795
 39      0.0000     0.0000E+00    0.0000E+00    1.445000E+07  0.02000  7.663E-03    0   0.8472   age078_m62            0.0000     1.5088E+00     9.9687   0.6012   100.1751
 40      0.0000     0.0000E+00    0.0000E+00    2.512000E+07  0.02000  4.532E-03    0   0.8099   age090_m62            0.0000     1.5362E+00    10.0718   0.5917    99.9309
 41      0.0000     0.0000E+00    0.0000E+00    5.500000E+07  0.02000  2.733E-03    0   0.7595   age110_m62            0.0000     1.3318E+00     9.3876   0.5968   100.4834
 42      0.0000     0.0000E+00    0.0000E+00    1.609000E+08  0.02000  1.369E-03    0   0.6985   age120_m62            0.0000     1.3262E+00     9.3460   0.4248   103.8625
 43      0.0000     0.0000E+00    0.0000E+00    2.861200E+08  0.02000  9.013E-04    0   0.6714   age125_m62            0.0000     1.4047E+00     9.5403   0.1657   107.2822
 44      0.0000     0.0000E+00    0.0000E+00    5.088000E+08  0.02000  5.028E-04    0   0.6449   age130_m62            0.0000     1.4905E+00     9.7085  -0.2205   110.6848
 45      0.0000     0.0000E+00    0.0000E+00    9.047900E+08  0.02000  2.428E-04    0   0.6179   age135_m62            0.0000     1.4975E+00     9.7453  -0.8077   110.1610
 46      0.0000     0.0000E+00    0.0000E+00    1.434000E+09  0.02000  1.263E-04    0   0.5908   age139_m62            0.0000     1.8258E+00    10.5583  -1.0000    98.7578
 47      0.0000     0.0000E+00    0.0000E+00    2.500000E+09  0.02000  5.985E-05    0   0.5673   age150_m62            0.0000     3.1934E+00    13.8546  -1.0000    83.8344
 48      0.0000     0.0000E+00    0.0000E+00    4.250000E+09  0.02000  3.271E-05    0   0.5468   age158_m62            0.0000     4.9915E+00    17.3270  -1.0000    72.6048
 49      0.0000     0.0000E+00    0.0000E+00    1.000000E+10  0.02000  1.360E-05    0   0.5167   age181_m62            0.0000     7.5050E+00    21.3378  -1.0000    61.3650
 50      0.0000     0.0000E+00    0.0000E+00    1.800000E+10  0.02000  7.124E-06    0   0.5013   age213_m62            0.0000     9.1495E+00    23.5684  -1.0000    54.9750
 51      0.0000     0.0000E+00    0.0000E+00    1.000000E+06  0.05000  2.592E-02    0   0.9998   age020_m72            0.0000     1.5194E+00     9.8497   1.8513    90.1817
 52      0.7696     1.4869E-02    2.2122E-02    3.160000E+06  0.05000  4.845E-02    0   0.9577   age045_m72            0.0000     1.4078E+00     9.5606   1.6754    92.4664
 53      0.0028     8.6087E-05    1.2232E-04    5.010000E+06  0.05000  3.072E-02    0   0.9147   age055_m72            0.0000     1.4572E+00     9.7483   1.1916    96.4046
 54      0.0000     0.0000E+00    0.0000E+00    6.610000E+06  0.05000  1.455E-02    0   0.8877   age061_m72            0.0000     2.5450E+00    12.8266   0.4616   100.4980
 55      0.0000     0.0000E+00    0.0000E+00    1.000000E+07  0.05000  9.074E-03    0   0.8524   age070_m72            0.0000     1.5584E+00    10.0723   1.3748    96.1512
 56      0.0000     0.0000E+00    0.0000E+00    2.512000E+07  0.05000  4.250E-03    0   0.7902   age090_m72            0.0000     1.4403E+00     9.7235   1.0660    98.2706
 57      0.0000     0.0000E+00    0.0000E+00    4.000000E+07  0.05000  3.087E-03    0   0.7618   age104_m72            0.0000     1.4600E+00     9.7918   0.8345   100.0051
 58      0.0000     0.0000E+00    0.0000E+00    1.015200E+08  0.05000  1.700E-03    0   0.7096   age116_m72            0.0000     1.3468E+00     9.4346   0.5673   103.3324
 59      0.0000     0.0000E+00    0.0000E+00    2.861200E+08  0.05000  7.384E-04    0   0.6633   age125_m72            0.0000     1.4446E+00     9.5978   0.0273   109.1151
 60     39.9058     9.7813E+01    9.6821E+01    5.088000E+08  0.05000  3.819E-04    0   0.6372   age130_m72            0.0000     1.4786E+00     9.7077  -0.4702   111.2894
 61      0.0000     0.0000E+00    0.0000E+00    9.047900E+08  0.05000  1.676E-04    0   0.6110   age135_m72            0.0000     1.7810E+00    10.4349  -1.0000   102.9779
 62      0.0000     0.0000E+00    0.0000E+00    1.434000E+09  0.05000  8.837E-05    0   0.5874   age139_m72            0.0000     3.2899E+00    13.9785  -1.0000    85.0325
 63      0.0000     0.0000E+00    0.0000E+00    2.500000E+09  0.05000  4.233E-05    0   0.5598   age150_m72            0.0000     5.0800E+00    17.3659  -1.0000    73.2404
 64      0.0000     0.0000E+00    0.0000E+00    6.250000E+09  0.05000  1.435E-05    0   0.5249   age166_m72            0.0000     8.2310E+00    22.4299  -1.0000    58.3140
 65      0.0000     0.0000E+00    0.0000E+00    1.300000E+10  0.05000  6.513E-06    0   0.5036   age193_m72            0.0000     1.0461E+01    25.3141  -1.0000    51.2536
 66      0.0000     0.0000E+00    0.0000E+00    1.800000E+10  0.05000  4.527E-06    0   0.4945   age213_m72            0.0000     1.1766E+01    26.8682  -1.0000    47.1619


## Synthesis Results - Average & Chains ##

# j      x_j: min, <> & last-chain-values for 1 ...  7 chains
  1      0.0000      0.2555      0.0000      0.0000      0.0000      0.8156      0.0000      0.0000      0.0000
  2     14.9883      2.8114      7.8057      3.0644      3.8856      3.6231      5.8761      4.8343      8.7457
  3      4.6114      1.5860      1.0689      3.1849      4.1838      0.0000      0.0000      5.2941      2.0702
  4     29.2604      8.5528     14.0093      5.8394      3.0486     12.6184      9.4211     14.0960     10.1291
  5      0.0000      1.3657      0.0000      0.0000      0.0000      0.3605      0.0000      0.0000      0.0000
  6      0.0000      0.5628      0.0000      0.0000      0.0000      0.7869      0.7431      0.0000      0.0000
  7      0.0000      0.4938      0.0000      0.0000      0.0000      0.6064      0.0000      0.6530      0.0000
  8      0.0000      1.1622      0.0000      0.6590      0.3318      0.0000      0.0000      0.0000      3.7222
  9      0.0000      2.3901      0.0000      0.0000      0.0000      6.5324      0.0000      0.0000      0.0000
 10      0.0000      2.9889      4.9491      0.0000      0.0000      0.8510      3.8615      0.0000      0.0000
 11      0.0000      0.5707      4.2146      0.0000      0.0000      0.0000      0.0000      0.0000      0.0000
 12      0.0000      1.0417      0.0000      0.0000      0.0000      4.3179      0.7668      2.4297      0.0000
 13      0.0000      0.0201      0.0000      0.0000      0.0000      0.0000      0.0000      0.0000      0.0000
 14      0.0000      0.0243      0.0000      0.0000      0.0000      0.0000      0.0000      0.0000      0.0000
 15      0.0000      0.0159      0.0000      0.0000      0.0000      0.0000      0.0000      0.0000      0.0000
 16      0.0000      0.0016      0.0000      0.0000      0.0000      0.0000      0.0000      0.0000      0.0000
 17      0.0000      0.0127      0.0000      0.0000      0.0000      0.0000      0.0000      0.0000      0.0000
 18      0.0000      0.5461      0.0000      0.0000      0.0000      0.0000      2.7608      0.0000      0.0000
 19      0.0000      0.8717      0.0000      4.1529      0.0000      1.7254      0.8466      0.0000      0.0000
 20      0.3269      1.2467      0.0000      0.0000      7.0898      1.5924      0.0000      1.7854      0.0000
 21     13.5751     24.2971     29.0556     32.6330     26.0720     25.3720     27.6189     24.9964     29.5632
 22      0.0000      0.4925      0.0000      0.0000      0.0000      0.3202      0.0000      0.0000      0.0000
 23      0.0000      1.0587      0.0000      3.0337      1.0619      0.0000      0.1114      0.0000      0.4396
 24      0.0000      0.7633      0.0000      0.0000      1.3755      0.0000      0.0000      0.0000      0.0000
 25      0.0000      1.0123      0.0000      1.0646      0.0000      1.4457      0.0000      0.0000      0.2058
 26      0.0000      3.9341      4.0329      3.9140      2.9627      0.0000      0.0000      4.7172      1.9725
 27      0.0000      1.0077      0.0000      0.0000      0.3430      0.3731      0.0000      2.1479      0.0000
 28      0.0000      0.1172      0.0514      0.0000      0.0000      0.0000      0.0000      0.0000      0.0000
 29      0.0000      0.0156      0.0000      0.0000      0.0000      0.0000      0.0000      0.0000      0.0000
 30      0.0000      0.0301      0.0000      0.0000      0.0000      0.0000      0.0000      0.4761      0.0000
 31      0.0000      0.0093      0.0000      0.0000      0.0000      0.0000      0.0000      0.0000      0.0000
 32      0.0000      0.0072      0.0000      0.0000      0.0000      0.0000      0.0000      0.0000      0.0000
 33      0.0000      0.0009      0.0000      0.0000      0.0000      0.0000      0.0000      0.0000      0.0000
 34      0.0000      0.0041      0.0000      0.0000      0.0000      0.0000      0.0000      0.0000      0.0000
 35      0.0000      0.2883      0.0000      0.0000      0.1115      1.1337      1.7032      0.0116      0.2524
 36      0.0000      0.7147      0.0000      3.0195      0.4116      2.1384      1.2985      1.3504      0.0000
 37      0.0000      0.9401      1.2226      0.6371      0.0000      1.8205      1.0364      1.7933      0.0000
 38      0.0000      0.0725      0.0000      0.0000      0.0000      0.0000      0.0000      0.0000      0.0000
 39      0.0000      0.4454      0.0000      0.0000      0.0000      0.0000      0.0000      0.0000      0.0000
 40      0.0000      0.2142      0.0000      0.0000      0.0734      0.0000      0.0370      0.0000      0.0000
 41      0.0000      1.0609      0.0000      0.0000      0.0000      0.0000      1.0283      0.0000      0.0000
 42      0.0000      1.8729      0.3586      0.0000      2.3654      0.0000      5.6174      0.0407      5.5658
 43      0.0000      2.8139      1.5716      2.9337      0.0000      0.0000      0.0000      0.0000      0.0000
 44      0.0000      9.1426     11.3591     11.0099      9.7860      5.5511      9.2657     15.8548      8.8012
 45      0.0000      0.1465      0.0000      0.0000      0.0000      0.0000      0.0000      0.0000      0.0000
 46      0.0000      0.0094      0.0000      0.0000      0.0000      0.0000      0.0000      0.0000      0.0000
 47      0.0000      0.0343      0.0000      0.0000      0.0000      0.0000      0.0000      0.0000      0.0000
 48      0.0000      0.0044      0.0000      0.0000      0.0000      0.0000      0.0000      0.0000      0.0000
 49      0.0000      0.0023      0.0000      0.0000      0.0000      0.0000      0.0000      0.0000      0.0000
 50      0.0000      0.0014      0.0000      0.0000      0.0000      0.0000      0.0000      0.0000      0.0000
 51      0.0000      0.1908      0.0000      0.0000      0.0000      0.8003      0.0000      0.0000      2.8442
 52      0.7696      0.6250      0.0000      0.0000      3.9563      0.0000      2.2582      0.8623      0.0000
 53      0.0028      0.8518      1.6315      1.8047      0.8787      0.0000      2.7772      2.8586      0.3987
 54      0.0000      0.0224      0.0000      0.0000      0.0000      0.0000      0.0000      0.0000      0.0000
 55      0.0000      0.2549      1.5534      0.0000      0.0000      0.0000      0.0000      0.0000      0.0000
 56      0.0000      0.5869      0.0000      0.0000      0.0000      0.0000      0.0000      0.0000      2.5006
 57      0.0000      0.2757      0.6319      0.0000      0.0000      0.0000      0.0000      0.0000      0.0000
 58      0.0000      0.9982      0.0000      0.0000      2.4476      0.0000      0.0000      0.1318      0.0000
 59      0.0000     14.2466     10.7552     14.1247     21.4245     18.1823     12.6172     12.2384     15.9821
 60     39.9058      7.6765      8.6882     11.8597     11.4722     11.9962     13.3029      6.2187      9.8535
 61      0.0000      0.2281      0.0000      0.0000      0.0000      0.0000      0.1612      0.0000      0.0000
 62      0.0000      0.0247      0.0000      0.0000      0.0000      0.0000      0.0000      0.0000      0.0000
 63      0.0000      0.0100      0.0000      0.0000      0.0000      0.0000      0.0000      0.0000      0.0000
 64      0.0000      0.0002      0.0000      0.0000      0.0000      0.0000      0.0000      0.0000      0.0000
 65      0.0000      0.0008      0.0000      0.0000      0.0000      0.0000      0.0000      0.0000      0.0000
 66      0.0000      0.0002      0.0000      0.0000      0.0000      0.0000      0.0000      0.0000      0.0000

# j      m_j: min, <> & last-chain-values for 1 ...  7 chains
  1  0.0000E+00  4.3971E-02  0.0000E+00  0.0000E+00  0.0000E+00  1.4252E-01  0.0000E+00  0.0000E+00  0.0000E+00
  2  5.4387E-01  1.3208E-01  4.0526E-01  1.4471E-01  1.7119E-01  1.7283E-01  2.7430E-01  2.2853E-01  4.4539E-01
  3  2.5058E-01  1.1158E-01  8.3106E-02  2.2524E-01  2.7604E-01  0.0000E+00  0.0000E+00  3.7477E-01  1.5788E-01
  4  1.4973E+00  5.6664E-01  1.0257E+00  3.8888E-01  1.8942E-01  8.4886E-01  6.2019E-01  9.3971E-01  7.2746E-01
  5  0.0000E+00  1.7235E-01  0.0000E+00  0.0000E+00  0.0000E+00  4.6193E-02  0.0000E+00  0.0000E+00  0.0000E+00
  6  0.0000E+00  1.1521E-01  0.0000E+00  0.0000E+00  0.0000E+00  1.6355E-01  1.5113E-01  0.0000E+00  0.0000E+00
  7  0.0000E+00  1.4471E-01  0.0000E+00  0.0000E+00  0.0000E+00  1.8045E-01  0.0000E+00  1.9256E-01  0.0000E+00
  8  0.0000E+00  4.7077E-01  0.0000E+00  2.6833E-01  1.2603E-01  0.0000E+00  0.0000E+00  0.0000E+00  1.6344E+00
  9  0.0000E+00  1.1081E+00  0.0000E+00  0.0000E+00  0.0000E+00  3.0751E+00  0.0000E+00  0.0000E+00  0.0000E+00
 10  0.0000E+00  1.8202E+00  3.3308E+00  0.0000E+00  0.0000E+00  5.2625E-01  2.3366E+00  0.0000E+00  0.0000E+00
 11  0.0000E+00  6.5350E-01  5.3335E+00  0.0000E+00  0.0000E+00  0.0000E+00  0.0000E+00  0.0000E+00  0.0000E+00
 12  0.0000E+00  1.8923E+00  0.0000E+00  0.0000E+00  0.0000E+00  7.9639E+00  1.3840E+00  4.4409E+00  0.0000E+00
 13  0.0000E+00  1.0276E-01  0.0000E+00  0.0000E+00  0.0000E+00  0.0000E+00  0.0000E+00  0.0000E+00  0.0000E+00
 14  0.0000E+00  4.1722E-01  0.0000E+00  0.0000E+00  0.0000E+00  0.0000E+00  0.0000E+00  0.0000E+00  0.0000E+00
 15  0.0000E+00  4.4517E-01  0.0000E+00  0.0000E+00  0.0000E+00  0.0000E+00  0.0000E+00  0.0000E+00  0.0000E+00
 16  0.0000E+00  7.4915E-02  0.0000E+00  0.0000E+00  0.0000E+00  0.0000E+00  0.0000E+00  0.0000E+00  0.0000E+00
 17  0.0000E+00  7.7825E-01  0.0000E+00  0.0000E+00  0.0000E+00  0.0000E+00  0.0000E+00  0.0000E+00  0.0000E+00
 18  0.0000E+00  8.3051E-02  0.0000E+00  0.0000E+00  0.0000E+00  0.0000E+00  4.1716E-01  0.0000E+00  0.0000E+00
 19  0.0000E+00  5.3202E-02  0.0000E+00  2.5480E-01  0.0000E+00  1.0693E-01  5.1343E-02  0.0000E+00  0.0000E+00
 20  1.6823E-02  8.3073E-02  0.0000E+00  0.0000E+00  4.4304E-01  1.0774E-01  0.0000E+00  1.1971E-01  0.0000E+00
 21  8.4811E-01  1.9653E+00  2.5973E+00  2.6533E+00  1.9777E+00  2.0838E+00  2.2197E+00  2.0344E+00  2.5921E+00
 22  0.0000E+00  6.7357E-02  0.0000E+00  0.0000E+00  0.0000E+00  4.4474E-02  0.0000E+00  0.0000E+00  0.0000E+00
 23  0.0000E+00  1.9554E-01  0.0000E+00  5.6325E-01  1.8393E-01  0.0000E+00  2.0438E-02  0.0000E+00  8.8013E-02
 24  0.0000E+00  2.0975E-01  0.0000E+00  0.0000E+00  3.5446E-01  0.0000E+00  0.0000E+00  0.0000E+00  0.0000E+00
 25  0.0000E+00  3.8356E-01  0.0000E+00  4.0547E-01  0.0000E+00  5.5619E-01  0.0000E+00  0.0000E+00  8.4509E-02
 26  0.0000E+00  2.4916E+00  2.8227E+00  2.4918E+00  1.7597E+00  0.0000E+00  0.0000E+00  3.0062E+00  1.3542E+00
 27  0.0000E+00  1.2775E+00  0.0000E+00  0.0000E+00  4.0783E-01  4.8031E-01  0.0000E+00  2.7398E+00  0.0000E+00
 28  0.0000E+00  4.3118E-01  2.0913E-01  0.0000E+00  0.0000E+00  0.0000E+00  0.0000E+00  0.0000E+00  0.0000E+00
 29  0.0000E+00  9.9890E-02  0.0000E+00  0.0000E+00  0.0000E+00  0.0000E+00  0.0000E+00  0.0000E+00  0.0000E+00
 30  0.0000E+00  4.0291E-01  0.0000E+00  0.0000E+00  0.0000E+00  0.0000E+00  0.0000E+00  6.4163E+00  0.0000E+00
 31  0.0000E+00  2.1837E-01  0.0000E+00  0.0000E+00  0.0000E+00  0.0000E+00  0.0000E+00  0.0000E+00  0.0000E+00
 32  0.0000E+00  2.2805E-01  0.0000E+00  0.0000E+00  0.0000E+00  0.0000E+00  0.0000E+00  0.0000E+00  0.0000E+00
 33  0.0000E+00  6.1625E-02  0.0000E+00  0.0000E+00  0.0000E+00  0.0000E+00  0.0000E+00  0.0000E+00  0.0000E+00
 34  0.0000E+00  3.9294E-01  0.0000E+00  0.0000E+00  0.0000E+00  0.0000E+00  0.0000E+00  0.0000E+00  0.0000E+00
 35  0.0000E+00  3.5155E-02  0.0000E+00  0.0000E+00  1.2750E-02  1.4037E-01  2.0635E-01  1.4254E-03  3.3362E-02
 36  0.0000E+00  3.5258E-02  0.0000E+00  1.4974E-01  1.9042E-02  1.0712E-01  6.3651E-02  6.7033E-02  0.0000E+00
 37  0.0000E+00  5.0163E-02  7.2099E-02  3.4171E-02  0.0000E+00  9.8636E-02  5.4953E-02  9.6286E-02  0.0000E+00
 38  0.0000E+00  1.0487E-02  0.0000E+00  0.0000E+00  0.0000E+00  0.0000E+00  0.0000E+00  0.0000E+00  0.0000E+00
 39  0.0000E+00  9.2713E-02  0.0000E+00  0.0000E+00  0.0000E+00  0.0000E+00  0.0000E+00  0.0000E+00  0.0000E+00
 40  0.0000E+00  7.2076E-02  0.0000E+00  0.0000E+00  2.3170E-02  0.0000E+00  1.2370E-02  0.0000E+00  0.0000E+00
 41  0.0000E+00  5.5504E-01  0.0000E+00  0.0000E+00  0.0000E+00  0.0000E+00  5.3456E-01  0.0000E+00  0.0000E+00
 42  0.0000E+00  1.7991E+00  3.8071E-01  0.0000E+00  2.1308E+00  0.0000E+00  5.3616E+00  3.9380E-02  5.7956E+00
 43  0.0000E+00  3.9463E+00  2.4358E+00  4.1357E+00  0.0000E+00  0.0000E+00  0.0000E+00  0.0000E+00  0.0000E+00
 44  0.0000E+00  2.2077E+01  3.0313E+01  2.6724E+01  2.2161E+01  1.3611E+01  2.2231E+01  3.8523E+01  2.3038E+01
 45  0.0000E+00  7.0209E-01  0.0000E+00  0.0000E+00  0.0000E+00  0.0000E+00  0.0000E+00  0.0000E+00  0.0000E+00
 46  0.0000E+00  8.2529E-02  0.0000E+00  0.0000E+00  0.0000E+00  0.0000E+00  0.0000E+00  0.0000E+00  0.0000E+00
 47  0.0000E+00  6.1133E-01  0.0000E+00  0.0000E+00  0.0000E+00  0.0000E+00  0.0000E+00  0.0000E+00  0.0000E+00
 48  0.0000E+00  1.3903E-01  0.0000E+00  0.0000E+00  0.0000E+00  0.0000E+00  0.0000E+00  0.0000E+00  0.0000E+00
 49  0.0000E+00  1.6392E-01  0.0000E+00  0.0000E+00  0.0000E+00  0.0000E+00  0.0000E+00  0.0000E+00  0.0000E+00
 50  0.0000E+00  1.9018E-01  0.0000E+00  0.0000E+00  0.0000E+00  0.0000E+00  0.0000E+00  0.0000E+00  0.0000E+00
 51  0.0000E+00  1.3856E-02  0.0000E+00  0.0000E+00  0.0000E+00  5.9010E-02  0.0000E+00  0.0000E+00  2.2389E-01
 52  2.2122E-02  2.3259E-02  0.0000E+00  0.0000E+00  1.3808E-01  0.0000E+00  8.3501E-02  3.2289E-02  0.0000E+00
 53  1.2232E-04  4.7750E-02  1.0107E-01  1.0169E-01  4.6194E-02  0.0000E+00  1.5469E-01  1.6124E-01  2.4229E-02
 54  0.0000E+00  2.5690E-03  0.0000E+00  0.0000E+00  0.0000E+00  0.0000E+00  0.0000E+00  0.0000E+00  0.0000E+00
 55  0.0000E+00  4.5080E-02  3.0362E-01  0.0000E+00  0.0000E+00  0.0000E+00  0.0000E+00  0.0000E+00  0.0000E+00
 56  0.0000E+00  2.0543E-01  0.0000E+00  0.0000E+00  0.0000E+00  0.0000E+00  0.0000E+00  0.0000E+00  9.4884E-01
 57  0.0000E+00  1.2808E-01  3.2444E-01  0.0000E+00  0.0000E+00  0.0000E+00  0.0000E+00  0.0000E+00  0.0000E+00
 58  0.0000E+00  7.8446E-01  0.0000E+00  0.0000E+00  1.8038E+00  0.0000E+00  0.0000E+00  1.0422E-01  0.0000E+00
 59  0.0000E+00  2.4094E+01  2.0101E+01  2.4012E+01  3.3980E+01  3.1223E+01  2.1202E+01  2.0826E+01  2.9299E+01
 60  9.6821E+01  2.4114E+01  3.0161E+01  3.7447E+01  3.3796E+01  3.8262E+01  4.1521E+01  1.9656E+01  3.3552E+01
 61  0.0000E+00  1.5658E+00  0.0000E+00  0.0000E+00  0.0000E+00  0.0000E+00  1.0994E+00  0.0000E+00  0.0000E+00
 62  0.0000E+00  3.0951E-01  0.0000E+00  0.0000E+00  0.0000E+00  0.0000E+00  0.0000E+00  0.0000E+00  0.0000E+00
 63  0.0000E+00  2.4824E-01  0.0000E+00  0.0000E+00  0.0000E+00  0.0000E+00  0.0000E+00  0.0000E+00  0.0000E+00
 64  0.0000E+00  1.0577E-02  0.0000E+00  0.0000E+00  0.0000E+00  0.0000E+00  0.0000E+00  0.0000E+00  0.0000E+00
 65  0.0000E+00  1.1696E-01  0.0000E+00  0.0000E+00  0.0000E+00  0.0000E+00  0.0000E+00  0.0000E+00  0.0000E+00
 66  0.0000E+00  3.4460E-02  0.0000E+00  0.0000E+00  0.0000E+00  0.0000E+00  0.0000E+00  0.0000E+00  0.0000E+00

# AV, chi2 & Mass for <> & i_chain = 1 ...  7 solutions
AV       0.2784      0.3232      0.3132      0.2965      0.3076      0.3263      0.3243      0.3428      0.3190
chi2 1.2510E+00  1.2637E+00  1.2594E+00  1.2594E+00  1.2588E+00  1.2594E+00  1.2591E+00  1.2597E+00  1.2592E+00
Mass 6.7441E-15  5.5326E-15  4.9392E-15  5.3103E-15  5.7773E-15  5.4717E-15  5.5760E-15  5.6448E-15  5.0749E-15
-155.34                                  [v0_min (km/s) before EX0s...]
 165.74                                  [vd_min (km/s) before EX0s...]


## Synthetic spectrum (Best Model) ##l_obs f_obs f_syn wei
 3478    [Nl_obs]
 3741.00    0.34795   0.75228    0.000
 3742.00    0.46824   0.73377    0.000
 3743.00    0.63664   0.70663    0.000
 3744.00    0.80354   0.67291    0.000
 3745.00    0.89951   0.63653   -1.000
 3746.00    0.86414   0.60278   -1.000
 3747.00    0.73340   0.57888   -1.000
 3748.00    0.62257   0.57249   16.063
 3749.00    0.59180   0.58692   16.897
 3750.00    0.61852   0.61840   16.168
 3751.00    0.64013   0.65853   15.622
 3752.00    0.59921   0.69886   16.689
 3753.00    0.52869   0.73288   -1.000
 3754.00    0.52629   0.75693   -1.000
 3755.00    0.62579   0.77094   15.980
 3756.00    0.77836   0.77829   12.848
 3757.00    0.89588   0.78335   11.162
 3758.00    0.90540   0.78837   11.045
 3759.00    0.84873   0.79262   11.782
 3760.00    0.82965   0.79370   12.053
 3761.00    0.83914   0.78860   11.917
 3762.00    0.79035   0.77500   12.653
 3763.00    0.68557   0.75218   14.586
 3764.00    0.60128   0.72056   16.631
 3765.00    0.57641   0.68273   17.349
 3766.00    0.60168   0.64394   16.620
 3767.00    0.64857   0.61076   15.419
 3768.00    0.69589   0.59046   14.370
 3769.00    0.76761   0.58944   -1.000
 3770.00    0.89791   0.60897   -1.000
 3771.00    1.05456   0.64359   -1.000
 3772.00    1.16948   0.68523   -1.000
 3773.00    1.21796   0.72751   -1.000
 3774.00    1.21031   0.76696   -1.000
 3775.00    1.15362   0.80222   -1.000
 3776.00    1.06056   0.83259    9.429
 3777.00    0.97315   0.85785   10.276
 3778.00    0.93224   0.87799   10.727
 3779.00    0.92547   0.89263   10.805
 3780.00    0.91402   0.90155   10.941
 3781.00    0.88481   0.90487   11.302
 3782.00    0.85345   0.90251   11.717
 3783.00    0.85488   0.89414   11.698
 3784.00    0.90433   0.88082   11.058
 3785.00    0.94925   0.86521   10.535
 3786.00    0.92971   0.84924   10.756
 3787.00    0.86321   0.83292   11.585
 3788.00    0.79471   0.81478   12.583
 3789.00    0.72148   0.79256   13.860
 3790.00    0.62317   0.76380   16.047
 3791.00    0.50845   0.72710   -1.000
 3792.00    0.40101   0.68380   -1.000
 3793.00    0.31678   0.63862   -1.000
 3794.00    0.26320   0.59825   -1.000
 3795.00    0.24127   0.57028   -1.000
 3796.00    0.24613   0.56208   -1.000
 3797.00    0.26882   0.57720   -1.000
 3798.00    0.31301   0.61224   -1.000
 3799.00    0.40822   0.65856   -1.000
 3800.00    0.56928   0.70712   17.566
 3801.00    0.75728   0.75148   13.205
 3802.00    0.90307   0.78809   11.073
 3803.00    0.93944   0.81668   10.645
 3804.00    0.86425   0.83966   11.571
 3805.00    0.78274   0.86029   12.776
 3806.00    0.78948   0.88023   12.667
 3807.00    0.86848   0.89835   11.514
 3808.00    0.94873   0.91190   10.540
 3809.00    0.96330   0.91842   10.381
 3810.00    0.90019   0.91761   11.109
 3811.00    0.82739   0.91211   12.086
 3812.00    0.79353   0.90590   12.602
 3813.00    0.76285   0.90133   13.109
 3814.00    0.71330   0.89802   14.019
 3815.00    0.69965   0.89407   14.293
 3816.00    0.76224   0.88782   13.119
 3817.00    0.86734   0.87985   11.530
 3818.00    0.96228   0.87376   10.392
 3819.00    1.01767   0.87167    9.826
 3820.00    1.04191   0.87083    9.598
 3821.00    1.07919   0.86652    9.266
 3822.00    1.14737   0.85609    8.716
 3823.00    1.20737   0.84037   -1.000
 3824.00    1.21219   0.82128   -1.000
 3825.00    1.14255   0.79945   -1.000
 3826.00    1.03549   0.77453    9.657
 3827.00    0.97664   0.74544   10.239
 3828.00    0.97655   0.71088   -1.000
 3829.00    0.93593   0.67017   -1.000
 3830.00    0.81793   0.62514   -1.000
 3831.00    0.71150   0.58142   14.055
 3832.00    0.68950   0.54653   -1.000
 3833.00    0.74374   0.52792   -1.000
 3834.00    0.82632   0.53048   -1.000
 3835.00    0.88151   0.55311   -1.000
 3836.00    0.89180   0.58985   -1.000
 3837.00    0.88468   0.63387   -1.000
 3838.00    0.87180   0.67958   11.470
 3839.00    0.83570   0.72375   11.966
 3840.00    0.78742   0.76445   12.700
 3841.00    0.77661   0.79999   12.877
 3842.00    0.83341   0.82952   11.999
 3843.00    0.94344   0.85327   10.600
 3844.00    1.04506   0.87240    9.569
 3845.00    1.05885   0.88809    9.444
 3846.00    0.99365   0.90103   10.064
 3847.00    0.94521   0.91179    0.000
 3848.00    0.95577   0.92169    0.000
 3849.00    0.98852   0.93153    0.000
 3850.00    1.01064   0.94007    0.000
 3851.00    1.01493   0.94580    0.000
 3852.00    0.99614   0.94827    0.000
 3853.00    0.94805   0.94816    0.000
 3854.00    0.87831   0.94697    0.000
 3855.00    0.81006   0.94637    0.000
 3856.00    0.77293   0.94689    0.000
 3857.00    0.78764   0.94879    0.000
 3858.00    0.83281   0.95300    0.000
 3859.00    0.86429   0.95937    0.000
 3860.00    0.89031   0.96553    0.000
 3861.00    0.95754   0.96967    0.000
 3862.00    1.06430   0.97138    0.000
 3863.00    1.16150   0.97082    0.000
 3864.00    1.21050   0.96886    0.000
 3865.00    1.20071   0.96633    0.000
 3866.00    1.15473   0.96287    0.000
 3867.00    1.10020   0.95701    0.000
 3868.00    1.00660   0.94771    0.000
 3869.00    0.83425   0.93596    0.000
 3870.00    0.66600   0.92466    0.000
 3871.00    0.64532   0.91644    0.000
 3872.00    0.79307   0.91110    0.000
 3873.00    1.01524   0.90569    0.000
 3874.00    1.19526   0.89706    0.000
 3875.00    1.24648   0.88391    0.000
 3876.00    1.17350   0.86760    0.000
 3877.00    1.05033   0.85064    0.000
 3878.00    0.95865   0.83305    0.000
 3879.00    0.94204   0.81221    0.000
 3880.00    0.95048   0.78585    0.000
 3881.00    0.90605   0.75325   11.037
 3882.00    0.82374   0.71413   12.140
 3883.00    0.75751   0.66916   13.201
 3884.00    0.68656   0.62205   14.565
 3885.00    0.57165   0.57963   17.493
 3886.00    0.46393   0.55001   21.555
 3887.00    0.44345   0.54054   22.550
 3888.00    0.50812   0.55420   19.680
 3889.00    0.60260   0.58670   16.595
 3890.00    0.68173   0.62940   14.669
 3891.00    0.72524   0.67406   13.788
 3892.00    0.74488   0.71538   13.425
 3893.00    0.77016   0.75119   12.984
 3894.00    0.82764   0.78153   12.083
 3895.00    0.91804   0.80714   10.893
 3896.00    0.99435   0.82861   10.057
 3897.00    1.00063   0.84714    9.994
 3898.00    0.92145   0.86398   10.852
 3899.00    0.79148   0.87905   12.635
 3900.00    0.69463   0.89123   14.396
 3901.00    0.69865   0.90032   -1.000
 3902.00    0.78765   0.90742   12.696
 3903.00    0.90010   0.91411   11.110
 3904.00    0.97857   0.92259   10.219
 3905.00    1.00277   0.93430    9.972
 3906.00    1.01182   0.94808    9.883
 3907.00    1.04090   0.96113    9.607
 3908.00    1.06381   0.97103    9.400
 3909.00    1.04425   0.97639    9.576
 3910.00    0.98599   0.97714   10.142
 3911.00    0.91839   0.97458   10.889
 3912.00    0.87814   0.97084   11.388
 3913.00    0.89185   0.96714   11.213
 3914.00    0.96097   0.96340   10.406
 3915.00    1.04788   0.95972    9.543
 3916.00    1.07690   0.95631    9.286
 3917.00    1.02452   0.95371    9.761
 3918.00    0.97293   0.95273   10.278
 3919.00    0.98082   0.95360   10.196
 3920.00    0.99905   0.95514   10.010
 3921.00    0.98024   0.95522   10.202
 3922.00    0.95022   0.95200   10.524
 3923.00    0.93187   0.94406   10.731
 3924.00    0.89961   0.93106   11.116
 3925.00    0.84381   0.91351   11.851
 3926.00    0.80463   0.89125   12.428
 3927.00    0.80575   0.86396   12.411
 3928.00    0.81907   0.83254   12.209
 3929.00    0.81141   0.79942   12.324
 3930.00    0.77463   0.76971   12.909
 3931.00    0.72922   0.75099   13.713
 3932.00    0.71691   0.74989   13.949
 3933.00    0.75430   0.76756   13.257
 3934.00    0.81472   0.79879   12.274
 3935.00    0.86813   0.83517   11.519
 3936.00    0.90237   0.86934   11.082
 3937.00    0.91958   0.89687   10.874
 3938.00    0.93121   0.91610   10.739
 3939.00    0.94530   0.92740   10.579
 3940.00    0.95939   0.93292   10.423
 3941.00    0.95683   0.93563   10.451
 3942.00    0.91510   0.93802   10.928
 3943.00    0.84815   0.94095   11.790
 3944.00    0.80899   0.94329   12.361
 3945.00    0.82180   0.94358   12.168
 3946.00    0.86190   0.94177   11.602
 3947.00    0.89374   0.93879   11.189
 3948.00    0.89372   0.93540   11.189
 3949.00    0.87492   0.93173   11.430
 3950.00    0.87717   0.92764   11.400
 3951.00    0.89729   0.92282   11.145
 3952.00    0.88504   0.91643   11.299
 3953.00    0.82064   0.90752   12.186
 3954.00    0.73417   0.89639   13.621
 3955.00    0.67536   0.88413   -1.000
 3956.00    0.68978   0.87059   14.497
 3957.00    0.77872   0.85396   12.842
 3958.00    0.89754   0.83217   11.142
 3959.00    0.99143   0.80464   10.086
 3960.00    1.01785   0.77204    0.000
 3961.00    0.97761   0.73445    0.000
 3962.00    0.90843   0.69146    0.000
 3963.00    0.84131   0.64332    0.000
 3964.00    0.79167   0.59178    0.000
 3965.00    0.76999   0.54136    0.000
 3966.00    0.77972   0.49950    0.000
 3967.00    0.80437   0.47449    0.000
 3968.00    0.81698   0.47217    0.000
 3969.00    0.81100   0.49297    0.000
 3970.00    0.79839   0.53174    0.000
 3971.00    0.78639   0.58076    0.000
 3972.00    0.77658   0.63286    0.000
 3973.00    0.77500   0.68279    0.000
 3974.00    0.78914   0.72770    0.000
 3975.00    0.81625   0.76674    0.000
 3976.00    0.84440   0.79980    0.000
 3977.00    0.86013   0.82680    0.000
 3978.00    0.85550   0.84781    0.000
 3979.00    0.83812   0.86363    0.000
 3980.00    0.82319   0.87616    0.000
 3981.00    0.81473   0.88749   12.274
 3982.00    0.80942   0.89884   12.355
 3983.00    0.80998   0.91030   12.346
 3984.00    0.82606   0.92151   12.106
 3985.00    0.87042   0.93206   11.489
 3986.00    0.94130   0.94149   10.624
 3987.00    0.99614   0.94967   10.039
 3988.00    0.99014   0.95700   10.100
 3989.00    0.94325   0.96357   10.602
 3990.00    0.91390   0.96871   10.942
 3991.00    0.94160   0.97142   10.620
 3992.00    1.02568   0.97127    9.750
 3993.00    1.11010   0.96905    9.008
 3994.00    1.13529   0.96661    8.808
 3995.00    1.11147   0.96620    8.997
 3996.00    1.08100   0.96921    9.251
 3997.00    1.05479   0.97491    9.481
 3998.00    1.02649   0.98084    9.742
 3999.00    1.00109   0.98454    9.989
 4000.00    0.98711   0.98475   10.131
 4001.00    0.98267   0.98141   10.176
 4002.00    0.97874   0.97605   10.217
 4003.00    0.96621   0.97171   10.350
 4004.00    0.95288   0.97091   10.494
 4005.00    0.97780   0.97387   10.227
 4006.00    1.06113   0.97918    9.424
 4007.00    1.15215   0.98541    8.679
 4008.00    1.18359   0.99145    8.449
 4009.00    1.13494   0.99640    8.811
 4010.00    1.03847   1.00005    9.630
 4011.00    0.97207   1.00278   10.287
 4012.00    0.98484   1.00504   10.154
 4013.00    1.03306   1.00714    9.680
 4014.00    1.05396   1.00923    9.488
 4015.00    1.03728   1.01154    9.641
 4016.00    1.00501   1.01390    9.950
 4017.00    0.98536   1.01496   10.149
 4018.00    0.99032   1.01290   10.098
 4019.00    1.00096   1.00691    9.990
 4020.00    0.99193   0.99738   10.081
 4021.00    0.95344   0.98576   10.488
 4022.00    0.89856   0.97485   11.129
 4023.00    0.86411   0.96787   11.573
 4024.00    0.88231   0.96621   11.334
 4025.00    0.95857   0.96808   10.432
 4026.00    1.06628   0.97010    9.378
 4027.00    1.15112   0.96998    8.687
 4028.00    1.17953   0.96810    8.478
 4029.00    1.16661   0.96669    8.572
 4030.00    1.13787   0.96800    8.788
 4031.00    1.10453   0.97321    9.054
 4032.00    1.07578   0.98208    9.296
 4033.00    1.06405   0.99308    9.398
 4034.00    1.06388   1.00406    9.400
 4035.00    1.04615   1.01267    9.559
 4036.00    1.00000   1.01735   10.000
 4037.00    0.95143   1.01786   10.510
 4038.00    0.92883   1.01488   10.766
 4039.00    0.94272   1.00929   10.608
 4040.00    0.98491   1.00140   10.153
 4041.00    1.03146   0.99155    9.695
 4042.00    1.05799   0.98172    9.452
 4043.00    1.05187   0.97541    9.507
 4044.00    1.03248   0.97498    9.685
 4045.00    1.04605   0.97953    9.560
 4046.00    1.09725   0.98614    9.114
 4047.00    1.13180   0.99207    8.835
 4048.00    1.10251   0.99521    9.070
 4049.00    1.00230   0.99464    9.977
 4050.00    0.87340   0.99095   11.449
 4051.00    0.79072   0.98576   12.647
 4052.00    0.78202   0.98089   12.787
 4053.00    0.81266   0.97752   12.305
 4054.00    0.85451   0.97587   11.703
 4055.00    0.90517   0.97587   11.048
 4056.00    0.95562   0.97703   10.464
 4057.00    0.98527   0.97792   10.150
 4058.00    0.98863   0.97663   10.115
 4059.00    0.97946   0.97221   10.210
 4060.00    0.97120   0.96573   10.297
 4061.00    0.96829   0.95985   10.327
 4062.00    0.96073   0.95649   10.409
 4063.00    0.93235   0.95541   10.726
 4064.00    0.89086   0.95569   11.225
 4065.00    0.86427   0.95670   11.570
 4066.00    0.86220   0.95722   11.598
 4067.00    0.86930   0.95582   11.504
 4068.00    0.86090   0.95251   11.616
 4069.00    0.82191   0.94856   12.167
 4070.00    0.78365   0.94471   12.761
 4071.00    0.80081   0.94003   12.487
 4072.00    0.86672   0.93325   11.538
 4073.00    0.92410   0.92456   10.821
 4074.00    0.94765   0.91616   10.552
 4075.00    0.95262   0.91129   10.497
 4076.00    0.96388   0.91189   10.375
 4077.00    0.99797   0.91706   10.020
 4078.00    1.04119   0.92368    9.604
 4079.00    1.06513   0.92815    9.389
 4080.00    1.07084   0.92839    9.338
 4081.00    1.07970   0.92450    9.262
 4082.00    1.09389   0.91828    9.142
 4083.00    1.09905   0.91180    9.099
 4084.00    1.08643   0.90606    9.204
 4085.00    1.05473   0.90065    9.481
 4086.00    1.00484   0.89454    9.952
 4087.00    0.94080   0.88671   10.629
 4088.00    0.87340   0.87632   11.449
 4089.00    0.81699   0.86278   12.240
 4090.00    0.78278   0.84577   12.775
 4091.00    0.77894   0.82474   12.838
 4092.00    0.81236   0.79891    0.000
 4093.00    0.87923   0.76790    0.000
 4094.00    0.95013   0.73184    0.000
 4095.00    0.98324   0.69135    0.000
 4096.00    0.94954   0.64799    0.000
 4097.00    0.85504   0.60519    0.000
 4098.00    0.76507   0.56908    0.000
 4099.00    0.75477   0.54726    0.000
 4100.00    0.83460   0.54501    0.000
 4101.00    0.96314   0.56242    0.000
 4102.00    1.08024   0.59478    0.000
 4103.00    1.13358   0.63495    0.000
 4104.00    1.10759   0.67598    0.000
 4105.00    1.02704   0.71330    0.000
 4106.00    0.95314   0.74516    0.000
 4107.00    0.93113   0.77198    0.000
 4108.00    0.93230   0.79517    0.000
 4109.00    0.91315   0.81598    0.000
 4110.00    0.88820   0.83492    0.000
 4111.00    0.89215   0.85177    0.000
 4112.00    0.92928   0.86599    0.000
 4113.00    0.97521   0.87689   10.254
 4114.00    0.98714   0.88405   10.130
 4115.00    0.93620   0.88779   10.681
 4116.00    0.83884   0.88946   11.921
 4117.00    0.75056   0.89083   13.323
 4118.00    0.74900   0.89334   13.351
 4119.00    0.85298   0.89766   11.724
 4120.00    0.96169   0.90361   10.398
 4121.00    0.98623   0.91025   10.140
 4122.00    0.96194   0.91592   10.396
 4123.00    0.94947   0.91908   10.532
 4124.00    0.94612   0.91915   10.569
 4125.00    0.92601   0.91678   10.799
 4126.00    0.88063   0.91317   11.356
 4127.00    0.83321   0.90951   12.002
 4128.00    0.83901   0.90695   11.919
 4129.00    0.91573   0.90668   10.920
 4130.00    1.00046   0.90966    9.995
 4131.00    1.02460   0.91616    9.760
 4132.00    0.97111   0.92541   10.297
 4133.00    0.87705   0.93576   11.402
 4134.00    0.81967   0.94551   12.200
 4135.00    0.82867   0.95331   12.067
 4136.00    0.84548   0.95778   11.828
 4137.00    0.83906   0.95762   11.918
 4138.00    0.86442   0.95206   11.568
 4139.00    0.95297   0.94202   10.494
 4140.00    1.05450   0.93088    9.483
 4141.00    1.10777   0.92309    9.027
 4142.00    1.08674   0.92125    9.202
 4143.00    1.01491   0.92507    9.853
 4144.00    0.95875   0.93199   10.430
 4145.00    0.95679   0.93872   10.452
 4146.00    0.98760   0.94304   10.126
 4147.00    1.00436   0.94454    9.957
 4148.00    0.96662   0.94374   10.345
 4149.00    0.90139   0.94139   11.094
 4150.00    0.90317   0.93819   11.072
 4151.00    0.99575   0.93489   10.043
 4152.00    1.09397   0.93231    9.141
 4153.00    1.12998   0.93133    8.850
 4154.00    1.10275   0.93256    9.068
 4155.00    1.03705   0.93586    9.643
 4156.00    0.96338   0.94038   10.380
 4157.00    0.91384   0.94508   10.943
 4158.00    0.91568   0.94936   10.921
 4159.00    0.97310   0.95297   10.276
 4160.00    1.06034   0.95578    9.431
 4161.00    1.12360   0.95762    8.900
 4162.00    1.10210   0.95822    9.074
 4163.00    0.99788   0.95746   10.021
 4164.00    0.87984   0.95556   11.366
 4165.00    0.80968   0.95266   12.351
 4166.00    0.81056   0.94832   12.337
 4167.00    0.85274   0.94185   11.727
 4168.00    0.87453   0.93329   11.435
 4169.00    0.86017   0.92400   11.626
 4170.00    0.84140   0.91607   11.885
 4171.00    0.82681   0.91110   12.095
 4172.00    0.79766   0.90931   12.537
 4173.00    0.75855   0.90960   13.183
 4174.00    0.73730   0.91079   13.563
 4175.00    0.74331   0.91256   13.453
 4176.00    0.76372   0.91510   13.094
 4177.00    0.78462   0.91841   12.745
 4178.00    0.79879   0.92214   12.519
 4179.00    0.81022   0.92577   12.342
 4180.00    0.82948   0.92873   12.056
 4181.00    0.86027   0.93065   11.624
 4182.00    0.89676   0.93131   11.151
 4183.00    0.92577   0.93086   10.802
 4184.00    0.93527   0.93016   10.692
 4185.00    0.93142   0.93027   10.736
 4186.00    0.92727   0.93181   10.784
 4187.00    0.91178   0.93492   10.968
 4188.00    0.86889   0.93918   11.509
 4189.00    0.82800   0.94352   12.077
 4190.00    0.83335   0.94633   12.000
 4191.00    0.86661   0.94617   11.539
 4192.00    0.87935   0.94235   11.372
 4193.00    0.87973   0.93505   11.367
 4194.00    0.90284   0.92555   11.076
 4195.00    0.93098   0.91611   10.741
 4196.00    0.92793   0.90876   10.777
 4197.00    0.91955   0.90450   10.875
 4198.00    0.95043   0.90347   10.522
 4199.00    0.99309   0.90513   10.070
 4200.00    0.98808   0.90867   10.121
 4201.00    0.92880   0.91353   10.767
 4202.00    0.85119   0.91935   11.748
 4203.00    0.79690   0.92561   12.549
 4204.00    0.79147   0.93159   12.635
 4205.00    0.82204   0.93663   12.165
 4206.00    0.85659   0.94047   11.674
 4207.00    0.87486   0.94321   11.430
 4208.00    0.87205   0.94487   11.467
 4209.00    0.85789   0.94513   11.656
 4210.00    0.85330   0.94346   11.719
 4211.00    0.88467   0.93998   11.304
 4212.00    0.96113   0.93598   10.404
 4213.00    1.04974   0.93332    9.526
 4214.00    1.10184   0.93342    9.076
 4215.00    1.08830   0.93643    9.189
 4216.00    1.01638   0.94102    9.839
 4217.00    0.93996   0.94485   10.639
 4218.00    0.90752   0.94565   11.019
 4219.00    0.90882   0.94189   11.003
 4220.00    0.91555   0.93317   10.922
 4221.00    0.92654   0.92055   10.793
 4222.00    0.94629   0.90678   10.568
 4223.00    0.96124   0.89581   10.403
 4224.00    0.95895   0.89118   10.428
 4225.00    0.94699   0.89422   10.560
 4226.00    0.94060   0.90333   10.632
 4227.00    0.94935   0.91444   10.534
 4228.00    0.97119   0.92303   10.297
 4229.00    0.99035   0.92662   10.097
 4230.00    0.99684   0.92534   10.032
 4231.00    1.00004   0.92124   10.000
 4232.00    1.00468   0.91698    9.953
 4233.00    0.99368   0.91432   10.064
 4234.00    0.95073   0.91377   10.518
 4235.00    0.87971   0.91520   11.367
 4236.00    0.81293   0.91818   12.301
 4237.00    0.80699   0.92221   12.392
 4238.00    0.87634   0.92683   11.411
 4239.00    0.95868   0.93142   10.431
 4240.00    1.00023   0.93498    9.998
 4241.00    1.00786   0.93647    9.922
 4242.00    1.00173   0.93528    9.983
 4243.00    0.98519   0.93149   10.150
 4244.00    0.96142   0.92581   10.401
 4245.00    0.94300   0.91946   10.604
 4246.00    0.94043   0.91387   10.633
 4247.00    0.95469   0.91008   10.475
 4248.00    0.97594   0.90842   10.247
 4249.00    0.98440   0.90869   10.158
 4250.00    0.95799   0.91048   10.439
 4251.00    0.88201   0.91317   11.338
 4252.00    0.77648   0.91602   12.879
 4253.00    0.69954   0.91818   -1.000
 4254.00    0.69452   0.91882   -1.000
 4255.00    0.76316   0.91750   13.103
 4256.00    0.86771   0.91474   11.525
 4257.00    0.94507   0.91214   10.581
 4258.00    0.96265   0.91170   10.388
 4259.00    0.93635   0.91468   10.680
 4260.00    0.89592   0.92075   11.162
 4261.00    0.86748   0.92801   11.528
 4262.00    0.86712   0.93386   11.532
 4263.00    0.89782   0.93617   11.138
 4264.00    0.94793   0.93387   10.549
 4265.00    0.99514   0.92709   10.049
 4266.00    1.02344   0.91698    9.771
 4267.00    1.02673   0.90541    9.740
 4268.00    0.99804   0.89449   10.020
 4269.00    0.93575   0.88628   10.687
 4270.00    0.87789   0.88237   11.391
 4271.00    0.88612   0.88327   11.285
 4272.00    0.95416   0.88830   10.480
 4273.00    1.00961   0.89589    9.905
 4274.00    1.01787   0.90403    9.824
 4275.00    1.00187   0.91079    9.981
 4276.00    0.99728   0.91485   10.027
 4277.00    1.02585   0.91584    9.748
 4278.00    1.06174   0.91433    9.418
 4279.00    1.05426   0.91135    9.485
 4280.00    1.01660   0.90787    9.837
 4281.00    1.00798   0.90433    9.921
 4282.00    1.02069   0.90048    9.797
 4283.00    0.99412   0.89567   10.059
 4284.00    0.92781   0.88950   10.778
 4285.00    0.87476   0.88234   11.432
 4286.00    0.85350   0.87551   11.716
 4287.00    0.84490   0.87078   11.836
 4288.00    0.83669   0.86942   11.952
 4289.00    0.82921   0.87124   12.060
 4290.00    0.82398   0.87452   12.136
 4291.00    0.82211   0.87688   12.164
 4292.00    0.82640   0.87644   12.101
 4293.00    0.83905   0.87238   11.918
 4294.00    0.85614   0.86493   11.680
 4295.00    0.86910   0.85505   11.506
 4296.00    0.86976   0.84417   11.497
 4297.00    0.85247   0.83415   11.731
 4298.00    0.81627   0.82673   12.251
 4299.00    0.77072   0.82289   12.975
 4300.00    0.74471   0.82243   13.428
 4301.00    0.76495   0.82406   13.073
 4302.00    0.81769   0.82607   12.230
 4303.00    0.87138   0.82714   11.476
 4304.00    0.92369   0.82703   10.826
 4305.00    0.98035   0.82662   10.200
 4306.00    1.01118   0.82718    9.889
 4307.00    0.97792   0.82954   10.226
 4308.00    0.88629   0.83346   11.283
 4309.00    0.77803   0.83809   12.853
 4310.00    0.70605   0.84277   -2.000
 4311.00    0.70257   0.84763   -2.000
 4312.00    0.74242   0.85325   -2.000
 4313.00    0.78353   0.85977   -2.000
 4314.00    0.82524   0.86631   -2.000
 4315.00    0.87548   0.87117   -2.000
 4316.00    0.90138   0.87278   -2.000
 4317.00    0.86537   0.87033   -2.000
 4318.00    0.77661   0.86390   -2.000
 4319.00    0.68940   0.85406   -2.000
 4320.00    0.68824   0.84168   -2.000
 4321.00    0.81097   0.82807   -2.000
 4322.00    0.97231   0.81512   -2.000
 4323.00    1.06515   0.80489   -2.000
 4324.00    1.07552   0.79852   -2.000
 4325.00    1.04084   0.79543    9.608
 4326.00    0.99373   0.79346   10.063
 4327.00    0.95353   0.78999   10.487
 4328.00    0.92379   0.78309   10.825
 4329.00    0.89820   0.77185   11.133
 4330.00    0.86750   0.75592    0.000
 4331.00    0.83058   0.73477    0.000
 4332.00    0.80176   0.70759    0.000
 4333.00    0.78992   0.67392    0.000
 4334.00    0.78290   0.63476    0.000
 4335.00    0.77834   0.59341    0.000
 4336.00    0.80600   0.55545    0.000
 4337.00    0.88714   0.52748    0.000
 4338.00    1.00295   0.51498    0.000
 4339.00    1.11639   0.52024    0.000
 4340.00    1.19195   0.54155    0.000
 4341.00    1.20408   0.57401    0.000
 4342.00    1.14498   0.61157    0.000
 4343.00    1.04297   0.64884    0.000
 4344.00    0.96378   0.68211    0.000
 4345.00    0.93190   0.70933    0.000
 4346.00    0.89157   0.72986    0.000
 4347.00    0.80697   0.74435    0.000
 4348.00    0.71916   0.75474    0.000
 4349.00    0.67876   0.76377    0.000
 4350.00    0.70142   0.77393    0.000
 4351.00    0.76804   0.78636   13.020
 4352.00    0.83412   0.80042   11.989
 4353.00    0.87376   0.81438   11.445
 4354.00    0.89770   0.82655   11.140
 4355.00    0.91288   0.83629   10.954
 4356.00    0.90648   0.84413   11.032
 4357.00    0.88275   0.85123   11.328
 4358.00    0.87396   0.85850   11.442
 4359.00    0.89517   0.86611   11.171
 4360.00    0.92721   0.87340   10.785
 4361.00    0.94723   0.87928   10.557
 4362.00    0.94654   0.88274   10.565
 4363.00    0.94099   0.88334   10.627
 4364.00    0.96154   0.88151   10.400
 4365.00    0.99406   0.87843   10.060
 4366.00    0.97623   0.87547   10.243
 4367.00    0.89552   0.87344   11.167
 4368.00    0.81268   0.87225   12.305
 4369.00    0.78590   0.87115   12.724
 4370.00    0.83295   0.86962   12.006
 4371.00    0.90973   0.86802   10.992
 4372.00    0.93231   0.86758   10.726
 4373.00    0.88432   0.86943   11.308
 4374.00    0.82896   0.87359   12.063
 4375.00    0.80975   0.87849   12.349
 4376.00    0.82357   0.88151   12.142
 4377.00    0.85267   0.88026   11.728
 4378.00    0.87556   0.87358   11.421
 4379.00    0.86547   0.86221   11.554
 4380.00    0.80261   0.84864   12.459
 4381.00    0.71231   0.83629   14.039
 4382.00    0.65351   0.82814   15.302
 4383.00    0.65076   0.82560   15.367
 4384.00    0.68964   0.82823   14.500
 4385.00    0.76123   0.83433   13.137
 4386.00    0.85981   0.84199   11.631
 4387.00    0.94263   0.84969   10.609
 4388.00    0.95116   0.85649   10.514
 4389.00    0.89261   0.86185   11.203
 4390.00    0.83105   0.86566   12.033
 4391.00    0.81262   0.86830   12.306
 4392.00    0.84577   0.87044   11.824
 4393.00    0.90128   0.87260   11.095
 4394.00    0.93360   0.87470   10.711
 4395.00    0.92796   0.87605   10.776
 4396.00    0.90096   0.87599   11.099
 4397.00    0.87771   0.87445   11.393
 4398.00    0.87328   0.87199   11.451
 4399.00    0.86626   0.86932   11.544
 4400.00    0.82218   0.86695   12.163
 4401.00    0.74956   0.86514   13.341
 4402.00    0.68320   0.86418   14.637
 4403.00    0.63201   0.86446   -1.000
 4404.00    0.59376   0.86623   -1.000
 4405.00    0.59857   0.86949   -1.000
 4406.00    0.67469   0.87383   14.822
 4407.00    0.77804   0.87844   12.853
 4408.00    0.84088   0.88212   11.892
 4409.00    0.87117   0.88355   11.479
 4410.00    0.91169   0.88179   10.969
 4411.00    0.95018   0.87704   10.524
 4412.00    0.94766   0.87086   10.552
 4413.00    0.90304   0.86563   11.074
 4414.00    0.84238   0.86344   11.871
 4415.00    0.78858   0.86505   12.681
 4416.00    0.75791   0.86954   13.194
 4417.00    0.76129   0.87495   13.136
 4418.00    0.80138   0.87938   12.478
 4419.00    0.86879   0.88192   11.510
 4420.00    0.94692   0.88280   10.561
 4421.00    1.01900   0.88281    9.814
 4422.00    1.06913   0.88265    9.353
 4423.00    1.08314   0.88250    9.232
 4424.00    1.05585   0.88216    9.471
 4425.00    0.99870   0.88137   10.013
 4426.00    0.92826   0.87998   10.773
 4427.00    0.85320   0.87800   11.721
 4428.00    0.78796   0.87543   12.691
 4429.00    0.76629   0.87237   13.050
 4430.00    0.80681   0.86913   12.394
 4431.00    0.87835   0.86645   11.385
 4432.00    0.93215   0.86539   10.728
 4433.00    0.93901   0.86678   10.650
 4434.00    0.90326   0.87051   11.071
 4435.00    0.86828   0.87521   11.517
 4436.00    0.86972   0.87870   11.498
 4437.00    0.89482   0.87912   11.175
 4438.00    0.91136   0.87603   10.973
 4439.00    0.89832   0.87079   11.132
 4440.00    0.86296   0.86587   11.588
 4441.00    0.84712   0.86355   11.805
 4442.00    0.87505   0.86470   11.428
 4443.00    0.91661   0.86851   10.910
 4444.00    0.94012   0.87316   10.637
 4445.00    0.95092   0.87684   10.516
 4446.00    0.95282   0.87856   10.495
 4447.00    0.92323   0.87814   10.832
 4448.00    0.85875   0.87588   11.645
 4449.00    0.80127   0.87208   12.480
 4450.00    0.78202   0.86702   12.787
 4451.00    0.78715   0.86121   12.704
 4452.00    0.79511   0.85543   12.577
 4453.00    0.80142   0.85057   12.478
 4454.00    0.80916   0.84710   12.359
 4455.00    0.82158   0.84500   12.172
 4456.00    0.83911   0.84387   11.917
 4457.00    0.85809   0.84343   11.654
 4458.00    0.87273   0.84373   11.458
 4459.00    0.87731   0.84493   11.398
 4460.00    0.87182   0.84694   11.470
 4461.00    0.86346   0.84907    0.000
 4462.00    0.85879   0.85026    0.000
 4463.00    0.85943   0.84953    0.000
 4464.00    0.86279   0.84654    0.000
 4465.00    0.86392   0.84185    0.000
 4466.00    0.86244   0.83694    0.000
 4467.00    0.86327   0.83371    0.000
 4468.00    0.86463   0.83390    0.000
 4469.00    0.85661   0.83830    0.000
 4470.00    0.83950   0.84637    0.000
 4471.00    0.82890   0.85634    0.000
 4472.00    0.84197   0.86578    0.000
 4473.00    0.88656   0.87235    0.000
 4474.00    0.94276   0.87440    0.000
 4475.00    0.96926   0.87130    0.000
 4476.00    0.95636   0.86384    0.000
 4477.00    0.93571   0.85431    0.000
 4478.00    0.93823   0.84599    0.000
 4479.00    0.97211   0.84199    0.000
 4480.00    1.00389   0.84373    0.000
 4481.00    0.97728   0.85023    0.000
 4482.00    0.89738   0.85862   11.143
 4483.00    0.83142   0.86559   12.028
 4484.00    0.81687   0.86905   12.242
 4485.00    0.84140   0.86877   11.885
 4486.00    0.87740   0.86614   11.397
 4487.00    0.89973   0.86312   11.114
 4488.00    0.90416   0.86115   11.060
 4489.00    0.90493   0.86064   11.051
 4490.00    0.91244   0.86118   10.960
 4491.00    0.92768   0.86220   10.780
 4492.00    0.94530   0.86348   10.579
 4493.00    0.95579   0.86515   10.463
 4494.00    0.94870   0.86734   10.541
 4495.00    0.91741   0.86987   10.900
 4496.00    0.86837   0.87237   11.516
 4497.00    0.82310   0.87469   12.149
 4498.00    0.81676   0.87712   12.244
 4499.00    0.87638   0.88015   11.411
 4500.00    0.97393   0.88389   10.268
 4501.00    1.04757   0.88774    9.546
 4502.00    1.07113   0.89065    9.336
 4503.00    1.05530   0.89178    9.476
 4504.00    1.01717   0.89111    9.831
 4505.00    0.97318   0.88936   10.276
 4506.00    0.93815   0.88744   10.659
 4507.00    0.92165   0.88578   10.850
 4508.00    0.92160   0.88416   10.851
 4509.00    0.92817   0.88202   10.774
 4510.00    0.93309   0.87900   10.717
 4511.00    0.93245   0.87531   10.724
 4512.00    0.92819   0.87164   10.774
 4513.00    0.92271   0.86869   10.838
 4514.00    0.90988   0.86678   10.990
 4515.00    0.88219   0.86566   11.335
 4516.00    0.84452   0.86471   11.841
 4517.00    0.80935   0.86325   12.356
 4518.00    0.78601   0.86085   12.722
 4519.00    0.78121   0.85744   12.801
 4520.00    0.80190   0.85328   12.470
 4521.00    0.84697   0.84870   11.807
 4522.00    0.89548   0.84397   11.167
 4523.00    0.91650   0.83930   10.911
 4524.00    0.88581   0.83494   11.289
 4525.00    0.80678   0.83128   12.395
 4526.00    0.73139   0.82873   13.673
 4527.00    0.71382   0.82745   14.009
 4528.00    0.75085   0.82725   13.318
 4529.00    0.80584   0.82777   12.409
 4530.00    0.84702   0.82890   11.806
 4531.00    0.85633   0.83101   11.678
 4532.00    0.83427   0.83465   11.987
 4533.00    0.79447   0.83988   12.587
 4534.00    0.75647   0.84583   13.219
 4535.00    0.73732   0.85103   13.563
 4536.00    0.74381   0.85420   13.444
 4537.00    0.77547   0.85503   12.895
 4538.00    0.82777   0.85422   12.081
 4539.00    0.88560   0.85287   11.292
 4540.00    0.91913   0.85168   10.880
 4541.00    0.91060   0.85061   10.982
 4542.00    0.87677   0.84907   11.405
 4543.00    0.84141   0.84640   11.885
 4544.00    0.81029   0.84241   12.341
 4545.00    0.78467   0.83753   12.744
 4546.00    0.77370   0.83268   12.925
 4547.00    0.78595   0.82884   12.723
 4548.00    0.82111   0.82651   12.179
 4549.00    0.86529   0.82551   11.557
 4550.00    0.89081   0.82536    0.000
 4551.00    0.88084   0.82581    0.000
 4552.00    0.84602   0.82714    0.000
 4553.00    0.80953   0.82990    0.000
 4554.00    0.79325   0.83431    0.000
 4555.00    0.80371   0.83993    0.000
 4556.00    0.82629   0.84565    0.000
 4557.00    0.84837   0.85018    0.000
 4558.00    0.87246   0.85255    0.000
 4559.00    0.89778   0.85247    0.000
 4560.00    0.91110   0.85057    0.000
 4561.00    0.90531   0.84815    0.000
 4562.00    0.88874   0.84669    0.000
 4563.00    0.87025   0.84708    0.000
 4564.00    0.85236   0.84914    0.000
 4565.00    0.84339   0.85177    0.000
 4566.00    0.85918   0.85365    0.000
 4567.00    0.89454   0.85402    0.000
 4568.00    0.91555   0.85311    0.000
 4569.00    0.89994   0.85182    0.000
 4570.00    0.85761   0.85105    0.000
 4571.00    0.82612   0.85114    0.000
 4572.00    0.85257   0.85164    0.000
 4573.00    0.92311   0.85171    0.000
 4574.00    0.95756   0.85055    0.000
 4575.00    0.93357   0.84780    0.000
 4576.00    0.91437   0.84360    0.000
 4577.00    0.92381   0.83851    0.000
 4578.00    0.91514   0.83337    0.000
 4579.00    0.87006   0.82903    0.000
 4580.00    0.82536   0.82623    0.000
 4581.00    0.81213   0.82539    0.000
 4582.00    0.83230   0.82647    0.000
 4583.00    0.86521   0.82899    0.000
 4584.00    0.87966   0.83210    0.000
 4585.00    0.86632   0.83488    0.000
 4586.00    0.84402   0.83661    0.000
 4587.00    0.84035   0.83706    0.000
 4588.00    0.87560   0.83645    0.000
 4589.00    0.93424   0.83534    0.000
 4590.00    0.97164   0.83432    0.000
 4591.00    0.96429   0.83383    0.000
 4592.00    0.92067   0.83398    0.000
 4593.00    0.86436   0.83464    0.000
 4594.00    0.82303   0.83556    0.000
 4595.00    0.81279   0.83647    0.000
 4596.00    0.83427   0.83719    0.000
 4597.00    0.87485   0.83767    0.000
 4598.00    0.91445   0.83799    0.000
 4599.00    0.93861   0.83839    0.000
 4600.00    0.94360   0.83908    0.000
 4601.00    0.93978   0.84030    0.000
 4602.00    0.94178   0.84220    0.000
 4603.00    0.94353   0.84480    0.000
 4604.00    0.92668   0.84790    0.000
 4605.00    0.89348   0.85099    0.000
 4606.00    0.86224   0.85343    0.000
 4607.00    0.84045   0.85467    0.000
 4608.00    0.82389   0.85453    0.000
 4609.00    0.80800   0.85328    0.000
 4610.00    0.79170   0.85140    0.000
 4611.00    0.77993   0.84931    0.000
 4612.00    0.77991   0.84721    0.000
 4613.00    0.79299   0.84513    0.000
 4614.00    0.81861   0.84308    0.000
 4615.00    0.86381   0.84132    0.000
 4616.00    0.92978   0.84027    0.000
 4617.00    0.98615   0.84031    0.000
 4618.00    0.99759   0.84150    0.000
 4619.00    0.97558   0.84343    0.000
 4620.00    0.95546   0.84540    0.000
 4621.00    0.94523   0.84666    0.000
 4622.00    0.93530   0.84679    0.000
 4623.00    0.92598   0.84577    0.000
 4624.00    0.91735   0.84395    0.000
 4625.00    0.88923   0.84187    0.000
 4626.00    0.82836   0.84002    0.000
 4627.00    0.76940   0.83866    0.000
 4628.00    0.75653   0.83770    0.000
 4629.00    0.78441   0.83681    0.000
 4630.00    0.82056   0.83562    0.000
 4631.00    0.84572   0.83403    0.000
 4632.00    0.85732   0.83222    0.000
 4633.00    0.86615   0.83051    0.000
 4634.00    0.87811   0.82919    0.000
 4635.00    0.87459   0.82842    0.000
 4636.00    0.83913   0.82818    0.000
 4637.00    0.78986   0.82834    0.000
 4638.00    0.76304   0.82853    0.000
 4639.00    0.78863   0.82821    0.000
 4640.00    0.86386   0.82681    0.000
 4641.00    0.93249   0.82398    0.000
 4642.00    0.93949   0.81990    0.000
 4643.00    0.88741   0.81532    0.000
 4644.00    0.81648   0.81143    0.000
 4645.00    0.77632   0.80934    0.000
 4646.00    0.79100   0.80959    0.000
 4647.00    0.83271   0.81193    0.000
 4648.00    0.86428   0.81538    0.000
 4649.00    0.87849   0.81876    0.000
 4650.00    0.88521   0.82117    0.000
 4651.00    0.89565   0.82244    0.000
 4652.00    0.90671   0.82312    0.000
 4653.00    0.89322   0.82413    0.000
 4654.00    0.84340   0.82610    0.000
 4655.00    0.78414   0.82897    0.000
 4656.00    0.75094   0.83193    0.000
 4657.00    0.76236   0.83371    0.000
 4658.00    0.81135   0.83327    0.000
 4659.00    0.86456   0.83015    0.000
 4660.00    0.89360   0.82460    0.000
 4661.00    0.89557   0.81737    0.000
 4662.00    0.88093   0.80953    0.000
 4663.00    0.86280   0.80229    0.000
 4664.00    0.84675   0.79690    0.000
 4665.00    0.82784   0.79433    0.000
 4666.00    0.81193   0.79499    0.000
 4667.00    0.82297   0.79846    0.000
 4668.00    0.86720   0.80366    0.000
 4669.00    0.91807   0.80933    0.000
 4670.00    0.95309   0.81445    0.000
 4671.00    0.97206   0.81845    0.000
 4672.00    0.97780   0.82109    0.000
 4673.00    0.96704   0.82229    0.000
 4674.00    0.94040   0.82202    0.000
 4675.00    0.90558   0.82047    0.000
 4676.00    0.86623   0.81811    0.000
 4677.00    0.81995   0.81562    0.000
 4678.00    0.77559   0.81357    0.000
 4679.00    0.75509   0.81225    0.000
 4680.00    0.76437   0.81158    0.000
 4681.00    0.78689   0.81130    0.000
 4682.00    0.81467   0.81120    0.000
 4683.00    0.85528   0.81124    0.000
 4684.00    0.90376   0.81149    0.000
 4685.00    0.94035   0.81201    0.000
 4686.00    0.96849   0.81275    0.000
 4687.00    1.01306   0.81362    0.000
 4688.00    1.05615   0.81460    0.000
 4689.00    1.03942   0.81570    0.000
 4690.00    0.96155   0.81688    0.000
 4691.00    0.88718   0.81790    0.000
 4692.00    0.85236   0.81828    0.000
 4693.00    0.84316   0.81752    0.000
 4694.00    0.83827   0.81532    0.000
 4695.00    0.82430   0.81179    0.000
 4696.00    0.79697   0.80746    0.000
 4697.00    0.76302   0.80306    0.000
 4698.00    0.74500   0.79927    0.000
 4699.00    0.76748   0.79657    0.000
 4700.00    0.81457   0.79514    0.000
 4701.00    0.83996   0.79483    0.000
 4702.00    0.82914   0.79526    0.000
 4703.00    0.80340   0.79598    0.000
 4704.00    0.78318   0.79668    0.000
 4705.00    0.78010   0.79726    0.000
 4706.00    0.80285   0.79778    0.000
 4707.00    0.85534   0.79827    0.000
 4708.00    0.92864   0.79868    0.000
 4709.00    1.00340   0.79897    0.000
 4710.00    1.06024   0.79936    0.000
 4711.00    1.08421   0.80035    0.000
 4712.00    1.06909   0.80243    0.000
 4713.00    1.01784   0.80581    0.000
 4714.00    0.94144   0.81014    0.000
 4715.00    0.85660   0.81473    0.000
 4716.00    0.78146   0.81881    0.000
 4717.00    0.73012   0.82188    0.000
 4718.00    0.70399   0.82377    0.000
 4719.00    0.69668   0.82452    0.000
 4720.00    0.70611   0.82418    0.000
 4721.00    0.73212   0.82267    0.000
 4722.00    0.76802   0.81982    0.000
 4723.00    0.80288   0.81560    0.000
 4724.00    0.82801   0.81034    0.000
 4725.00    0.83445   0.80481    0.000
 4726.00    0.80796   0.80000    0.000
 4727.00    0.74826   0.79676    0.000
 4728.00    0.69838   0.79553    0.000
 4729.00    0.70427   0.79612    0.000
 4730.00    0.74877   0.79792    0.000
 4731.00    0.78598   0.80013    0.000
 4732.00    0.80444   0.80215    0.000
 4733.00    0.81535   0.80372    0.000
 4734.00    0.82343   0.80492    0.000
 4735.00    0.82598   0.80600    0.000
 4736.00    0.81745   0.80712    0.000
 4737.00    0.79894   0.80829    0.000
 4738.00    0.78791   0.80945    0.000
 4739.00    0.79601   0.81049    0.000
 4740.00    0.80270   0.81140    0.000
 4741.00    0.78497   0.81218    0.000
 4742.00    0.75428   0.81283    0.000
 4743.00    0.73522   0.81333    0.000
 4744.00    0.73719   0.81361    0.000
 4745.00    0.75826   0.81358    0.000
 4746.00    0.79247   0.81310    0.000
 4747.00    0.82714   0.81204    0.000
 4748.00    0.84076   0.81030    0.000
 4749.00    0.81846   0.80796    0.000
 4750.00    0.76718   0.80527    0.000
 4751.00    0.71120   0.80266    0.000
 4752.00    0.68419   0.80059    0.000
 4753.00    0.70575   0.79937    0.000
 4754.00    0.76156   0.79897    0.000
 4755.00    0.81439   0.79896    0.000
 4756.00    0.82014   0.79866    0.000
 4757.00    0.77274   0.79737    0.000
 4758.00    0.73082   0.79476    0.000
 4759.00    0.73196   0.79106    0.000
 4760.00    0.73334   0.78699    0.000
 4761.00    0.70572   0.78354   14.170
 4762.00    0.69749   0.78158   14.337
 4763.00    0.74036   0.78153   13.507
 4764.00    0.78714   0.78326   12.704
 4765.00    0.79360   0.78617   12.601
 4766.00    0.77343   0.78946   12.929
 4767.00    0.75329   0.79248   13.275
 4768.00    0.74136   0.79495   13.489
 4769.00    0.73883   0.79694   13.535
 4770.00    0.74762   0.79873   13.376
 4771.00    0.76450   0.80052   13.080
 4772.00    0.77880   0.80225   12.840
 4773.00    0.78269   0.80367   12.776
 4774.00    0.77728   0.80446   12.865
 4775.00    0.77125   0.80443   12.966
 4776.00    0.77800   0.80358   12.853
 4777.00    0.80554   0.80204   12.414
 4778.00    0.84957   0.80001   11.771
 4779.00    0.88731   0.79770   11.270
 4780.00    0.88416   0.79527   11.310
 4781.00    0.84152   0.79290   11.883
 4782.00    0.80757   0.79078   12.383
 4783.00    0.81286   0.78913   12.302
 4784.00    0.84418   0.78815   11.846
 4785.00    0.87121   0.78800   11.478
 4786.00    0.86564   0.78880   11.552
 4787.00    0.82681   0.79056   12.095
 4788.00    0.78570   0.79318   12.728
 4789.00    0.77460   0.79635   12.910
 4790.00    0.81048   0.79958   12.338
 4791.00    0.88234   0.80221   11.334
 4792.00    0.95366   0.80362   10.486
 4793.00    0.99069   0.80346   10.094
 4794.00    0.97763   0.80183   10.229
 4795.00    0.93005   0.79926   10.752
 4796.00    0.88549   0.79652   11.293
 4797.00    0.85455   0.79427   11.702
 4798.00    0.81877   0.79275   12.213
 4799.00    0.78219   0.79175   12.785
 4800.00    0.77198   0.79086   12.954
 4801.00    0.78413   0.78970   12.753
 4802.00    0.78499   0.78821   12.739
 4803.00    0.77055   0.78658   12.978
 4804.00    0.76843   0.78513   13.014
 4805.00    0.78906   0.78412   12.673
 4806.00    0.81978   0.78364   12.198
 4807.00    0.85006   0.78366   11.764
 4808.00    0.87609   0.78411   11.414
 4809.00    0.89294   0.78495   11.199
 4810.00    0.89616   0.78616   11.159
 4811.00    0.89100   0.78765   11.223
 4812.00    0.88804   0.78929   11.261
 4813.00    0.88681   0.79081   11.276
 4814.00    0.87975   0.79183   11.367
 4815.00    0.87111   0.79194   11.480
 4816.00    0.87332   0.79077   11.451
 4817.00    0.88876   0.78812   11.252
 4818.00    0.90759   0.78413   11.018
 4819.00    0.91249   0.77933   10.959
 4820.00    0.88838   0.77456   11.256
 4821.00    0.84004   0.77069   11.904
 4822.00    0.78990   0.76822   12.660
 4823.00    0.76591   0.76714   13.056
 4824.00    0.78374   0.76695   12.759
 4825.00    0.81933   0.76698   12.205
 4826.00    0.83453   0.76670   11.983
 4827.00    0.83181   0.76590   12.022
 4828.00    0.83600   0.76470   11.962
 4829.00    0.84566   0.76333   11.825
 4830.00    0.84270   0.76191   11.867
 4831.00    0.82223   0.76040   12.162
 4832.00    0.78960   0.75862   12.665
 4833.00    0.74796   0.75634   13.370
 4834.00    0.70355   0.75344   14.214
 4835.00    0.67593   0.74998   14.795
 4836.00    0.68182   0.74620   14.667
 4837.00    0.71007   0.74242   14.083
 4838.00    0.73438   0.73890   13.617
 4839.00    0.73685   0.73570   13.571
 4840.00    0.71647   0.73263   13.957
 4841.00    0.69470   0.72930   14.395
 4842.00    0.69403   0.72523   14.409
 4843.00    0.71044   0.72010   14.076
 4844.00    0.72971   0.71384   13.704
 4845.00    0.75136   0.70657   13.309
 4846.00    0.78277   0.69844   12.775
 4847.00    0.82804   0.68940   12.077
 4848.00    0.87775   0.67911    0.000
 4849.00    0.90092   0.66702    0.000
 4850.00    0.87235   0.65258    0.000
 4851.00    0.80221   0.63543    0.000
 4852.00    0.72196   0.61545    0.000
 4853.00    0.66535   0.59272    0.000
 4854.00    0.65777   0.56763    0.000
 4855.00    0.70886   0.54126    0.000
 4856.00    0.82855   0.51574    0.000
 4857.00    1.03938   0.49421    0.000
 4858.00    1.33929   0.48018    0.000
 4859.00    1.66910   0.47638    0.000
 4860.00    1.94084   0.48367    0.000
 4861.00    2.06924   0.50062    0.000
 4862.00    2.00636   0.52398    0.000
 4863.00    1.76839   0.54976    0.000
 4864.00    1.42974   0.57443    0.000
 4865.00    1.10765   0.59571    0.000
 4866.00    0.89003   0.61281    0.000
 4867.00    0.78403   0.62618    0.000
 4868.00    0.75115   0.63701    0.000
 4869.00    0.74069   0.64661    0.000
 4870.00    0.72140   0.65602    0.000
 4871.00    0.69887   0.66573    0.000
 4872.00    0.68741   0.67569    0.000
 4873.00    0.69004   0.68557    0.000
 4874.00    0.70051   0.69490    0.000
 4875.00    0.70712   0.70323   14.142
 4876.00    0.70355   0.71017   14.214
 4877.00    0.69542   0.71541   14.380
 4878.00    0.69811   0.71883   14.324
 4879.00    0.73159   0.72056   13.669
 4880.00    0.79914   0.72100   12.513
 4881.00    0.87768   0.72067   11.394
 4882.00    0.93238   0.72009   10.725
 4883.00    0.93111   0.71957   10.740
 4884.00    0.87524   0.71929   11.425
 4885.00    0.80648   0.71932   12.400
 4886.00    0.75951   0.71993   13.166
 4887.00    0.73990   0.72161   13.515
 4888.00    0.73683   0.72492   13.572
 4889.00    0.73389   0.73017   13.626
 4890.00    0.72733   0.73710   13.749
 4891.00    0.72932   0.74485   13.711
 4892.00    0.74568   0.75213   13.411
 4893.00    0.76855   0.75774   13.012
 4894.00    0.78874   0.76098   12.678
 4895.00    0.80104   0.76182   12.484
 4896.00    0.80316   0.76088   12.451
 4897.00    0.79552   0.75909   12.570
 4898.00    0.78199   0.75737   12.788
 4899.00    0.76895   0.75635   13.005
 4900.00    0.76046   0.75626   13.150
 4901.00    0.75753   0.75688   13.201
 4902.00    0.76192   0.75765   13.125
 4903.00    0.77472   0.75788   12.908
 4904.00    0.78713   0.75708   12.704
 4905.00    0.78464   0.75516   12.745
 4906.00    0.77047   0.75259   12.979
 4907.00    0.76484   0.75019   13.075
 4908.00    0.77863   0.74878   12.843
 4909.00    0.80715   0.74869   12.389
 4910.00    0.83727   0.74951   11.944
 4911.00    0.85428   0.75017   11.706
 4912.00    0.85475   0.74933   11.699
 4913.00    0.84390   0.74591   11.850
 4914.00    0.81876   0.73965   12.214
 4915.00    0.77368   0.73118   12.925
 4916.00    0.72600   0.72200   13.774
 4917.00    0.70497   0.71396   14.185
 4918.00    0.70802   0.70873   14.124
 4919.00    0.70770   0.70731   14.130
 4920.00    0.69431   0.70990   14.403
 4921.00    0.68063   0.71598   14.692
 4922.00    0.68798   0.72448   14.535
 4923.00    0.73192   0.73405   13.663
 4924.00    0.79896   0.74328   12.516
 4925.00    0.85550   0.75088   11.689
 4926.00    0.87725   0.75591   11.399
 4927.00    0.86109   0.75798   11.613
 4928.00    0.83488   0.75722   11.978
 4929.00    0.83232   0.75425   12.015
 4930.00    0.84247   0.74997   11.870
 4931.00    0.83095   0.74533   12.034
 4932.00    0.79601   0.74113   12.563
 4933.00    0.76338   0.73794   13.100
 4934.00    0.75787   0.73614   13.195
 4935.00    0.78328   0.73602   12.767
 4936.00    0.79935   0.73770   12.510
 4937.00    0.76115   0.74105   13.138
 4938.00    0.68683   0.74555   14.560
 4939.00    0.63009   0.75043   15.871
 4940.00    0.62068   0.75489    0.000
 4941.00    0.65870   0.75833    0.000
 4942.00    0.72094   0.76061    0.000
 4943.00    0.77794   0.76193    0.000
 4944.00    0.81645   0.76263    0.000
 4945.00    0.83534   0.76294    0.000
 4946.00    0.83587   0.76294    0.000
 4947.00    0.82164   0.76250    0.000
 4948.00    0.80015   0.76136    0.000
 4949.00    0.78020   0.75915    0.000
 4950.00    0.76823   0.75565    0.000
 4951.00    0.76608   0.75107    0.000
 4952.00    0.76956   0.74606    0.000
 4953.00    0.77739   0.74153    0.000
 4954.00    0.80090   0.73852    0.000
 4955.00    0.85350   0.73786    0.000
 4956.00    0.93752   0.73969    0.000
 4957.00    1.03994   0.74335    0.000
 4958.00    1.13096   0.74760    0.000
 4959.00    1.18293   0.75111    0.000
 4960.00    1.18854   0.75297    0.000
 4961.00    1.14902   0.75288    0.000
 4962.00    1.06234   0.75126    0.000
 4963.00    0.93782   0.74889    0.000
 4964.00    0.80840   0.74662    0.000
 4965.00    0.70799   0.74517    0.000
 4966.00    0.65046   0.74492    0.000
 4967.00    0.63291   0.74588    0.000
 4968.00    0.64090   0.74776    0.000
 4969.00    0.65822   0.75003    0.000
 4970.00    0.67457   0.75211    0.000
 4971.00    0.68580   0.75336    0.000
 4972.00    0.69350   0.75331    0.000
 4973.00    0.70371   0.75169    0.000
 4974.00    0.72391   0.74833    0.000
 4975.00    0.74826   0.74321    0.000
 4976.00    0.75113   0.73664    0.000
 4977.00    0.71687   0.72922    0.000
 4978.00    0.65881   0.72185    0.000
 4979.00    0.60434   0.71561    0.000
 4980.00    0.58090   0.71163    0.000
 4981.00    0.59531   0.71055    0.000
 4982.00    0.62605   0.71238    0.000
 4983.00    0.65443   0.71643    0.000
 4984.00    0.68121   0.72149    0.000
 4985.00    0.70934   0.72635    0.000
 4986.00    0.73414   0.73009    0.000
 4987.00    0.74904   0.73238    0.000
 4988.00    0.74972   0.73350    0.000
 4989.00    0.73810   0.73399    0.000
 4990.00    0.72272   0.73434    0.000
 4991.00    0.71023   0.73474    0.000
 4992.00    0.70166   0.73494    0.000
 4993.00    0.69658   0.73450    0.000
 4994.00    0.69448   0.73298    0.000
 4995.00    0.69179   0.73022    0.000
 4996.00    0.68184   0.72645    0.000
 4997.00    0.66157   0.72212    0.000
 4998.00    0.63450   0.71768    0.000
 4999.00    0.61023   0.71353    0.000
 5000.00    0.60693   0.71010    0.000
 5001.00    0.66208   0.70775    0.000
 5002.00    0.82615   0.70667    0.000
 5003.00    1.12160   0.70684    0.000
 5004.00    1.52025   0.70799    0.000
 5005.00    1.92270   0.70947    0.000
 5006.00    2.18136   0.71047    0.000
 5007.00    2.20799   0.71022    0.000
 5008.00    2.00934   0.70834    0.000
 5009.00    1.67144   0.70497    0.000
 5010.00    1.32480   0.70065    0.000
 5011.00    1.05278   0.69605    0.000
 5012.00    0.87440   0.69193    0.000
 5013.00    0.78762   0.68902    0.000
 5014.00    0.77944   0.68771    0.000
 5015.00    0.81366   0.68804    0.000
 5016.00    0.84024   0.68993    0.000
 5017.00    0.83249   0.69321    0.000
 5018.00    0.79479   0.69751    0.000
 5019.00    0.75288   0.70226    0.000
 5020.00    0.73663   0.70678    0.000
 5021.00    0.74346   0.71053    0.000
 5022.00    0.74572   0.71337    0.000
 5023.00    0.73330   0.71541    0.000
 5024.00    0.71677   0.71692    0.000
 5025.00    0.70794   0.71831    0.000
 5026.00    0.71434   0.71996    0.000
 5027.00    0.73782   0.72185    0.000
 5028.00    0.77568   0.72353    0.000
 5029.00    0.82368   0.72439   12.141
 5030.00    0.87346   0.72401   11.449
 5031.00    0.90616   0.72225   11.036
 5032.00    0.90057   0.71906   11.104
 5033.00    0.85242   0.71455   11.731
 5034.00    0.77633   0.70910   12.881
 5035.00    0.70139   0.70346   14.257
 5036.00    0.65714   0.69875   15.217
 5037.00    0.64979   0.69596   15.390
 5038.00    0.66504   0.69571   15.037
 5039.00    0.68150   0.69816   14.674
 5040.00    0.68377   0.70270   14.625
 5041.00    0.67976   0.70801   14.711
 5042.00    0.68704   0.71262   14.555
 5043.00    0.70630   0.71548   14.158
 5044.00    0.72623   0.71618   13.770
 5045.00    0.73798   0.71501   13.551
 5046.00    0.73898   0.71286   13.532
 5047.00    0.73491   0.71089   13.607
 5048.00    0.73351   0.70993   13.633
 5049.00    0.73537   0.71027   13.599
 5050.00    0.73442   0.71179   13.616
 5051.00    0.72110   0.71422   13.868
 5052.00    0.69266   0.71716   14.437
 5053.00    0.66513   0.72018   15.035
 5054.00    0.65719   0.72305   15.216
 5055.00    0.66865   0.72560   14.955
 5056.00    0.69149   0.72755   14.462
 5057.00    0.72566   0.72848   13.781
 5058.00    0.77185   0.72795   12.956
 5059.00    0.82122   0.72595   12.177
 5060.00    0.86020   0.72284   11.625
 5061.00    0.87753   0.71907   11.396
 5062.00    0.86960   0.71516   11.500
 5063.00    0.84459   0.71180   11.840
 5064.00    0.81425   0.70943   12.281
 5065.00    0.78536   0.70796   12.733
 5066.00    0.76464   0.70706   13.078
 5067.00    0.76286   0.70657   13.109
 5068.00    0.78060   0.70620   12.811
 5069.00    0.79691   0.70565   12.548
 5070.00    0.79448   0.70489   12.587
 5071.00    0.78101   0.70395   12.804
 5072.00    0.76788   0.70259   13.023
 5073.00    0.75174   0.70042   13.302
 5074.00    0.72961   0.69751   13.706
 5075.00    0.71153   0.69437   14.054
 5076.00    0.71137   0.69151   14.057
 5077.00    0.73694   0.68941   13.570
 5078.00    0.77558   0.68861   12.894
 5079.00    0.78947   0.68944   12.667
 5080.00    0.75915   0.69170   13.173
 5081.00    0.70996   0.69483   14.085
 5082.00    0.66940   0.69831   14.939
 5083.00    0.63885   0.70175   15.653
 5084.00    0.61540   0.70480   16.250
 5085.00    0.60630   0.70731   16.493
 5086.00    0.61962   0.70943   16.139
 5087.00    0.65613   0.71127   15.241
 5088.00    0.70029   0.71269   14.280
 5089.00    0.72157   0.71335   13.859
 5090.00    0.71397   0.71285   14.006
 5091.00    0.71172   0.71087   14.050
 5092.00    0.74385   0.70733   13.444
 5093.00    0.80850   0.70262   12.369
 5094.00    0.87777   0.69766   11.393
 5095.00    0.90873   0.69354   11.004
 5096.00    0.88239   0.69099   11.333
 5097.00    0.81876   0.69025   12.214
 5098.00    0.75027   0.69108   13.329
 5099.00    0.70356   0.69291   14.213
 5100.00    0.67945   0.69492   14.718
 5101.00    0.65440   0.69631   15.281
 5102.00    0.62895   0.69672   15.899
 5103.00    0.63731   0.69627   15.691
 5104.00    0.69216   0.69530   14.448
 5105.00    0.76787   0.69444   13.023
 5106.00    0.83319   0.69430   12.002
 5107.00    0.86803   0.69512   11.520
 5108.00    0.87273   0.69682   11.458
 5109.00    0.86518   0.69916   11.558
 5110.00    0.85703   0.70181   11.668
 5111.00    0.84778   0.70449   11.796
 5112.00    0.83703   0.70683   11.947
 5113.00    0.82740   0.70844   12.086
 5114.00    0.81824   0.70902   12.221
 5115.00    0.80523   0.70836   12.419
 5116.00    0.78642   0.70636   12.716
 5117.00    0.76403   0.70308   13.089
 5118.00    0.74328   0.69879   13.454
 5119.00    0.72949   0.69404   13.708
 5120.00    0.72046   0.68946   13.880
 5121.00    0.70871   0.68551   14.110
 5122.00    0.69444   0.68246   14.400
 5123.00    0.68485   0.68043   14.602
 5124.00    0.68142   0.67943   14.675
 5125.00    0.68068   0.67941   14.691
 5126.00    0.68545   0.68014   14.589
 5127.00    0.70087   0.68129   14.268
 5128.00    0.71674   0.68264   13.952
 5129.00    0.71660   0.68412   13.955
 5130.00    0.71008   0.68543   14.083
 5131.00    0.72211   0.68608   13.848
 5132.00    0.74991   0.68580   13.335
 5133.00    0.76817   0.68461   13.018
 5134.00    0.76343   0.68282   13.099
 5135.00    0.73772   0.68094   13.555
 5136.00    0.69939   0.67918   14.298
 5137.00    0.66096   0.67759   15.130
 5138.00    0.63862   0.67656   15.659
 5139.00    0.64511   0.67616   15.501
 5140.00    0.67612   0.67606   14.790
 5141.00    0.71322   0.67597   14.021
 5142.00    0.73469   0.67583   13.611
 5143.00    0.72602   0.67572   13.774
 5144.00    0.69427   0.67571   14.404
 5145.00    0.65927   0.67569   15.168
 5146.00    0.63378   0.67561   15.778
 5147.00    0.62066   0.67542   16.112
 5148.00    0.61432   0.67513   16.278
 5149.00    0.61072   0.67501   16.374
 5150.00    0.62180   0.67548   16.082
 5151.00    0.66139   0.67677   15.120
 5152.00    0.72111   0.67885   13.868
 5153.00    0.78056   0.68142   12.811
 5154.00    0.82699   0.68400   12.092
 5155.00    0.85184   0.68605   11.739
 5156.00    0.84276   0.68690   11.866
 5157.00    0.79513   0.68608   12.577
 5158.00    0.72788   0.68347   13.739
 5159.00    0.66650   0.67883   15.004
 5160.00    0.61965   0.67186   16.138
 5161.00    0.58940   0.66267   16.966
 5162.00    0.58653   0.65200   17.050
 5163.00    0.61881   0.64138   16.160
 5164.00    0.67592   0.63242   14.795
 5165.00    0.73748   0.62593   13.560
 5166.00    0.78472   0.62176   12.743
 5167.00    0.80652   0.61992   12.399
 5168.00    0.80411   0.62127   12.436
 5169.00    0.78465   0.62620   12.745
 5170.00    0.75446   0.63379   13.255
 5171.00    0.72300   0.64266   13.831
 5172.00    0.70595   0.65178   14.165
 5173.00    0.70811   0.66003   14.122
 5174.00    0.70976   0.66619   14.089
 5175.00    0.69498   0.66938   14.389
 5176.00    0.67637   0.66906   14.785
 5177.00    0.67350   0.66493   14.848
 5178.00    0.69176   0.65787   14.456
 5179.00    0.71941   0.65044   13.900
 5180.00    0.73002   0.64514   13.698
 5181.00    0.71299   0.64286   14.025
 5182.00    0.69373   0.64339   14.415
 5183.00    0.69884   0.64619   14.309
 5184.00    0.72934   0.65047   13.711
 5185.00    0.77186   0.65498   12.956
 5186.00    0.80866   0.65812   12.366
 5187.00    0.82011   0.65944   12.194
 5188.00    0.78958   0.65964   12.665
 5189.00    0.72736   0.65921   13.748
 5190.00    0.67887   0.65852    0.000
 5191.00    0.67214   0.65830    0.000
 5192.00    0.68930   0.65901    0.000
 5193.00    0.70649   0.66061    0.000
 5194.00    0.71818   0.66296    0.000
 5195.00    0.72640   0.66561    0.000
 5196.00    0.73287   0.66782    0.000
 5197.00    0.73596   0.66892    0.000
 5198.00    0.73161   0.66853    0.000
 5199.00    0.72659   0.66634    0.000
 5200.00    0.74028   0.66252    0.000
 5201.00    0.77587   0.65803    0.000
 5202.00    0.81078   0.65382    0.000
 5203.00    0.82540   0.65045    0.000
 5204.00    0.81694   0.64879    0.000
 5205.00    0.79388   0.64943    0.000
 5206.00    0.76900   0.65212    0.000
 5207.00    0.74179   0.65624    0.000
 5208.00    0.69842   0.66090    0.000
 5209.00    0.64627   0.66497    0.000
 5210.00    0.61873   0.66766    0.000
 5211.00    0.63084   0.66911   15.852
 5212.00    0.66542   0.67004   15.028
 5213.00    0.69468   0.67111   14.395
 5214.00    0.69607   0.67262   14.366
 5215.00    0.67720   0.67450   14.767
 5216.00    0.67151   0.67642   14.892
 5217.00    0.68853   0.67765   14.524
 5218.00    0.70663   0.67737   14.152
 5219.00    0.71355   0.67497   14.015
 5220.00    0.71463   0.67017   13.993
 5221.00    0.71123   0.66341   14.060
 5222.00    0.69632   0.65630   14.361
 5223.00    0.66472   0.65097   15.044
 5224.00    0.61885   0.64834   16.159
 5225.00    0.57500   0.64815   17.391
 5226.00    0.55443   0.64979   18.036
 5227.00    0.55245   0.65212   18.101
 5228.00    0.54435   0.65418   18.371
 5229.00    0.52769   0.65591   18.950
 5230.00    0.52281   0.65758   19.127
 5231.00    0.54151   0.65949   18.467
 5232.00    0.58094   0.66184   17.214
 5233.00    0.63053   0.66479   15.860
 5234.00    0.67805   0.66828   14.748
 5235.00    0.71949   0.67199   13.899
 5236.00    0.75735   0.67548   13.204
 5237.00    0.79087   0.67825   12.644
 5238.00    0.81475   0.68002   12.274
 5239.00    0.82191   0.68094   12.167
 5240.00    0.80698   0.68111   12.392
 5241.00    0.77235   0.68025   12.947
 5242.00    0.72983   0.67833   13.702
 5243.00    0.70066   0.67592   14.272
 5244.00    0.70022   0.67336   14.281
 5245.00    0.70925   0.67073   14.099
 5246.00    0.69553   0.66843   14.378
 5247.00    0.66489   0.66694   15.040
 5248.00    0.64767   0.66624   15.440
 5249.00    0.65649   0.66609   15.232
 5250.00    0.68199   0.66649   14.663
 5251.00    0.69963   0.66762   14.293
 5252.00    0.68800   0.66939   14.535
 5253.00    0.65587   0.67127   15.247
 5254.00    0.62650   0.67245   15.962
 5255.00    0.60578   0.67205   16.508
 5256.00    0.59001   0.66948   16.949
 5257.00    0.58497   0.66458   17.095
 5258.00    0.59800   0.65759   16.722
 5259.00    0.62250   0.64916   16.064
 5260.00    0.64367   0.64024   15.536
 5261.00    0.64992   0.63208   15.387
 5262.00    0.63884   0.62582   15.653
 5263.00    0.62231   0.62159   16.069
 5264.00    0.61616   0.61860   16.230
 5265.00    0.62607   0.61686   15.973
 5266.00    0.64873   0.61729   15.415
 5267.00    0.67575   0.61992   14.798
 5268.00    0.69899   0.62371   14.306
 5269.00    0.71600   0.62783   13.967
 5270.00    0.72798   0.63194   13.737
 5271.00    0.73643   0.63625   13.579
 5272.00    0.74041   0.64129   13.506
 5273.00    0.73450   0.64669   13.615
 5274.00    0.71632   0.65131   13.960
 5275.00    0.69385   0.65448   14.412
 5276.00    0.67802   0.65635   14.749
 5277.00    0.67435   0.65721   14.829
 5278.00    0.68001   0.65734   14.706
 5279.00    0.68268   0.65728   14.648
 5280.00    0.67022   0.65807   14.920
 5281.00    0.63971   0.66044   15.632
 5282.00    0.59809   0.66411   16.720
 5283.00    0.56060   0.66835   17.838
 5284.00    0.53725   0.67262   18.613
 5285.00    0.52309   0.67650   19.117
 5286.00    0.51257   0.67949   -1.000
 5287.00    0.51094   0.68106   -1.000
 5288.00    0.52594   0.68097   19.014
 5289.00    0.56017   0.67942   17.852
 5290.00    0.60659   0.67675   16.486
 5291.00    0.64786   0.67307   15.435
 5292.00    0.67285   0.66851   14.862
 5293.00    0.68707   0.66371   14.554
 5294.00    0.70230   0.65985   14.239
 5295.00    0.72768   0.65758   13.742
 5296.00    0.76253   0.65674   13.114
 5297.00    0.79373   0.65702   12.599
 5298.00    0.80797   0.65850   12.377
 5299.00    0.79998   0.66116   12.500
 5300.00    0.77434   0.66442   12.914
 5301.00    0.74384   0.66747   13.444
 5302.00    0.71513   0.66978   13.983
 5303.00    0.68343   0.67142   14.632
 5304.00    0.64966   0.67278   15.393
 5305.00    0.62721   0.67389   15.943
 5306.00    0.62610   0.67445   15.972
 5307.00    0.64529   0.67419   15.497
 5308.00    0.67795   0.67310   14.750
 5309.00    0.71522   0.67130   13.982
 5310.00    0.75043   0.66893   13.326
 5311.00    0.78060   0.66596   12.811
 5312.00    0.80434   0.66282   12.433
 5313.00    0.81984   0.66049   12.197
 5314.00    0.82090   0.65937   12.182
 5315.00    0.79851   0.65900   12.523
 5316.00    0.75489   0.65881   13.247
 5317.00    0.70546   0.65832   14.175
 5318.00    0.66261   0.65690   15.092
 5319.00    0.63132   0.65414   15.840
 5320.00    0.61867   0.65018   16.164
 5321.00    0.63367   0.64556   15.781
 5322.00    0.67297   0.64044   14.859
 5323.00    0.71828   0.63495   13.922
 5324.00    0.74696   0.63042   13.388
 5325.00    0.74112   0.62878   13.493
 5326.00    0.70449   0.63031   14.195
 5327.00    0.66119   0.63384   15.124
 5328.00    0.63326   0.63824   15.791
 5329.00    0.63153   0.64291   15.835
 5330.00    0.65140   0.64740   15.351
 5331.00    0.67541   0.65102   14.806
 5332.00    0.68454   0.65296   14.608
 5333.00    0.66596   0.65309   15.016
 5334.00    0.62416   0.65192   16.022
 5335.00    0.57666   0.64998   17.341
 5336.00    0.53379   0.64798   18.734
 5337.00    0.49814   0.64701   20.075
 5338.00    0.47758   0.64733   -1.000
 5339.00    0.48391   0.64838   -1.000
 5340.00    0.52054   0.64960   19.211
 5341.00    0.57786   0.65066   17.305
 5342.00    0.63038   0.65164   15.864
 5343.00    0.65289   0.65263   15.316
 5344.00    0.65756   0.65341   15.208
 5345.00    0.67759   0.65415   14.758
 5346.00    0.71373   0.65551   14.011
 5347.00    0.74073   0.65768   13.500
 5348.00    0.74536   0.66026   13.416
 5349.00    0.73134   0.66305   13.673
 5350.00    0.71234   0.66608   14.038
 5351.00    0.70393   0.66907   14.206
 5352.00    0.71138   0.67154   14.057
 5353.00    0.73116   0.67313   13.677
 5354.00    0.75792   0.67365   13.194
 5355.00    0.78195   0.67306   12.789
 5356.00    0.78293   0.67128   12.773
 5357.00    0.74501   0.66821   13.423
 5358.00    0.68301   0.66419   14.641
 5359.00    0.62836   0.65985   15.914
 5360.00    0.59949   0.65552   16.681
 5361.00    0.59960   0.65128   16.678
 5362.00    0.62105   0.64735   16.102
 5363.00    0.64988   0.64378   15.387
 5364.00    0.67201   0.64056   14.881
 5365.00    0.68005   0.63761   14.705
 5366.00    0.68107   0.63509   14.683
 5367.00    0.68876   0.63391   14.519
 5368.00    0.71091   0.63501   14.067
 5369.00    0.74487   0.63821   13.425
 5370.00    0.77454   0.64252   12.911
 5371.00    0.78006   0.64708   12.820
 5372.00    0.75078   0.65113   13.320
 5373.00    0.69121   0.65423   14.467
 5374.00    0.62522   0.65625   15.994
 5375.00    0.58203   0.65682   17.181
 5376.00    0.57904   0.65598   17.270
 5377.00    0.61478   0.65445   16.266
 5378.00    0.66473   0.65285   15.044
 5379.00    0.69787   0.65159   14.329
 5380.00    0.69547   0.65116   14.379
 5381.00    0.65802   0.65138   15.197
 5382.00    0.60860   0.65159   16.431
 5383.00    0.57258   0.65150   17.465
 5384.00    0.55779   0.65097   17.928
 5385.00    0.55721   0.64974   17.947
 5386.00    0.55479   0.64788   18.025
 5387.00    0.54170   0.64556   18.460
 5388.00    0.52871   0.64288   18.914
 5389.00    0.53057   0.64014   18.847
 5390.00    0.55192   0.63769   18.119
 5391.00    0.58784   0.63544   17.011
 5392.00    0.62614   0.63311   15.971
 5393.00    0.65377   0.63111   15.296
 5394.00    0.66264   0.63029   15.091
 5395.00    0.65551   0.63030   15.255
 5396.00    0.64824   0.63012   15.426
 5397.00    0.65569   0.62959   15.251
 5398.00    0.68059   0.62859   14.693
 5399.00    0.70855   0.62660   14.113
 5400.00    0.71044   0.62365   14.076
 5401.00    0.67822   0.62048   14.744
 5402.00    0.64211   0.61809   -2.000
 5403.00    0.62655   0.61707   -2.000
 5404.00    0.62464   0.61692   -2.000
 5405.00    0.61902   0.61703   -2.000
 5406.00    0.59638   0.61775   -2.000
 5407.00    0.55273   0.61983   -2.000
 5408.00    0.49553   0.62312   -2.000
 5409.00    0.44143   0.62659   -2.000
 5410.00    0.41121   0.62960   -2.000
 5411.00    0.41093   0.63252   -2.000
 5412.00    0.42744   0.63583   -2.000
 5413.00    0.45662   0.63898   -2.000
 5414.00    0.51049   0.64109   -2.000
 5415.00    0.57941   0.64197   -2.000
 5416.00    0.62447   0.64192   -2.000
 5417.00    0.62991   0.64145   15.875
 5418.00    0.61894   0.64071   16.157
 5419.00    0.61191   0.63923   16.342
 5420.00    0.60998   0.63728   16.394
 5421.00    0.60916   0.63602   16.416
 5422.00    0.60718   0.63567   16.470
 5423.00    0.60527   0.63531   16.522
 5424.00    0.60656   0.63398   16.487
 5425.00    0.60743   0.63162   16.463
 5426.00    0.59936   0.62963   16.685
 5427.00    0.58801   0.62869   17.006
 5428.00    0.59345   0.62784   16.851
 5429.00    0.62464   0.62671   16.009
 5430.00    0.67187   0.62610   14.884
 5431.00    0.71360   0.62687   14.013
 5432.00    0.72528   0.62926   13.788
 5433.00    0.69955   0.63278   14.295
 5434.00    0.65097   0.63675   15.362
 5435.00    0.60929   0.64060   16.412
 5436.00    0.60581   0.64380   16.507
 5437.00    0.64034   0.64586   15.617
 5438.00    0.68235   0.64641   14.655
 5439.00    0.70307   0.64534   14.223
 5440.00    0.68939   0.64268   14.506
 5441.00    0.65484   0.63884   15.271
 5442.00    0.63002   0.63480   15.872
 5443.00    0.63028   0.63195   15.866
 5444.00    0.64985   0.63121   15.388
 5445.00    0.66975   0.63196   14.931
 5446.00    0.66962   0.63312   14.934
 5447.00    0.65034   0.63413   15.377
 5448.00    0.63069   0.63471   15.856
 5449.00    0.62694   0.63461   15.950
 5450.00    0.64682   0.63347   15.460
 5451.00    0.68728   0.63147   14.550
 5452.00    0.73622   0.62996   13.583
 5453.00    0.77736   0.62994   12.864
 5454.00    0.79877   0.63084   12.519
 5455.00    0.80713   0.63178   12.390
 5456.00    0.81748   0.63231   12.233
 5457.00    0.82809   0.63231   12.076
 5458.00    0.82364   0.63177   12.141
 5459.00    0.79053   0.63086   12.650
 5460.00    0.72852   0.63024   13.726
 5461.00    0.66489   0.63017   15.040
 5462.00    0.63143   0.63034   15.837
 5463.00    0.62232   0.63077   16.069
 5464.00    0.61271   0.63152   16.321
 5465.00    0.60013   0.63212   16.663
 5466.00    0.59876   0.63209   16.701
 5467.00    0.61950   0.63117   16.142
 5468.00    0.66003   0.62923   15.151
 5469.00    0.69605   0.62643   14.367
 5470.00    0.70298   0.62327   14.225
 5471.00    0.68780   0.61990   14.539
 5472.00    0.67107   0.61628   14.902
 5473.00    0.65674   0.61344   15.227
 5474.00    0.63891   0.61253   15.652
 5475.00    0.61624   0.61327   16.228
 5476.00    0.59285   0.61464   16.868
 5477.00    0.57709   0.61615   17.328
 5478.00    0.57982   0.61812   17.247
 5479.00    0.61151   0.62078   16.353
 5480.00    0.66695   0.62359   14.994
 5481.00    0.71069   0.62577   14.071
 5482.00    0.71225   0.62689   14.040
 5483.00    0.68495   0.62710   14.600
 5484.00    0.66051   0.62715   15.140
 5485.00    0.65704   0.62740   15.220
 5486.00    0.67479   0.62763   14.819
 5487.00    0.69648   0.62772   14.358
 5488.00    0.70408   0.62764   14.203
 5489.00    0.69465   0.62742   14.396
 5490.00    0.67308   0.62732   14.857
 5491.00    0.64425   0.62736   15.522
 5492.00    0.61587   0.62705   16.237
 5493.00    0.60048   0.62624   16.653
 5494.00    0.60572   0.62552   16.509
 5495.00    0.62632   0.62521   15.966
 5496.00    0.65067   0.62467   15.369
 5497.00    0.66742   0.62334   14.983
 5498.00    0.67184   0.62166   14.884
 5499.00    0.66940   0.62031   14.939
 5500.00    0.66749   0.61943   14.982
 5501.00    0.66858   0.61847   14.957
 5502.00    0.66777   0.61713   14.975
 5503.00    0.65291   0.61605   15.316
 5504.00    0.61647   0.61570   16.221
 5505.00    0.56387   0.61557   17.735
 5506.00    0.51357   0.61524   19.472
 5507.00    0.49318   0.61480   20.277
 5508.00    0.51594   0.61453   19.382
 5509.00    0.56803   0.61482   17.605
 5510.00    0.62388   0.61577   16.029
 5511.00    0.65898   0.61728   15.175
 5512.00    0.66652   0.61918   15.003
 5513.00    0.66199   0.62135   -2.000
 5514.00    0.65554   0.62365   -2.000
 5515.00    0.63945   0.62570   -2.000
 5516.00    0.60703   0.62703   -2.000
 5517.00    0.56312   0.62750   -2.000
 5518.00    0.52297   0.62717   -2.000
 5519.00    0.50242   0.62604   -2.000
 5520.00    0.47529   0.62417   -2.000
 5521.00    0.37332   0.62163   -2.000
 5522.00    0.18506   0.61881   -2.000
 5523.00   -0.01411   0.61599   -2.000
 5524.00   -0.14252   0.61353   -2.000
 5525.00   -0.15461   0.61213   -2.000
 5526.00   -0.05827   0.61205   -2.000
 5527.00    0.09158   0.61270   -2.000
 5528.00    0.24811   0.61347   -2.000
 5529.00    0.38939   0.61414   -2.000
 5530.00    0.49238   0.61471   -2.000
 5531.00    0.53223   0.61531   -2.000
 5532.00    0.51952   0.61616   -2.000
 5533.00    0.49927   0.61726   -2.000
 5534.00    0.49574   0.61838   -2.000
 5535.00    0.50212   0.61949   -2.000
 5536.00    0.51592   0.62060   -2.000
 5537.00    0.54393   0.62145   18.385
 5538.00    0.57673   0.62173   17.339
 5539.00    0.58999   0.62142   16.949
 5540.00    0.57586   0.62095   17.365
 5541.00    0.54741   0.62075   18.268
 5542.00    0.52104   0.62084   19.192
 5543.00    0.50870   0.62129   19.658
 5544.00    0.51223   0.62215   19.523
 5545.00    0.52602   0.62318   19.011
 5546.00    0.54898   0.62405   18.216
 5547.00    0.58355   0.62455   17.137
 5548.00    0.62436   0.62451   16.017
 5549.00    0.66030   0.62389   15.145
 5550.00    0.68737   0.62287   14.548
 5551.00    0.70717   0.62179   14.141
 5552.00    0.71513   0.62091   13.983
 5553.00    0.70631   0.62011   14.158
 5554.00    0.69469   0.61923   14.395
 5555.00    0.70303   0.61836   14.224
 5556.00    0.73044   0.61749   13.690
 5557.00    0.75698   0.61641   13.210
 5558.00    0.76903   0.61501   13.003
 5559.00    0.76221   0.61338   13.120
 5560.00    0.73602   0.61184   13.587
 5561.00    0.69715   0.61048   14.344
 5562.00    0.66747   0.60921   14.982
 5563.00    0.66891   0.60815   14.950
 5564.00    0.69310   0.60736   14.428
 5565.00    0.71148   0.60677   14.055
 5566.00    0.70376   0.60645   14.209
 5567.00    0.66687   0.60654   14.995
 5568.00    0.62025   0.60670   16.123
 5569.00    0.59052   0.60678   16.934
 5570.00    0.58508   0.60732   17.092
 5571.00    0.59589   0.60844   16.782
 5572.00    0.61246   0.60964   16.328
 5573.00    0.62485   0.61067   16.004
 5574.00    0.62536   0.61162   15.991
 5575.00    0.61570   0.61246   16.242
 5576.00    0.61565   0.61297   16.243
 5577.00    0.64384   0.61268   15.532
 5578.00    0.69013   0.61141   14.490
 5579.00    0.72872   0.60939   13.723
 5580.00    0.74099   0.60676   13.495
 5581.00    0.72365   0.60344   13.819
 5582.00    0.69401   0.59946   14.409
 5583.00    0.67330   0.59534   14.852
 5584.00    0.66572   0.59199   15.021
 5585.00    0.66226   0.58996   15.100
 5586.00    0.64910   0.58929   15.406
 5587.00    0.61963   0.58986   16.139
 5588.00    0.58583   0.59124   17.070
 5589.00    0.56507   0.59290   17.697
 5590.00    0.56443   0.59456   17.717
 5591.00    0.58095   0.59625   17.213
 5592.00    0.60397   0.59796   16.557
 5593.00    0.62144   0.59900   16.092
 5594.00    0.62617   0.59881   15.970
 5595.00    0.61817   0.59803   16.177
 5596.00    0.60542   0.59758   16.517
 5597.00    0.59504   0.59750   16.806
 5598.00    0.58588   0.59764   17.068
 5599.00    0.57659   0.59848   17.343
 5600.00    0.57218   0.60068   17.477
 5601.00    0.57533   0.60406   17.381
 5602.00    0.57960   0.60763   17.253
 5603.00    0.57740   0.61077   17.319
 5604.00    0.56672   0.61332   17.645
 5605.00    0.55081   0.61507   18.155
 5606.00    0.53702   0.61562   18.621
 5607.00    0.53379   0.61486   18.734
 5608.00    0.54780   0.61312   18.255
 5609.00    0.57982   0.61066   17.247
 5610.00    0.62231   0.60739   16.069
 5611.00    0.66234   0.60348   15.098
 5612.00    0.68522   0.60007   14.594
 5613.00    0.68457   0.59843   14.608
 5614.00    0.66766   0.59822   14.978
 5615.00    0.64789   0.59826   15.435
 5616.00    0.63785   0.59830   15.678
 5617.00    0.63722   0.59872   15.693
 5618.00    0.62970   0.59946   15.881
 5619.00    0.60630   0.59972   16.493
 5620.00    0.57638   0.59908   17.350
 5621.00    0.55395   0.59831   18.052
 5622.00    0.54802   0.59849   18.248
 5623.00    0.55355   0.59965   18.065
 5624.00    0.55104   0.60114   18.148
 5625.00    0.52672   0.60275   18.985
 5626.00    0.48338   0.60452   20.688
 5627.00    0.44206   0.60610   -1.000
 5628.00    0.43534   0.60694   -1.000
 5629.00    0.47458   0.60682   21.071
 5630.00    0.54102   0.60592   18.483
 5631.00    0.61307   0.60459   16.311
 5632.00    0.67673   0.60296   14.777
 5633.00    0.71708   0.60111   13.946
 5634.00    0.71930   0.59943   13.902
 5635.00    0.68785   0.59833   14.538
 5636.00    0.64886   0.59776   15.412
 5637.00    0.62990   0.59736   15.875
 5638.00    0.64722   0.59719   15.451
 5639.00    0.68960   0.59761   14.501
 5640.00    0.72264   0.59846   13.838
 5641.00    0.72385   0.59929   13.815
 5642.00    0.69386   0.60005   14.412
 5643.00    0.65130   0.60082   15.354
 5644.00    0.62302   0.60151   16.051
 5645.00    0.61991   0.60182   16.131
 5646.00    0.63301   0.60156   15.798
 5647.00    0.64646   0.60107   15.469
 5648.00    0.64642   0.60056   15.470
 5649.00    0.63452   0.59960   15.760
 5650.00    0.62398   0.59769   16.026
 5651.00    0.61778   0.59514   16.187
 5652.00    0.60659   0.59282   16.486
 5653.00    0.58038   0.59074   17.230
 5654.00    0.53778   0.58817   18.595
 5655.00    0.50101   0.58561   19.960
 5656.00    0.50007   0.58456   19.997
 5657.00    0.52578   0.58501   19.019
 5658.00    0.53998   0.58558   18.519
 5659.00    0.52679   0.58602   18.983
 5660.00    0.49813   0.58726   20.075
 5661.00    0.47754   0.58941   20.940
 5662.00    0.48584   0.59141   20.583
 5663.00    0.51916   0.59265   19.262
 5664.00    0.55855   0.59367   17.904
 5665.00    0.59925   0.59506   16.687
 5666.00    0.64699   0.59658   15.456
 5667.00    0.69857   0.59791   14.315
 5668.00    0.74184   0.59919   13.480
 5669.00    0.76318   0.60060   13.103
 5670.00    0.75293   0.60177   13.281
 5671.00    0.71234   0.60229   14.038
 5672.00    0.65139   0.60230   15.352
 5673.00    0.58279   0.60205   17.159
 5674.00    0.52339   0.60128   19.106
 5675.00    0.49740   0.59979   20.105
 5676.00    0.52068   0.59797   19.206
 5677.00    0.57590   0.59617   17.364
 5678.00    0.62866   0.59418   15.907
 5679.00    0.65816   0.59190   15.194
 5680.00    0.65954   0.59003   15.162
 5681.00    0.63985   0.58898   15.629
 5682.00    0.60881   0.58839   16.426
 5683.00    0.56735   0.58791   17.626
 5684.00    0.51784   0.58787   19.311
 5685.00    0.47895   0.58867   20.879
 5686.00    0.47103   0.59014   21.230
 5687.00    0.49499   0.59177   20.202
 5688.00    0.53550   0.59329   18.674
 5689.00    0.56900   0.59465   17.575
 5690.00    0.57754   0.59558   17.315
 5691.00    0.56322   0.59590   17.755
 5692.00    0.53862   0.59567   18.566
 5693.00    0.51407   0.59496   19.453
 5694.00    0.49754   0.59369   20.099
 5695.00    0.49567   0.59204   20.175
 5696.00    0.50943   0.59044   19.630
 5697.00    0.53026   0.58879   18.859
 5698.00    0.54787   0.58698   18.253
 5699.00    0.55846   0.58533   17.906
 5700.00    0.56293   0.58392   17.764
 5701.00    0.56425   0.58234   17.723
 5702.00    0.56464   0.58033   17.710
 5703.00    0.56324   0.57818   17.754
 5704.00    0.55622   0.57633   17.979
 5705.00    0.53791   0.57496   18.591
 5706.00    0.50903   0.57424   19.645
 5707.00    0.48183   0.57452   20.754
 5708.00    0.46517   0.57571   21.497
 5709.00    0.45383   0.57771   22.035
 5710.00    0.44334   0.58050   22.556
 5711.00    0.44085   0.58348   -1.000
 5712.00    0.45444   0.58626   22.005
 5713.00    0.48465   0.58881   20.633
 5714.00    0.52519   0.59109   19.041
 5715.00    0.56433   0.59304   17.720
 5716.00    0.58865   0.59472   16.988
 5717.00    0.58732   0.59604   17.026
 5718.00    0.56297   0.59699   17.763
 5719.00    0.53509   0.59757   18.688
 5720.00    0.51743   0.59777   19.326
 5721.00    0.50731   0.59764   19.712
 5722.00    0.50922   0.59715   19.638
 5723.00    0.54295   0.59620   18.418
 5724.00    0.60507   0.59507   16.527
 5725.00    0.65557   0.59434   15.254
 5726.00    0.66908   0.59396   14.946
 5727.00    0.65772   0.59351   15.204
 5728.00    0.63847   0.59299   15.662
 5729.00    0.61585   0.59295   16.238
 5730.00    0.58637   0.59347   17.054
 5731.00    0.54499   0.59396   18.349
 5732.00    0.50300   0.59416   19.881
 5733.00    0.48940   0.59414   20.433
 5734.00    0.51802   0.59400   19.304
 5735.00    0.57507   0.59374   17.389
 5736.00    0.63347   0.59339   15.786
 5737.00    0.66509   0.59302   15.036
 5738.00    0.66329   0.59262   15.076
 5739.00    0.64763   0.59219   15.441
 5740.00    0.64410   0.59172    0.000
 5741.00    0.67101   0.59139    0.000
 5742.00    0.71754   0.59115    0.000
 5743.00    0.74537   0.59059    0.000
 5744.00    0.72502   0.58946    0.000
 5745.00    0.65265   0.58812    0.000
 5746.00    0.55934   0.58709    0.000
 5747.00    0.49813   0.58620    0.000
 5748.00    0.49043   0.58508    0.000
 5749.00    0.51719   0.58383    0.000
 5750.00    0.55054   0.58292    0.000
 5751.00    0.56929   0.58272    0.000
 5752.00    0.57267   0.58321    0.000
 5753.00    0.57556   0.58386    0.000
 5754.00    0.58201   0.58414    0.000
 5755.00    0.58333   0.58411    0.000
 5756.00    0.57551   0.58393    0.000
 5757.00    0.56355   0.58363    0.000
 5758.00    0.55871   0.58316    0.000
 5759.00    0.57086   0.58279    0.000
 5760.00    0.59143   0.58310    0.000
 5761.00    0.60029   0.58433    0.000
 5762.00    0.59345   0.58578    0.000
 5763.00    0.58220   0.58693    0.000
 5764.00    0.57430   0.58784    0.000
 5765.00    0.57080   0.58846    0.000
 5766.00    0.56978   0.58862    0.000
 5767.00    0.56665   0.58822    0.000
 5768.00    0.55330   0.58744    0.000
 5769.00    0.52412   0.58656    0.000
 5770.00    0.48852   0.58577    0.000
 5771.00    0.46490   0.58485    0.000
 5772.00    0.46345   0.58371    0.000
 5773.00    0.48052   0.58239    0.000
 5774.00    0.49557   0.58077    0.000
 5775.00    0.48792   0.57872    0.000
 5776.00    0.46749   0.57624    0.000
 5777.00    0.46140   0.57342    0.000
 5778.00    0.48060   0.57072    0.000
 5779.00    0.51787   0.56896    0.000
 5780.00    0.55488   0.56815    0.000
 5781.00    0.57277   0.56780    0.000
 5782.00    0.56698   0.56799    0.000
 5783.00    0.54809   0.56912    0.000
 5784.00    0.53834   0.57090    0.000
 5785.00    0.55155   0.57262    0.000
 5786.00    0.56622   0.57410    0.000
 5787.00    0.55527   0.57529    0.000
 5788.00    0.53217   0.57630    0.000
 5789.00    0.52821   0.57728    0.000
 5790.00    0.55303   0.57806    0.000
 5791.00    0.59342   0.57865    0.000
 5792.00    0.62009   0.57927    0.000
 5793.00    0.60890   0.57979    0.000
 5794.00    0.56547   0.58002    0.000
 5795.00    0.51469   0.58035    0.000
 5796.00    0.48372   0.58099    0.000
 5797.00    0.49001   0.58152    0.000
 5798.00    0.53006   0.58157    0.000
 5799.00    0.58424   0.58143    0.000
 5800.00    0.62487   0.58111    0.000
 5801.00    0.63380   0.58044    0.000
 5802.00    0.61881   0.57975    0.000
 5803.00    0.59806   0.57942    0.000
 5804.00    0.58252   0.57943    0.000
 5805.00    0.57327   0.57952    0.000
 5806.00    0.56132   0.57967    0.000
 5807.00    0.53489   0.57995    0.000
 5808.00    0.48731   0.58014    0.000
 5809.00    0.42657   0.58003    0.000
 5810.00    0.38042   0.57981    0.000
 5811.00    0.37113   0.57969    0.000
 5812.00    0.39473   0.57959    0.000
 5813.00    0.43256   0.57965    0.000
 5814.00    0.46391   0.58025    0.000
 5815.00    0.48083   0.58125    0.000
 5816.00    0.49647   0.58217    0.000
 5817.00    0.52511   0.58293    0.000
 5818.00    0.56706   0.58359    0.000
 5819.00    0.61305   0.58401    0.000
 5820.00    0.64923   0.58416    0.000
 5821.00    0.66440   0.58421    0.000
 5822.00    0.65540   0.58428    0.000
 5823.00    0.62964   0.58423    0.000
 5824.00    0.60415   0.58403    0.000
 5825.00    0.58943   0.58387    0.000
 5826.00    0.58092   0.58371    0.000
 5827.00    0.57073   0.58332    0.000
 5828.00    0.55597   0.58278   -2.000
 5829.00    0.54350   0.58231   -2.000
 5830.00    0.54819   0.58178   -2.000
 5831.00    0.56881   0.58113   -2.000
 5832.00    0.58213   0.58067   -2.000
 5833.00    0.58319   0.58062   -2.000
 5834.00    0.59850   0.58069   -2.000
 5835.00    0.64097   0.58069   -2.000
 5836.00    0.69126   0.58083   -2.000
 5837.00    0.72298   0.58111   -2.000
 5838.00    0.71762   0.58118   -2.000
 5839.00    0.67314   0.58089   -2.000
 5840.00    0.60797   0.58035   -2.000
 5841.00    0.56131   0.57954   -2.000
 5842.00    0.57878   0.57853   -2.000
 5843.00    0.65296   0.57737   -2.000
 5844.00    0.71846   0.57610   -2.000
 5845.00    0.73640   0.57469   -2.000
 5846.00    0.71827   0.57315   -2.000
 5847.00    0.67987   0.57157   -2.000
 5848.00    0.62480   0.56993    0.000
 5849.00    0.55386   0.56787    0.000
 5850.00    0.47237   0.56548    0.000
 5851.00    0.40248   0.56355    0.000
 5852.00    0.37593   0.56235    0.000
 5853.00    0.39567   0.56129    0.000
 5854.00    0.43536   0.56022    0.000
 5855.00    0.48158   0.55991    0.000
 5856.00    0.53905   0.56075    0.000
 5857.00    0.60245   0.56210    0.000
 5858.00    0.65107   0.56338    0.000
 5859.00    0.66064   0.56449    0.000
 5860.00    0.61660   0.56577    0.000
 5861.00    0.54012   0.56725    0.000
 5862.00    0.47738   0.56848    0.000
 5863.00    0.44998   0.56918    0.000
 5864.00    0.45040   0.56966    0.000
 5865.00    0.46704   0.57020    0.000
 5866.00    0.49211   0.57049    0.000
 5867.00    0.52409   0.57013    0.000
 5868.00    0.56272   0.56913    0.000
 5869.00    0.59594   0.56781    0.000
 5870.00    0.60593   0.56642    0.000
 5871.00    0.58981   0.56489    0.000
 5872.00    0.56065   0.56319    0.000
 5873.00    0.53852   0.56186    0.000
 5874.00    0.53979   0.56126    0.000
 5875.00    0.55967   0.56122    0.000
 5876.00    0.57965   0.56082    0.000
 5877.00    0.58996   0.56010    0.000
 5878.00    0.59009   0.55928    0.000
 5879.00    0.58075   0.55809    0.000
 5880.00    0.56331   0.55571    0.000
 5881.00    0.54138   0.55179    0.000
 5882.00    0.51940   0.54633    0.000
 5883.00    0.49949   0.53992    0.000
 5884.00    0.48340   0.53341    0.000
 5885.00    0.47655   0.52670    0.000
 5886.00    0.48483   0.51969    0.000
 5887.00    0.50828   0.51401    0.000
 5888.00    0.54258   0.51105    0.000
 5889.00    0.58251   0.51003    0.000
 5890.00    0.61905   0.51034    0.000
 5891.00    0.63460   0.51181    0.000
 5892.00    0.61290   0.51375    0.000
 5893.00    0.55415   0.51668    0.000
 5894.00    0.47596   0.52184    0.000
 5895.00    0.41052   0.52812    0.000
 5896.00    0.38717   0.53387    0.000
 5897.00    0.41053   0.53932    0.000
 5898.00    0.47002   0.54477    0.000
 5899.00    0.55489   0.54950    0.000
 5900.00    0.64692   0.55303    0.000
 5901.00    0.71125   0.55562   14.060
 5902.00    0.72056   0.55735   13.878
 5903.00    0.68310   0.55847   14.639
 5904.00    0.62703   0.55937   15.948
 5905.00    0.57887   0.55999   17.275
 5906.00    0.55393   0.55992   18.053
 5907.00    0.54939   0.55935   18.202
 5908.00    0.55462   0.55880   18.030
 5909.00    0.56256   0.55818   17.776
 5910.00    0.57139   0.55719   17.501
 5911.00    0.58481   0.55618   17.100
 5912.00    0.60835   0.55578   16.438
 5913.00    0.64506   0.55596   15.502
 5914.00    0.68752   0.55640   14.545
 5915.00    0.71337   0.55695   14.018
 5916.00    0.70620   0.55768   14.160
 5917.00    0.67267   0.55853   14.866
 5918.00    0.62992   0.55920   15.875
 5919.00    0.59307   0.55955   16.862
 5920.00    0.56766   0.55970   17.616
 5921.00    0.54616   0.55968   18.310
 5922.00    0.52158   0.55933   19.173
 5923.00    0.49788   0.55866   20.085
 5924.00    0.48731   0.55798   20.521
 5925.00    0.50580   0.55738   19.771
 5926.00    0.55696   0.55666   17.955
 5927.00    0.62322   0.55593   16.046
 5928.00    0.68023   0.55577   14.701
 5929.00    0.70827   0.55617   14.119
 5930.00    0.69971   0.55649   14.292
 5931.00    0.66240   0.55658   15.097
 5932.00    0.61233   0.55693   16.331
 5933.00    0.56687   0.55751   17.641
 5934.00    0.53306   0.55775   18.760
 5935.00    0.50404   0.55762   19.840
 5936.00    0.47792   0.55748   20.924
 5937.00    0.46539   0.55727   21.487
 5938.00    0.47169   0.55680   21.200
 5939.00    0.48943   0.55640   20.432
 5940.00    0.51273   0.55616   19.503
 5941.00    0.54174   0.55576   18.459
 5942.00    0.56720   0.55519   17.630
 5943.00    0.56891   0.55477   17.578
 5944.00    0.54510   0.55436   18.345
 5945.00    0.52093   0.55352   19.196
 5946.00    0.52279   0.55258   19.128
 5947.00    0.56158   0.55227   17.807
 5948.00    0.61404   0.55229   16.286
 5949.00    0.62926   0.55190   15.892
 5950.00    0.58735   0.55140   17.026
 5951.00    0.51680   0.55155   19.350
 5952.00    0.46424   0.55206   21.540
 5953.00    0.47086   0.55225   21.238
 5954.00    0.53243   0.55242   18.782
 5955.00    0.59883   0.55304   16.699
 5956.00    0.62671   0.55397   15.956
 5957.00    0.60129   0.55484   16.631
 5958.00    0.54218   0.55553   18.444
 5959.00    0.49300   0.55611   20.284
 5960.00    0.48185   0.55667   20.753
 5961.00    0.51012   0.55711   19.603
 5962.00    0.56027   0.55728   17.849
 5963.00    0.60613   0.55738   16.498
 5964.00    0.63549   0.55767   15.736
 5965.00    0.65033   0.55799   15.377
 5966.00    0.64744   0.55812   15.446
 5967.00    0.62094   0.55806   16.104
 5968.00    0.58464   0.55777   17.105
 5969.00    0.56420   0.55707   17.724
 5970.00    0.56061   0.55601   17.838
 5971.00    0.55328   0.55472   18.074
 5972.00    0.53318   0.55327   18.756
 5973.00    0.50779   0.55187   19.693
 5974.00    0.49173   0.55073   20.337
 5975.00    0.49496   0.54983   20.204
 5976.00    0.50214   0.54902   19.915
 5977.00    0.48609   0.54827   20.572
 5978.00    0.44794   0.54759   22.325
 5979.00    0.41202   0.54693   -1.000
 5980.00    0.39552   0.54610   -1.000
 5981.00    0.40138   0.54525   -1.000
 5982.00    0.41790   0.54493   23.929
 5983.00    0.43104   0.54515   23.200
 5984.00    0.44745   0.54536   22.349
 5985.00    0.48246   0.54564   20.727
 5986.00    0.52950   0.54638   18.886
 5987.00    0.56856   0.54718   17.588
 5988.00    0.59128   0.54754   16.912
 5989.00    0.60101   0.54769   16.639
 5990.00    0.60463   0.54790   16.539
 5991.00    0.60716   0.54784   16.470
 5992.00    0.60540   0.54740   16.518
 5993.00    0.59306   0.54684   16.862
 5994.00    0.57035   0.54625   17.533
 5995.00    0.54328   0.54555   18.407
 5996.00    0.52014   0.54487   19.225
 5997.00    0.50816   0.54441   19.679
 5998.00    0.50955   0.54401   19.625
 5999.00    0.52332   0.54338   19.109
 6000.00    0.54845   0.54259   18.233
 6001.00    0.58075   0.54189   17.219
 6002.00    0.60891   0.54134   16.423
 6003.00    0.62419   0.54087   16.021
 6004.00    0.63271   0.54038   15.805
 6005.00    0.64561   0.53988   15.489
 6006.00    0.66494   0.53970   15.039
 6007.00    0.68053   0.53996   14.694
 6008.00    0.66991   0.54017   14.927
 6009.00    0.62008   0.53988   16.127
 6010.00    0.55015   0.53940   18.177
 6011.00    0.49094   0.53921   20.369
 6012.00    0.46004   0.53902   21.737
 6013.00    0.45883   0.53829   21.794
 6014.00    0.47306   0.53743   21.139
 6015.00    0.48533   0.53701   20.605
 6016.00    0.48739   0.53665   20.517
 6017.00    0.48023   0.53605   20.823
 6018.00    0.47224   0.53584   21.176
 6019.00    0.47205   0.53628   21.184
 6020.00    0.48214   0.53684   20.741
 6021.00    0.49945   0.53746   20.022
 6022.00    0.51701   0.53861   19.342
 6023.00    0.53013   0.54004   18.863
 6024.00    0.54081   0.54121   18.491
 6025.00    0.55185   0.54233   18.121
 6026.00    0.56176   0.54365   17.801
 6027.00    0.56458   0.54478   17.712
 6028.00    0.55174   0.54553   18.124
 6029.00    0.52604   0.54618   19.010
 6030.00    0.50813   0.54677   19.680
 6031.00    0.50985   0.54708   19.614
 6032.00    0.51841   0.54709   19.290
 6033.00    0.52104   0.54694   19.192
 6034.00    0.52009   0.54666   19.227
 6035.00    0.51722   0.54621   19.334
 6036.00    0.50477   0.54571   19.811
 6037.00    0.47989   0.54530   20.838
 6038.00    0.45302   0.54495   22.074
 6039.00    0.44405   0.54468   22.520
 6040.00    0.47500   0.54470   21.053
 6041.00    0.54365   0.54496   18.394
 6042.00    0.61556   0.54511   16.245
 6043.00    0.66208   0.54518   15.104
 6044.00    0.67879   0.54533   14.732
 6045.00    0.67011   0.54531   14.923
 6046.00    0.64196   0.54485   15.577
 6047.00    0.60818   0.54421   16.443
 6048.00    0.59040   0.54351   16.938
 6049.00    0.60163   0.54254   16.622
 6050.00    0.63801   0.54142   15.674
 6051.00    0.67843   0.54056   14.740
 6052.00    0.69128   0.54001   14.466
 6053.00    0.66309   0.53956   15.081
 6054.00    0.60711   0.53929   16.471
 6055.00    0.54539   0.53924   18.336
 6056.00    0.49808   0.53923   20.077
 6057.00    0.47262   0.53902   21.159
 6058.00    0.46287   0.53849   21.604
 6059.00    0.46216   0.53779   21.637
 6060.00    0.46775   0.53735   21.379
 6061.00    0.47796   0.53715   20.922
 6062.00    0.49272   0.53696   20.296
 6063.00    0.51873   0.53721   19.278
 6064.00    0.56482   0.53825   17.705
 6065.00    0.62073   0.53956   16.110
 6066.00    0.66051   0.54062   15.140
 6067.00    0.67618   0.54157   14.789
 6068.00    0.68076   0.54238   14.689
 6069.00    0.68372   0.54275   14.626
 6070.00    0.68388   0.54256   14.622
 6071.00    0.67220   0.54183   14.877
 6072.00    0.64073   0.54067   15.607
 6073.00    0.60473   0.53935   16.536
 6074.00    0.59347   0.53795   16.850
 6075.00    0.60940   0.53629   16.410
 6076.00    0.62931   0.53469   15.890
 6077.00    0.63589   0.53363   15.726
 6078.00    0.62541   0.53286   15.989
 6079.00    0.60546   0.53198   16.516
 6080.00    0.58625   0.53139   17.058
 6081.00    0.56230   0.53133   17.784
 6082.00    0.52215   0.53133   19.152
 6083.00    0.47899   0.53118   20.877
 6084.00    0.46142   0.53115   21.672
 6085.00    0.47854   0.53135   20.897
 6086.00    0.51528   0.53146   19.407
 6087.00    0.53949   0.53138   18.536
 6088.00    0.52238   0.53150   19.143
 6089.00    0.47462   0.53189   21.070
 6090.00    0.43319   0.53212   23.085
 6091.00    0.42298   0.53219   23.642
 6092.00    0.44866   0.53230   22.289
 6093.00    0.49422   0.53219   20.234
 6094.00    0.53702   0.53157   18.621
 6095.00    0.57168   0.53040   17.492
 6096.00    0.60178   0.52879   16.617
 6097.00    0.61993   0.52723   16.131
 6098.00    0.61641   0.52607   16.223
 6099.00    0.59795   0.52494   16.724
 6100.00    0.58112   0.52413   17.208
 6101.00    0.57749   0.52446   17.316
 6102.00    0.58721   0.52569   17.030
 6103.00    0.59396   0.52696   16.836
 6104.00    0.57876   0.52811   17.278
 6105.00    0.54038   0.52928   18.506
 6106.00    0.49486   0.53038   20.208
 6107.00    0.47005   0.53126   21.274
 6108.00    0.48599   0.53163   20.576
 6109.00    0.53188   0.53152   18.801
 6110.00    0.58035   0.53130   17.231
 6111.00    0.60964   0.53106   16.403
 6112.00    0.61469   0.53040   16.268
 6113.00    0.61539   0.52920   16.250
 6114.00    0.63195   0.52786   15.824
 6115.00    0.65716   0.52638   15.217
 6116.00    0.67209   0.52466   14.879
 6117.00    0.66627   0.52315   15.009
 6118.00    0.63567   0.52208   15.731
 6119.00    0.57919   0.52116   17.265
 6120.00    0.50608   0.52077   19.760
 6121.00    0.44190   0.52127   22.629
 6122.00    0.41000   0.52195   24.391
 6123.00    0.41358   0.52248   24.179
 6124.00    0.44147   0.52319   22.651
 6125.00    0.47590   0.52391   21.013
 6126.00    0.50312   0.52408   19.876
 6127.00    0.52165   0.52382   19.170
 6128.00    0.53603   0.52324   18.656
 6129.00    0.55052   0.52200   18.165
 6130.00    0.56457   0.51988   17.712
 6131.00    0.57081   0.51741   17.519
 6132.00    0.56549   0.51533   17.684
 6133.00    0.55570   0.51363   17.995
 6134.00    0.55049   0.51205   18.166
 6135.00    0.55371   0.51124   18.060
 6136.00    0.56279   0.51199   17.769
 6137.00    0.56937   0.51366   17.563
 6138.00    0.56724   0.51505   17.629
 6139.00    0.55726   0.51636   17.945
 6140.00    0.54317   0.51821   18.411
 6141.00    0.52812   0.51988   18.935
 6142.00    0.51146   0.52059   19.552
 6143.00    0.48845   0.52084   20.473
 6144.00    0.46058   0.52109   21.712
 6145.00    0.43961   0.52110   22.748
 6146.00    0.43494   0.52089   22.992
 6147.00    0.44674   0.52072   22.384
 6148.00    0.46894   0.52046   21.325
 6149.00    0.49238   0.52014   20.310
 6150.00    0.51089   0.51979   19.574
 6151.00    0.52407   0.51898   19.081
 6152.00    0.53485   0.51761   18.697
 6153.00    0.54745   0.51610   18.267
 6154.00    0.56414   0.51419   17.726
 6155.00    0.58300   0.51141   17.153
 6156.00    0.59512   0.50849   16.803
 6157.00    0.58791   0.50624   17.010
 6158.00    0.56510   0.50426   17.696
 6159.00    0.54936   0.50245   18.203
 6160.00    0.55542   0.50169   18.005
 6161.00    0.58050   0.50231   17.226
 6162.00    0.61312   0.50319   16.310
 6163.00    0.63840   0.50367   15.664
 6164.00    0.64406   0.50455   15.527
 6165.00    0.62326   0.50603   16.045
 6166.00    0.57652   0.50698   17.345
 6167.00    0.51388   0.50737   19.460
 6168.00    0.45967   0.50850   21.755
 6169.00    0.44353   0.51016   22.546
 6170.00    0.46568   0.51127   21.474
 6171.00    0.49618   0.51223   20.154
 6172.00    0.51138   0.51368   19.555
 6173.00    0.50729   0.51491   19.713
 6174.00    0.50211   0.51561   19.916
 6175.00    0.52575   0.51644   19.020
 6176.00    0.58758   0.51736   17.019
 6177.00    0.67046   0.51779   14.915
 6178.00    0.74193   0.51799   -1.000
 6179.00    0.76787   0.51822   -1.000
 6180.00    0.73922   0.51793   -1.000
 6181.00    0.67199   0.51701   14.881
 6182.00    0.58779   0.51598   17.013
 6183.00    0.50774   0.51487   19.695
 6184.00    0.45043   0.51332   22.201
 6185.00    0.42568   0.51148   23.492
 6186.00    0.42168   0.51030   23.714
 6187.00    0.41496   0.50992   24.099
 6188.00    0.39966   0.50956   25.021
 6189.00    0.38840   0.50946   25.747
 6190.00    0.39875   0.51043   25.078
 6191.00    0.44002   0.51191   22.726
 6192.00    0.49294   0.51287   20.286
 6193.00    0.52556   0.51351   19.027
 6194.00    0.53270   0.51433   18.772
 6195.00    0.53228   0.51506   18.787
 6196.00    0.54253   0.51537   18.432
 6197.00    0.57094   0.51551   17.515
 6198.00    0.60300   0.51592   16.584
 6199.00    0.61694   0.51656   16.209
 6200.00    0.61248   0.51711   16.327
 6201.00    0.60254   0.51748   16.597
 6202.00    0.59076   0.51773   16.927
 6203.00    0.57268   0.51773   17.462
 6204.00    0.54385   0.51729   18.387
 6205.00    0.50495   0.51637   19.804
 6206.00    0.46733   0.51507   21.398
 6207.00    0.44595   0.51331   22.424
 6208.00    0.44772   0.51128   22.336
 6209.00    0.47025   0.50926   21.265
 6210.00    0.50270   0.50733   19.893
 6211.00    0.52962   0.50568   18.881
 6212.00    0.53656   0.50451   18.637
 6213.00    0.51896   0.50368   19.269
 6214.00    0.49191   0.50321   20.329
 6215.00    0.47699   0.50333   20.965
 6216.00    0.48431   0.50374   20.648
 6217.00    0.51006   0.50408   19.606
 6218.00    0.53725   0.50447   18.613
 6219.00    0.54906   0.50512   18.213
 6220.00    0.54360   0.50557   18.396
 6221.00    0.52880   0.50553   18.911
 6222.00    0.51453   0.50530   19.435
 6223.00    0.50645   0.50480   19.745
 6224.00    0.50083   0.50363   19.967
 6225.00    0.49129   0.50233   20.355
 6226.00    0.47608   0.50146   21.005
 6227.00    0.45846   0.50056   21.812
 6228.00    0.44587   0.49995   22.428
 6229.00    0.44385   0.50018   22.530
 6230.00    0.45103   0.50071   22.171
 6231.00    0.46385   0.50102   21.559
 6232.00    0.48061   0.50141   20.807
 6233.00    0.49679   0.50165   20.129
 6234.00    0.50201   0.50116   19.920
 6235.00    0.49157   0.50046   -2.000
 6236.00    0.47548   0.49965   -2.000
 6237.00    0.47345   0.49831   -2.000
 6238.00    0.50682   0.49715   -2.000
 6239.00    0.57048   0.49652   -2.000
 6240.00    0.62025   0.49564   -2.000
 6241.00    0.63329   0.49489   -2.000
 6242.00    0.64214   0.49502   -2.000
 6243.00    0.65980   0.49523   -2.000
 6244.00    0.63994   0.49518   -2.000
 6245.00    0.56936   0.49539   -2.000
 6246.00    0.51485   0.49542   -2.000
 6247.00    0.51678   0.49498   19.350
 6248.00    0.53316   0.49441   18.756
 6249.00    0.52569   0.49360   19.023
 6250.00    0.50700   0.49251   19.724
 6251.00    0.49637   0.49163   20.146
 6252.00    0.49419   0.49107   20.235
 6253.00    0.49338   0.49085   20.268
 6254.00    0.48747   0.49127   20.514
 6255.00    0.47583   0.49199   21.016
 6256.00    0.46414   0.49301   21.545
 6257.00    0.45340   0.49465   22.055
 6258.00    0.43685   0.49625   22.891
 6259.00    0.41239   0.49732   24.249
 6260.00    0.38744   0.49850   25.811
 6261.00    0.37239   0.49981   -1.000
 6262.00    0.37580   0.50039   -1.000
 6263.00    0.39802   0.50055   25.124
 6264.00    0.42951   0.50096   23.282
 6265.00    0.45641   0.50140   21.910
 6266.00    0.46660   0.50158   21.432
 6267.00    0.46411   0.50176   21.547
 6268.00    0.46838   0.50210   21.350
 6269.00    0.48878   0.50243   20.459
 6270.00    0.51703   0.50262   19.341
 6271.00    0.53792   0.50263   18.590
 6272.00    0.53680   0.50250   18.629
 6273.00    0.51126   0.50224   19.559
 6274.00    0.47325   0.50179   21.130
 6275.00    0.44192   0.50133   22.629
 6276.00    0.43575   0.50101   22.949
 6277.00    0.45595   0.50084   21.932
 6278.00    0.48619   0.50093   20.568
 6279.00    0.50924   0.50125   19.637
 6280.00    0.51414   0.50173    0.000
 6281.00    0.50130   0.50237    0.000
 6282.00    0.47952   0.50302    0.000
 6283.00    0.45364   0.50343    0.000
 6284.00    0.42358   0.50356    0.000
 6285.00    0.39199   0.50355    0.000
 6286.00    0.36611   0.50328    0.000
 6287.00    0.35691   0.50263    0.000
 6288.00    0.37316   0.50182    0.000
 6289.00    0.40768   0.50102    0.000
 6290.00    0.44148   0.49999    0.000
 6291.00    0.46205   0.49872    0.000
 6292.00    0.46845   0.49755    0.000
 6293.00    0.47188   0.49653    0.000
 6294.00    0.48784   0.49535    0.000
 6295.00    0.51873   0.49415    0.000
 6296.00    0.55387   0.49330    0.000
 6297.00    0.57818   0.49297    0.000
 6298.00    0.58287   0.49294    0.000
 6299.00    0.58250   0.49307    0.000
 6300.00    0.60242   0.49368    0.000
 6301.00    0.64818   0.49484    0.000
 6302.00    0.70575   0.49594    0.000
 6303.00    0.75333   0.49669    0.000
 6304.00    0.77224   0.49736    0.000
 6305.00    0.76164   0.49771    0.000
 6306.00    0.73305   0.49743    0.000
 6307.00    0.69668   0.49679    0.000
 6308.00    0.65890   0.49570    0.000
 6309.00    0.62230   0.49408    0.000
 6310.00    0.58783   0.49261    0.000
 6311.00    0.55807   0.49135    0.000
 6312.00    0.53596   0.48975    0.000
 6313.00    0.52213   0.48854    0.000
 6314.00    0.51419   0.48842    0.000
 6315.00    0.50653   0.48854    0.000
 6316.00    0.49550   0.48871    0.000
 6317.00    0.48581   0.48972    0.000
 6318.00    0.48125   0.49128    0.000
 6319.00    0.47221   0.49260    0.000
 6320.00    0.44807   0.49382    0.000
 6321.00    0.41414   0.49500   24.147
 6322.00    0.38488   0.49594   25.982
 6323.00    0.37271   0.49655   -1.000
 6324.00    0.38265   0.49670   26.134
 6325.00    0.40815   0.49646   24.501
 6326.00    0.43751   0.49606   22.857
 6327.00    0.46152   0.49544   21.668
 6328.00    0.47438   0.49439   21.080
 6329.00    0.47392   0.49302   21.100
 6330.00    0.46332   0.49162   21.583
 6331.00    0.45217   0.49046   22.115
 6332.00    0.44996   0.48939   22.224
 6333.00    0.45951   0.48824   21.762
 6334.00    0.47641   0.48759   20.990
 6335.00    0.49000   0.48759   20.408
 6336.00    0.49312   0.48748   20.279
 6337.00    0.48998   0.48710   20.409
 6338.00    0.48924   0.48695   20.440
 6339.00    0.49707   0.48691   20.118
 6340.00    0.51350   0.48645   19.474
 6341.00    0.53058   0.48586   18.847
 6342.00    0.53821   0.48577   18.580
 6343.00    0.52990   0.48614   18.871
 6344.00    0.50965   0.48644   19.621
 6345.00    0.49411   0.48690   20.238
 6346.00    0.49123   0.48783   20.357
 6347.00    0.48785   0.48865   20.498
 6348.00    0.47419   0.48884   21.089
 6349.00    0.45906   0.48868   21.784
 6350.00    0.45212   0.48841   22.118
 6351.00    0.45258   0.48763   22.096
 6352.00    0.45788   0.48617   21.840
 6353.00    0.46863   0.48459   21.339
 6354.00    0.48232   0.48325   20.733
 6355.00    0.49081   0.48175   20.375
 6356.00    0.48979   0.48014   20.417
 6357.00    0.48402   0.47910   20.660
 6358.00    0.48431   0.47872   20.648
 6359.00    0.50236   0.47856   19.906
 6360.00    0.53316   0.47876   18.756
 6361.00    0.55183   0.47955   18.121
 6362.00    0.54594   0.48062   18.317
 6363.00    0.52810   0.48168   18.936
 6364.00    0.51429   0.48263   19.444
 6365.00    0.51142   0.48356   19.553
 6366.00    0.51211   0.48451   19.527
 6367.00    0.49891   0.48539   20.044
 6368.00    0.47293   0.48610   21.145
 6369.00    0.45793   0.48679   21.838
 6370.00    0.46145   0.48768   21.671
 6371.00    0.46559   0.48840   21.478
 6372.00    0.45973   0.48869   21.752
 6373.00    0.45134   0.48885   22.156
 6374.00    0.45277   0.48894   22.086
 6375.00    0.47343   0.48868   21.123
 6376.00    0.51132   0.48826   19.557
 6377.00    0.55198   0.48801   18.117
 6378.00    0.57595   0.48777   17.363
 6379.00    0.56717   0.48755   17.631
 6380.00    0.53149   0.48763   18.815
 6381.00    0.49384   0.48780   20.250
 6382.00    0.46830   0.48785   21.354
 6383.00    0.45244   0.48791   22.102
 6384.00    0.44200   0.48783   22.624
 6385.00    0.43796   0.48752   22.833
 6386.00    0.45259   0.48699   22.095
 6387.00    0.49844   0.48610   20.062
 6388.00    0.55233   0.48514   18.105
 6389.00    0.56864   0.48448   17.586
 6390.00    0.54427   0.48368   18.373
 6391.00    0.51685   0.48273   19.348
 6392.00    0.51148   0.48246   19.551
 6393.00    0.52672   0.48240   18.986
 6394.00    0.53722   0.48182   18.614
 6395.00    0.51310   0.48159   19.489
 6396.00    0.46357   0.48197   21.572
 6397.00    0.42733   0.48195   23.401
 6398.00    0.42552   0.48184   23.500
 6399.00    0.45468   0.48236   21.994
 6400.00    0.49654   0.48285   20.139
 6401.00    0.52773   0.48272   18.949
 6402.00    0.53517   0.48241   18.686
 6403.00    0.52040   0.48221   19.216
 6404.00    0.50090   0.48189   19.964
 6405.00    0.49705   0.48111   20.119
 6406.00    0.50710   0.48039   19.720
 6407.00    0.51479   0.48036   19.425
 6408.00    0.51285   0.48023   19.499
 6409.00    0.50479   0.47977   19.810
 6410.00    0.49994   0.47981   20.002
 6411.00    0.50549   0.47995   19.783
 6412.00    0.51506   0.47965   19.415
 6413.00    0.51821   0.47948   19.297
 6414.00    0.51874   0.47946   19.277
 6415.00    0.52899   0.47927   18.904
 6416.00    0.55591   0.47945   17.988
 6417.00    0.59541   0.48005   16.795
 6418.00    0.62792   0.48068   15.926
 6419.00    0.63158   0.48156   15.833
 6420.00    0.60190   0.48279   16.614
 6421.00    0.54957   0.48378   18.196
 6422.00    0.49275   0.48423   20.294
 6423.00    0.44524   0.48443   22.460
 6424.00    0.40318   0.48424   24.803
 6425.00    0.35958   0.48342   -1.000
 6426.00    0.32410   0.48247   -1.000
 6427.00    0.31220   0.48161   -1.000
 6428.00    0.32878   0.48072   -1.000
 6429.00    0.36580   0.47995   26.138
 6430.00    0.40316   0.47956   24.804
 6431.00    0.42518   0.47941   23.520
 6432.00    0.43755   0.47919   22.854
 6433.00    0.44961   0.47888   22.242
 6434.00    0.45446   0.47888   22.004
 6435.00    0.44320   0.47923   22.563
 6436.00    0.42093   0.47944   23.757
 6437.00    0.40040   0.47981   24.975
 6438.00    0.39354   0.48085   25.411
 6439.00    0.40525   0.48173   24.676
 6440.00    0.42868   0.48195   23.327
 6441.00    0.44934   0.48200   22.255
 6442.00    0.45086   0.48179   22.180
 6443.00    0.43085   0.48074   23.210
 6444.00    0.41147   0.47913   24.303
 6445.00    0.41492   0.47775   24.101
 6446.00    0.44255   0.47642   22.596
 6447.00    0.47971   0.47485   20.846
 6448.00    0.50353   0.47386   19.860
 6449.00    0.50414   0.47358   19.836
 6450.00    0.49741   0.47312   20.104
 6451.00    0.50048   0.47285   19.981
 6452.00    0.51361   0.47318   19.470
 6453.00    0.52628   0.47320   19.001
 6454.00    0.52430   0.47303   19.073
 6455.00    0.50381   0.47340   19.849
 6456.00    0.47783   0.47349   20.928
 6457.00    0.45900   0.47311   21.786
 6458.00    0.44936   0.47325   22.254
 6459.00    0.44959   0.47361   22.243
 6460.00    0.46388   0.47353   21.557
 6461.00    0.49238   0.47393   20.309
 6462.00    0.52652   0.47487   18.993
 6463.00    0.54933   0.47535   18.204
 6464.00    0.53990   0.47574   18.522
 6465.00    0.49537   0.47628   20.187
 6466.00    0.43874   0.47636   22.793
 6467.00    0.39635   0.47628   25.230
 6468.00    0.38416   0.47641   26.031
 6469.00    0.40007   0.47627   24.996
 6470.00    0.42482   0.47608   23.539
 6471.00    0.44289   0.47632   22.579
 6472.00    0.45082   0.47629   22.182
 6473.00    0.44872   0.47579   22.286
 6474.00    0.43754   0.47549   22.855
 6475.00    0.42522   0.47508   23.517
 6476.00    0.42585   0.47413   23.483
 6477.00    0.44491   0.47322   22.476
 6478.00    0.47519   0.47265   21.044
 6479.00    0.50550   0.47204   19.783
 6480.00    0.52562   0.47147   19.025
 6481.00    0.53113   0.47120   18.828
 6482.00    0.52418   0.47092   19.077
 6483.00    0.50983   0.47029   19.614
 6484.00    0.49359   0.46916   20.260
 6485.00    0.47796   0.46736   20.922
 6486.00    0.46182   0.46493   21.653
 6487.00    0.44258   0.46188   22.595
 6488.00    0.41953   0.45821   23.836
 6489.00    0.40187   0.45453   24.884
 6490.00    0.40480   0.45142   24.704
 6491.00    0.42993   0.44892   23.260
 6492.00    0.46288   0.44739   21.604
 6493.00    0.48443   0.44737   20.643
 6494.00    0.47970   0.44849   20.846
 6495.00    0.45372   0.45060   22.040
 6496.00    0.42705   0.45355   23.416
 6497.00    0.41237   0.45661   24.250
 6498.00    0.40833   0.45971   24.490
 6499.00    0.40091   0.46265   24.943
 6500.00    0.37655   0.46492   26.138
 6501.00    0.35206   0.46674   -1.000
 6502.00    0.36107   0.46812   26.138
 6503.00    0.40534   0.46888   24.671
 6504.00    0.45836   0.46932   21.817
 6505.00    0.49963   0.46950   20.015
 6506.00    0.52089   0.46923   19.198
 6507.00    0.52216   0.46867   19.151
 6508.00    0.50886   0.46805   19.652
 6509.00    0.48801   0.46716   20.491
 6510.00    0.46634   0.46592   21.443
 6511.00    0.44838   0.46485   22.303
 6512.00    0.43501   0.46402   22.988
 6513.00    0.42191   0.46312   23.702
 6514.00    0.40585   0.46256   24.640
 6515.00    0.39604   0.46260   25.250
 6516.00    0.40186   0.46273   24.884
 6517.00    0.40908   0.46287   24.445
 6518.00    0.39983   0.46323   25.011
 6519.00    0.39112   0.46351   25.567
 6520.00    0.41250   0.46343   24.243
 6521.00    0.46120   0.46311   21.682
 6522.00    0.51249   0.46271   19.513
 6523.00    0.54652   0.46219   18.298
 6524.00    0.55664   0.46144   17.965
 6525.00    0.55451   0.46070   18.034
 6526.00    0.55456   0.46009   18.032
 6527.00    0.55202   0.45943   18.115
 6528.00    0.53664   0.45878    0.000
 6529.00    0.51404   0.45822    0.000
 6530.00    0.49223   0.45774    0.000
 6531.00    0.46203   0.45726    0.000
 6532.00    0.41521   0.45675    0.000
 6533.00    0.36868   0.45626    0.000
 6534.00    0.34670   0.45564    0.000
 6535.00    0.35655   0.45469    0.000
 6536.00    0.38902   0.45348    0.000
 6537.00    0.42345   0.45199    0.000
 6538.00    0.44523   0.45012    0.000
 6539.00    0.46244   0.44794    0.000
 6540.00    0.48545   0.44550    0.000
 6541.00    0.50572   0.44295    0.000
 6542.00    0.51609   0.44045    0.000
 6543.00    0.53127   0.43788    0.000
 6544.00    0.56761   0.43518    0.000
 6545.00    0.62258   0.43247    0.000
 6546.00    0.68236   0.42948    0.000
 6547.00    0.73105   0.42593    0.000
 6548.00    0.75603   0.42178    0.000
 6549.00    0.75215   0.41685    0.000
 6550.00    0.72205   0.41093    0.000
 6551.00    0.67574   0.40402    0.000
 6552.00    0.62583   0.39612    0.000
 6553.00    0.58388   0.38701    0.000
 6554.00    0.56071   0.37692    0.000
 6555.00    0.56830   0.36684    0.000
 6556.00    0.63009   0.35706    0.000
 6557.00    0.78793   0.34791    0.000
 6558.00    1.09632   0.34154    0.000
 6559.00    1.60720   0.33903    0.000
 6560.00    2.29512   0.33915    0.000
 6561.00    3.01577   0.34266    0.000
 6562.00    3.56912   0.35048    0.000
 6563.00    3.76082   0.35980    0.000
 6564.00    3.51292   0.36919    0.000
 6565.00    2.91938   0.37934    0.000
 6566.00    2.16699   0.38877    0.000
 6567.00    1.46791   0.39648    0.000
 6568.00    0.96108   0.40330    0.000
 6569.00    0.66625   0.40925    0.000
 6570.00    0.53935   0.41418    0.000
 6571.00    0.51109   0.41863    0.000
 6572.00    0.51957   0.42268    0.000
 6573.00    0.52699   0.42628    0.000
 6574.00    0.51869   0.42959    0.000
 6575.00    0.50027   0.43250    0.000
 6576.00    0.48764   0.43495    0.000
 6577.00    0.50059   0.43708    0.000
 6578.00    0.55646   0.43882    0.000
 6579.00    0.66415   0.44027    0.000
 6580.00    0.81173   0.44155    0.000
 6581.00    0.96548   0.44253    0.000
 6582.00    1.08897   0.44339    0.000
 6583.00    1.15272   0.44411    0.000
 6584.00    1.13891   0.44434    0.000
 6585.00    1.04549   0.44444    0.000
 6586.00    0.89437   0.44447    0.000
 6587.00    0.72948   0.44400    0.000
 6588.00    0.59852   0.44351    0.000
 6589.00    0.53730   0.44345    0.000
 6590.00    0.54055   0.44344    0.000
 6591.00    0.56650   0.44353    0.000
 6592.00    0.58666   0.44433    0.000
 6593.00    0.59669   0.44545    0.000
 6594.00    0.59525   0.44649    0.000
 6595.00    0.57930   0.44772    0.000
 6596.00    0.55168   0.44892    0.000
 6597.00    0.52245   0.44980    0.000
 6598.00    0.50525   0.45048    0.000
 6599.00    0.51147   0.45085    0.000
 6600.00    0.53703   0.45087    0.000
 6601.00    0.56398   0.45071    0.000
 6602.00    0.57505   0.45045    0.000
 6603.00    0.56193   0.45018    0.000
 6604.00    0.53556   0.44995    0.000
 6605.00    0.51894   0.44999    0.000
 6606.00    0.52315   0.45033    0.000
 6607.00    0.54286   0.45074    0.000
 6608.00    0.56060   0.45132    0.000
 6609.00    0.55842   0.45216   17.908
 6610.00    0.54103   0.45297   18.483
 6611.00    0.53006   0.45359   18.866
 6612.00    0.53995   0.45417   18.520
 6613.00    0.57007   0.45474   17.542
 6614.00    0.60036   0.45506   16.657
 6615.00    0.60653   0.45510   16.487
 6616.00    0.59117   0.45502   16.915
 6617.00    0.57456   0.45481   17.405
 6618.00    0.56518   0.45436   17.693
 6619.00    0.55920   0.45373   17.883
 6620.00    0.55005   0.45309   18.180
 6621.00    0.53429   0.45250   18.716
 6622.00    0.51819   0.45176   19.298
 6623.00    0.51135   0.45102   19.556
 6624.00    0.51397   0.45045   19.456
 6625.00    0.51651   0.44969   19.361
 6626.00    0.50334   0.44886   19.867
 6627.00    0.47012   0.44825   21.271
 6628.00    0.44748   0.44752   22.347
 6629.00    0.46659   0.44695   21.432
 6630.00    0.50534   0.44686   19.789
 6631.00    0.52193   0.44682   19.160
 6632.00    0.51246   0.44695   19.514
 6633.00    0.49826   0.44757   20.070
 6634.00    0.49724   0.44806   20.111
 6635.00    0.51365   0.44827   19.468
 6636.00    0.53113   0.44870   18.828
 6637.00    0.53144   0.44892   18.817
 6638.00    0.51803   0.44867   19.304
 6639.00    0.50239   0.44870   19.905
 6640.00    0.48525   0.44888   20.608
 6641.00    0.46654   0.44874   21.434
 6642.00    0.45781   0.44886   21.843
 6643.00    0.46621   0.44934   21.449
 6644.00    0.47722   0.44966   20.955
 6645.00    0.47706   0.44991   20.962
 6646.00    0.47640   0.45029   20.991
 6647.00    0.49097   0.45054   20.368
 6648.00    0.51983   0.45061   19.237
 6649.00    0.54777   0.45061   18.256
 6650.00    0.55179   0.45053   18.123
 6651.00    0.52182   0.45027   19.164
 6652.00    0.47691   0.44986   20.969
 6653.00    0.43933   0.44944   22.762
 6654.00    0.41176   0.44878   24.286
 6655.00    0.39013   0.44786   25.632
 6656.00    0.37607   0.44706   26.138
 6657.00    0.37540   0.44616   26.138
 6658.00    0.39470   0.44504   25.335
 6659.00    0.43024   0.44433   23.243
 6660.00    0.46200   0.44391   21.645
 6661.00    0.47491   0.44342   21.057
 6662.00    0.47331   0.44341   21.128
 6663.00    0.46760   0.44383   21.386
 6664.00    0.46381   0.44416   21.560
 6665.00    0.46346   0.44458   21.577
 6666.00    0.46466   0.44506   21.521
 6667.00    0.46771   0.44524   21.381
 6668.00    0.47670   0.44512   20.978
 6669.00    0.48660   0.44460   20.551
 6670.00    0.47959   0.44372   20.851
 6671.00    0.45308   0.44267   22.071
 6672.00    0.43163   0.44136   23.168
 6673.00    0.43437   0.44014   23.022
 6674.00    0.45637   0.43954   21.912
 6675.00    0.47394   0.43926   21.100
 6676.00    0.45593   0.43935   21.933
 6677.00    0.40468   0.44024   24.711
 6678.00    0.36606   0.44154   26.138
 6679.00    0.36903   0.44274   26.138
 6680.00    0.40029   0.44401   24.982
 6681.00    0.43537   0.44527   22.969
 6682.00    0.45675   0.44616   21.894
 6683.00    0.46363   0.44673   21.569
 6684.00    0.47043   0.44714   21.257
 6685.00    0.48111   0.44728   20.785
 6686.00    0.48302   0.44717   20.703
 6687.00    0.47000   0.44690   21.277
 6688.00    0.45078   0.44646   22.184
 6689.00    0.44117   0.44591   22.667
 6690.00    0.45520   0.44526   21.969
 6691.00    0.48471   0.44452   20.631
 6692.00    0.50046   0.44398   19.982
 6693.00    0.48525   0.44350   20.608
 6694.00    0.44453   0.44306   22.496
 6695.00    0.39793   0.44292   25.130
 6696.00    0.37186   0.44283    0.000
 6697.00    0.38574   0.44275    0.000
 6698.00    0.44179   0.44278    0.000
 6699.00    0.50830   0.44263    0.000
 6700.00    0.53427   0.44252    0.000
 6701.00    0.51071   0.44245    0.000
 6702.00    0.47247   0.44212    0.000
 6703.00    0.44522   0.44193    0.000
 6704.00    0.43447   0.44178    0.000
 6705.00    0.44091   0.44130    0.000
 6706.00    0.46266   0.44086    0.000
 6707.00    0.48851   0.44038    0.000
 6708.00    0.50447   0.43955    0.000
 6709.00    0.51518   0.43867    0.000
 6710.00    0.54024   0.43785    0.000
 6711.00    0.59086   0.43702    0.000
 6712.00    0.66699   0.43627    0.000
 6713.00    0.76492   0.43582    0.000
 6714.00    0.87588   0.43584    0.000
 6715.00    0.97876   0.43599    0.000
 6716.00    1.04267   0.43635    0.000
 6717.00    1.03644   0.43711    0.000
 6718.00    0.94472   0.43787    0.000
 6719.00    0.79583   0.43847    0.000
 6720.00    0.64644   0.43908    0.000
 6721.00    0.53872   0.43958    0.000
 6722.00    0.48713   0.43994    0.000
 6723.00    0.47131   0.44020    0.000
 6724.00    0.45869   0.44032    0.000
 6725.00    0.44798   0.44045    0.000
 6726.00    0.46292   0.44054    0.000
 6727.00    0.52626   0.44044    0.000
 6728.00    0.64220   0.44032    0.000
 6729.00    0.77581   0.44019    0.000
 6730.00    0.87429   0.43985    0.000
 6731.00    0.90681   0.43948    0.000
 6732.00    0.86968   0.43913    0.000
 6733.00    0.78351   0.43863    0.000
 6734.00    0.68098   0.43815    0.000
 6735.00    0.58926   0.43770    0.000
 6736.00    0.52309   0.43722    0.000
 6737.00    0.47942   0.43676    0.000
 6738.00    0.44840   0.43631    0.000
 6739.00    0.42913   0.43596    0.000
 6740.00    0.42611   0.43563    0.000
 6741.00    0.44160   0.43516    0.000
 6742.00    0.47261   0.43484    0.000
 6743.00    0.50821   0.43462    0.000
 6744.00    0.52934   0.43425    0.000
 6745.00    0.51088   0.43396    0.000
 6746.00    0.44845   0.43399    0.000
 6747.00    0.38567   0.43398    0.000
 6748.00    0.36982   0.43398    0.000
 6749.00    0.40098   0.43443    0.000
 6750.00    0.45077   0.43490    0.000
 6751.00    0.48927   0.43525    0.000
 6752.00    0.50129   0.43594    0.000
 6753.00    0.49803   0.43659   20.079
 6754.00    0.49316   0.43700   20.277
 6755.00    0.48031   0.43747   20.820
 6756.00    0.45167   0.43778   22.140
 6757.00    0.41655   0.43779   24.007
 6758.00    0.39258   0.43768   25.472
 6759.00    0.39492   0.43733   25.322
 6760.00    0.42225   0.43677   23.683
 6761.00    0.44832   0.43618   22.306
 6762.00    0.44679   0.43546   22.382
 6763.00    0.41286   0.43471   24.221
 6764.00    0.36645   0.43427   26.138
 6765.00    0.34864   0.43394   26.138
 6766.00    0.38315   0.43367   26.099
 6767.00    0.44988   0.43385   22.228
 6768.00    0.50629   0.43430   19.751
 6769.00    0.51005   0.43466   19.606
 6770.00    0.45867   0.43524   21.802
 6771.00    0.40640   0.43595   24.606
 6772.00    0.39506   0.43635   25.312
 6773.00    0.41268   0.43660   24.232
 6774.00    0.43257   0.43678   23.117
 6775.00    0.44035   0.43652   22.709
 6776.00    0.43502   0.43600   22.988
 6777.00    0.42690   0.43542   23.425
 6778.00    0.42629   0.43460   23.458
 6779.00    0.43609   0.43372   22.931
 6780.00    0.44829   0.43309   22.307
 6781.00    0.44636   0.43254   22.403
 6782.00    0.42721   0.43211   23.408
 6783.00    0.40946   0.43207   24.422
 6784.00    0.41412   0.43212   24.148
 6785.00    0.45171   0.43211   22.138
 6786.00    0.51051   0.43227   19.588
 6787.00    0.55811   0.43237   17.918
 6788.00    0.57508   0.43222   17.389
 6789.00    0.56787   0.43212   17.610
 6790.00    0.55369   0.43207   18.061
 6791.00    0.54880   0.43187   18.222
 6792.00    0.55019   0.43177   18.176
 6793.00    0.53599   0.43183   18.657
 6794.00    0.49937   0.43186   20.025
 6795.00    0.45799   0.43192   21.834
 6796.00    0.43453   0.43204   23.014
 6797.00    0.44253   0.43212   22.597
 6798.00    0.46479   0.43208   21.515
 6799.00    0.45960   0.43193   21.758
 6800.00    0.41210   0.43189   24.266
 6801.00    0.34842   0.43163   26.138
 6802.00    0.31806   0.43122   26.138
 6803.00    0.36730   0.43110   26.138
 6804.00    0.47530   0.43080   21.039
 6805.00    0.56366   0.43035   17.741
 6806.00    0.59262   0.43025   16.874
 6807.00    0.57863   0.43003   17.282
 6808.00    0.55185   0.42973   18.121
 6809.00    0.53577   0.42971   18.665
 6810.00    0.52837   0.42962   18.926
 6811.00    0.50687   0.42956   19.729
 6812.00    0.45583   0.42966   21.938
 6813.00    0.38094   0.42970   26.138
 6814.00    0.32290   0.42982   26.138
 6815.00    0.33447   0.43000   26.138
 6816.00    0.41471   0.43012   24.113
 6817.00    0.51290   0.43030   19.497
 6818.00    0.57967   0.43042   17.251
 6819.00    0.59079   0.43047   16.926
 6820.00    0.57099   0.43046   17.514
 6821.00    0.56870   0.43033   17.584
 6822.00    0.58922   0.43012   16.972
 6823.00    0.60090   0.42984   16.642
 6824.00    0.58058   0.42955   17.224
 6825.00    0.52508   0.42933   19.045
 6826.00    0.45361   0.42909   22.045
 6827.00    0.39847   0.42892   25.096
 6828.00    0.38587   0.42877   25.915
 6829.00    0.42180   0.42849   23.708
 6830.00    0.47402   0.42813   21.096
 6831.00    0.49488   0.42755   20.207
 6832.00    0.46745   0.42674   21.392
 6833.00    0.40573   0.42581   24.647
 6834.00    0.34011   0.42471   26.138
 6835.00    0.30433   0.42363   -1.000
 6836.00    0.31786   0.42270   26.138
 6837.00    0.37525   0.42200   26.138
 6838.00    0.43572   0.42165   22.951
 6839.00    0.45516   0.42168   21.970
 6840.00    0.43572   0.42204   22.950
 6841.00    0.41211   0.42267   24.265
 6842.00    0.41978   0.42347   23.822
 6843.00    0.46880   0.42426   21.331
 6844.00    0.51728   0.42490   19.332
 6845.00    0.51766   0.42541   19.318
 6846.00    0.48081   0.42562   20.798
 6847.00    0.44475   0.42547   22.485
 6848.00    0.42478   0.42525   23.542
 6849.00    0.41573   0.42474   24.054
 6850.00    0.40335   0.42394   24.792
 6851.00    0.37915   0.42341   26.138
 6852.00    0.35494   0.42285   26.138
 6853.00    0.34727   0.42212   26.138
 6854.00    0.35890   0.42190   26.138
 6855.00    0.38710   0.42185   25.833
 6856.00    0.43307   0.42164   23.091
 6857.00    0.48348   0.42178   20.683
 6858.00    0.49488   0.42209   20.207
 6859.00    0.44223   0.42218   22.613
 6860.00    0.36411   0.42230   26.138
 6861.00    0.31794   0.42244   26.138
 6862.00    0.33231   0.42242   26.138
 6863.00    0.39557   0.42227   25.280
 6864.00    0.45497   0.42207   21.979
 6865.00    0.47134   0.42194   21.216
 6866.00    0.46270   0.42178   21.612
 6867.00    0.46534   0.42157   21.490
 6868.00    0.49722   0.42156   20.112
 6869.00    0.54845   0.42161   18.233
 6870.00    0.58105   0.42158   17.210
 6871.00    0.57165   0.42163   17.493
 6872.00    0.54009   0.42171   18.515
 6873.00    0.51580   0.42167   19.387
 6874.00    0.51162   0.42148   19.546
 6875.00    0.52491   0.42130   19.051
 6876.00    0.54190   0.42110   18.453
 6877.00    0.55504   0.42075   18.017
 6878.00    0.57105   0.42050   17.512
 6879.00    0.58867   0.42047   16.988
 6880.00    0.58876   0.42048   16.985
 6881.00    0.56643   0.42062   17.654
 6882.00    0.54397   0.42102   18.383
 6883.00    0.52677   0.42151   18.983
 6884.00    0.48663   0.42192   20.549
 6885.00    0.42006   0.42236   23.806
 6886.00    0.37147   0.42283   26.138
 6887.00    0.37383   0.42304   26.138
 6888.00    0.41703   0.42310   23.979
 6889.00    0.45743   0.42321   21.861
 6890.00    0.43956   0.42310   22.750
 6891.00    0.37277   0.42291   26.138
 6892.00    0.34169   0.42285   26.138
 6893.00    0.37467   0.42271   26.138
 6894.00    0.40627   0.42260   24.614
 6895.00    0.39867   0.42260   25.083
 6896.00    0.38242   0.42260   26.138
 6897.00    0.38424   0.42263   26.025
 6898.00    0.39975   0.42266   25.016
 6899.00    0.41744   0.42271   23.955
 6900.00    0.42878   0.42275   23.322
 6901.00    0.42534   0.42268   23.510
 6902.00    0.40169   0.42268   24.895
 6903.00    0.37032   0.42254   26.138
 6904.00    0.35755   0.42225   26.138
 6905.00    0.36840   0.42201   26.138
 6906.00    0.38474   0.42151   25.991
 6907.00    0.40440   0.42092   24.728
 6908.00    0.44223   0.42042   22.613
 6909.00    0.48765   0.41974   20.507
 6910.00    0.50426   0.41923   19.831
 6911.00    0.47486   0.41898   21.059
 6912.00    0.41170   0.41868   24.289
 6913.00    0.34200   0.41873   26.138
 6914.00    0.29714   0.41901   -1.000
 6915.00    0.29541   0.41915   -1.000
 6916.00    0.33393   0.41944   26.138
 6917.00    0.38139   0.41968   26.138
 6918.00    0.39549   0.41964   25.285
 6919.00    0.37364   0.41956   26.138
 6920.00    0.34868   0.41940   26.138
 6921.00    0.34299   0.41911   26.138
 6922.00    0.35712   0.41889   26.138
 6923.00    0.37278   0.41876   26.138
 6924.00    0.36809   0.41867   26.138
 6925.00    0.35030   0.41864   26.138
 6926.00    0.34512   0.41871   26.138
 6927.00    0.35561   0.41877   26.138
 6928.00    0.36639   0.41875   26.138
 6929.00    0.37240   0.41883   26.138
 6930.00    0.37924   0.41892   26.138
 6931.00    0.39058   0.41886   25.603
 6932.00    0.40735   0.41891   24.549
 6933.00    0.43109   0.41901   23.197
 6934.00    0.45857   0.41891   21.807
 6935.00    0.47121   0.41875   21.222
 6936.00    0.45281   0.41858   22.084
 6937.00    0.42383   0.41820   23.594
 6938.00    0.41607   0.41770   24.034
 6939.00    0.41975   0.41723   23.823
 6940.00    0.40621   0.41667   24.618
 6941.00    0.37977   0.41617   26.138
 6942.00    0.36728   0.41585   26.138
 6943.00    0.38708   0.41549   25.835
 6944.00    0.43578   0.41528   22.948
 6945.00    0.47751   0.41525   20.942
 6946.00    0.47719   0.41505   20.956
 6947.00    0.44941   0.41494   22.252
 6948.00    0.43161   0.41501   23.169
 6949.00    0.43693   0.41491   22.887
 6950.00    0.45400   0.41491   22.026
 6951.00    0.45691   0.41512   21.886
 6952.00    0.43015   0.41525   23.248
 6953.00    0.39623   0.41542   25.238
 6954.00    0.37741   0.41575   26.138
 6955.00    0.34835   0.41597   26.138
 6956.00    0.28819   0.41614   -1.000
 6957.00    0.24366   0.41637   -1.000
 6958.00    0.26620   0.41644   -1.000
 6959.00    0.33610   0.41651   26.138
 6960.00    0.40322   0.41660   24.800
 6961.00    0.44022   0.41650   22.716
 6962.00    0.44378   0.41647   22.534
 6963.00    0.42887   0.41645   23.317
 6964.00    0.41293   0.41616   24.217
 6965.00    0.40125   0.41592   24.922
 6966.00    0.39409   0.41554   25.375
 6967.00    0.39370   0.41485   25.400
 6968.00    0.39391   0.41406   25.387
 6969.00    0.37373   0.41304   26.138
 6970.00    0.33256   0.41179   26.138
 6971.00    0.31498   0.41055   26.138
 6972.00    0.35159   0.40935   26.138
 6973.00    0.41267   0.40828   24.233
 6974.00    0.45680   0.40758   21.891
 6975.00    0.47164   0.40744   21.203
 6976.00    0.46149   0.40762   21.669
 6977.00    0.43604   0.40814   22.934
 6978.00    0.41482   0.40920   24.107
 6979.00    0.42614   0.41029   23.467
 6980.00    0.47083   0.41123   21.239
 6981.00    0.50490   0.41226   19.806
 6982.00    0.49911   0.41306   20.036
 6983.00    0.47336   0.41354   21.125
 6984.00    0.44750   0.41393   22.347
 6985.00    0.41374   0.41417   24.170
 6986.00    0.37625   0.41430   26.138
 6987.00    0.36879   0.41432   26.138
 6988.00    0.40457   0.41429   24.717
 6989.00    0.45225   0.41419   22.112
 6990.00    0.47664   0.41394   20.980
 6991.00    0.46470   0.41362   21.519
 6992.00    0.43376   0.41316   23.054
 6993.00    0.42486   0.41257   23.537
 6994.00    0.44839   0.41197   22.302
 6995.00    0.46833   0.41126   21.353
 6996.00    0.46884   0.41058   21.329
 6997.00    0.47474   0.41000   21.064
 6998.00    0.48450   0.40940   20.640
 6999.00    0.45624   0.40895   21.918
 7000.00    0.39486   0.40870   25.325
 7001.00    0.36842   0.40846   -2.000
 7002.00    0.39951   0.40837   -2.000
 7003.00    0.43728   0.40845   -2.000
 7004.00    0.44668   0.40849   -2.000
 7005.00    0.43927   0.40853   -2.000
 7006.00    0.43911   0.40850   -2.000
 7007.00    0.46156   0.40834   -2.000
 7008.00    0.48895   0.40810   -2.000
 7009.00    0.47902   0.40770   -2.000
 7010.00    0.42890   0.40725   -2.000
 7011.00    0.38182   0.40686   -2.000
 7012.00    0.36615   0.40651   -2.000
 7013.00    0.37751   0.40636   -2.000
 7014.00    0.39456   0.40628   -2.000
 7015.00    0.39445   0.40627   -2.000
 7016.00    0.38287   0.40649   -2.000
 7017.00    0.38834   0.40657   -2.000
 7018.00    0.41519   0.40656   -2.000
 7019.00    0.44182   0.40669   -2.000
 7020.00    0.45948   0.40680   -2.000
 7021.00    0.47340   0.40689   -2.000
 7022.00    0.47288   0.40707   -2.000
 7023.00    0.43942   0.40739   -2.000
 7024.00    0.39074   0.40777   -2.000
 7025.00    0.36847   0.40806   -2.000
 7026.00    0.37565   0.40837   -2.000
 7027.00    0.38205   0.40862   -2.000
 7028.00    0.37786   0.40866   -2.000
 7029.00    0.37685   0.40872   -2.000
 7030.00    0.39134   0.40869   -2.000
 7031.00    0.42378   0.40867   -2.000
 7032.00    0.46215   0.40881   -2.000
 7033.00    0.48534   0.40898   -2.000
 7034.00    0.47723   0.40940   -2.000
 7035.00    0.43852   0.41007   -2.000
 7036.00    0.40356   0.41065   -2.000
 7037.00    0.41338   0.41139   -2.000
 7038.00    0.45685   0.41227   -2.000
 7039.00    0.48835   0.41285   -2.000
 7040.00    0.48413   0.41329   -2.000
 7041.00    0.44961   0.41373   -2.000
 7042.00    0.41178   0.41386   -2.000
 7043.00    0.39867   0.41371   -2.000
 7044.00    0.40712   0.41350   -2.000
 7045.00    0.41767   0.41303   -2.000
 7046.00    0.42859   0.41234   -2.000
 7047.00    0.44962   0.41159   -2.000
 7048.00    0.48291   0.41069   -2.000
 7049.00    0.52013   0.40982   -2.000
 7050.00    0.54348   0.40897   -2.000
 7051.00    0.53714   0.40821   -2.000
 7052.00    0.50323   0.40764   -2.000
 7053.00    0.45448   0.40716   -2.000
 7054.00    0.40062   0.40682   -2.000
 7055.00    0.35086   0.40656   -2.000
 7056.00    0.31916   0.40638   -2.000
 7057.00    0.31497   0.40629   -2.000
 7058.00    0.33111   0.40605   -2.000
 7059.00    0.35371   0.40593   -2.000
 7060.00    0.37618   0.40582   -2.000
 7061.00    0.39587   0.40546   -2.000
 7062.00    0.40822   0.40524   -2.000
 7063.00    0.41003   0.40509   -2.000
 7064.00    0.40362   0.40485   -2.000
 7065.00    0.39397   0.40484   -2.000
 7066.00    0.38537   0.40494   -2.000
 7067.00    0.38557   0.40510   -2.000
 7068.00    0.40854   0.40548   -2.000
 7069.00    0.45241   0.40579   -2.000
 7070.00    0.48065   0.40604   -2.000
 7071.00    0.46129   0.40628   -2.000
 7072.00    0.40469   0.40630   -2.000
 7073.00    0.34505   0.40611   -2.000
 7074.00    0.31754   0.40570   -2.000
 7075.00    0.33524   0.40500   -2.000
 7076.00    0.37352   0.40416   -2.000
 7077.00    0.40110   0.40298   -2.000
 7078.00    0.40727   0.40160   -2.000
 7079.00    0.39901   0.40022   -2.000
 7080.00    0.39420   0.39867   -2.000
 7081.00    0.40055   0.39725   -2.000
 7082.00    0.40242   0.39599   -2.000
 7083.00    0.38597   0.39481   -2.000
 7084.00    0.35719   0.39402   -2.000
 7085.00    0.33025   0.39337   -2.000
 7086.00    0.31788   0.39284   -2.000
 7087.00    0.32905   0.39269   -2.000
 7088.00    0.36573   0.39258   -2.000
 7089.00    0.40948   0.39268   -2.000
 7090.00    0.42097   0.39301   -2.000
 7091.00    0.39285   0.39334   -2.000
 7092.00    0.37161   0.39397   -2.000
 7093.00    0.38399   0.39463   -2.000
 7094.00    0.40132   0.39534   -2.000
 7095.00    0.39978   0.39612   -2.000
 7096.00    0.39124   0.39672   -2.000
 7097.00    0.39150   0.39734   -2.000
 7098.00    0.40310   0.39776   -2.000
 7099.00    0.42426   0.39795   -2.000
 7100.00    0.45300   0.39800   -2.000
 7101.00    0.48227   0.39782   -2.000
 7102.00    0.49919   0.39751   -2.000
 7103.00    0.49403   0.39705   -2.000
 7104.00    0.46471   0.39651   -2.000
 7105.00    0.41673   0.39593   -2.000
 7106.00    0.36379   0.39541   -2.000
 7107.00    0.33044   0.39502   -2.000
 7108.00    0.34303   0.39464   -2.000
 7109.00    0.38713   0.39440   -2.000
 7110.00    0.40881   0.39434   -2.000
 7111.00    0.39324   0.39432   -2.000
 7112.00    0.37949   0.39429   -2.000
 7113.00    0.39069   0.39430   -2.000
 7114.00    0.41278   0.39433   -2.000
 7115.00    0.42116   0.39425   -2.000
 7116.00    0.40006   0.39418   -2.000
 7117.00    0.37245   0.39410   -2.000
 7118.00    0.38859   0.39399   -2.000
 7119.00    0.45204   0.39396   -2.000
 7120.00    0.51428   0.39376   -2.000
 7121.00    0.54134   0.39363   -2.000
 7122.00    0.53215   0.39361   -2.000
 7123.00    0.50449   0.39336   -2.000
 7124.00    0.48202   0.39321   -2.000
 7125.00    0.47025   0.39319   -2.000
 7126.00    0.45676   0.39316   -2.000
 7127.00    0.43242   0.39340   -2.000
 7128.00    0.40104   0.39367   -2.000
 7129.00    0.38721   0.39403   -2.000
 7130.00    0.41745   0.39470   -2.000
 7131.00    0.46695   0.39524   -2.000
 7132.00    0.48005   0.39569   -2.000
 7133.00    0.45507   0.39616   -2.000
 7134.00    0.43574   0.39640   -2.000
 7135.00    0.43915   0.39648   -2.000
 7136.00    0.44874   0.39644   -2.000
 7137.00    0.43983   0.39613   -2.000
 7138.00    0.40275   0.39565   -2.000
 7139.00    0.37788   0.39524   -2.000
 7140.00    0.41595   0.39463   -2.000
 7141.00    0.48121   0.39388   -2.000
 7142.00    0.49233   0.39341   -2.000
 7143.00    0.44414   0.39298   -2.000
 7144.00    0.39084   0.39268   -2.000
 7145.00    0.36595   0.39274   -2.000
 7146.00    0.37365   0.39289   -2.000
 7147.00    0.40255   0.39339   -2.000
 7148.00    0.43302   0.39405   -2.000
 7149.00    0.44588   0.39458   -2.000
 7150.00    0.43066   0.39523   -2.000
 7151.00    0.39650   0.39575   -2.000
 7152.00    0.36266   0.39605   -2.000
 7153.00    0.34047   0.39612   -2.000
 7154.00    0.33620   0.39591   -2.000
 7155.00    0.35926   0.39566   -2.000
 7156.00    0.40555   0.39514   -2.000
 7157.00    0.43353   0.39443   -2.000
 7158.00    0.40713   0.39383   -2.000
 7159.00    0.35879   0.39330   -2.000
 7160.00    0.33930   0.39295   -2.000
 7161.00    0.33969   0.39288   -2.000
 7162.00    0.32693   0.39304   -2.000
 7163.00    0.30347   0.39350   -2.000
 7164.00    0.29839   0.39425   -2.000
 7165.00    0.34351   0.39509   -2.000
 7166.00    0.42999   0.39584   -2.000
 7167.00    0.46756   0.39656   -2.000
 7168.00    0.39173   0.39710   -2.000
 7169.00    0.28315   0.39728   -2.000
 7170.00    0.24327   0.39725   -2.000
 7171.00    0.24971   0.39698   -2.000
 7172.00    0.24467   0.39645   -2.000
 7173.00    0.24085   0.39582   -2.000
 7174.00    0.27389   0.39501   -2.000
 7175.00    0.34287   0.39424   -2.000
 7176.00    0.40809   0.39360   -2.000
 7177.00    0.40238   0.39286   -2.000
 7178.00    0.31296   0.39220   -2.000
 7179.00    0.24285   0.39168   -2.000
 7180.00    0.27038   0.39111   -2.000
 7181.00    0.33175   0.39066   -2.000
 7182.00    0.34925   0.39021   -2.000
 7183.00    0.34161   0.38972   -2.000
 7184.00    0.34888   0.38952   -2.000
 7185.00    0.36658   0.38932   -2.000
 7186.00    0.37558   0.38916   -2.000
 7187.00    0.36956   0.38931   -2.000
 7188.00    0.35578   0.38954   -2.000
 7189.00    0.35190   0.38987   -2.000
 7190.00    0.36934   0.39025   -2.000
 7191.00    0.40214   0.39065   -2.000
 7192.00    0.43354   0.39104   -2.000
 7193.00    0.44231   0.39145   -2.000
 7194.00    0.40999   0.39173   -2.000
 7195.00    0.32992   0.39176   -2.000
 7196.00    0.23397   0.39190   -2.000
 7197.00    0.19452   0.39189   -2.000
 7198.00    0.23208   0.39162   -2.000
 7199.00    0.27808   0.39134   -2.000
 7200.00    0.29399   0.39079   -2.000
 7201.00    0.32317   0.39036   -2.000
 7202.00    0.37813   0.39005   -2.000
 7203.00    0.39706   0.38961   -2.000
 7204.00    0.36235   0.38948   -2.000
 7205.00    0.33912   0.38944   -2.000
 7206.00    0.33557   0.38955   -2.000
 7207.00    0.26734   0.38991   -2.000
 7208.00    0.14389   0.39016   -2.000
 7209.00    0.11290   0.39053   -2.000
 7210.00    0.22844   0.39094   -2.000
 7211.00    0.37514   0.39119   -2.000
 7212.00    0.43333   0.39139   -2.000
 7213.00    0.36540   0.39151   -2.000
 7214.00    0.24974   0.39153   -2.000
 7215.00    0.23909   0.39153   -2.000
 7216.00    0.33868   0.39153   -2.000
 7217.00    0.38303   0.39150   -2.000
 7218.00    0.30782   0.39158   -2.000
