###################################################################
## OUTPUT of StarlightChains_v04.for    [Cid@UFSC - 01/Apr/2007] ##
###################################################################

## Some input info
2005bz.txt                               [arq_obs]
Base.CB07.vall.4m                        [arq_base]
Masks.EmLines.NEW.gm                     [arq_masks]
StCv04.C11.config                        [arq_config]
   66                                    [N_base]
    0                                    [N_YAV_components = # of components with extra extinction!]
    0                                    [i_FitPowerLaw (1/0 = Yes/No)]
-9.99                                    [alpha_PowerLaw]
CCM                                      [red_law_option]
 1.458241                                [q_norm = A(l_norm)/A(V)]

## (Re)Sampling Parameters
 3741.00                                 [l_ini (A)]
 7218.00                                 [l_fin (A)]
    1.00                                 [dl    (A)]     (OBS: dl_cushion =    50.00 A)

## Normalization info
 4020.00                                 [l_norm (A) - for base]
 4010.00                                 [llow_norm (A) - window for f_obs]
 4060.00                                 [lupp_norm (A) - window for f_obs]
1.016248E-16                             [fobs_norm (in input units)]

## S/N
 3691.00                                 [llow_SN (A) - window for S/N]
 7268.00                                 [lupp_SN (A) - window for S/N]
   3.998                                 [S/N in S/N window]
   6.266                                 [S/N in norm. window]
   9.437                                 [S/N_err in S/N window]
  14.791                                 [S/N_err in norm. window]
  1.0000                                 [fscale_chi2]

## etc...
    -2007297                             [idum_orig]
  2384                                   [NOl_eff]
  2379                                   [Nl_eff]
     5    NSIGMA                         [Ntot_cliped & clip_method]
  1319640                                [Nglobal_steps]
   7                                     [N_chains]
  24                                     [NEX0s_base = N_base in EX0s-fits]
 0   0   1        2   2.0   2.512E+01    [Clip-Bug, RC-Crash & Burn-In warning-flags, n_censored_weights, wei_nsig_threshold & wei_limit]
    12     11.678     11.184      0.493  [idt_all, wdt_TotTime, wdt_UsrTime & wdt_SysTime (sec)]

## Synthesis Results - Best model ##

 4.26574E-01                             [chi2/Nl_eff]
     5.30373                             [adev (%)]

    97.35520                             [sum-of-x (%)]
 1.01362E-16                             [Flux_tot (units of input spectrum!)]
 2.58032E-13                             [Mini_tot (???)]
 1.48071E-13                             [Mcor_tot (???)]

   4.66                                  [v0_min  (km/s)]
 302.44                                  [vd_min  (km/s)]
 0.0180                                  [AV_min  (mag)]
 0.0000                                  [YAV_min (mag)]

# j     x_j(%)      Mini_j(%)     Mcor_j(%)     age_j(yr)     Z_j      (L/M)_j    YAV?  Mstars   component_j        a/Fe...       SSP_chi2r SSP_adev(%)   SSP_AV   SSP_x(%)
  1      0.0000     0.0000E+00    0.0000E+00    1.000000E+06  0.00400  1.094E-02    0   1.0000   age020_m42            0.0000     8.7468E-01     7.1240   2.0910    79.9488
  2      0.0000     0.0000E+00    0.0000E+00    3.160000E+06  0.00400  4.007E-02    0   0.9999   age045_m42            0.0000     6.1314E-01     6.2773   1.3008    88.1753
  3      0.0000     0.0000E+00    0.0000E+00    5.010000E+06  0.00400  2.539E-02    0   0.9488   age055_m42            0.0000     6.8452E-01     6.5111   1.6458    84.9676
  4      1.4458     2.2267E-02    3.5776E-02    6.610000E+06  0.00400  2.620E-02    0   0.9220   age061_m42            0.0000     5.7851E-01     6.1200   1.2195    88.7066
  5      0.0000     0.0000E+00    0.0000E+00    1.000000E+07  0.00400  1.322E-02    0   0.8862   age070_m42            0.0000     5.0618E-01     5.6002   0.9488    90.2011
  6      0.0000     0.0000E+00    0.0000E+00    1.445000E+07  0.00400  7.883E-03    0   0.8571   age078_m42            0.0000     5.7446E-01     5.8697   1.2918    87.2120
  7      5.3036     4.0754E-01    5.8051E-01    2.512000E+07  0.00400  5.251E-03    0   0.8174   age090_m42            0.0000     4.9192E-01     5.5076   0.8161    90.8540
  8      0.0050     5.5345E-04    7.5720E-04    4.000000E+07  0.00400  3.649E-03    0   0.7851   age104_m42            0.0000     4.6752E-01     5.4305   0.5776    92.1083
  9      0.0000     0.0000E+00    0.0000E+00    5.500000E+07  0.00400  3.098E-03    0   0.7629   age110_m42            0.0000     4.8317E-01     5.6070   0.7153    92.7912
 10      0.0000     0.0000E+00    0.0000E+00    1.015200E+08  0.00400  2.228E-03    0   0.7207   age116_m42            0.0000     5.1532E-01     5.7952   0.7221    93.5498
 11      0.0042     1.5583E-03    1.8053E-03    2.861200E+08  0.00400  1.093E-03    0   0.6648   age125_m42            0.0000     4.9235E-01     5.6650   0.1374    97.1201
 12      0.0000     0.0000E+00    0.0000E+00    5.088000E+08  0.00400  6.597E-04    0   0.6365   age130_m42            0.0000     5.8005E-01     6.0589   0.1126    98.5980
 13     28.9945     5.4875E+01    5.5444E+01    1.434000E+09  0.00400  2.132E-04    0   0.5798   age139_m42            0.0000     6.1649E-01     6.3754  -0.8622   100.7733
 14      0.0000     0.0000E+00    0.0000E+00    4.250000E+09  0.00400  5.895E-05    0   0.5377   age158_m42            0.0000     1.0520E+00     7.6213  -1.0000    85.8156
 15      0.0000     0.0000E+00    0.0000E+00    7.500000E+09  0.00400  3.510E-05    0   0.5212   age171_m42            0.0000     1.6273E+00     9.2929  -1.0000    78.8294
 16      0.0000     0.0000E+00    0.0000E+00    1.300000E+10  0.00400  2.005E-05    0   0.5034   age193_m42            0.0000     2.2885E+00    11.1100  -1.0000    72.9960
 17      0.0000     0.0000E+00    0.0000E+00    1.800000E+10  0.00400  1.525E-05    0   0.4967   age213_m42            0.0000     2.3495E+00    11.3476  -1.0000    71.9332
 18      2.7689     9.0247E-02    1.5727E-01    1.000000E+06  0.00800  1.238E-02    0   1.0000   age020_m52            0.0000     8.7453E-01     7.1268   2.0879    80.0871
 19      0.0000     0.0000E+00    0.0000E+00    3.160000E+06  0.00800  3.074E-02    0   0.9966   age045_m52            0.0000     8.4454E-01     7.0587   2.0043    81.0634
 20      0.0000     0.0000E+00    0.0000E+00    5.010000E+06  0.00800  2.668E-02    0   0.9443   age055_m52            0.0000     7.1339E-01     6.5959   1.7367    83.8617
 21      0.0000     0.0000E+00    0.0000E+00    6.610000E+06  0.00800  2.136E-02    0   0.9177   age061_m52            0.0000     5.4628E-01     5.6849   0.4651    90.5268
 22      3.0895     1.0260E-01    1.5782E-01    1.000000E+07  0.00800  1.215E-02    0   0.8827   age070_m52            0.0000     5.4618E-01     5.7229   1.1405    89.4643
 23      4.1127     1.9037E-01    2.8371E-01    1.445000E+07  0.00800  8.717E-03    0   0.8552   age078_m52            0.0000     5.4986E-01     5.7772   1.2514    88.6726
 24      3.4894     2.5178E-01    3.5812E-01    2.512000E+07  0.00800  5.592E-03    0   0.8162   age090_m52            0.0000     4.8593E-01     5.4918   0.8751    92.1463
 25      0.0008     8.6309E-05    1.1793E-04    4.000000E+07  0.00800  3.896E-03    0   0.7841   age104_m52            0.0000     4.6647E-01     5.4685   0.7737    93.4820
 26      9.1188     1.7129E+00    2.1570E+00    1.015200E+08  0.00800  2.148E-03    0   0.7226   age116_m52            0.0000     4.7643E-01     5.5950   0.6938    94.1284
 27      0.0000     0.0000E+00    0.0000E+00    2.861200E+08  0.00800  9.925E-04    0   0.6683   age125_m52            0.0000     5.8475E-01     6.0455   0.1758    99.5909
 28      0.0000     0.0000E+00    0.0000E+00    9.047900E+08  0.00800  3.141E-04    0   0.6138   age135_m52            0.0000     7.8111E-01     7.0522  -0.6381   104.5030
 29      0.0000     0.0000E+00    0.0000E+00    1.434000E+09  0.00800  1.719E-04    0   0.5853   age139_m52            0.0000     8.9962E-01     7.2344  -1.0000    93.9214
 30      0.0000     0.0000E+00    0.0000E+00    2.500000E+09  0.00800  7.872E-05    0   0.5600   age150_m52            0.0000     1.6667E+00     9.3782  -1.0000    81.7846
 31      0.0000     0.0000E+00    0.0000E+00    4.250000E+09  0.00800  4.336E-05    0   0.5426   age158_m52            0.0000     1.7286E+00     9.4803  -1.0000    80.4657
 32      0.0000     0.0000E+00    0.0000E+00    6.250000E+09  0.00800  3.159E-05    0   0.5319   age166_m52            0.0000     2.6036E+00    11.6769  -1.0000    73.7227
 33      1.0505     3.1143E+01    2.7532E+01    1.300000E+10  0.00800  1.361E-05    0   0.5073   age193_m52            0.0000     5.0263E+00    16.9772  -1.0000    59.0683
 34      0.0000     0.0000E+00    0.0000E+00    1.800000E+10  0.00800  9.886E-06    0   0.4990   age213_m52            0.0000     5.7701E+00    18.1382  -1.0000    55.8463
 35      0.0000     0.0000E+00    0.0000E+00    1.000000E+06  0.02000  1.544E-02    0   1.0000   age020_m62            0.0000     8.8049E-01     7.1509   2.0851    80.2245
 36      0.0000     0.0000E+00    0.0000E+00    3.160000E+06  0.02000  3.762E-02    0   0.9858   age045_m62            0.0000     8.6958E-01     7.1580   2.0207    81.0545
 37      0.0000     0.0000E+00    0.0000E+00    5.010000E+06  0.02000  3.296E-02    0   0.9342   age055_m62            0.0000     6.5019E-01     6.4503   1.5899    86.6635
 38     13.9689     4.8843E-01    7.5420E-01    8.710000E+06  0.02000  1.154E-02    0   0.8861   age067_m62            0.0000     9.3671E-01     7.2110   0.6287    90.3415
 39      0.0000     0.0000E+00    0.0000E+00    1.445000E+07  0.02000  7.663E-03    0   0.8472   age078_m62            0.0000     6.0183E-01     5.8735   0.7938    91.2239
 40      0.0000     0.0000E+00    0.0000E+00    2.512000E+07  0.02000  4.532E-03    0   0.8099   age090_m62            0.0000     5.9540E-01     5.8972   0.7788    91.3064
 41      0.0006     8.3069E-05    1.0994E-04    5.500000E+07  0.02000  2.733E-03    0   0.7595   age110_m62            0.0000     4.7202E-01     5.4801   0.7608    92.6040
 42      0.0002     5.2983E-05    6.4493E-05    1.609000E+08  0.02000  1.369E-03    0   0.6985   age120_m62            0.0000     5.2337E-01     5.7669   0.5577    97.0660
 43     23.8447     1.0675E+01    1.2490E+01    2.861200E+08  0.02000  9.013E-04    0   0.6714   age125_m62            0.0000     6.4852E-01     6.2316   0.2824   101.0389
 44      0.0000     0.0000E+00    0.0000E+00    5.088000E+08  0.02000  5.028E-04    0   0.6449   age130_m62            0.0000     8.4484E-01     7.1745  -0.1115   104.4878
 45      0.0000     0.0000E+00    0.0000E+00    9.047900E+08  0.02000  2.428E-04    0   0.6179   age135_m62            0.0000     8.7086E-01     7.4518  -0.6843   103.2197
 46      0.0000     0.0000E+00    0.0000E+00    1.434000E+09  0.02000  1.263E-04    0   0.5908   age139_m62            0.0000     9.9663E-01     7.6409  -1.0000    96.6849
 47      0.0000     0.0000E+00    0.0000E+00    2.500000E+09  0.02000  5.985E-05    0   0.5673   age150_m62            0.0000     1.9057E+00     9.8542  -1.0000    82.1100
 48      0.0000     0.0000E+00    0.0000E+00    4.250000E+09  0.02000  3.271E-05    0   0.5468   age158_m62            0.0000     3.2762E+00    12.9999  -1.0000    71.2582
 49      0.0000     0.0000E+00    0.0000E+00    1.000000E+10  0.02000  1.360E-05    0   0.5167   age181_m62            0.0000     5.2633E+00    16.7869  -1.0000    60.4490
 50      0.0000     0.0000E+00    0.0000E+00    1.800000E+10  0.02000  7.124E-06    0   0.5013   age213_m62            0.0000     6.5989E+00    18.9817  -1.0000    54.2685
 51      0.0000     0.0000E+00    0.0000E+00    1.000000E+06  0.05000  2.592E-02    0   0.9998   age020_m72            0.0000     9.0859E-01     7.2155   2.0820    80.0319
 52      0.0000     0.0000E+00    0.0000E+00    3.160000E+06  0.05000  4.845E-02    0   0.9577   age045_m72            0.0000     7.8031E-01     6.9255   1.8810    83.0373
 53      0.0000     0.0000E+00    0.0000E+00    5.010000E+06  0.05000  3.072E-02    0   0.9147   age055_m72            0.0000     6.7956E-01     6.2844   1.3949    87.0804
 54      0.0000     0.0000E+00    0.0000E+00    6.610000E+06  0.05000  1.455E-02    0   0.8877   age061_m72            0.0000     1.4709E+00     9.2760   0.6837    90.7336
 55      0.0000     0.0000E+00    0.0000E+00    1.000000E+07  0.05000  9.074E-03    0   0.8524   age070_m72            0.0000     7.9037E-01     6.8708   1.5786    86.8566
 56      0.0000     0.0000E+00    0.0000E+00    2.512000E+07  0.05000  4.250E-03    0   0.7902   age090_m72            0.0000     6.0317E-01     6.1341   1.2447    89.9340
 57      0.0000     0.0000E+00    0.0000E+00    4.000000E+07  0.05000  3.087E-03    0   0.7618   age104_m72            0.0000     5.7080E-01     6.0230   1.0011    92.1372
 58      0.1534     3.6421E-02    4.5037E-02    1.015200E+08  0.05000  1.700E-03    0   0.7096   age116_m72            0.0000     4.9936E-01     5.6512   0.7057    96.4111
 59      0.0037     2.0470E-03    2.3660E-03    2.861200E+08  0.05000  7.384E-04    0   0.6633   age125_m72            0.0000     7.5846E-01     6.7342   0.1397   102.9241
 60      0.0000     0.0000E+00    0.0000E+00    5.088000E+08  0.05000  3.819E-04    0   0.6372   age130_m72            0.0000     8.6258E-01     7.4321  -0.3543   104.6483
 61      0.0000     0.0000E+00    0.0000E+00    9.047900E+08  0.05000  1.676E-04    0   0.6110   age135_m72            0.0000     1.1608E+00     8.5241  -1.0000   100.6167
 62      0.0000     0.0000E+00    0.0000E+00    1.434000E+09  0.05000  8.837E-05    0   0.5874   age139_m72            0.0000     2.0073E+00    10.0769  -1.0000    83.3146
 63      0.0000     0.0000E+00    0.0000E+00    2.500000E+09  0.05000  4.233E-05    0   0.5598   age150_m72            0.0000     3.4014E+00    13.1589  -1.0000    71.8456
 64      0.0000     0.0000E+00    0.0000E+00    6.250000E+09  0.05000  1.435E-05    0   0.5249   age166_m72            0.0000     5.8225E+00    17.8424  -1.0000    57.5026
 65      0.0000     0.0000E+00    0.0000E+00    1.300000E+10  0.05000  6.513E-06    0   0.5036   age193_m72            0.0000     7.6196E+00    20.7582  -1.0000    50.7114
 66      0.0000     0.0000E+00    0.0000E+00    1.800000E+10  0.05000  4.527E-06    0   0.4945   age213_m72            0.0000     8.6703E+00    22.3843  -1.0000    46.7624


## Synthesis Results - Average & Chains ##

# j      x_j: min, <> & last-chain-values for 1 ...  7 chains
  1      0.0000      0.4325      0.0000      0.6840      4.9128      0.2557      0.0000      0.0000      0.0000
  2      0.0000      0.6731      4.4657      0.0000      0.0000      0.0000      0.0000      0.2788      2.1813
  3      0.0000      0.3045      0.2697      0.0000      1.6077      0.0000      0.0000      0.0000      0.0000
  4      1.4458      0.5163      0.7109      0.0000      0.0000      1.4149      0.6314      5.0277      0.0000
  5      0.0000      0.8452      0.0000      4.6502      0.0000      0.8574      0.0000      0.9730      1.1979
  6      0.0000      0.4835      0.0000      0.0000      0.0000      3.0858      0.0000      0.0000      0.9159
  7      5.3036      1.8618      3.1516      1.9709      0.6733      0.2036      2.2040      0.0000      0.8382
  8      0.0050      4.0557      4.2512      4.0921     10.3757      3.9233      6.8192      3.0082      9.2154
  9      0.0000      0.9604      0.0000      0.5223      0.0000      1.4872      0.0000      0.0548      0.0000
 10      0.0000      0.7328      0.0000      0.0000      0.0000      0.0000      0.0000      0.0000      0.1865
 11      0.0042      5.1159      3.3293      4.2511      9.2002      4.9044      1.5274      0.0000      0.0000
 12      0.0000      4.1460      1.6626      0.0000      0.0000      2.2906      0.0000      0.0000      1.0056
 13     28.9945      3.3056      1.5585      3.4769      4.0982      4.2737      4.1247      4.7067      3.8219
 14      0.0000      0.0845      0.0000      0.0000      0.0000      0.0000      0.1454      0.0885      0.0000
 15      0.0000      0.1476      0.3009      0.6840      0.5045      0.4729      0.0000      0.9215      0.0000
 16      0.0000      0.1664      0.4309      0.0000      1.1336      0.0950      0.4440      0.0000      0.7011
 17      0.0000      0.0838      0.0000      0.0000      0.0000      0.0000      0.0000      0.0000      0.7169
 18      2.7689      0.1872      0.0000      0.0000      0.3216      0.6564      0.6215      0.0000      0.0000
 19      0.0000      0.2045      0.0000      0.0000      0.0000      0.0000      0.0000      0.0000      0.0000
 20      0.0000      0.1710      0.0000      0.0000      0.3169      0.0000      0.0000      0.0000      0.0000
 21      0.0000      3.5084      3.7329      5.9178      1.3551      0.0000      4.3536      0.4690      4.0798
 22      3.0895      0.4912      0.0000      1.3036      0.0000      0.0000      1.0800      0.0000      2.4150
 23      4.1127      0.5226      0.0000      0.1051      2.4934      0.0000      2.6245      0.0000      0.0000
 24      3.4894      0.7276      0.0000      0.0000      0.1165      0.0000      2.2846      0.0000      0.0000
 25      0.0008      1.3431      1.7017      3.2637      0.0000      0.0000      0.7796      0.5854      0.0000
 26      9.1188      2.1830      0.0000      1.6483      0.0000      4.5415      4.2433      6.7097      0.0000
 27      0.0000      3.3170      0.0000      0.0000      0.0000      9.9740      6.2349      3.1924      0.0000
 28      0.0000      1.7154      5.4407      0.0000      0.0000      1.3943      0.0000      4.6559      1.9261
 29      0.0000      1.0922      1.6226      2.0403      3.0133      2.0948      0.0000      3.6884      1.2431
 30      0.0000      0.5557      1.1759      0.0000      0.0000      0.7960      0.7716      0.0000      0.3977
 31      0.0000      0.0859      0.0000      0.0000      1.2048      0.0000      0.0000      0.0000      0.0000
 32      0.0000      0.1127      0.0000      0.8224      0.0000      0.0000      0.0000      0.0000      0.0000
 33      1.0505      0.1585      0.4064      0.1514      0.7056      0.0000      0.8070      0.0000      0.0000
 34      0.0000      0.0335      0.0000      0.0000      0.0000      0.0000      0.4475      0.0000      0.0000
 35      0.0000      0.2360      0.0000      0.2378      0.0000      0.0000      0.0000      1.2478      0.0000
 36      0.0000      0.1561      0.0000      0.0000      0.0679      1.8243      0.0000      0.0000      0.0000
 37      0.0000      0.2517      0.0000      0.0300      0.0000      0.0000      0.0000      1.9583      0.0000
 38     13.9689     16.2449     20.2195     15.5608     11.4084     20.3322     15.6866     14.3899     16.9213
 39      0.0000      0.8969      2.5654      0.0000      0.0000      0.0000      0.0000      0.8778      0.9531
 40      0.0000      0.9398      0.0000      0.0000      0.0000      0.0000      0.2961      1.4362      0.0000
 41      0.0006      1.0325      0.5237      0.0000      0.0000      0.3417      2.1359      0.0000      0.0000
 42      0.0002      2.2040      0.9890      1.5287      8.7944      2.5544      2.4529      0.0000      3.8341
 43     23.8447     19.3852     26.2508     35.4315     28.1741     19.5586     22.5657     30.9523     26.2029
 44      0.0000      3.0352      5.4997      0.0000      0.0000      2.6158      0.0000      0.0000      0.0000
 45      0.0000      0.6115      0.0000      0.0000      0.0000      0.0000      0.0000      1.3045      0.0000
 46      0.0000      0.5200      0.0000      0.4936      0.9501      1.9075      1.4839      0.6859      1.4382
 47      0.0000      0.4657      0.0000      0.0856      0.0000      0.0000      0.2570      1.3829      0.9372
 48      0.0000      0.2354      0.8334      1.1536      0.0000      0.0000      0.6696      0.0000      0.0000
 49      0.0000      0.0316      0.0000      0.0000      0.0000      0.0000      0.0000      0.0000      0.0000
 50      0.0000      0.0111      0.0000      0.0000      0.0000      0.0000      0.0000      0.0000      0.0000
 51      0.0000      0.3817      0.8345      1.5027      1.2506      0.0930      0.0000      3.6944      0.0000
 52      0.0000      0.3374      0.0000      0.0000      0.1880      1.8779      0.0000      0.0000      0.0000
 53      0.0000      0.2864      0.0000      1.3739      0.0000      0.0000      0.0000      1.5498      0.0000
 54      0.0000      0.5251      0.0000      0.1294      0.0000      0.0000      0.0000      0.0000      0.0000
 55      0.0000      0.1377      0.0000      0.0000      0.0000      0.0000      0.0000      0.0000      0.0000
 56      0.0000      0.2724      0.0000      0.7920      0.9113      0.0000      0.0000      0.0000      0.0000
 57      0.0000      0.4975      0.0000      0.0000      0.0000      0.0000      0.0000      0.0000      0.0000
 58      0.1534      3.0528      2.8992      0.0000      2.5962      0.0000      6.7008      2.9067     12.6496
 59      0.0037      2.5927      0.0000      0.0000      0.0000      1.3213      4.0509      0.0000      1.8399
 60      0.0000      1.7638      1.5080      2.4001      0.0000      1.6946      0.4481      0.2819      0.0000
 61      0.0000      0.2868      0.4685      0.2606      0.0000      0.0000      0.0000      0.0000      1.2891
 62      0.0000      0.0651      0.5354      0.0000      0.0000      0.0000      0.0000      0.0000      0.0000
 63      0.0000      0.0497      0.0000      0.0000      0.0000      0.0000      0.0000      0.0000      0.0000
 64      0.0000      0.0201      0.0000      0.0000      0.0000      0.0000      0.0000      0.0000      0.0000
 65      0.0000      0.0599      0.0000      0.0000      0.0000      0.2149      0.0000      0.0000      0.0000
 66      0.0000      0.0374      0.0000      0.0000      0.0000      0.0000      0.0000      0.0000      0.0000

# j      m_j: min, <> & last-chain-values for 1 ...  7 chains
  1  0.0000E+00  3.6953E-02  0.0000E+00  5.7950E-02  3.2160E-01  2.2851E-02  0.0000E+00  0.0000E+00  0.0000E+00
  2  0.0000E+00  1.5699E-02  9.5301E-02  0.0000E+00  0.0000E+00  0.0000E+00  0.0000E+00  6.9188E-03  4.6914E-02
  3  0.0000E+00  1.0636E-02  8.6187E-03  0.0000E+00  4.3025E-02  0.0000E+00  0.0000E+00  0.0000E+00  0.0000E+00
  4  3.5776E-02  1.6981E-02  2.1396E-02  0.0000E+00  0.0000E+00  4.8685E-02  1.5989E-02  1.7594E-01  0.0000E+00
  5  0.0000E+00  5.2953E-02  0.0000E+00  2.8892E-01  0.0000E+00  5.6199E-02  0.0000E+00  6.4861E-02  6.9211E-02
  6  0.0000E+00  4.9137E-02  0.0000E+00  0.0000E+00  0.0000E+00  3.2806E-01  0.0000E+00  0.0000E+00  8.5834E-02
  7  5.8051E-01  2.7087E-01  4.1955E-01  2.8436E-01  7.5056E-02  3.0982E-02  2.4689E-01  0.0000E+00  1.1246E-01
  8  7.5720E-04  8.1559E-01  7.8223E-01  8.1603E-01  1.5987E+00  8.2536E-01  1.0558E+00  6.4360E-01  1.7089E+00
  9  0.0000E+00  2.2106E-01  0.0000E+00  1.1922E-01  0.0000E+00  3.5809E-01  0.0000E+00  1.3430E-02  0.0000E+00
 10  0.0000E+00  2.2155E-01  0.0000E+00  0.0000E+00  0.0000E+00  0.0000E+00  0.0000E+00  0.0000E+00  5.1994E-02
 11  1.8053E-03  2.9083E+00  1.7318E+00  2.3965E+00  4.0074E+00  2.9167E+00  6.6854E-01  0.0000E+00  0.0000E+00
 12  0.0000E+00  3.7388E+00  1.3719E+00  0.0000E+00  0.0000E+00  2.1610E+00  0.0000E+00  0.0000E+00  8.3623E-01
 13  5.5444E+01  8.4021E+00  3.6246E+00  8.7638E+00  7.9814E+00  1.1364E+01  8.0722E+00  1.2728E+01  8.9582E+00
 14  0.0000E+00  7.2056E-01  0.0000E+00  0.0000E+00  0.0000E+00  0.0000E+00  9.5414E-01  8.0255E-01  0.0000E+00
 15  0.0000E+00  2.0479E+00  3.8213E+00  9.4144E+00  5.3648E+00  6.8658E+00  0.0000E+00  1.3607E+01  0.0000E+00
 16  0.0000E+00  3.9057E+00  9.2527E+00  0.0000E+00  2.0383E+01  2.3325E+00  8.0217E+00  0.0000E+00  1.5171E+01
 17  0.0000E+00  2.5512E+00  0.0000E+00  0.0000E+00  0.0000E+00  0.0000E+00  0.0000E+00  0.0000E+00  2.0125E+01
 18  1.5727E-01  1.4136E-02  0.0000E+00  0.0000E+00  1.8606E-02  5.1842E-02  3.6127E-02  0.0000E+00  0.0000E+00
 19  0.0000E+00  6.1955E-03  0.0000E+00  0.0000E+00  0.0000E+00  0.0000E+00  0.0000E+00  0.0000E+00  0.0000E+00
 20  0.0000E+00  5.6558E-03  0.0000E+00  0.0000E+00  8.0324E-03  0.0000E+00  0.0000E+00  0.0000E+00  0.0000E+00
 21  0.0000E+00  1.4088E-01  1.3716E-01  2.3565E-01  4.1693E-02  0.0000E+00  1.3460E-01  2.0039E-02  1.5107E-01
 22  1.5782E-01  3.3351E-02  0.0000E+00  8.7781E-02  0.0000E+00  0.0000E+00  5.6466E-02  0.0000E+00  1.5122E-01
 23  2.8371E-01  4.7924E-02  0.0000E+00  9.5600E-03  1.7518E-01  0.0000E+00  1.8529E-01  0.0000E+00  0.0000E+00
 24  3.5812E-01  9.9253E-02  0.0000E+00  0.0000E+00  1.2175E-02  0.0000E+00  2.3996E-01  0.0000E+00  0.0000E+00
 25  1.1793E-04  2.5264E-01  2.9289E-01  6.0879E-01  0.0000E+00  0.0000E+00  1.1290E-01  1.1716E-01  0.0000E+00
 26  2.1570E+00  6.8639E-01  0.0000E+00  5.1394E-01  0.0000E+00  1.4938E+00  1.0272E+00  2.2445E+00  0.0000E+00
 27  0.0000E+00  2.0876E+00  0.0000E+00  0.0000E+00  0.0000E+00  6.5668E+00  3.0212E+00  2.1376E+00  0.0000E+00
 28  0.0000E+00  3.1331E+00  9.0926E+00  0.0000E+00  0.0000E+00  2.6641E+00  0.0000E+00  9.0474E+00  3.2440E+00
 29  0.0000E+00  3.4757E+00  4.7247E+00  6.4388E+00  7.3476E+00  6.9740E+00  0.0000E+00  1.2488E+01  3.6480E+00
 30  0.0000E+00  3.6946E+00  7.1541E+00  0.0000E+00  0.0000E+00  5.5370E+00  3.9499E+00  0.0000E+00  2.4384E+00
 31  0.0000E+00  1.0047E+00  0.0000E+00  0.0000E+00  1.0797E+01  0.0000E+00  0.0000E+00  0.0000E+00  0.0000E+00
 32  0.0000E+00  1.7734E+00  0.0000E+00  1.2834E+01  0.0000E+00  0.0000E+00  0.0000E+00  0.0000E+00  0.0000E+00
 33  2.7532E+01  5.5204E+00  1.2955E+01  5.2288E+00  1.8836E+01  0.0000E+00  2.1646E+01  0.0000E+00  0.0000E+00
 34  0.0000E+00  1.5817E+00  0.0000E+00  0.0000E+00  0.0000E+00  0.0000E+00  1.6254E+01  0.0000E+00  0.0000E+00
 35  0.0000E+00  1.4286E-02  0.0000E+00  1.4276E-02  0.0000E+00  0.0000E+00  0.0000E+00  8.0365E-02  0.0000E+00
 36  0.0000E+00  3.8226E-03  0.0000E+00  0.0000E+00  1.2737E-03  4.6741E-02  0.0000E+00  0.0000E+00  0.0000E+00
 37  0.0000E+00  6.6674E-03  0.0000E+00  7.8684E-04  0.0000E+00  0.0000E+00  0.0000E+00  5.5194E-02  0.0000E+00
 38  7.5420E-01  1.1658E+00  1.3278E+00  1.1074E+00  6.2733E-01  1.5265E+00  8.6678E-01  1.0987E+00  1.1198E+00
 39  0.0000E+00  9.2682E-02  2.4256E-01  0.0000E+00  0.0000E+00  0.0000E+00  0.0000E+00  9.6509E-02  9.0821E-02
 40  0.0000E+00  1.5697E-01  0.0000E+00  0.0000E+00  0.0000E+00  0.0000E+00  3.8074E-02  2.5523E-01  0.0000E+00
 41  1.0994E-04  2.6819E-01  1.2447E-01  0.0000E+00  0.0000E+00  9.2857E-02  4.2715E-01  0.0000E+00  0.0000E+00
 42  6.4493E-05  1.0510E+00  4.3155E-01  7.2291E-01  3.2134E+00  1.2744E+00  9.0061E-01  0.0000E+00  1.6860E+00
 43  1.2490E+01  1.3497E+01  1.6723E+01  2.4463E+01  1.5030E+01  1.4246E+01  1.2097E+01  2.2928E+01  1.6823E+01
 44  0.0000E+00  3.6386E+00  6.0326E+00  0.0000E+00  0.0000E+00  3.2805E+00  0.0000E+00  0.0000E+00  0.0000E+00
 45  0.0000E+00  1.4546E+00  0.0000E+00  0.0000E+00  0.0000E+00  0.0000E+00  0.0000E+00  3.3012E+00  0.0000E+00
 46  0.0000E+00  2.2734E+00  0.0000E+00  2.1402E+00  3.1827E+00  8.7245E+00  4.9952E+00  3.1903E+00  5.7984E+00
 47  0.0000E+00  4.1257E+00  0.0000E+00  7.5179E-01  0.0000E+00  0.0000E+00  1.7529E+00  1.3035E+01  7.6568E+00
 48  0.0000E+00  3.6784E+00  1.1914E+01  1.7874E+01  0.0000E+00  0.0000E+00  8.0548E+00  0.0000E+00  0.0000E+00
 49  0.0000E+00  1.1204E+00  0.0000E+00  0.0000E+00  0.0000E+00  0.0000E+00  0.0000E+00  0.0000E+00  0.0000E+00
 50  0.0000E+00  7.2745E-01  0.0000E+00  0.0000E+00  0.0000E+00  0.0000E+00  0.0000E+00  0.0000E+00  0.0000E+00
 51  0.0000E+00  1.3759E-02  2.7527E-02  5.3723E-02  3.4547E-02  3.5082E-03  0.0000E+00  1.4171E-01  0.0000E+00
 52  0.0000E+00  6.2331E-03  0.0000E+00  0.0000E+00  2.6616E-03  3.6296E-02  0.0000E+00  0.0000E+00  0.0000E+00
 53  0.0000E+00  7.9703E-03  0.0000E+00  3.7915E-02  0.0000E+00  0.0000E+00  0.0000E+00  4.5889E-02  0.0000E+00
 54  0.0000E+00  2.9944E-02  0.0000E+00  7.3168E-03  0.0000E+00  0.0000E+00  0.0000E+00  0.0000E+00  0.0000E+00
 55  0.0000E+00  1.2094E-02  0.0000E+00  0.0000E+00  0.0000E+00  0.0000E+00  0.0000E+00  0.0000E+00  0.0000E+00
 56  0.0000E+00  4.7337E-02  0.0000E+00  1.3648E-01  1.2134E-01  0.0000E+00  0.0000E+00  0.0000E+00  0.0000E+00
 57  0.0000E+00  1.1475E-01  0.0000E+00  0.0000E+00  0.0000E+00  0.0000E+00  0.0000E+00  0.0000E+00  0.0000E+00
 58  4.5037E-02  1.1910E+00  1.0349E+00  0.0000E+00  7.7605E-01  0.0000E+00  2.0128E+00  1.2065E+00  4.5508E+00
 59  2.3660E-03  2.1768E+00  0.0000E+00  0.0000E+00  0.0000E+00  1.1606E+00  2.6186E+00  0.0000E+00  1.4245E+00
 60  0.0000E+00  2.7506E+00  2.1518E+00  3.7116E+00  0.0000E+00  2.7647E+00  5.3805E-01  4.6767E-01  0.0000E+00
 61  0.0000E+00  9.7714E-01  1.4607E+00  8.8052E-01  0.0000E+00  0.0000E+00  0.0000E+00  0.0000E+00  4.0505E+00
 62  0.0000E+00  4.0437E-01  3.0433E+00  0.0000E+00  0.0000E+00  0.0000E+00  0.0000E+00  0.0000E+00  0.0000E+00
 63  0.0000E+00  6.1396E-01  0.0000E+00  0.0000E+00  0.0000E+00  0.0000E+00  0.0000E+00  0.0000E+00  0.0000E+00
 64  0.0000E+00  6.8826E-01  0.0000E+00  0.0000E+00  0.0000E+00  0.0000E+00  0.0000E+00  0.0000E+00  0.0000E+00
 65  0.0000E+00  4.3317E+00  0.0000E+00  0.0000E+00  0.0000E+00  1.6245E+01  0.0000E+00  0.0000E+00  0.0000E+00
 66  0.0000E+00  3.8157E+00  0.0000E+00  0.0000E+00  0.0000E+00  0.0000E+00  0.0000E+00  0.0000E+00  0.0000E+00

# AV, chi2 & Mass for <> & i_chain = 1 ...  7 solutions
AV       0.0180      0.2315      0.1720      0.2390      0.2301      0.2149      0.2287      0.2169      0.2293
chi2 4.2657E-01  4.3739E-01  4.3553E-01  4.3580E-01  4.3528E-01  4.3627E-01  4.3520E-01  4.3551E-01  4.3521E-01
Mass 1.4807E-13  1.4839E-13  1.4972E-13  1.5115E-13  1.9329E-13  1.3871E-13  1.9199E-13  1.3676E-13  1.6043E-13
   4.66                                  [v0_min (km/s) before EX0s...]
 302.44                                  [vd_min (km/s) before EX0s...]


## Synthetic spectrum (Best Model) ##l_obs f_obs f_syn wei
 3478    [Nl_obs]
 3741.00    0.69489   0.65524    0.000
 3742.00    0.59523   0.65871    0.000
 3743.00    0.56035   0.65508    0.000
 3744.00    0.59467   0.64606    0.000
 3745.00    0.64350   0.63157   15.540
 3746.00    0.63781   0.61431   15.679
 3747.00    0.57570   0.59824   17.370
 3748.00    0.50802   0.58511   19.684
 3749.00    0.49015   0.57702   20.402
 3750.00    0.54790   0.57627   18.252
 3751.00    0.64041   0.58340   15.615
 3752.00    0.69745   0.59696   14.338
 3753.00    0.68113   0.61548   14.682
 3754.00    0.60592   0.63730   16.504
 3755.00    0.54843   0.65946   18.234
 3756.00    0.57129   0.68015   17.504
 3757.00    0.63308   0.69789   15.796
 3758.00    0.65862   0.71128   15.183
 3759.00    0.63143   0.72055   15.837
 3760.00    0.57599   0.72484   17.362
 3761.00    0.52539   0.72373   -1.000
 3762.00    0.49667   0.71855   -1.000
 3763.00    0.47318   0.70821   -1.000
 3764.00    0.44617   0.69295   -1.000
 3765.00    0.44916   0.67566   -1.000
 3766.00    0.49599   0.65614   20.162
 3767.00    0.53362   0.63576   18.740
 3768.00    0.53208   0.61920   18.794
 3769.00    0.54922   0.60752   18.208
 3770.00    0.62914   0.60125   15.895
 3771.00    0.72918   0.60364   13.714
 3772.00    0.78933   0.61449   12.669
 3773.00    0.78596   0.63189   12.723
 3774.00    0.73123   0.65549   13.676
 3775.00    0.66510   0.68313   15.035
 3776.00    0.62151   0.71222   16.090
 3777.00    0.60985   0.74134   16.397
 3778.00    0.63084   0.76832   15.852
 3779.00    0.68333   0.79185   14.634
 3780.00    0.74738   0.81154   13.380
 3781.00    0.78586   0.82650   12.725
 3782.00    0.79969   0.83614   12.505
 3783.00    0.83953   0.84082   11.911
 3784.00    0.92794   0.84094   10.777
 3785.00    1.02990   0.83613    9.710
 3786.00    1.08954   0.82681    9.178
 3787.00    1.06213   0.81377    9.415
 3788.00    0.97205   0.79679   10.287
 3789.00    0.90480   0.77609   11.052
 3790.00    0.88823   0.75217   11.258
 3791.00    0.87122   0.72521   11.478
 3792.00    0.81121   0.69626   12.327
 3793.00    0.70577   0.66683   14.169
 3794.00    0.58916   0.63795   16.973
 3795.00    0.51370   0.61238   19.467
 3796.00    0.49917   0.59328   20.033
 3797.00    0.52946   0.58147   18.887
 3798.00    0.58813   0.57828   17.003
 3799.00    0.66334   0.58529   15.075
 3800.00    0.73324   0.60119   13.638
 3801.00    0.77208   0.62385   12.952
 3802.00    0.77499   0.65184   12.903
 3803.00    0.76273   0.68270   13.111
 3804.00    0.77717   0.71395   12.867
 3805.00    0.84970   0.74425   11.769
 3806.00    0.93871   0.77197   10.653
 3807.00    0.96996   0.79639   10.310
 3808.00    0.94203   0.81753   10.615
 3809.00    0.90529   0.83449   11.046
 3810.00    0.88320   0.84728   11.322
 3811.00    0.87005   0.85677   11.494
 3812.00    0.85346   0.86238   11.717
 3813.00    0.82740   0.86425   12.086
 3814.00    0.80583   0.86412   12.410
 3815.00    0.80868   0.86171   12.366
 3816.00    0.83741   0.85650   11.942
 3817.00    0.87502   0.85086   11.428
 3818.00    0.89267   0.84508   11.202
 3819.00    0.87079   0.83759   11.484
 3820.00    0.82466   0.82973   12.126
 3821.00    0.79023   0.82172   12.655
 3822.00    0.80062   0.81214   12.490
 3823.00    0.86127   0.80091   11.611
 3824.00    0.92757   0.78737   10.781
 3825.00    0.94333   0.77097   10.601
 3826.00    0.88536   0.75155   11.295
 3827.00    0.77001   0.72897   12.987
 3828.00    0.65142   0.70323   15.351
 3829.00    0.58117   0.67476   17.207
 3830.00    0.57111   0.64555   17.510
 3831.00    0.59894   0.61642   16.696
 3832.00    0.62068   0.58871   16.111
 3833.00    0.61194   0.56645   16.341
 3834.00    0.59501   0.55046   16.806
 3835.00    0.59105   0.54162   16.919
 3836.00    0.58598   0.54307   17.065
 3837.00    0.56174   0.55345   17.802
 3838.00    0.52096   0.57141   19.195
 3839.00    0.49014   0.59726   20.402
 3840.00    0.51285   0.62751   19.499
 3841.00    0.60087   0.66006   16.642
 3842.00    0.71217   0.69404   14.042
 3843.00    0.80067   0.72641   12.489
 3844.00    0.84580   0.75642   11.823
 3845.00    0.84963   0.78371   11.770
 3846.00    0.83297   0.80698   12.005
 3847.00    0.82696   0.82673    0.000
 3848.00    0.85871   0.84375    0.000
 3849.00    0.90494   0.85737    0.000
 3850.00    0.89516   0.86789    0.000
 3851.00    0.81802   0.87702    0.000
 3852.00    0.74394   0.88401    0.000
 3853.00    0.72526   0.88843    0.000
 3854.00    0.76094   0.89260    0.000
 3855.00    0.82303   0.89566    0.000
 3856.00    0.87466   0.89686    0.000
 3857.00    0.89442   0.89892    0.000
 3858.00    0.88532   0.90118    0.000
 3859.00    0.87494   0.90233    0.000
 3860.00    0.89692   0.90422    0.000
 3861.00    0.93694   0.90669    0.000
 3862.00    0.94723   0.90819    0.000
 3863.00    0.93323   0.90952    0.000
 3864.00    0.94241   0.91022    0.000
 3865.00    0.97037   0.90962    0.000
 3866.00    0.97023   0.90836    0.000
 3867.00    0.93739   0.90551    0.000
 3868.00    0.90744   0.90143    0.000
 3869.00    0.90259   0.89652    0.000
 3870.00    0.91961   0.89039    0.000
 3871.00    0.93209   0.88350    0.000
 3872.00    0.90676   0.87536    0.000
 3873.00    0.83455   0.86653    0.000
 3874.00    0.73799   0.85697    0.000
 3875.00    0.67153   0.84529    0.000
 3876.00    0.68208   0.83243    0.000
 3877.00    0.74371   0.81801    0.000
 3878.00    0.79711   0.80042    0.000
 3879.00    0.82990   0.78091    0.000
 3880.00    0.85744   0.75932    0.000
 3881.00    0.87502   0.73453   11.428
 3882.00    0.86451   0.70731   11.567
 3883.00    0.81437   0.67865   12.279
 3884.00    0.73074   0.65002   13.685
 3885.00    0.64661   0.62206   15.465
 3886.00    0.59685   0.59683   16.755
 3887.00    0.58722   0.57808   17.029
 3888.00    0.60684   0.56604   16.479
 3889.00    0.64613   0.56168   15.477
 3890.00    0.69080   0.56714   14.476
 3891.00    0.71582   0.58063   13.970
 3892.00    0.71217   0.60047   14.042
 3893.00    0.71002   0.62566   14.084
 3894.00    0.73460   0.65365   13.613
 3895.00    0.76717   0.68234   13.035
 3896.00    0.78371   0.71067   12.760
 3897.00    0.78896   0.73739   12.675
 3898.00    0.79248   0.76180   12.619
 3899.00    0.78922   0.78357   12.671
 3900.00    0.77718   0.80267   12.867
 3901.00    0.77032   0.82041   12.982
 3902.00    0.78608   0.83576   12.721
 3903.00    0.83365   0.84913   11.995
 3904.00    0.89959   0.86250   11.116
 3905.00    0.94492   0.87408   10.583
 3906.00    0.94408   0.88464   10.592
 3907.00    0.90567   0.89517   11.042
 3908.00    0.85073   0.90413   11.755
 3909.00    0.79923   0.91215   12.512
 3910.00    0.76966   0.91861   12.993
 3911.00    0.77612   0.92341   12.885
 3912.00    0.81385   0.92725   12.287
 3913.00    0.85622   0.92879   11.679
 3914.00    0.87429   0.92906   11.438
 3915.00    0.85198   0.92861   11.737
 3916.00    0.80976   0.92649   12.349
 3917.00    0.79929   0.92388   12.511
 3918.00    0.84200   0.92079   11.876
 3919.00    0.91072   0.91724   10.980
 3920.00    0.95665   0.91338   10.453
 3921.00    0.93740   0.90930   10.668
 3922.00    0.87491   0.90507   11.430
 3923.00    0.84248   0.89955   11.870
 3924.00    0.85852   0.89325   11.648
 3925.00    0.87912   0.88570   11.375
 3926.00    0.88232   0.87609   11.334
 3927.00    0.87938   0.86542   11.372
 3928.00    0.87229   0.85351   11.464
 3929.00    0.84865   0.84089   11.783
 3930.00    0.80091   0.82837   12.486
 3931.00    0.73641   0.81768   13.579
 3932.00    0.68793   0.81031   14.536
 3933.00    0.69163   0.80529   14.459
 3934.00    0.73269   0.80503   13.648
 3935.00    0.76500   0.81035   13.072
 3936.00    0.77827   0.81851   12.849
 3937.00    0.79073   0.82954   12.646
 3938.00    0.80619   0.84172   12.404
 3939.00    0.81555   0.85388   12.262
 3940.00    0.81565   0.86579   12.260
 3941.00    0.81036   0.87521   12.340
 3942.00    0.80631   0.88301   12.402
 3943.00    0.81035   0.88936   12.340
 3944.00    0.82670   0.89316   12.096
 3945.00    0.85624   0.89614   11.679
 3946.00    0.89620   0.89831   11.158
 3947.00    0.94105   0.89881   10.626
 3948.00    0.98376   0.89843   10.165
 3949.00    1.01504   0.89701    9.852
 3950.00    1.02273   0.89453    9.778
 3951.00    1.00047   0.89095    9.995
 3952.00    0.95787   0.88519   10.440
 3953.00    0.91347   0.87772   10.947
 3954.00    0.88475   0.86897   11.303
 3955.00    0.87923   0.85778   11.374
 3956.00    0.88749   0.84381   11.268
 3957.00    0.89829   0.82739   11.132
 3958.00    0.91248   0.80806   10.959
 3959.00    0.92552   0.78577   10.805
 3960.00    0.91302   0.76032    0.000
 3961.00    0.85972   0.73106    0.000
 3962.00    0.78293   0.69949    0.000
 3963.00    0.70868   0.66654    0.000
 3964.00    0.65110   0.63190    0.000
 3965.00    0.61422   0.59794    0.000
 3966.00    0.59486   0.56670    0.000
 3967.00    0.58569   0.53976    0.000
 3968.00    0.57759   0.51962    0.000
 3969.00    0.56206   0.50766    0.000
 3970.00    0.53494   0.50497    0.000
 3971.00    0.51044   0.51267    0.000
 3972.00    0.52219   0.52942    0.000
 3973.00    0.58065   0.55320    0.000
 3974.00    0.65634   0.58287    0.000
 3975.00    0.72289   0.61618    0.000
 3976.00    0.77792   0.65060    0.000
 3977.00    0.82778   0.68466    0.000
 3978.00    0.87710   0.71679    0.000
 3979.00    0.91837   0.74608    0.000
 3980.00    0.93252   0.77260    0.000
 3981.00    0.91119   0.79569   10.975
 3982.00    0.86506   0.81569   11.560
 3983.00    0.81717   0.83342   12.237
 3984.00    0.79463   0.84887   12.584
 3985.00    0.80905   0.86273   12.360
 3986.00    0.85205   0.87469   11.736
 3987.00    0.90546   0.88507   11.044
 3988.00    0.94995   0.89474   10.527
 3989.00    0.97971   0.90270   10.207
 3990.00    1.00164   0.90930    9.984
 3991.00    1.01838   0.91502    9.819
 3992.00    1.02652   0.91947    9.742
 3993.00    1.02614   0.92322    9.745
 3994.00    1.02188   0.92592    9.786
 3995.00    1.01834   0.92797    9.820
 3996.00    1.01902   0.93009    9.813
 3997.00    1.02687   0.93164    9.738
 3998.00    1.03988   0.93284    9.617
 3999.00    1.04146   0.93432    9.602
 4000.00    1.01282   0.93523    9.873
 4001.00    0.96297   0.93548   10.385
 4002.00    0.92368   0.93536   10.826
 4003.00    0.92630   0.93507   10.796
 4004.00    0.97928   0.93464   10.212
 4005.00    1.03785   0.93374    9.635
 4006.00    1.04500   0.93333    9.569
 4007.00    1.00868   0.93401    9.914
 4008.00    0.97314   0.93525   10.276
 4009.00    0.95308   0.93662   10.492
 4010.00    0.94259   0.93895   10.609
 4011.00    0.94360   0.94211   10.598
 4012.00    0.95951   0.94511   10.422
 4013.00    0.98134   0.94833   10.190
 4014.00    1.00000   0.95100   10.000
 4015.00    1.02322   0.95336    9.773
 4016.00    1.05493   0.95532    9.479
 4017.00    1.07062   0.95567    9.340
 4018.00    1.05329   0.95528    9.494
 4019.00    1.03350   0.95411    9.676
 4020.00    1.04407   0.95160    9.578
 4021.00    1.07105   0.94800    9.337
 4022.00    1.09060   0.94381    9.169
 4023.00    1.10755   0.93960    9.029
 4024.00    1.12708   0.93556    8.872
 4025.00    1.12916   0.93178    8.856
 4026.00    1.10406   0.92879    9.057
 4027.00    1.08002   0.92737    9.259
 4028.00    1.08175   0.92710    9.244
 4029.00    1.09801   0.92757    9.107
 4030.00    1.10438   0.92846    9.055
 4031.00    1.08394   0.93036    9.226
 4032.00    1.03962   0.93344    9.619
 4033.00    0.99718   0.93682   10.028
 4034.00    0.97375   0.94063   10.270
 4035.00    0.95962   0.94425   10.421
 4036.00    0.93531   0.94776   10.692
 4037.00    0.88786   0.95092   11.263
 4038.00    0.83845   0.95276   11.927
 4039.00    0.84194   0.95345   11.877
 4040.00    0.90285   0.95253   11.076
 4041.00    0.94992   0.95038   10.527
 4042.00    0.93360   0.94798   10.711
 4043.00    0.86831   0.94499   11.517
 4044.00    0.79745   0.94198   12.540
 4045.00    0.76785   0.93933   13.023
 4046.00    0.79554   0.93762   12.570
 4047.00    0.85818   0.93794   11.653
 4048.00    0.92301   0.93874   10.834
 4049.00    0.96491   0.93941   10.364
 4050.00    0.98879   0.94046   10.113
 4051.00    1.02389   0.94127    9.767
 4052.00    1.07626   0.94166    9.291
 4053.00    1.12256   0.94142    8.908
 4054.00    1.14401   0.94007    8.741
 4055.00    1.13562   0.93834    8.806
 4056.00    1.09952   0.93659    9.095
 4057.00    1.04334   0.93403    9.585
 4058.00    0.98169   0.93111   10.186
 4059.00    0.93446   0.92838   10.701
 4060.00    0.92136   0.92574   10.854
 4061.00    0.95079   0.92317   10.517
 4062.00    0.99760   0.92052   10.024
 4063.00    1.01827   0.91755    9.821
 4064.00    0.99635   0.91543   10.037
 4065.00    0.94529   0.91447   10.576
 4066.00    0.89213   0.91297   11.207
 4067.00    0.86632   0.91124   11.552
 4068.00    0.88494   0.90969   11.306
 4069.00    0.94617   0.90818   10.548
 4070.00    1.02355   0.90661    9.759
 4071.00    1.08151   0.90391    9.293
 4072.00    1.10309   0.90065    9.089
 4073.00    1.09136   0.89830    9.034
 4074.00    1.06329   0.89593    9.344
 4075.00    1.03398   0.89322   10.114
 4076.00    0.99628   0.89073   10.215
 4077.00    0.94356   0.88848    8.831
 4078.00    0.90264   0.88732    7.602
 4079.00    0.89718   0.88656    7.392
 4080.00    0.89861   0.88540    7.746
 4081.00    0.87632   0.88406    7.924
 4082.00    0.86100   0.88202    7.781
 4083.00    0.88657   0.87929    7.595
 4084.00    0.92168   0.87574    7.515
 4085.00    0.92943   0.87102    7.550
 4086.00    0.93219   0.86497    7.625
 4087.00    0.94981   0.85725    7.658
 4088.00    0.94036   0.84770    7.636
 4089.00    0.87631   0.83602    7.584
 4090.00    0.81080   0.82181    7.523
 4091.00    0.79708   0.80508    7.462
 4092.00    0.81985   0.78532    0.000
 4093.00    0.83966   0.76286    0.000
 4094.00    0.83454   0.73818    0.000
 4095.00    0.81150   0.71102    0.000
 4096.00    0.80731   0.68267    0.000
 4097.00    0.84676   0.65492    0.000
 4098.00    0.91604   0.62933    0.000
 4099.00    0.98191   0.60745    0.000
 4100.00    1.01051   0.59051    0.000
 4101.00    0.99854   0.57938    0.000
 4102.00    0.98175   0.57620    0.000
 4103.00    0.97803   0.58153    0.000
 4104.00    0.96454   0.59335    0.000
 4105.00    0.93106   0.61082    0.000
 4106.00    0.90150   0.63230    0.000
 4107.00    0.89672   0.65632    0.000
 4108.00    0.91721   0.68201    0.000
 4109.00    0.95208   0.70710    0.000
 4110.00    0.98553   0.73059    0.000
 4111.00    1.00536   0.75234    0.000
 4112.00    1.00699   0.77174    0.000
 4113.00    0.99494   0.78881    7.689
 4114.00    0.97997   0.80357    7.492
 4115.00    0.96682   0.81594    7.431
 4116.00    0.95259   0.82644    8.177
 4117.00    0.93683   0.83540    9.905
 4118.00    0.92388   0.84261   11.278
 4119.00    0.91877   0.84885   11.118
 4120.00    0.92327   0.85438   10.678
 4121.00    0.92849   0.85915   10.693
 4122.00    0.92060   0.86343   10.926
 4123.00    0.90220   0.86680   11.119
 4124.00    0.89145   0.86968   11.176
 4125.00    0.90420   0.87191   11.029
 4126.00    0.94400   0.87309   10.651
 4127.00    0.99027   0.87347   10.148
 4128.00    1.00980   0.87333    9.775
 4129.00    0.98830   0.87347    9.996
 4130.00    0.93549   0.87382   11.143
 4131.00    0.87991   0.87444   11.809
 4132.00    0.85216   0.87540    9.988
 4133.00    0.85561   0.87737    8.097
 4134.00    0.87320   0.87986    7.664
 4135.00    0.89038   0.88263    8.110
 4136.00    0.89795   0.88516    8.361
 4137.00    0.88990   0.88638    8.209
 4138.00    0.86869   0.88675    8.158
 4139.00    0.85324   0.88627    8.251
 4140.00    0.86375   0.88519    8.240
 4141.00    0.89821   0.88354    8.076
 4142.00    0.94118   0.88140    7.876
 4143.00    0.98036   0.87911    7.763
 4144.00    1.00579   0.87795    7.789
 4145.00    1.00641   0.87857    7.892
 4146.00    0.97839   0.87988    7.972
 4147.00    0.93494   0.88169    8.000
 4148.00    0.89904   0.88365    7.988
 4149.00    0.89252   0.88556    7.937
 4150.00    0.91910   0.88784    7.871
 4151.00    0.95109   0.88986    7.876
 4152.00    0.96364   0.89131    7.975
 4153.00    0.96699   0.89260    8.022
 4154.00    0.98043   0.89361    7.911
 4155.00    1.00532   0.89490    7.769
 4156.00    1.02068   0.89632    7.753
 4157.00    0.98727   0.89781    7.912
 4158.00    0.89720   0.89945    8.177
 4159.00    0.80467   0.90084    8.351
 4160.00    0.75863   0.90215    8.335
 4161.00    0.75643   0.90286    8.298
 4162.00    0.78531   0.90304    8.352
 4163.00    0.84863   0.90268    8.362
 4164.00    0.93451   0.90161    8.227
 4165.00    1.00092   0.90012    8.052
 4166.00    1.01576   0.89782    7.951
 4167.00    0.98093   0.89471    7.958
 4168.00    0.92572   0.89144    8.044
 4169.00    0.89233   0.88824    8.138
 4170.00    0.88414   0.88521    8.213
 4171.00    0.85617   0.88216    8.313
 4172.00    0.80100   0.87905    8.407
 4173.00    0.77151   0.87673    8.363
 4174.00    0.79054   0.87559    8.231
 4175.00    0.82536   0.87542    8.243
 4176.00    0.85881   0.87563    8.383
 4177.00    0.90668   0.87605    8.330
 4178.00    0.96368   0.87700    8.053
 4179.00    0.99754   0.87845    7.867
 4180.00    1.00727   0.88025    7.852
 4181.00    1.02480   0.88155    7.834
 4182.00    1.04674   0.88223    7.783
 4183.00    1.03304   0.88311    7.841
 4184.00    0.97738   0.88384    8.024
 4185.00    0.91723   0.88449    8.179
 4186.00    0.89484   0.88480    8.209
 4187.00    0.93281   0.88468    8.138
 4188.00    1.00196   0.88520    8.029
 4189.00    1.04040   0.88568    7.945
 4190.00    1.02389   0.88585    7.948
 4191.00    0.97036   0.88571    8.069
 4192.00    0.90613   0.88511    8.241
 4193.00    0.85316   0.88425    8.342
 4194.00    0.82015   0.88267    8.392
 4195.00    0.80885   0.88052    8.491
 4196.00    0.83073   0.87794    8.565
 4197.00    0.89498   0.87532    8.466
 4198.00    0.97965   0.87297    8.297
 4199.00    1.05018   0.87118    8.250
 4200.00    1.10168   0.87038    8.273
 4201.00    1.14275   0.87033    8.210
 4202.00    1.15649   0.87109    8.089
 4203.00    1.11507   0.87292    8.065
 4204.00    1.01316   0.87519    8.247
 4205.00    0.87478   0.87764    8.638
 4206.00    0.75348   0.88033    9.011
 4207.00    0.69692   0.88265    9.077
 4208.00    0.70053   0.88455    8.939
 4209.00    0.73515   0.88573    8.828
 4210.00    0.78874   0.88588    8.691
 4211.00    0.84987   0.88577    8.463
 4212.00    0.88472   0.88553    8.365
 4213.00    0.87324   0.88471    8.547
 4214.00    0.84813   0.88374    8.743
 4215.00    0.84773   0.88223    8.665
 4216.00    0.86528   0.88089    8.538
 4217.00    0.87629   0.87979    8.635
 4218.00    0.87018   0.87815    8.862
 4219.00    0.85266   0.87590    9.006
 4220.00    0.84292   0.87271    9.017
 4221.00    0.85187   0.86870    8.955
 4222.00    0.86652   0.86395    8.891
 4223.00    0.87333   0.85938    8.872
 4224.00    0.87579   0.85486    8.905
 4225.00    0.87976   0.85070    8.952
 4226.00    0.88305   0.84741    8.936
 4227.00    0.88448   0.84525    8.856
 4228.00    0.88958   0.84515    8.834
 4229.00    0.90396   0.84633    8.890
 4230.00    0.92654   0.84813    8.864
 4231.00    0.93717   0.85019    8.752
 4232.00    0.90007   0.85220    8.825
 4233.00    0.82394   0.85392    9.114
 4234.00    0.77592   0.85595    9.222
 4235.00    0.77828   0.85788    9.046
 4236.00    0.77598   0.85937    9.048
 4237.00    0.74582   0.86111    9.380
 4238.00    0.73168   0.86264    9.621
 4239.00    0.75632   0.86442    9.512
 4240.00    0.79139   0.86604    9.314
 4241.00    0.80542   0.86738    9.229
 4242.00    0.78644   0.86818    9.233
 4243.00    0.74666   0.86830    9.284
 4244.00    0.71824   0.86814    9.361
 4245.00    0.73218   0.86694    9.342
 4246.00    0.80134   0.86498    9.065
 4247.00    0.89114   0.86260    8.658
 4248.00    0.93644   0.85998    8.423
 4249.00    0.92417   0.85750    8.422
 4250.00    0.89706   0.85499    8.503
 4251.00    0.88654   0.85321    8.506
 4252.00    0.89811   0.85226    8.365
 4253.00    0.92770   0.85120    8.210
 4254.00    0.96312   0.85049    8.240
 4255.00    0.97641   0.85029    8.405
 4256.00    0.94199   0.85065    8.488
 4257.00    0.88267   0.85150    8.502
 4258.00    0.84986   0.85204    8.629
 4259.00    0.85646   0.85266    8.817
 4260.00    0.88077   0.85318    8.846
 4261.00    0.90579   0.85373    8.721
 4262.00    0.92612   0.85446    8.602
 4263.00    0.94464   0.85491    8.510
 4264.00    0.96536   0.85459    8.385
 4265.00    0.98204   0.85328    8.264
 4266.00    0.98123   0.85096    8.242
 4267.00    0.95114   0.84750    8.385
 4268.00    0.89115   0.84407    8.681
 4269.00    0.82304   0.84025    8.955
 4270.00    0.77191   0.83639    9.010
 4271.00    0.73703   0.83291    8.952
 4272.00    0.70910   0.83027    8.971
 4273.00    0.69788   0.82936    8.989
 4274.00    0.71431   0.82909    8.876
 4275.00    0.74466   0.82984    8.761
 4276.00    0.76993   0.83165    8.786
 4277.00    0.79161   0.83362    8.834
 4278.00    0.81934   0.83552    8.752
 4279.00    0.85369   0.83701    8.628
 4280.00    0.88249   0.83758    8.594
 4281.00    0.88151   0.83760    8.610
 4282.00    0.84290   0.83663    8.598
 4283.00    0.79837   0.83500    8.574
 4284.00    0.77830   0.83292   -2.000
 4285.00    0.77570   0.83004   -2.000
 4286.00    0.77183   0.82720   -2.000
 4287.00    0.76201   0.82432   -2.000
 4288.00    0.76885   0.82148   -2.000
 4289.00    0.84122   0.81859   -2.000
 4290.00    0.97904   0.81588   -2.000
 4291.00    1.09386   0.81384   -2.000
 4292.00    1.12344   0.81172   -2.000
 4293.00    1.09889   0.80955   -2.000
 4294.00    1.05472   0.80653   -2.000
 4295.00    0.97924   0.80316   -2.000
 4296.00    0.88192   0.79942   -2.000
 4297.00    0.82054   0.79491   -2.000
 4298.00    0.81799   0.79048   -2.000
 4299.00    0.82975   0.78562   -2.000
 4300.00    0.82229   0.78091    8.418
 4301.00    0.80605   0.77688    8.554
 4302.00    0.79076   0.77324    8.644
 4303.00    0.76917   0.77040    8.712
 4304.00    0.74499   0.76860    8.760
 4305.00    0.73882   0.76736    8.760
 4306.00    0.75792   0.76692    8.755
 4307.00    0.78847   0.76709    8.849
 4308.00    0.81573   0.76816    8.988
 4309.00    0.83233   0.77054    8.959
 4310.00    0.83778   0.77379    8.782
 4311.00    0.83715   0.77816    8.710
 4312.00    0.83713   0.78296    8.840
 4313.00    0.84328   0.78795    9.055
 4314.00    0.85584   0.79276    9.184
 4315.00    0.86807   0.79721    9.130
 4316.00    0.86563   0.80106    9.088
 4317.00    0.83826   0.80330    9.369
 4318.00    0.81082   0.80350    9.808
 4319.00    0.82405   0.80160    9.818
 4320.00    0.86609   0.79790    9.404
 4321.00    0.88540   0.79242    9.098
 4322.00    0.86217   0.78611    9.101
 4323.00    0.81313   0.77861    9.318
 4324.00    0.76362   0.77059    9.530
 4325.00    0.73509   0.76229    9.519
 4326.00    0.73294   0.75405    9.373
 4327.00    0.74861   0.74653    9.318
 4328.00    0.76850   0.73851    9.324
 4329.00    0.78124   0.72963    9.238
 4330.00    0.78680   0.71886    0.000
 4331.00    0.78861   0.70603    0.000
 4332.00    0.77841   0.69097    0.000
 4333.00    0.75015   0.67337    0.000
 4334.00    0.72416   0.65421    0.000
 4335.00    0.72888   0.63386    0.000
 4336.00    0.76919   0.61331    0.000
 4337.00    0.82730   0.59369    0.000
 4338.00    0.87186   0.57685    0.000
 4339.00    0.88555   0.56429    0.000
 4340.00    0.89477   0.55652    0.000
 4341.00    0.92210   0.55533    0.000
 4342.00    0.93059   0.56055    0.000
 4343.00    0.88154   0.57089    0.000
 4344.00    0.80124   0.58519    0.000
 4345.00    0.73885   0.60250    0.000
 4346.00    0.71608   0.62137    0.000
 4347.00    0.72787   0.64053    0.000
 4348.00    0.75004   0.65940    0.000
 4349.00    0.76300   0.67732    0.000
 4350.00    0.77019   0.69363    0.000
 4351.00    0.77783   0.70797    9.395
 4352.00    0.77822   0.72104    9.095
 4353.00    0.76365   0.73350    8.705
 4354.00    0.73784   0.74506    9.269
 4355.00    0.71331   0.75586   11.622
 4356.00    0.70688   0.76604   14.558
 4357.00    0.72679   0.77540   14.487
 4358.00    0.76472   0.78387   12.944
 4359.00    0.80125   0.79137   12.266
 4360.00    0.81381   0.79817   12.351
 4361.00    0.80095   0.80414   12.626
 4362.00    0.78914   0.80907   12.597
 4363.00    0.79100   0.81295   12.419
 4364.00    0.78932   0.81585   12.856
 4365.00    0.77652   0.81786   13.519
 4366.00    0.76860   0.81878   12.344
 4367.00    0.77083   0.81882   10.120
 4368.00    0.76702   0.81832    9.025
 4369.00    0.74715   0.81767    9.113
 4370.00    0.71897   0.81672    9.518
 4371.00    0.70230   0.81580    9.628
 4372.00    0.71815   0.81481    9.566
 4373.00    0.75811   0.81384    9.577
 4374.00    0.78705   0.81273    9.711
 4375.00    0.79517   0.81156    9.814
 4376.00    0.80452   0.81025    9.649
 4377.00    0.82710   0.80870    9.359
 4378.00    0.85511   0.80671    9.324
 4379.00    0.87650   0.80405    9.524
 4380.00    0.88269   0.80062    9.579
 4381.00    0.87559   0.79678    9.393
 4382.00    0.86474   0.79291    9.232
 4383.00    0.85395   0.78896    9.260
 4384.00    0.83968   0.78613    9.479
 4385.00    0.81620   0.78469    9.760
 4386.00    0.78248   0.78487    9.908
 4387.00    0.75454   0.78604    9.896
 4388.00    0.75476   0.78817    9.852
 4389.00    0.78293   0.79154    9.853
 4390.00    0.81826   0.79520    9.897
 4391.00    0.83690   0.79923    9.942
 4392.00    0.82505   0.80338    9.951
 4393.00    0.79562   0.80701    9.959
 4394.00    0.77238   0.81020   10.020
 4395.00    0.75705   0.81264   10.081
 4396.00    0.74039   0.81468   10.069
 4397.00    0.72946   0.81598   10.055
 4398.00    0.73842   0.81640   10.136
 4399.00    0.76745   0.81632   10.210
 4400.00    0.80346   0.81532   10.138
 4401.00    0.82655   0.81407   10.020
 4402.00    0.82341   0.81298   10.003
 4403.00    0.80306   0.81188   10.005
 4404.00    0.78359   0.81083    9.909
 4405.00    0.77335   0.81031    9.819
 4406.00    0.77399   0.81074    9.851
 4407.00    0.78648   0.81150    9.884
 4408.00    0.80680   0.81259    9.777
 4409.00    0.82173   0.81406    9.633
 4410.00    0.82311   0.81559    9.626
 4411.00    0.82083   0.81685    9.826
 4412.00    0.82121   0.81785   10.136
 4413.00    0.80820   0.81850   10.238
 4414.00    0.77364   0.81860   10.075
 4415.00    0.74242   0.81853   10.185
 4416.00    0.74418   0.81887   10.563
 4417.00    0.78634   0.81941    9.871
 4418.00    0.84146   0.82030    8.140
 4419.00    0.84992   0.82160    6.977
 4420.00    0.80100   0.82265    6.644
 4421.00    0.77518   0.82362    6.588
 4422.00    0.82615   0.82414    6.443
 4423.00    0.91057   0.82443    6.370
 4424.00    0.96770   0.82453    6.624
 4425.00    0.97271   0.82428    7.391
 4426.00    0.93441   0.82376    8.668
 4427.00    0.88602   0.82288    9.730
 4428.00    0.85101   0.82186    9.856
 4429.00    0.82825   0.82085    9.718
 4430.00    0.81218   0.81956    9.887
 4431.00    0.80185   0.81850   10.112
 4432.00    0.79176   0.81767   10.120
 4433.00    0.77095   0.81684   10.009
 4434.00    0.73899   0.81628    9.896
 4435.00    0.71039   0.81589    9.781
 4436.00    0.70282   0.81591    9.680
 4437.00    0.72686   0.81644    9.643
 4438.00    0.76705   0.81704    9.606
 4439.00    0.78892   0.81786    9.421
 4440.00    0.78909   0.81832    9.144
 4441.00    0.79630   0.81876    8.982
 4442.00    0.81471   0.81904    8.949
 4443.00    0.81996   0.81928    8.895
 4444.00    0.80688   0.81973    8.839
 4445.00    0.79336   0.82035    8.930
 4446.00    0.78773   0.82086    9.066
 4447.00    0.78366   0.82087    8.980
 4448.00    0.77289   0.82056    8.832
 4449.00    0.75447   0.81974    9.014
 4450.00    0.74774   0.81819    9.388
 4451.00    0.77416   0.81630    9.410
 4452.00    0.80916   0.81397    9.190
 4453.00    0.80773   0.81128    9.267
 4454.00    0.78281   0.80858    9.563
 4455.00    0.77980   0.80573    9.589
 4456.00    0.79182   0.80355    9.400
 4457.00    0.78132   0.80168    9.404
 4458.00    0.75259   0.80047    9.583
 4459.00    0.73802   0.79959    9.664
 4460.00    0.74988   0.79916    9.663
 4461.00    0.77692   0.79904    0.000
 4462.00    0.79384   0.79886    0.000
 4463.00    0.78188   0.79919    0.000
 4464.00    0.75614   0.79916    0.000
 4465.00    0.74328   0.79916    0.000
 4466.00    0.74455   0.79904    0.000
 4467.00    0.74624   0.79886    0.000
 4468.00    0.74069   0.79892    0.000
 4469.00    0.73117   0.79918    0.000
 4470.00    0.73344   0.80011    0.000
 4471.00    0.76354   0.80129    0.000
 4472.00    0.82292   0.80313    0.000
 4473.00    0.89279   0.80540    0.000
 4474.00    0.93314   0.80754    0.000
 4475.00    0.92025   0.80944    0.000
 4476.00    0.88076   0.81076    0.000
 4477.00    0.84852   0.81163    0.000
 4478.00    0.82335   0.81188    0.000
 4479.00    0.79851   0.81178    0.000
 4480.00    0.78583   0.81131    0.000
 4481.00    0.79498   0.81094    0.000
 4482.00    0.81641   0.81108   10.308
 4483.00    0.83736   0.81196   10.356
 4484.00    0.85373   0.81301   10.477
 4485.00    0.85838   0.81435   10.580
 4486.00    0.83632   0.81545   10.736
 4487.00    0.79381   0.81632   10.970
 4488.00    0.76989   0.81676   11.120
 4489.00    0.78302   0.81694   11.077
 4490.00    0.80497   0.81694   10.947
 4491.00    0.81009   0.81701   10.856
 4492.00    0.80161   0.81707   10.846
 4493.00    0.79103   0.81742   10.907
 4494.00    0.78539   0.81773   10.988
 4495.00    0.78471   0.81849   11.004
 4496.00    0.78421   0.81949   10.868
 4497.00    0.78974   0.82096   10.646
 4498.00    0.81725   0.82278   10.547
 4499.00    0.85888   0.82479   10.674
 4500.00    0.87960   0.82694   10.963
 4501.00    0.86547   0.82892   11.229
 4502.00    0.83589   0.83092   11.240
 4503.00    0.81229   0.83280   11.015
 4504.00    0.80341   0.83429   10.833
 4505.00    0.79804   0.83535   10.868
 4506.00    0.77436   0.83582   11.108
 4507.00    0.73812   0.83566   11.338
 4508.00    0.72041   0.83505   11.249
 4509.00    0.73188   0.83397   10.960
 4510.00    0.75775   0.83265   10.881
 4511.00    0.78531   0.83100   11.075
 4512.00    0.80970   0.82914   11.266
 4513.00    0.82735   0.82716   11.240
 4514.00    0.83463   0.82515   11.017
 4515.00    0.82891   0.82318   10.859
 4516.00    0.81097   0.82135   11.027
 4517.00    0.78946   0.81958   11.356
 4518.00    0.77621   0.81759   11.398
 4519.00    0.77402   0.81574   11.162
 4520.00    0.77578   0.81343   11.022
 4521.00    0.76862   0.81111   11.147
 4522.00    0.74542   0.80826   11.468
 4523.00    0.72372   0.80511   11.696
 4524.00    0.72659   0.80195   11.565
 4525.00    0.74436   0.79847   11.348
 4526.00    0.75350   0.79529   11.434
 4527.00    0.75717   0.79222   11.652
 4528.00    0.76879   0.78964   11.623
 4529.00    0.77797   0.78753   11.510
 4530.00    0.76787   0.78636   11.642
 4531.00    0.74614   0.78574   11.874
 4532.00    0.73085   0.78619   11.891
 4533.00    0.72662   0.78702   11.809
 4534.00    0.72932   0.78854   11.852
 4535.00    0.73575   0.79057   11.890
 4536.00    0.74492   0.79290   11.726
 4537.00    0.75774   0.79564   11.496
 4538.00    0.77367   0.79803   11.366
 4539.00    0.78748   0.80016   11.255
 4540.00    0.79416   0.80156   11.091
 4541.00    0.79368   0.80231   11.045
 4542.00    0.78574   0.80250   11.245
 4543.00    0.76552   0.80207   11.531
 4544.00    0.73514   0.80105   11.710
 4545.00    0.71207   0.79950   11.841
 4546.00    0.71113   0.79779   12.001
 4547.00    0.72985   0.79581   12.061
 4548.00    0.75432   0.79402   11.949
 4549.00    0.76655   0.79226   11.844
 4550.00    0.75916   0.79098    0.000
 4551.00    0.74381   0.79046    0.000
 4552.00    0.73909   0.79028    0.000
 4553.00    0.75904   0.79098    0.000
 4554.00    0.79619   0.79199    0.000
 4555.00    0.81852   0.79353    0.000
 4556.00    0.81250   0.79545    0.000
 4557.00    0.80053   0.79768    0.000
 4558.00    0.79620   0.79983    0.000
 4559.00    0.78581   0.80184    0.000
 4560.00    0.76157   0.80350    0.000
 4561.00    0.73486   0.80471    0.000
 4562.00    0.71596   0.80566    0.000
 4563.00    0.70596   0.80608    0.000
 4564.00    0.70518   0.80630    0.000
 4565.00    0.71490   0.80635    0.000
 4566.00    0.72819   0.80633    0.000
 4567.00    0.73156   0.80639    0.000
 4568.00    0.72505   0.80635    0.000
 4569.00    0.72428   0.80624    0.000
 4570.00    0.74018   0.80605    0.000
 4571.00    0.77073   0.80557    0.000
 4572.00    0.79889   0.80506    0.000
 4573.00    0.80121   0.80453    0.000
 4574.00    0.77517   0.80376    0.000
 4575.00    0.74061   0.80283    0.000
 4576.00    0.71927   0.80172    0.000
 4577.00    0.72387   0.80022    0.000
 4578.00    0.74563   0.79873    0.000
 4579.00    0.76181   0.79700    0.000
 4580.00    0.76195   0.79542    0.000
 4581.00    0.75077   0.79396    0.000
 4582.00    0.73924   0.79286    0.000
 4583.00    0.73685   0.79210    0.000
 4584.00    0.74007   0.79170    0.000
 4585.00    0.73675   0.79173    0.000
 4586.00    0.71997   0.79188    0.000
 4587.00    0.69133   0.79237    0.000
 4588.00    0.66167   0.79280    0.000
 4589.00    0.64760   0.79323    0.000
 4590.00    0.66485   0.79354    0.000
 4591.00    0.71443   0.79361    0.000
 4592.00    0.76389   0.79360    0.000
 4593.00    0.77680   0.79345    0.000
 4594.00    0.76025   0.79333    0.000
 4595.00    0.74368   0.79318    0.000
 4596.00    0.73909   0.79313    0.000
 4597.00    0.74322   0.79314    0.000
 4598.00    0.74807   0.79325    0.000
 4599.00    0.74582   0.79354    0.000
 4600.00    0.73336   0.79391    0.000
 4601.00    0.71531   0.79442    0.000
 4602.00    0.70578   0.79523    0.000
 4603.00    0.71534   0.79605    0.000
 4604.00    0.73758   0.79732    0.000
 4605.00    0.75736   0.79844    0.000
 4606.00    0.76157   0.79986    0.000
 4607.00    0.75087   0.80104    0.000
 4608.00    0.74691   0.80230    0.000
 4609.00    0.76574   0.80324    0.000
 4610.00    0.79591   0.80398    0.000
 4611.00    0.81647   0.80433    0.000
 4612.00    0.81458   0.80438    0.000
 4613.00    0.79646   0.80417    0.000
 4614.00    0.78952   0.80374    0.000
 4615.00    0.80312   0.80338    0.000
 4616.00    0.80765   0.80272    0.000
 4617.00    0.78519   0.80239    0.000
 4618.00    0.75768   0.80185    0.000
 4619.00    0.74486   0.80155    0.000
 4620.00    0.74033   0.80127    0.000
 4621.00    0.73224   0.80116    0.000
 4622.00    0.71667   0.80094    0.000
 4623.00    0.70014   0.80084    0.000
 4624.00    0.69692   0.80049    0.000
 4625.00    0.71102   0.80003    0.000
 4626.00    0.73087   0.79936    0.000
 4627.00    0.74737   0.79859    0.000
 4628.00    0.76116   0.79760    0.000
 4629.00    0.77613   0.79647    0.000
 4630.00    0.79502   0.79525    0.000
 4631.00    0.81395   0.79395    0.000
 4632.00    0.82379   0.79257    0.000
 4633.00    0.82369   0.79113    0.000
 4634.00    0.82145   0.78969    0.000
 4635.00    0.81714   0.78816    0.000
 4636.00    0.80305   0.78677    0.000
 4637.00    0.78278   0.78544    0.000
 4638.00    0.76949   0.78414    0.000
 4639.00    0.76191   0.78298    0.000
 4640.00    0.74742   0.78173    0.000
 4641.00    0.73164   0.78069    0.000
 4642.00    0.73457   0.77952    0.000
 4643.00    0.75838   0.77845    0.000
 4644.00    0.78656   0.77730    0.000
 4645.00    0.80337   0.77628    0.000
 4646.00    0.79955   0.77524    0.000
 4647.00    0.77368   0.77459    0.000
 4648.00    0.73491   0.77413    0.000
 4649.00    0.70731   0.77419    0.000
 4650.00    0.71361   0.77458    0.000
 4651.00    0.74207   0.77547    0.000
 4652.00    0.76234   0.77648    0.000
 4653.00    0.76631   0.77793    0.000
 4654.00    0.76260   0.77921    0.000
 4655.00    0.75409   0.78073    0.000
 4656.00    0.74062   0.78198    0.000
 4657.00    0.72958   0.78303    0.000
 4658.00    0.73250   0.78385    0.000
 4659.00    0.75703   0.78402    0.000
 4660.00    0.79941   0.78378    0.000
 4661.00    0.83690   0.78269    0.000
 4662.00    0.84666   0.78112    0.000
 4663.00    0.83083   0.77894    0.000
 4664.00    0.80240   0.77661    0.000
 4665.00    0.76465   0.77426    0.000
 4666.00    0.72191   0.77214    0.000
 4667.00    0.69312   0.77042    0.000
 4668.00    0.69504   0.76929    0.000
 4669.00    0.72349   0.76879    0.000
 4670.00    0.76126   0.76898    0.000
 4671.00    0.78913   0.76970    0.000
 4672.00    0.79840   0.77071    0.000
 4673.00    0.79957   0.77174    0.000
 4674.00    0.80316   0.77277    0.000
 4675.00    0.80395   0.77346    0.000
 4676.00    0.79559   0.77404    0.000
 4677.00    0.78215   0.77424    0.000
 4678.00    0.76651   0.77422    0.000
 4679.00    0.74333   0.77396    0.000
 4680.00    0.71650   0.77354    0.000
 4681.00    0.70758   0.77313    0.000
 4682.00    0.72591   0.77275    0.000
 4683.00    0.75226   0.77253    0.000
 4684.00    0.76314   0.77240    0.000
 4685.00    0.74796   0.77242    0.000
 4686.00    0.71606   0.77256    0.000
 4687.00    0.69422   0.77268    0.000
 4688.00    0.69456   0.77294    0.000
 4689.00    0.70299   0.77315    0.000
 4690.00    0.70903   0.77339    0.000
 4691.00    0.71741   0.77347    0.000
 4692.00    0.72991   0.77348    0.000
 4693.00    0.73909   0.77318    0.000
 4694.00    0.73944   0.77269    0.000
 4695.00    0.73173   0.77190    0.000
 4696.00    0.71991   0.77075    0.000
 4697.00    0.70982   0.76934    0.000
 4698.00    0.70907   0.76764    0.000
 4699.00    0.72349   0.76582    0.000
 4700.00    0.74526   0.76397    0.000
 4701.00    0.75654   0.76220    0.000
 4702.00    0.75470   0.76073    0.000
 4703.00    0.75179   0.75945    0.000
 4704.00    0.74815   0.75849    0.000
 4705.00    0.73303   0.75784    0.000
 4706.00    0.70912   0.75753    0.000
 4707.00    0.69195   0.75759    0.000
 4708.00    0.68980   0.75773    0.000
 4709.00    0.70029   0.75831    0.000
 4710.00    0.71576   0.75891    0.000
 4711.00    0.72906   0.76008    0.000
 4712.00    0.74323   0.76117    0.000
 4713.00    0.76561   0.76283    0.000
 4714.00    0.79105   0.76432    0.000
 4715.00    0.80473   0.76617    0.000
 4716.00    0.79518   0.76788    0.000
 4717.00    0.76270   0.76979    0.000
 4718.00    0.72906   0.77136    0.000
 4719.00    0.72058   0.77276    0.000
 4720.00    0.73669   0.77359    0.000
 4721.00    0.75827   0.77400    0.000
 4722.00    0.76992   0.77382    0.000
 4723.00    0.76641   0.77308    0.000
 4724.00    0.75611   0.77188    0.000
 4725.00    0.74992   0.77024    0.000
 4726.00    0.74573   0.76846    0.000
 4727.00    0.73706   0.76649    0.000
 4728.00    0.72647   0.76463    0.000
 4729.00    0.71886   0.76290    0.000
 4730.00    0.71186   0.76154    0.000
 4731.00    0.70457   0.76065    0.000
 4732.00    0.70739   0.76013    0.000
 4733.00    0.72552   0.76001    0.000
 4734.00    0.74240   0.76015    0.000
 4735.00    0.74248   0.76061    0.000
 4736.00    0.73383   0.76111    0.000
 4737.00    0.73138   0.76178    0.000
 4738.00    0.73954   0.76247    0.000
 4739.00    0.75346   0.76312    0.000
 4740.00    0.76277   0.76392    0.000
 4741.00    0.76275   0.76463    0.000
 4742.00    0.76126   0.76529    0.000
 4743.00    0.76328   0.76587    0.000
 4744.00    0.76079   0.76642    0.000
 4745.00    0.74740   0.76682    0.000
 4746.00    0.72857   0.76704    0.000
 4747.00    0.71666   0.76700    0.000
 4748.00    0.72442   0.76671    0.000
 4749.00    0.74731   0.76622    0.000
 4750.00    0.75931   0.76533    0.000
 4751.00    0.75051   0.76432    0.000
 4752.00    0.74221   0.76296    0.000
 4753.00    0.75003   0.76158    0.000
 4754.00    0.76687   0.75988    0.000
 4755.00    0.77997   0.75827    0.000
 4756.00    0.78063   0.75645    0.000
 4757.00    0.76734   0.75472    0.000
 4758.00    0.74638   0.75288    0.000
 4759.00    0.72853   0.75107    0.000
 4760.00    0.72484   0.74927    0.000
 4761.00    0.73578   0.74754   13.784
 4762.00    0.74997   0.74595   13.719
 4763.00    0.75547   0.74453   13.860
 4764.00    0.74504   0.74337   13.986
 4765.00    0.71880   0.74258   13.990
 4766.00    0.68532   0.74225   13.969
 4767.00    0.66223   0.74221   14.006
 4768.00    0.66813   0.74259   14.093
 4769.00    0.69888   0.74321   14.169
 4770.00    0.73136   0.74410   14.149
 4771.00    0.75392   0.74499   14.016
 4772.00    0.76764   0.74594   13.846
 4773.00    0.76714   0.74669   13.797
 4774.00    0.74487   0.74727   14.002
 4775.00    0.71367   0.74771   14.314
 4776.00    0.69825   0.74782   14.403
 4777.00    0.70403   0.74772   14.254
 4778.00    0.71813   0.74715   14.125
 4779.00    0.72702   0.74653   14.157
 4780.00    0.72321   0.74558   14.346
 4781.00    0.71049   0.74460   14.615
 4782.00    0.69981   0.74352   14.808
 4783.00    0.69963   0.74263   14.689
 4784.00    0.71241   0.74180   14.196
 4785.00    0.73211   0.74125   13.726
 4786.00    0.74901   0.74096   13.669
 4787.00    0.75824   0.74108   13.889
 4788.00    0.76059   0.74142   14.016
 4789.00    0.76142   0.74208   13.951
 4790.00    0.76517   0.74304   13.838
 4791.00    0.76841   0.74405   13.853
 4792.00    0.76664   0.74516   14.061
 4793.00    0.76385   0.74618   14.273
 4794.00    0.76470   0.74703   14.286
 4795.00    0.76419   0.74764   14.229
 4796.00    0.75503   0.74799   14.286
 4797.00    0.73719   0.74800   14.364
 4798.00    0.71629   0.74776   14.323
 4799.00    0.70039   0.74724   14.255
 4800.00    0.69478   0.74663   14.272
 4801.00    0.69748   0.74582   14.295
 4802.00    0.70311   0.74507   14.221
 4803.00    0.70683   0.74423   14.092
 4804.00    0.70415   0.74352   14.016
 4805.00    0.69137   0.74275   14.086
 4806.00    0.67340   0.74213   14.268
 4807.00    0.66721   0.74154   14.343
 4808.00    0.67994   0.74116   14.231
 4809.00    0.69575   0.74093   14.183
 4810.00    0.70185   0.74080   14.337
 4811.00    0.70474   0.74087   14.463
 4812.00    0.71188   0.74094   14.424
 4813.00    0.72070   0.74112   14.424
 4814.00    0.73025   0.74117   14.524
 4815.00    0.74607   0.74119   14.427
 4816.00    0.76518   0.74096   14.109
 4817.00    0.77201   0.74057   13.990
 4818.00    0.76318   0.73983   14.135
 4819.00    0.75505   0.73886   14.065
 4820.00    0.75395   0.73757   13.742
 4821.00    0.74696   0.73607   13.780
 4822.00    0.72843   0.73442   14.278
 4823.00    0.70885   0.73264   14.534
 4824.00    0.69840   0.73090   14.270
 4825.00    0.69966   0.72913   14.062
 4826.00    0.70802   0.72751   14.200
 4827.00    0.71512   0.72600   14.450
 4828.00    0.71971   0.72461   14.539
 4829.00    0.72680   0.72328   14.385
 4830.00    0.73080   0.72199   14.141
 4831.00    0.71790   0.72069   14.069
 4832.00    0.69257   0.71934   14.220
 4833.00    0.67708   0.71792   14.432
 4834.00    0.68450   0.71631   14.566
 4835.00    0.71103   0.71459   14.574
 4836.00    0.73867   0.71260   14.451
 4837.00    0.74582   0.71042   14.239
 4838.00    0.73197   0.70798   14.069
 4839.00    0.71338   0.70529   14.087
 4840.00    0.69727   0.70234   14.304
 4841.00    0.68242   0.69912   14.593
 4842.00    0.67459   0.69560   14.739
 4843.00    0.68163   0.69172   14.620
 4844.00    0.69644   0.68741   14.508
 4845.00    0.70359   0.68256   14.731
 4846.00    0.69918   0.67702   14.979
 4847.00    0.68934   0.67070   14.703
 4848.00    0.68033   0.66340    0.000
 4849.00    0.67504   0.65506    0.000
 4850.00    0.67071   0.64550    0.000
 4851.00    0.66274   0.63475    0.000
 4852.00    0.65132   0.62277    0.000
 4853.00    0.64017   0.60973    0.000
 4854.00    0.63335   0.59586    0.000
 4855.00    0.63996   0.58154    0.000
 4856.00    0.68041   0.56726    0.000
 4857.00    0.77186   0.55374    0.000
 4858.00    0.90867   0.54159    0.000
 4859.00    1.06458   0.53162    0.000
 4860.00    1.19943   0.52435    0.000
 4861.00    1.27401   0.52039    0.000
 4862.00    1.26657   0.51975    0.000
 4863.00    1.17973   0.52260    0.000
 4864.00    1.04428   0.52840    0.000
 4865.00    0.90067   0.53694    0.000
 4866.00    0.77992   0.54733    0.000
 4867.00    0.69889   0.55924    0.000
 4868.00    0.65804   0.57148    0.000
 4869.00    0.64656   0.58392    0.000
 4870.00    0.64797   0.59588    0.000
 4871.00    0.64895   0.60735    0.000
 4872.00    0.64557   0.61796    0.000
 4873.00    0.63970   0.62790    0.000
 4874.00    0.63504   0.63694    0.000
 4875.00    0.63067   0.64525   14.909
 4876.00    0.61926   0.65270   15.018
 4877.00    0.60400   0.65945   15.334
 4878.00    0.60459   0.66526   15.568
 4879.00    0.62586   0.67030   15.522
 4880.00    0.64452   0.67443   15.387
 4881.00    0.64465   0.67782   15.322
 4882.00    0.63443   0.68046   15.262
 4883.00    0.62460   0.68252   15.167
 4884.00    0.61814   0.68415   15.119
 4885.00    0.61842   0.68546   15.142
 4886.00    0.63127   0.68676   15.152
 4887.00    0.65468   0.68809   15.097
 4888.00    0.67634   0.68977   15.002
 4889.00    0.68346   0.69172   14.907
 4890.00    0.66899   0.69421   14.834
 4891.00    0.63864   0.69700   14.825
 4892.00    0.61026   0.70023   14.910
 4893.00    0.60180   0.70355   14.979
 4894.00    0.62368   0.70697   14.832
 4895.00    0.66894   0.71013   14.567
 4896.00    0.71619   0.71297   14.485
 4897.00    0.74955   0.71533   14.483
 4898.00    0.76406   0.71713   14.176
 4899.00    0.76192   0.71843   13.741
 4900.00    0.74943   0.71915   13.688
 4901.00    0.73176   0.71948   13.907
 4902.00    0.71305   0.71944   13.832
 4903.00    0.70038   0.71918   13.517
 4904.00    0.70093   0.71875   13.443
 4905.00    0.71287   0.71821   13.480
 4906.00    0.72656   0.71757   13.177
 4907.00    0.73221   0.71687   12.843
 4908.00    0.72331   0.71605   13.081
 4909.00    0.69993   0.71511   13.683
 4910.00    0.66876   0.71399   13.886
 4911.00    0.64164   0.71263   13.686
 4912.00    0.63011   0.71100   13.647
 4913.00    0.63630   0.70898   13.805
 4914.00    0.65490   0.70667   13.855
 4915.00    0.67915   0.70390   13.752
 4916.00    0.70270   0.70108   13.667
 4917.00    0.72070   0.69795   13.733
 4918.00    0.72812   0.69530   13.969
 4919.00    0.71749   0.69267   14.216
 4920.00    0.68731   0.69120   14.318
 4921.00    0.65311   0.69006   14.405
 4922.00    0.63352   0.69050   14.644
 4923.00    0.63099   0.69131   14.849
 4924.00    0.63635   0.69362   14.805
 4925.00    0.63787   0.69598   14.738
 4926.00    0.63026   0.69927   14.910
 4927.00    0.62254   0.70209   15.137
 4928.00    0.62670   0.70512   15.136
 4929.00    0.64492   0.70726   14.965
 4930.00    0.66939   0.70907   14.797
 4931.00    0.68473   0.70994   14.660
 4932.00    0.68107   0.71034   14.593
 4933.00    0.66480   0.71008   14.773
 4934.00    0.64826   0.70955   15.189
 4935.00    0.63994   0.70887   15.370
 4936.00    0.64189   0.70824   15.104
 4937.00    0.64927   0.70794   14.970
 4938.00    0.65866   0.70790   15.277
 4939.00    0.67325   0.70843   15.475
 4940.00    0.69471   0.70924    0.000
 4941.00    0.71852   0.71060    0.000
 4942.00    0.74143   0.71204    0.000
 4943.00    0.76490   0.71381    0.000
 4944.00    0.78576   0.71536    0.000
 4945.00    0.79309   0.71693    0.000
 4946.00    0.78348   0.71802    0.000
 4947.00    0.76669   0.71882    0.000
 4948.00    0.74890   0.71899    0.000
 4949.00    0.72705   0.71867    0.000
 4950.00    0.70550   0.71771    0.000
 4951.00    0.69915   0.71622    0.000
 4952.00    0.71024   0.71427    0.000
 4953.00    0.72414   0.71198    0.000
 4954.00    0.73742   0.70955    0.000
 4955.00    0.76364   0.70713    0.000
 4956.00    0.80818   0.70492    0.000
 4957.00    0.86105   0.70306    0.000
 4958.00    0.90819   0.70159    0.000
 4959.00    0.93723   0.70066    0.000
 4960.00    0.94205   0.70004    0.000
 4961.00    0.92311   0.69989    0.000
 4962.00    0.88359   0.69986    0.000
 4963.00    0.82906   0.70011    0.000
 4964.00    0.77041   0.70031    0.000
 4965.00    0.72092   0.70066    0.000
 4966.00    0.68596   0.70092    0.000
 4967.00    0.66425   0.70126    0.000
 4968.00    0.65835   0.70158    0.000
 4969.00    0.67201   0.70190    0.000
 4970.00    0.69766   0.70218    0.000
 4971.00    0.71950   0.70231    0.000
 4972.00    0.72711   0.70228    0.000
 4973.00    0.71994   0.70188    0.000
 4974.00    0.70966   0.70115    0.000
 4975.00    0.71126   0.69992    0.000
 4976.00    0.72527   0.69829    0.000
 4977.00    0.74012   0.69623    0.000
 4978.00    0.74272   0.69390    0.000
 4979.00    0.72656   0.69144    0.000
 4980.00    0.70130   0.68903    0.000
 4981.00    0.68413   0.68685    0.000
 4982.00    0.68368   0.68505    0.000
 4983.00    0.69840   0.68375    0.000
 4984.00    0.71817   0.68300    0.000
 4985.00    0.72994   0.68279    0.000
 4986.00    0.72538   0.68306    0.000
 4987.00    0.70446   0.68365    0.000
 4988.00    0.67809   0.68450    0.000
 4989.00    0.65788   0.68537    0.000
 4990.00    0.64427   0.68624    0.000
 4991.00    0.63468   0.68688    0.000
 4992.00    0.63347   0.68729    0.000
 4993.00    0.64479   0.68733    0.000
 4994.00    0.66422   0.68703    0.000
 4995.00    0.68146   0.68634    0.000
 4996.00    0.68476   0.68527    0.000
 4997.00    0.67226   0.68388    0.000
 4998.00    0.66001   0.68216    0.000
 4999.00    0.66480   0.68031    0.000
 5000.00    0.69044   0.67829    0.000
 5001.00    0.73891   0.67634    0.000
 5002.00    0.81967   0.67437    0.000
 5003.00    0.94657   0.67263    0.000
 5004.00    1.13047   0.67095    0.000
 5005.00    1.34674   0.66953    0.000
 5006.00    1.52181   0.66817    0.000
 5007.00    1.59054   0.66693    0.000
 5008.00    1.53339   0.66571    0.000
 5009.00    1.37212   0.66445    0.000
 5010.00    1.16093   0.66323    0.000
 5011.00    0.95923   0.66186    0.000
 5012.00    0.81280   0.66068    0.000
 5013.00    0.73629   0.65940    0.000
 5014.00    0.70999   0.65857    0.000
 5015.00    0.70730   0.65776    0.000
 5016.00    0.70851   0.65761    0.000
 5017.00    0.70079   0.65758    0.000
 5018.00    0.67956   0.65830    0.000
 5019.00    0.65452   0.65912    0.000
 5020.00    0.64526   0.66059    0.000
 5021.00    0.65461   0.66204    0.000
 5022.00    0.66543   0.66395    0.000
 5023.00    0.66744   0.66572    0.000
 5024.00    0.66402   0.66770    0.000
 5025.00    0.66085   0.66945    0.000
 5026.00    0.66172   0.67118    0.000
 5027.00    0.66803   0.67262    0.000
 5028.00    0.67862   0.67378    0.000
 5029.00    0.68981   0.67461   14.525
 5030.00    0.69797   0.67491   14.300
 5031.00    0.70656   0.67486   14.134
 5032.00    0.72175   0.67410   13.886
 5033.00    0.73673   0.67310   13.603
 5034.00    0.73636   0.67137   13.508
 5035.00    0.71745   0.66959   13.857
 5036.00    0.69028   0.66733   14.811
 5037.00    0.67044   0.66540   15.943
 5038.00    0.66900   0.66340   16.327
 5039.00    0.67666   0.66212   16.108
 5040.00    0.67525   0.66103   16.200
 5041.00    0.66541   0.66077   16.621
 5042.00    0.66022   0.66084   16.777
 5043.00    0.66428   0.66153   16.569
 5044.00    0.67560   0.66243   16.337
 5045.00    0.69472   0.66358   16.275
 5046.00    0.72020   0.66482   16.392
 5047.00    0.73968   0.66595   16.565
 5048.00    0.74015   0.66715   16.639
 5049.00    0.72434   0.66804   16.582
 5050.00    0.70374   0.66918   16.475
 5051.00    0.68597   0.66990   16.450
 5052.00    0.67578   0.67107   16.581
 5053.00    0.67793   0.67180   16.758
 5054.00    0.69217   0.67313   16.793
 5055.00    0.70752   0.67383   16.593
 5056.00    0.71046   0.67505   16.317
 5057.00    0.69520   0.67553   16.421
 5058.00    0.66811   0.67629   17.069
 5059.00    0.64925   0.67622   17.501
 5060.00    0.65204   0.67619   17.080
 5061.00    0.66551   0.67540   16.578
 5062.00    0.67438   0.67464   16.639
 5063.00    0.67763   0.67331   16.766
 5064.00    0.67882   0.67204   16.467
 5065.00    0.67721   0.67047   16.173
 5066.00    0.67186   0.66911   16.254
 5067.00    0.66505   0.66763   16.387
 5068.00    0.65994   0.66640   16.287
 5069.00    0.65864   0.66516   16.214
 5070.00    0.66217   0.66415   16.361
 5071.00    0.67035   0.66305   16.491
 5072.00    0.67996   0.66214   16.296
 5073.00    0.68463   0.66101   15.724
 5074.00    0.68112   0.66004   15.070
 5075.00    0.67250   0.65874   14.789
 5076.00    0.66493   0.65772   14.939
 5077.00    0.66380   0.65645   15.099
 5078.00    0.66448   0.65560   15.096
 5079.00    0.65328   0.65472   15.282
 5080.00    0.63442   0.65437   15.710
 5081.00    0.63405   0.65418   15.820
 5082.00    0.65926   0.65453   15.276
 5083.00    0.68784   0.65516   14.426
 5084.00    0.70456   0.65616   13.941
 5085.00    0.71234   0.65737   14.442
 5086.00    0.71474   0.65871   15.893
 5087.00    0.71057   0.66010   17.186
 5088.00    0.70040   0.66134   17.449
 5089.00    0.68762   0.66242   17.238
 5090.00    0.67374   0.66314   17.179
 5091.00    0.65855   0.66354   17.387
 5092.00    0.64576   0.66348   17.643
 5093.00    0.64138   0.66304   17.603
 5094.00    0.64414   0.66222   17.349
 5095.00    0.64736   0.66110   17.265
 5096.00    0.65144   0.65983   17.306
 5097.00    0.66121   0.65841   17.120
 5098.00    0.67055   0.65707   16.787
 5099.00    0.66706   0.65578   16.685
 5100.00    0.65196   0.65464   16.853
 5101.00    0.63743   0.65363   17.044
 5102.00    0.63053   0.65281   17.102
 5103.00    0.63121   0.65215   17.040
 5104.00    0.63593   0.65170   16.968
 5105.00    0.64153   0.65139   16.947
 5106.00    0.65061   0.65128   16.775
 5107.00    0.66518   0.65143   16.278
 5108.00    0.67426   0.65172   15.809
 5109.00    0.66476   0.65228   15.799
 5110.00    0.64294   0.65303   16.156
 5111.00    0.62673   0.65389   16.497
 5112.00    0.62813   0.65482   16.631
 5113.00    0.64608   0.65574   16.601
 5114.00    0.66127   0.65646   16.540
 5115.00    0.65629   0.65699   16.497
 5116.00    0.64223   0.65709   16.267
 5117.00    0.63666   0.65680   15.738
 5118.00    0.63295   0.65599   15.250
 5119.00    0.61801   0.65479   15.117
 5120.00    0.59664   0.65316   15.244
 5121.00    0.58033   0.65131   15.427
 5122.00    0.57225   0.64922   15.672
 5123.00    0.57078   0.64731   16.029
 5124.00    0.57459   0.64540   16.360
 5125.00    0.58226   0.64388   16.551
 5126.00    0.59139   0.64254   16.745
 5127.00    0.60002   0.64178   17.073
 5128.00    0.60776   0.64119   17.379
 5129.00    0.61488   0.64120   17.482
 5130.00    0.62122   0.64122   17.453
 5131.00    0.62444   0.64160   17.452
 5132.00    0.61968   0.64184   17.556
 5133.00    0.60671   0.64222   17.707
 5134.00    0.59407   0.64231   17.699
 5135.00    0.59062   0.64219   17.463
 5136.00    0.59905   0.64193   17.216
 5137.00    0.61286   0.64132   17.164
 5138.00    0.61763   0.64068   17.347
 5139.00    0.60804   0.63989   17.614
 5140.00    0.59517   0.63892   17.646
 5141.00    0.58961   0.63795   17.350
 5142.00    0.59302   0.63710   17.005
 5143.00    0.60471   0.63626   16.850
 5144.00    0.62405   0.63546   16.926
 5145.00    0.64525   0.63486   17.163
 5146.00    0.65717   0.63432   17.418
 5147.00    0.65419   0.63407   17.565
 5148.00    0.64035   0.63384   17.561
 5149.00    0.62587   0.63387   17.513
 5150.00    0.62305   0.63406   17.601
 5151.00    0.63674   0.63450   17.732
 5152.00    0.66146   0.63510   17.566
 5153.00    0.68454   0.63585   17.168
 5154.00    0.69235   0.63674   16.960
 5155.00    0.68636   0.63741   16.980
 5156.00    0.68156   0.63795   16.903
 5157.00    0.68437   0.63783   16.717
 5158.00    0.68972   0.63725   16.706
 5159.00    0.69269   0.63575   16.842
 5160.00    0.69165   0.63335   16.835
 5161.00    0.68674   0.62998   16.751
 5162.00    0.67916   0.62576   16.915
 5163.00    0.67038   0.62066   17.240
 5164.00    0.66074   0.61500   17.333
 5165.00    0.64692   0.60906   17.270
 5166.00    0.62522   0.60332   17.428
 5167.00    0.59968   0.59824   17.691
 5168.00    0.57964   0.59393   17.642
 5169.00    0.57121   0.59061   17.398
 5170.00    0.57523   0.58816   17.354
 5171.00    0.58688   0.58714   17.417
 5172.00    0.59807   0.58734   17.253
 5173.00    0.60195   0.58855   16.959
 5174.00    0.59767   0.59023   16.801
 5175.00    0.59637   0.59232   16.687
 5176.00    0.60846   0.59442   16.416
 5177.00    0.62366   0.59630   16.140
 5178.00    0.62517   0.59782   16.145
 5179.00    0.61391   0.59891   16.523
 5180.00    0.60005   0.59961   17.160
 5181.00    0.58725   0.59996   17.685
 5182.00    0.57573   0.60038   17.746
 5183.00    0.56839   0.60126   17.510
 5184.00    0.56673   0.60235   17.373
 5185.00    0.56597   0.60389   17.517
 5186.00    0.56388   0.60564   17.914
 5187.00    0.56977   0.60777   18.314
 5188.00    0.59018   0.61017   18.462
 5189.00    0.61466   0.61249   18.382
 5190.00    0.63080   0.61480    0.000
 5191.00    0.63891   0.61704    0.000
 5192.00    0.64340   0.61923    0.000
 5193.00    0.64420   0.62106    0.000
 5194.00    0.64081   0.62272    0.000
 5195.00    0.63600   0.62412    0.000
 5196.00    0.63469   0.62507    0.000
 5197.00    0.64210   0.62585    0.000
 5198.00    0.65805   0.62598    0.000
 5199.00    0.67410   0.62586    0.000
 5200.00    0.68170   0.62503    0.000
 5201.00    0.67760   0.62404    0.000
 5202.00    0.66120   0.62244    0.000
 5203.00    0.63344   0.62087    0.000
 5204.00    0.60042   0.61913    0.000
 5205.00    0.57361   0.61789    0.000
 5206.00    0.55877   0.61676    0.000
 5207.00    0.55181   0.61642    0.000
 5208.00    0.54978   0.61665    0.000
 5209.00    0.55539   0.61762    0.000
 5210.00    0.57087   0.61928    0.000
 5211.00    0.59453   0.62134   17.867
 5212.00    0.61931   0.62387   17.509
 5213.00    0.63429   0.62631   17.692
 5214.00    0.63335   0.62891   18.214
 5215.00    0.61869   0.63118   18.353
 5216.00    0.59997   0.63330   18.009
 5217.00    0.59073   0.63487   17.840
 5218.00    0.59738   0.63595   17.890
 5219.00    0.61647   0.63643   17.577
 5220.00    0.63933   0.63632   17.040
 5221.00    0.65543   0.63568   17.006
 5222.00    0.65785   0.63458   17.444
 5223.00    0.64592   0.63321   17.601
 5224.00    0.62785   0.63173   17.302
 5225.00    0.61594   0.63033   17.066
 5226.00    0.61220   0.62939   17.124
 5227.00    0.60912   0.62888   17.346
 5228.00    0.60135   0.62874   17.550
 5229.00    0.58983   0.62921   17.600
 5230.00    0.58390   0.62993   17.466
 5231.00    0.59422   0.63104   17.214
 5232.00    0.61695   0.63256   16.940
 5233.00    0.63936   0.63428   16.737
 5234.00    0.65781   0.63630   16.660
 5235.00    0.67482   0.63831   16.725
 5236.00    0.68652   0.64027   16.896
 5237.00    0.68618   0.64207   17.092
 5238.00    0.67446   0.64358   17.215
 5239.00    0.65822   0.64483   17.202
 5240.00    0.64538   0.64562   17.113
 5241.00    0.64040   0.64602   17.065
 5242.00    0.63915   0.64602   17.120
 5243.00    0.63570   0.64562   17.282
 5244.00    0.63280   0.64479   17.500
 5245.00    0.63526   0.64362   17.644
 5246.00    0.63977   0.64238   17.500
 5247.00    0.63990   0.64110   17.076
 5248.00    0.63399   0.63979   16.853
 5249.00    0.62339   0.63873   17.163
 5250.00    0.60939   0.63785   17.595
 5251.00    0.59474   0.63719   17.624
 5252.00    0.58514   0.63673   17.518
 5253.00    0.58418   0.63624   17.657
 5254.00    0.58858   0.63590   17.779
 5255.00    0.59449   0.63532   17.591
 5256.00    0.60332   0.63452   17.390
 5257.00    0.61700   0.63322   17.462
 5258.00    0.63327   0.63135   17.617
 5259.00    0.64613   0.62887   17.579
 5260.00    0.64771   0.62579   17.351
 5261.00    0.63826   0.62229   17.052
 5262.00    0.63150   0.61846   16.745
 5263.00    0.63687   0.61465   16.413
 5264.00    0.64823   0.61094   15.973
 5265.00    0.65663   0.60784   15.437
 5266.00    0.65902   0.60527   14.946
 5267.00    0.65531   0.60332   14.607
 5268.00    0.64650   0.60230   14.429
 5269.00    0.63646   0.60231   14.350
 5270.00    0.63201   0.60329   14.248
 5271.00    0.63728   0.60505   13.994
 5272.00    0.65110   0.60763   13.526
 5273.00    0.66943   0.61045   13.054
 5274.00    0.68658   0.61373   12.950
 5275.00    0.69468   0.61720   13.252
 5276.00    0.68598   0.62065   13.574
 5277.00    0.66384   0.62398   13.709
 5278.00    0.64324   0.62701   13.870
 5279.00    0.63292   0.62971   14.179
 5280.00    0.62973   0.63212   14.488
 5281.00    0.62606   0.63431   14.649
 5282.00    0.61512   0.63626   14.664
 5283.00    0.59886   0.63827   14.689
 5284.00    0.58743   0.64003   14.943
 5285.00    0.58852   0.64177   15.412
 5286.00    0.60347   0.64320   15.795
 5287.00    0.62705   0.64437   15.760
 5288.00    0.64951   0.64523   15.245
 5289.00    0.66236   0.64563   14.722
 5290.00    0.66140   0.64570   14.764
 5291.00    0.64971   0.64516   15.243
 5292.00    0.63592   0.64438   15.489
 5293.00    0.62769   0.64309   15.310
 5294.00    0.62801   0.64167   15.081
 5295.00    0.63085   0.64001   15.006
 5296.00    0.62706   0.63851   15.067
 5297.00    0.61902   0.63729   15.241
 5298.00    0.61638   0.63653   15.502
 5299.00    0.62119   0.63616   15.728
 5300.00    0.62914   0.63637   15.782
 5301.00    0.63752   0.63694   15.730
 5302.00    0.64648   0.63802   15.707
 5303.00    0.65822   0.63932   15.627
 5304.00    0.67254   0.64081   15.383
 5305.00    0.68031   0.64224   15.223
 5306.00    0.67292   0.64363   15.424
 5307.00    0.65761   0.64478   15.800
 5308.00    0.64861   0.64573   15.996
 5309.00    0.65112   0.64627   16.115
 5310.00    0.66222   0.64652   16.438
 5311.00    0.67523   0.64626   16.865
 5312.00    0.68424   0.64578   17.086
 5313.00    0.68867   0.64485   16.969
 5314.00    0.68911   0.64367   16.653
 5315.00    0.68231   0.64220   16.468
 5316.00    0.66506   0.64057   16.624
 5317.00    0.63916   0.63871   16.955
 5318.00    0.61179   0.63665   17.186
 5319.00    0.59446   0.63447   17.261
 5320.00    0.59327   0.63196   17.259
 5321.00    0.60083   0.62949   17.249
 5322.00    0.60687   0.62667   17.288
 5323.00    0.60812   0.62421   17.414
 5324.00    0.60676   0.62161   17.587
 5325.00    0.60763   0.61948   17.636
 5326.00    0.61161   0.61740   17.447
 5327.00    0.61205   0.61617   17.103
 5328.00    0.60575   0.61538   16.798
 5329.00    0.59970   0.61543   16.728
 5330.00    0.60137   0.61606   16.845
 5331.00    0.61209   0.61705   16.779
 5332.00    0.62839   0.61841   16.446
 5333.00    0.64361   0.61982   16.279
 5334.00    0.65149   0.62136   16.428
 5335.00    0.64865   0.62268   16.494
 5336.00    0.63670   0.62389   16.301
 5337.00    0.62237   0.62473   16.209
 5338.00    0.61232   0.62538   16.365
 5339.00    0.61025   0.62576   16.471
 5340.00    0.61623   0.62618   16.376
 5341.00    0.62714   0.62637   16.288
 5342.00    0.63960   0.62689   16.315
 5343.00    0.65129   0.62720   16.348
 5344.00    0.66032   0.62776   16.387
 5345.00    0.66499   0.62843   16.589
 5346.00    0.66356   0.62926   16.892
 5347.00    0.65472   0.63036   16.995
 5348.00    0.63950   0.63168   16.914
 5349.00    0.62229   0.63318   17.001
 5350.00    0.61202   0.63489   17.253
 5351.00    0.61852   0.63661   17.286
 5352.00    0.64040   0.63838   17.037
 5353.00    0.66510   0.63995   16.805
 5354.00    0.67941   0.64134   16.708
 5355.00    0.67530   0.64245   16.654
 5356.00    0.65660   0.64310   16.603
 5357.00    0.63599   0.64333   16.598
 5358.00    0.62320   0.64301   16.680
 5359.00    0.62169   0.64222   16.847
 5360.00    0.62821   0.64090   17.016
 5361.00    0.63541   0.63921   17.091
 5362.00    0.63773   0.63719   17.118
 5363.00    0.63283   0.63495   17.228
 5364.00    0.62206   0.63271   17.418
 5365.00    0.61020   0.63040   17.567
 5366.00    0.60464   0.62835   17.553
 5367.00    0.61017   0.62648   17.352
 5368.00    0.62058   0.62493   17.121
 5369.00    0.62580   0.62384   17.063
 5370.00    0.62543   0.62320   17.204
 5371.00    0.62629   0.62329   -2.000
 5372.00    0.63467   0.62377   -2.000
 5373.00    0.64883   0.62485   -2.000
 5374.00    0.65119   0.62600   -2.000
 5375.00    0.62680   0.62727   -2.000
 5376.00    0.58785   0.62861   -2.000
 5377.00    0.55669   0.62970   -2.000
 5378.00    0.54136   0.63079   -2.000
 5379.00    0.54014   0.63143   -2.000
 5380.00    0.55019   0.63197   -2.000
 5381.00    0.56670   0.63198   -2.000
 5382.00    0.58185   0.63192   -2.000
 5383.00    0.59224   0.63149   -2.000
 5384.00    0.60538   0.63083   -2.000
 5385.00    0.62680   0.63002   16.773
 5386.00    0.64853   0.62883   17.068
 5387.00    0.66018   0.62754   16.657
 5388.00    0.65931   0.62588   16.163
 5389.00    0.65062   0.62433   16.109
 5390.00    0.64331   0.62242   16.356
 5391.00    0.64176   0.62071   16.628
 5392.00    0.63975   0.61879   16.874
 5393.00    0.63067   0.61705   17.109
 5394.00    0.61485   0.61529   17.262
 5395.00    0.59748   0.61354   17.266
 5396.00    0.58598   0.61216   17.133
 5397.00    0.58429   0.61064   16.942
 5398.00    0.58986   0.60960   16.802
 5399.00    0.59689   0.60844   16.788
 5400.00    0.59919   0.60757   16.909
 5401.00    0.59416   0.60647   17.105
 5402.00    0.58411   0.60567   17.266
 5403.00    0.57162   0.60480   17.362
 5404.00    0.55769   0.60418   17.486
 5405.00    0.54416   0.60394   17.640
 5406.00    0.53415   0.60399   17.701
 5407.00    0.52902   0.60456   17.754
 5408.00    0.52828   0.60524   18.087
 5409.00    0.53454   0.60654   18.573
 5410.00    0.55261   0.60792   18.604
 5411.00    0.57832   0.60984   18.229
 5412.00    0.59884   0.61175   18.188
 5413.00    0.60897   0.61377   18.542
 5414.00    0.61336   0.61574   18.609
 5415.00    0.61462   0.61751   18.304
 5416.00    0.61117   0.61914   18.235
 5417.00    0.60291   0.62043   18.566
 5418.00    0.59299   0.62134   18.929
 5419.00    0.58763   0.62186   19.030
 5420.00    0.59255   0.62202   18.871
 5421.00    0.60413   0.62179   18.673
 5422.00    0.61229   0.62122   18.684
 5423.00    0.61319   0.62044   18.848
 5424.00    0.60961   0.61932   18.923
 5425.00    0.60463   0.61816   18.919
 5426.00    0.60067   0.61691   19.008
 5427.00    0.60056   0.61545   19.098
 5428.00    0.60551   0.61410   18.960
 5429.00    0.61081   0.61283   18.692
 5430.00    0.60915   0.61179   18.559
 5431.00    0.59831   0.61130   18.590
 5432.00    0.58254   0.61095   18.660
 5433.00    0.57214   0.61094   18.723
 5434.00    0.57658   0.61135   18.758
 5435.00    0.59398   0.61202   18.619
 5436.00    0.61484   0.61310   18.255
 5437.00    0.63050   0.61422   18.010
 5438.00    0.63648   0.61539   18.174
 5439.00    0.63508   0.61635   18.434
 5440.00    0.62965   0.61702   18.371
 5441.00    0.61707   0.61746   18.273
 5442.00    0.59497   0.61742   18.536
 5443.00    0.57114   0.61711   18.867
 5444.00    0.55591   0.61625   18.811
 5445.00    0.55223   0.61523   18.546
 5446.00    0.55655   0.61420   18.424
 5447.00    0.56156   0.61306   18.421
 5448.00    0.56353   0.61225   18.392
 5449.00    0.56839   0.61127   18.340
 5450.00    0.58194   0.61048   18.341
 5451.00    0.60069   0.60959   18.449
 5452.00    0.61700   0.60894   18.620
 5453.00    0.62452   0.60823   18.678
 5454.00    0.62074   0.60782   18.555
 5455.00    0.60865   0.60751   18.450
 5456.00    0.59581   0.60744   18.453
 5457.00    0.59222   0.60771   18.319
 5458.00    0.60048   0.60787   17.942
 5459.00    0.61088   0.60808   17.607
 5460.00    0.61563   0.60817   17.583
 5461.00    0.61751   0.60826   17.915
 5462.00    0.62303   0.60839   18.373
 5463.00    0.63654   0.60846   18.475
 5464.00    0.65263   0.60850   18.177
 5465.00    0.65597   0.60851   18.112
 5466.00    0.64351   0.60831   18.561
 5467.00    0.63192   0.60800   19.100
 5468.00    0.63473   0.60751   19.300
 5469.00    0.65111   0.60682   19.177
 5470.00    0.66938   0.60591   18.986
 5471.00    0.67310   0.60491   18.984
 5472.00    0.65856   0.60391   19.145
 5473.00    0.63773   0.60290   19.176
 5474.00    0.61921   0.60184   19.051
 5475.00    0.60284   0.60103   19.063
 5476.00    0.58941   0.60033   19.151
 5477.00    0.58333   0.59989   18.876
 5478.00    0.58887   0.59993   18.265
 5479.00    0.60716   0.60001   17.799
 5480.00    0.63141   0.60041   17.679
 5481.00    0.64974   0.60084   -2.000
 5482.00    0.65837   0.60158   -2.000
 5483.00    0.66235   0.60249   -2.000
 5484.00    0.66626   0.60341   -2.000
 5485.00    0.67114   0.60429   -2.000
 5486.00    0.67377   0.60496   -2.000
 5487.00    0.66916   0.60569   -2.000
 5488.00    0.65668   0.60625   -2.000
 5489.00    0.63511   0.60680   -2.000
 5490.00    0.58893   0.60716   -2.000
 5491.00    0.50786   0.60728   -2.000
 5492.00    0.43305   0.60748   -2.000
 5493.00    0.42243   0.60735   -2.000
 5494.00    0.46492   0.60720   -2.000
 5495.00    0.50833   0.60681   -2.000
 5496.00    0.54106   0.60636   -2.000
 5497.00    0.57843   0.60584   -2.000
 5498.00    0.61377   0.60519   -2.000
 5499.00    0.62867   0.60466   -2.000
 5500.00    0.62272   0.60383   -2.000
 5501.00    0.60839   0.60301   -2.000
 5502.00    0.59626   0.60214   -2.000
 5503.00    0.59217   0.60137   -2.000
 5504.00    0.59667   0.60058   -2.000
 5505.00    0.60735   0.59981   17.661
 5506.00    0.62200   0.59918   17.764
 5507.00    0.63798   0.59855   18.321
 5508.00    0.65107   0.59838   18.856
 5509.00    0.65635   0.59808   18.741
 5510.00    0.64954   0.59788   18.358
 5511.00    0.63099   0.59792   18.320
 5512.00    0.60904   0.59809   18.620
 5513.00    0.59386   0.59858   18.986
 5514.00    0.59084   0.59925   19.248
 5515.00    0.59886   0.60003   19.271
 5516.00    0.60994   0.60097   18.903
 5517.00    0.61538   0.60184   18.309
 5518.00    0.61125   0.60269   18.054
 5519.00    0.60028   0.60330   18.324
 5520.00    0.59180   0.60373   18.503
 5521.00    0.59280   0.60392   18.198
 5522.00    0.60164   0.60393   17.980
 5523.00    0.61297   0.60371   18.279
 5524.00    0.62171   0.60329   18.773
 5525.00    0.62483   0.60272   19.047
 5526.00    0.62235   0.60195   19.109
 5527.00    0.61736   0.60138   19.126
 5528.00    0.61489   0.60079   19.183
 5529.00    0.61580   0.60055   19.173
 5530.00    0.61484   0.60046   18.851
 5531.00    0.60913   0.60054   18.413
 5532.00    0.60224   0.60066   18.471
 5533.00    0.60105   0.60091   18.949
 5534.00    0.61198   0.60136   18.837
 5535.00    0.63134   0.60182   17.978
 5536.00    0.64479   0.60245   17.424
 5537.00    0.64418   0.60314   17.573
 5538.00    0.63309   0.60379   17.971
 5539.00    0.61933   0.60452   18.203
 5540.00    0.61040   0.60511   18.252
 5541.00    0.60885   0.60557   18.379
 5542.00    0.61192   0.60598   18.836
 5543.00    0.61635   0.60627   19.080
 5544.00    0.61964   0.60659   18.107
 5545.00    0.61852   0.60688   16.641
 5546.00    0.61101   0.60717   16.105
 5547.00    0.60367   0.60732   16.434
 5548.00    0.60759   0.60747   16.559
 5549.00    0.62120   0.60749   16.147
 5550.00    0.63184   0.60732   15.778
 5551.00    0.63241   0.60711   15.779
 5552.00    0.62485   0.60666   16.067
 5553.00    0.61733   0.60622   16.259
 5554.00    0.61753   0.60561   16.036
 5555.00    0.61971   0.60500   15.984
 5556.00    0.61059   0.60430   16.998
 5557.00    0.58784   0.60347   18.800
 5558.00    0.56012   0.60260   19.806
 5559.00    0.53911   0.60166   19.605
 5560.00    0.53410   0.60070   19.318
 5561.00    0.54539   0.59962   19.368
 5562.00    0.56549   0.59869   19.535
 5563.00    0.58373   0.59763   19.631
 5564.00    0.59129   0.59675   19.594
 5565.00    0.58780   0.59596   19.453
 5566.00    0.57835   0.59521   19.307
 5567.00    0.56755   0.59460   19.284
 5568.00    0.55787   0.59415   19.402
 5569.00    0.54887   0.59386   19.380
 5570.00    0.54060   0.59356   19.060
 5571.00    0.53782   0.59361   18.902
 5572.00    0.54681   0.59360   19.235
 5573.00    0.57047   0.59361   19.426
 5574.00    0.60450   0.59383   18.915
 5575.00    0.63457   0.59400   18.484
 5576.00    0.64770   0.59389   18.637
 5577.00    0.64401   0.59377   18.255
 5578.00    0.62990   0.59343   16.701
 5579.00    0.61029   0.59277   15.343
 5580.00    0.59011   0.59198   14.936
 5581.00    0.57600   0.59095   14.892
 5582.00    0.57384   0.58967   14.737
 5583.00    0.58576   0.58829   14.986
 5584.00    0.60523   0.58684   16.001
 5585.00    0.61527   0.58515   16.992
 5586.00    0.60575   0.58367   17.097
 5587.00    0.58467   0.58227   16.935
 5588.00    0.56508   0.58121   17.193
 5589.00    0.55507   0.58042   17.614
 5590.00    0.55625   0.57992   17.788
 5591.00    0.56391   0.57980   17.745
 5592.00    0.57189   0.57961   17.562
 5593.00    0.57571   0.57980   17.136
 5594.00    0.57378   0.58000   16.505
 5595.00    0.56749   0.58053   15.917
 5596.00    0.55882   0.58117   15.452
 5597.00    0.54941   0.58181   14.979
 5598.00    0.54210   0.58247   14.494
 5599.00    0.54099   0.58316   14.149
 5600.00    0.54797   0.58419   13.931
 5601.00    0.56131   0.58498   13.659
 5602.00    0.57671   0.58622   13.422
 5603.00    0.58879   0.58737   13.559
 5604.00    0.59535   0.58880   14.076
 5605.00    0.59857   0.59000   14.540
 5606.00    0.60319   0.59089   14.823
 5607.00    0.61361   0.59178   15.292
 5608.00    0.62662   0.59227   15.933
 5609.00    0.63270   0.59269   16.176
 5610.00    0.62789   0.59261   15.966
 5611.00    0.61520   0.59242   15.889
 5612.00    0.59705   0.59191   16.164
 5613.00    0.57482   0.59101   16.565
 5614.00    0.55394   0.59006   16.899
 5615.00    0.54213   0.58877   17.142
 5616.00    0.54145   0.58784   17.393
 5617.00    0.54809   0.58723   17.785
 5618.00    0.55738   0.58660   18.291
 5619.00    0.56580   0.58611   18.714
 5620.00    0.57262   0.58579   18.827
 5621.00    0.57927   0.58567   18.586
 5622.00    0.58703   0.58560   18.381
 5623.00    0.59623   0.58570   18.620
 5624.00    0.60556   0.58600   18.986
 5625.00    0.61314   0.58636   18.859
 5626.00    0.61860   0.58698   18.537
 5627.00    0.62268   0.58754   18.652
 5628.00    0.62592   0.58797   18.971
 5629.00    0.62749   0.58846   18.918
 5630.00    0.62388   0.58874   18.777
 5631.00    0.61310   0.58890   19.080
 5632.00    0.60080   0.58885   19.471
 5633.00    0.59431   0.58881   19.324
 5634.00    0.59353   0.58857   18.978
 5635.00    0.59452   0.58818   19.039
 5636.00    0.59569   0.58777   19.408
 5637.00    0.59696   0.58724   19.697
 5638.00    0.59783   0.58681   19.869
 5639.00    0.59796   0.58635   20.053
 5640.00    0.59798   0.58601   20.198
 5641.00    0.59806   0.58563   20.211
 5642.00    0.59663   0.58546   20.138
 5643.00    0.59293   0.58548   20.082
 5644.00    0.58949   0.58539   20.087
 5645.00    0.58870   0.58550   20.118
 5646.00    0.58986   0.58553   20.069
 5647.00    0.59186   0.58560   19.902
 5648.00    0.59525   0.58552   19.740
 5649.00    0.59851   0.58526   19.679
 5650.00    0.59588   0.58501   19.666
 5651.00    0.58435   0.58458   19.625
 5652.00    0.56850   0.58406   19.555
 5653.00    0.55591   0.58326   19.471
 5654.00    0.55291   0.58240   19.372
 5655.00    0.55903   0.58142   19.268
 5656.00    0.56530   0.58047   19.194
 5657.00    0.56458   0.57958   19.156
 5658.00    0.55754   0.57866   19.121
 5659.00    0.54966   0.57806   19.090
 5660.00    0.54788   0.57784   19.118
 5661.00    0.55327   0.57766   19.205
 5662.00    0.55892   0.57754   19.263
 5663.00    0.55868   0.57786   19.221
 5664.00    0.55163   0.57841   19.098
 5665.00    0.54200   0.57898   19.032
 5666.00    0.53728   0.57967   19.203
 5667.00    0.54076   0.58056   19.467
 5668.00    0.54947   0.58145   19.371
 5669.00    0.55853   0.58223   19.013
 5670.00    0.56404   0.58316   18.999
 5671.00    0.56662   0.58395   19.246
 5672.00    0.57082   0.58471   18.985
 5673.00    0.57840   0.58521   18.320
 5674.00    0.58747   0.58553   18.104
 5675.00    0.59699   0.58567   18.296
 5676.00    0.60697   0.58563   18.051
 5677.00    0.61476   0.58561   17.216
 5678.00    0.61573   0.58516   16.344
 5679.00    0.60819   0.58472   15.598
 5680.00    0.59500   0.58406   14.877
 5681.00    0.58373   0.58350   14.382
 5682.00    0.58278   0.58273   14.427
 5683.00    0.59220   0.58214   14.976
 5684.00    0.60480   0.58181   15.719
 5685.00    0.61377   0.58136   16.531
 5686.00    0.61524   0.58111   17.480
 5687.00    0.60973   0.58081   18.392
 5688.00    0.60013   0.58089   18.882
 5689.00    0.58713   0.58087   18.900
 5690.00    0.57142   0.58108   18.739
 5691.00    0.55891   0.58123   18.626
 5692.00    0.55716   0.58126   18.601
 5693.00    0.56782   0.58121   18.455
 5694.00    0.58615   0.58079   18.031
 5695.00    0.60267   0.58047   17.628
 5696.00    0.60896   0.57980   17.518
 5697.00    0.60555   0.57920   17.338
 5698.00    0.59714   0.57816   16.637
 5699.00    0.58468   0.57704   15.656
 5700.00    0.56900   0.57592   14.812
 5701.00    0.55631   0.57454   14.200
 5702.00    0.55275   0.57334   13.813
 5703.00    0.55723   0.57219   13.731
 5704.00    0.56454   0.57124   14.053
 5705.00    0.56972   0.57025   14.806
 5706.00    0.56943   0.56948   15.910
 5707.00    0.56307   0.56898   17.081
 5708.00    0.55467   0.56874   17.886
 5709.00    0.55369   0.56872   18.063
 5710.00    0.56533   0.56922   17.702
 5711.00    0.58267   0.57005   17.161
 5712.00    0.59652   0.57097   16.747
 5713.00    0.60407   0.57230   16.559
 5714.00    0.60582   0.57372   16.549
 5715.00    0.60264   0.57518   16.577
 5716.00    0.59640   0.57664   16.646
 5717.00    0.59011   0.57814   17.012
 5718.00    0.58455   0.57950   17.726
 5719.00    0.57674   0.58072   18.278
 5720.00    0.56556   0.58180   18.297
 5721.00    0.55463   0.58269   18.147
 5722.00    0.54703   0.58326   18.252
 5723.00    0.54234   0.58365   18.694
 5724.00    0.53812   0.58377   19.223
 5725.00    0.53150   0.58370   19.328
 5726.00    0.52229   0.58369   18.937
 5727.00    0.51431   0.58342   18.598
 5728.00    0.51396   0.58334   18.485
 5729.00    0.52748   0.58318   18.209
 5730.00    0.55224   0.58300   17.738
 5731.00    0.57612   0.58275   17.527
 5732.00    0.59171   0.58255   17.652
 5733.00    0.60038   0.58263   17.691
 5734.00    0.60407   0.58247   17.450
 5735.00    0.60255   0.58255   17.176
 5736.00    0.59573   0.58251   17.149
 5737.00    0.58546   0.58247   17.485
 5738.00    0.57842   0.58239   17.857
 5739.00    0.58286   0.58227   17.644
 5740.00    0.59554   0.58226    0.000
 5741.00    0.60310   0.58201    0.000
 5742.00    0.59851   0.58193    0.000
 5743.00    0.58479   0.58166    0.000
 5744.00    0.57100   0.58147    0.000
 5745.00    0.56730   0.58116    0.000
 5746.00    0.57546   0.58073    0.000
 5747.00    0.58935   0.58034    0.000
 5748.00    0.60195   0.57984    0.000
 5749.00    0.60776   0.57964    0.000
 5750.00    0.60432   0.57932    0.000
 5751.00    0.59249   0.57902    0.000
 5752.00    0.57643   0.57856    0.000
 5753.00    0.56205   0.57813    0.000
 5754.00    0.55404   0.57781    0.000
 5755.00    0.55498   0.57764    0.000
 5756.00    0.56468   0.57770    0.000
 5757.00    0.57944   0.57771    0.000
 5758.00    0.59128   0.57772    0.000
 5759.00    0.59334   0.57760    0.000
 5760.00    0.58826   0.57753    0.000
 5761.00    0.58304   0.57755    0.000
 5762.00    0.57989   0.57775    0.000
 5763.00    0.57733   0.57796    0.000
 5764.00    0.57353   0.57833    0.000
 5765.00    0.56755   0.57853    0.000
 5766.00    0.56036   0.57862    0.000
 5767.00    0.55571   0.57862    0.000
 5768.00    0.56034   0.57851    0.000
 5769.00    0.57704   0.57846    0.000
 5770.00    0.59761   0.57813    0.000
 5771.00    0.61128   0.57781    0.000
 5772.00    0.61413   0.57711    0.000
 5773.00    0.60718   0.57624    0.000
 5774.00    0.59375   0.57519    0.000
 5775.00    0.57957   0.57400    0.000
 5776.00    0.57244   0.57288    0.000
 5777.00    0.57557   0.57157    0.000
 5778.00    0.58293   0.57021    0.000
 5779.00    0.58722   0.56886    0.000
 5780.00    0.58648   0.56766    0.000
 5781.00    0.58285   0.56651    0.000
 5782.00    0.58071   0.56577    0.000
 5783.00    0.58192   0.56523    0.000
 5784.00    0.58316   0.56490    0.000
 5785.00    0.58051   0.56484    0.000
 5786.00    0.57267   0.56504    0.000
 5787.00    0.56274   0.56574    0.000
 5788.00    0.55802   0.56635    0.000
 5789.00    0.56398   0.56727    0.000
 5790.00    0.58065   0.56815    0.000
 5791.00    0.60152   0.56901    0.000
 5792.00    0.61507   0.57025    0.000
 5793.00    0.61391   0.57140    0.000
 5794.00    0.59889   0.57255   -2.000
 5795.00    0.57701   0.57349   -2.000
 5796.00    0.55855   0.57428   -2.000
 5797.00    0.54991   0.57488   -2.000
 5798.00    0.55076   0.57545   -2.000
 5799.00    0.55493   0.57613   -2.000
 5800.00    0.55370   0.57680   -2.000
 5801.00    0.54582   0.57712   -2.000
 5802.00    0.53793   0.57728   -2.000
 5803.00    0.53300   0.57742   -2.000
 5804.00    0.52880   0.57729   -2.000
 5805.00    0.52537   0.57737   -2.000
 5806.00    0.52683   0.57734   -2.000
 5807.00    0.53944   0.57738   -2.000
 5808.00    0.56739   0.57726   -2.000
 5809.00    0.60325   0.57698   -2.000
 5810.00    0.63230   0.57695   -2.000
 5811.00    0.64967   0.57684   -2.000
 5812.00    0.65963   0.57685   -2.000
 5813.00    0.66322   0.57681   -2.000
 5814.00    0.65788   0.57681    0.000
 5815.00    0.64311   0.57684    0.000
 5816.00    0.62101   0.57688    0.000
 5817.00    0.59478   0.57708    0.000
 5818.00    0.56803   0.57744    0.000
 5819.00    0.54428   0.57766    0.000
 5820.00    0.52615   0.57786    0.000
 5821.00    0.51407   0.57806    0.000
 5822.00    0.50745   0.57823    0.000
 5823.00    0.50686   0.57847    0.000
 5824.00    0.51321   0.57857    0.000
 5825.00    0.52580   0.57881    0.000
 5826.00    0.54213   0.57884    0.000
 5827.00    0.55810   0.57878    0.000
 5828.00    0.57028   0.57874    0.000
 5829.00    0.57885   0.57865    0.000
 5830.00    0.58588   0.57863    0.000
 5831.00    0.59279   0.57838    0.000
 5832.00    0.59913   0.57825    0.000
 5833.00    0.60192   0.57806    0.000
 5834.00    0.59821   0.57790    0.000
 5835.00    0.58812   0.57769    0.000
 5836.00    0.57544   0.57752    0.000
 5837.00    0.56744   0.57734    0.000
 5838.00    0.56923   0.57695    0.000
 5839.00    0.57863   0.57667    0.000
 5840.00    0.58838   0.57625    0.000
 5841.00    0.58964   0.57590    0.000
 5842.00    0.58194   0.57537    0.000
 5843.00    0.57890   0.57467    0.000
 5844.00    0.58890   0.57389    0.000
 5845.00    0.60150   0.57285    0.000
 5846.00    0.60376   0.57176    0.000
 5847.00    0.59307   0.57060    0.000
 5848.00    0.57715   0.56945    0.000
 5849.00    0.57097   0.56821    0.000
 5850.00    0.57971   0.56669    0.000
 5851.00    0.59062   0.56522    0.000
 5852.00    0.58928   0.56391    0.000
 5853.00    0.57013   0.56260    0.000
 5854.00    0.53826   0.56163    0.000
 5855.00    0.50788   0.56064    0.000
 5856.00    0.49056   0.55981    0.000
 5857.00    0.48951   0.55904    0.000
 5858.00    0.50221   0.55850    0.000
 5859.00    0.52314   0.55842    0.000
 5860.00    0.54961   0.55832    0.000
 5861.00    0.58209   0.55858    0.000
 5862.00    0.61464   0.55866    0.000
 5863.00    0.63408   0.55889    0.000
 5864.00    0.63241   0.55930    0.000
 5865.00    0.61207   0.55957    0.000
 5866.00    0.58621   0.55994    0.000
 5867.00    0.57304   0.55996    0.000
 5868.00    0.57705   0.56015    0.000
 5869.00    0.58766   0.56012    0.000
 5870.00    0.59546   0.55992    0.000
 5871.00    0.59713   0.55973    0.000
 5872.00    0.59450   0.55898    0.000
 5873.00    0.59186   0.55835    0.000
 5874.00    0.58987   0.55736    0.000
 5875.00    0.58587   0.55626    0.000
 5876.00    0.57891   0.55498    0.000
 5877.00    0.57092   0.55321    0.000
 5878.00    0.56631   0.55153    0.000
 5879.00    0.56961   0.54923    0.000
 5880.00    0.58049   0.54676    0.000
 5881.00    0.59371   0.54381    0.000
 5882.00    0.60122   0.54018    0.000
 5883.00    0.59637   0.53618    0.000
 5884.00    0.58069   0.53217    0.000
 5885.00    0.56152   0.52832    0.000
 5886.00    0.54548   0.52417    0.000
 5887.00    0.53704   0.52004    0.000
 5888.00    0.53823   0.51532    0.000
 5889.00    0.54659   0.51090    0.000
 5890.00    0.55251   0.50756    0.000
 5891.00    0.54714   0.50570    0.000
 5892.00    0.53398   0.50495    0.000
 5893.00    0.52365   0.50399    0.000
 5894.00    0.52434   0.50392    0.000
 5895.00    0.53702   0.50428    0.000
 5896.00    0.55171   0.50579    0.000
 5897.00    0.55639   0.50921    0.000
 5898.00    0.54812   0.51283    0.000
 5899.00    0.53221   0.51658    0.000
 5900.00    0.51942   0.52009    0.000
 5901.00    0.51867   0.52366   17.569
 5902.00    0.53021   0.52759   17.511
 5903.00    0.54981   0.53141   17.270
 5904.00    0.57332   0.53501   16.880
 5905.00    0.59642   0.53804   16.485
 5906.00    0.61411   0.54060   16.301
 5907.00    0.62208   0.54252   16.408
 5908.00    0.61822   0.54427   16.634
 5909.00    0.60519   0.54560   16.743
 5910.00    0.59140   0.54667   16.632
 5911.00    0.58457   0.54748   16.428
 5912.00    0.58665   0.54784   16.446
 5913.00    0.59338   0.54831   16.775
 5914.00    0.59551   0.54821   17.081
 5915.00    0.58814   0.54843   17.224
 5916.00    0.57560   0.54863   17.624
 5917.00    0.56539   0.54874   18.412
 5918.00    0.56337   0.54903   18.924
 5919.00    0.56859   0.54899   18.726
 5920.00    0.57224   0.54930   18.318
 5921.00    0.56645   0.54946   18.202
 5922.00    0.54926   0.54956   18.462
 5923.00    0.52601   0.54980   18.879
 5924.00    0.50758   0.54999   19.034
 5925.00    0.50057   0.55020   18.873
 5926.00    0.50397   0.55033   18.813
 5927.00    0.51416   0.55031   18.940
 5928.00    0.52741   0.55026   18.879
 5929.00    0.54110   0.55028   18.529
 5930.00    0.55368   0.55018   18.207
 5931.00    0.56293   0.55033   18.072
 5932.00    0.56617   0.55043   18.047
 5933.00    0.56291   0.55030   18.077
 5934.00    0.55515   0.55010   18.169
 5935.00    0.54536   0.54989   18.253
 5936.00    0.53578   0.54998   18.223
 5937.00    0.52827   0.55005   18.160
 5938.00    0.52450   0.54999   18.219
 5939.00    0.52667   0.54987   18.176
 5940.00    0.53603   0.54960   17.675
 5941.00    0.54881   0.54932   17.127
 5942.00    0.55891   0.54913   17.226
 5943.00    0.56627   0.54907   17.860
 5944.00    0.57455   0.54889   18.286
 5945.00    0.58178   0.54859   18.203
 5946.00    0.58280   0.54823   17.944
 5947.00    0.57810   0.54787   17.960
 5948.00    0.57287   0.54764   18.481
 5949.00    0.57134   0.54728   19.083
 5950.00    0.57397   0.54717   19.092
 5951.00    0.57462   0.54710   18.848
 5952.00    0.56639   0.54681   19.086
 5953.00    0.55172   0.54669   19.597
 5954.00    0.53938   0.54671   19.687
 5955.00    0.53692   0.54707   19.365
 5956.00    0.54731   0.54723   19.108
 5957.00    0.56602   0.54736   19.157
 5958.00    0.58494   0.54775   19.454
 5959.00    0.59818   0.54816   19.650
 5960.00    0.60303   0.54884   19.474
 5961.00    0.60015   0.54915   19.227
 5962.00    0.59242   0.54959   19.242
 5963.00    0.58350   0.55004   19.293
 5964.00    0.57578   0.55031   19.059
 5965.00    0.56842   0.55070   18.688
 5966.00    0.56000   0.55075   18.473
 5967.00    0.55116   0.55098   18.519
 5968.00    0.54271   0.55097   18.725
 5969.00    0.53381   0.55077   18.788
 5970.00    0.52380   0.55055   18.562
 5971.00    0.51383   0.55007   18.336
 5972.00    0.50492   0.54968   18.374
 5973.00    0.49656   0.54918   18.602
 5974.00    0.49023   0.54860   18.845
 5975.00    0.49135   0.54796   19.021
 5976.00    0.50302   0.54722   19.079
 5977.00    0.52190   0.54649   18.959
 5978.00    0.54200   0.54590   18.750
 5979.00    0.55797   0.54537   18.714
 5980.00    0.56836   0.54496   18.940
 5981.00    0.57654   0.54463   19.196
 5982.00    0.58456   0.54428   19.334
 5983.00    0.58994   0.54406   19.506
 5984.00    0.58852   0.54385   19.794
 5985.00    0.57702   0.54398   20.034
 5986.00    0.55758   0.54426   20.128
 5987.00    0.53863   0.54446   20.175
 5988.00    0.52851   0.54468   20.182
 5989.00    0.53169   0.54483   20.002
 5990.00    0.54601   0.54511   19.705
 5991.00    0.56350   0.54532   19.593
 5992.00    0.57786   0.54552   19.643
 5993.00    0.58669   0.54571   19.490
 5994.00    0.58743   0.54585   19.143
 5995.00    0.57742   0.54571   19.015
 5996.00    0.55978   0.54536   19.177
 5997.00    0.54357   0.54511   19.294
 5998.00    0.53712   0.54477   19.215
 5999.00    0.54426   0.54458   19.089
 6000.00    0.56017   0.54408   18.987
 6001.00    0.57406   0.54343   18.854
 6002.00    0.58029   0.54288   18.679
 6003.00    0.58002   0.54218   18.530
 6004.00    0.57658   0.54192   18.523
 6005.00    0.57369   0.54159   18.726
 6006.00    0.57419   0.54099   18.940
 6007.00    0.57917   0.54054   18.838
 6008.00    0.58667   0.53988   18.517
 6009.00    0.59275   0.53976   18.340
 6010.00    0.59420   0.53978   18.378
 6011.00    0.59014   0.53942   18.466
 6012.00    0.58359   0.53909   18.488
 6013.00    0.57837   0.53865   18.397
 6014.00    0.57256   0.53860   18.148
 6015.00    0.56140   0.53873   17.760
 6016.00    0.54447   0.53861   17.408
 6017.00    0.52675   0.53843   17.246
 6018.00    0.51792   0.53849   17.163
 6019.00    0.52437   0.53861   16.982
 6020.00    0.53772   0.53885   16.777
 6021.00    0.54284   0.53921   16.710
 6022.00    0.53180   0.53949   16.774
 6023.00    0.50497   0.54023   16.912
 6024.00    0.46975   0.54072   17.217
 6025.00    0.43784   0.54138   17.753
 6026.00    0.42176   0.54225   18.267
 6027.00    0.42866   0.54285   18.413
 6028.00    0.45406   0.54384   18.200
 6029.00    0.48689   0.54450   17.936
 6030.00    0.51611   0.54524   17.999
 6031.00    0.53467   0.54596   18.470
 6032.00    0.54261   0.54637   18.789
 6033.00    0.54456   0.54702   18.522
 6034.00    0.54661   0.54737   18.203
 6035.00    0.55315   0.54764   18.313
 6036.00    0.56419   0.54792   18.538
 6037.00    0.57511   0.54801   18.536
 6038.00    0.57778   0.54825   18.578
 6039.00    0.56955   0.54829   18.869
 6040.00    0.55876   0.54826   19.041
 6041.00    0.55411   0.54839   18.875
 6042.00    0.55684   0.54835   18.782
 6043.00    0.56319   0.54847   18.964
 6044.00    0.56709   0.54844   18.989
 6045.00    0.56469   0.54834   18.695
 6046.00    0.55687   0.54832   18.607
 6047.00    0.54774   0.54817   18.858
 6048.00    0.54270   0.54804   18.806
 6049.00    0.54355   0.54777   18.297
 6050.00    0.54689   0.54747   18.069
 6051.00    0.54990   0.54710   18.349
 6052.00    0.55242   0.54671   18.505
 6053.00    0.55290   0.54615   18.298
 6054.00    0.54727   0.54567   18.284
 6055.00    0.53301   0.54516   18.619
 6056.00    0.51144   0.54461   18.760
 6057.00    0.48949   0.54419   18.428
 6058.00    0.47767   0.54353   17.933
 6059.00    0.47959   0.54325   17.522
 6060.00    0.49026   0.54281   17.226
 6061.00    0.50444   0.54250   17.138
 6062.00    0.51942   0.54252   17.381
 6063.00    0.53359   0.54224   17.720
 6064.00    0.54549   0.54242   17.628
 6065.00    0.55221   0.54232   17.124
 6066.00    0.55093   0.54252   16.740
 6067.00    0.54442   0.54310   16.759
 6068.00    0.54014   0.54324   17.156
 6069.00    0.54370   0.54360   17.730
 6070.00    0.55614   0.54361   18.188
 6071.00    0.57202   0.54376   18.435
 6072.00    0.58223   0.54410   18.608
 6073.00    0.58141   0.54393   18.803
 6074.00    0.56999   0.54370   18.975
 6075.00    0.55452   0.54330   18.914
 6076.00    0.54320   0.54279   18.494
 6077.00    0.53716   0.54222   18.126
 6078.00    0.53261   0.54148   18.297
 6079.00    0.52807   0.54076   18.818
 6080.00    0.52352   0.54004   19.136
 6081.00    0.51668   0.53936   19.246
 6082.00    0.50556   0.53858   19.470
 6083.00    0.49361   0.53794   19.659
 6084.00    0.48750   0.53751   19.533
 6085.00    0.49232   0.53698   19.418
 6086.00    0.50907   0.53666   19.678
 6087.00    0.53234   0.53634   19.821
 6088.00    0.55222   0.53616   19.305
 6089.00    0.55788   0.53616   18.770
 6090.00    0.54548   0.53583   18.874
 6091.00    0.52659   0.53572   19.137
 6092.00    0.51674   0.53566   18.957
 6093.00    0.52116   0.53551   18.906
 6094.00    0.53612   0.53553   19.514
 6095.00    0.55258   0.53522   19.902
 6096.00    0.56173   0.53492   19.242
 6097.00    0.56023   0.53447   18.559
 6098.00    0.54991   0.53395   18.749
 6099.00    0.53659   0.53401   19.309
 6100.00    0.52588   0.53377   19.517
 6101.00    0.51970   0.53338   19.609
 6102.00    0.51844   0.53277   19.965
 6103.00    0.52273   0.53230   20.312
 6104.00    0.53198   0.53283   20.248
 6105.00    0.54324   0.53312   19.776
 6106.00    0.55227   0.53306   19.137
 6107.00    0.55468   0.53290   18.581
 6108.00    0.54876   0.53283   18.295
 6109.00    0.53696   0.53353   18.398
 6110.00    0.52404   0.53399   18.828
 6111.00    0.51516   0.53379   19.279
 6112.00    0.51244   0.53351   19.483
 6113.00    0.51332   0.53343   19.450
 6114.00    0.51220   0.53335   19.370
 6115.00    0.50313   0.53299   19.468
 6116.00    0.48776   0.53222   19.715
 6117.00    0.47670   0.53123   19.762
 6118.00    0.47655   0.53090   19.426
 6119.00    0.48481   0.53038   18.921
 6120.00    0.49535   0.52951   18.677
 6121.00    0.50197   0.52878   19.109
 6122.00    0.50285   0.52781   19.977
 6123.00    0.50078   0.52773   20.251
 6124.00    0.49745   0.52771   19.703
 6125.00    0.49275   0.52723   19.235
 6126.00    0.49027   0.52692   19.170
 6127.00    0.49608   0.52631   19.152
 6128.00    0.50865   0.52637   19.160
 6129.00    0.51924   0.52647   19.569
 6130.00    0.52370   0.52606   20.311
 6131.00    0.52457   0.52553   20.835
 6132.00    0.52659   0.52467   21.119
 6133.00    0.53311   0.52451   21.640
 6134.00    0.54052   0.52438   22.020
 6135.00    0.54089   0.52388   21.279
 6136.00    0.53216   0.52328   19.814
 6137.00    0.51877   0.52254   18.620
 6138.00    0.50715   0.52286   17.543
 6139.00    0.50250   0.52340   16.162
 6140.00    0.50435   0.52356   15.037
 6141.00    0.50841   0.52354   14.815
 6142.00    0.51209   0.52354   15.319
 6143.00    0.51533   0.52438   15.939
 6144.00    0.51979   0.52529   16.446
 6145.00    0.52726   0.52563   16.988
 6146.00    0.53704   0.52563   17.547
 6147.00    0.54624   0.52555   17.921
 6148.00    0.55097   0.52572   17.967
 6149.00    0.54892   0.52566   17.831
 6150.00    0.54266   0.52504   18.089
 6151.00    0.53718   0.52418   19.156
 6152.00    0.53561   0.52312   20.274
 6153.00    0.53678   0.52202   20.287
 6154.00    0.53348   0.52062   19.903
 6155.00    0.52029   0.51883   20.334
 6156.00    0.50295   0.51696   21.396
 6157.00    0.49203   0.51498   22.040
 6158.00    0.49401   0.51318   21.484
 6159.00    0.50741   0.51132   19.908
 6160.00    0.52067   0.50946   18.247
 6161.00    0.52351   0.50763   17.085
 6162.00    0.51796   0.50605   16.402
 6163.00    0.51076   0.50506   16.131
 6164.00    0.50545   0.50418   16.414
 6165.00    0.50282   0.50367   17.272
 6166.00    0.50231   0.50342   18.216
 6167.00    0.50381   0.50344   18.664
 6168.00    0.50880   0.50391   18.652
 6169.00    0.51686   0.50441   18.449
 6170.00    0.52355   0.50520   18.112
 6171.00    0.52429   0.50638   17.811
 6172.00    0.51747   0.50752   17.976
 6173.00    0.50607   0.50862   18.752
 6174.00    0.49742   0.50966   19.658
 6175.00    0.49620   0.51065   20.176
 6176.00    0.50062   0.51186   20.357
 6177.00    0.50608   0.51285   20.426
 6178.00    0.50806   0.51355   20.434
 6179.00    0.50539   0.51411   20.342
 6180.00    0.50091   0.51441   20.129
 6181.00    0.49562   0.51452   20.026
 6182.00    0.48743   0.51458   20.472
 6183.00    0.47867   0.51445   21.420
 6184.00    0.47736   0.51406   22.078
 6185.00    0.48709   0.51363   22.119
 6186.00    0.50350   0.51270   22.125
 6187.00    0.51878   0.51212   21.973
 6188.00    0.52545   0.51185   20.755
 6189.00    0.52330   0.51113   18.862
 6190.00    0.51955   0.51076   17.473
 6191.00    0.52047   0.51008   16.807
 6192.00    0.52757   0.50981   16.527
 6193.00    0.53546   0.51026   16.673
 6194.00    0.53454   0.51007   17.618
 6195.00    0.52124   0.51018   19.171
 6196.00    0.50058   0.51044   20.295
 6197.00    0.48409   0.51077   20.738
 6198.00    0.48307   0.51150   21.123
 6199.00    0.49299   0.51169   -2.000
 6200.00    0.49629   0.51185   -2.000
 6201.00    0.47946   0.51234   -2.000
 6202.00    0.43792   0.51267   -2.000
 6203.00    0.37713   0.51279   -2.000
 6204.00    0.31423   0.51265   -2.000
 6205.00    0.28037   0.51229   -2.000
 6206.00    0.30133   0.51203   -2.000
 6207.00    0.35950   0.51175   -2.000
 6208.00    0.41410   0.51087   -2.000
 6209.00    0.45190   0.50989   -2.000
 6210.00    0.48123   0.50889   -2.000
 6211.00    0.50531   0.50774   16.211
 6212.00    0.52201   0.50697   16.500
 6213.00    0.53127   0.50570   17.871
 6214.00    0.53523   0.50427   19.612
 6215.00    0.53666   0.50332   20.918
 6216.00    0.53654   0.50228   21.435
 6217.00    0.53127   0.50172   21.622
 6218.00    0.51828   0.50106   22.057
 6219.00    0.50329   0.50002   22.462
 6220.00    0.49518   0.49952   22.242
 6221.00    0.49847   0.49915   21.476
 6222.00    0.51180   0.49893   20.579
 6223.00    0.52788   0.49876   19.753
 6224.00    0.53961   0.49825   19.110
 6225.00    0.54633   0.49779   18.811
 6226.00    0.54993   0.49765   18.955
 6227.00    0.55054   0.49758   19.484
 6228.00    0.54796   0.49735   20.099
 6229.00    0.54330   0.49719   20.189
 6230.00    0.53865   0.49677   19.402
 6231.00    0.53630   0.49664   18.152
 6232.00    0.53642   0.49675   17.069
 6233.00    0.53574   0.49643   16.589
 6234.00    0.53166   0.49646   16.864
 6235.00    0.52526   0.49621   17.772
 6236.00    0.51921   0.49603   19.032
 6237.00    0.51586   0.49608   20.229
 6238.00    0.51553   0.49554   21.197
 6239.00    0.51593   0.49548   22.343
 6240.00    0.51529   0.49524   23.212
 6241.00    0.51387   0.49483   22.023
 6242.00    0.51179   0.49465   20.570
 6243.00    0.50779   0.49403   23.269
 6244.00    0.50033   0.49388   25.123
 6245.00    0.48823   0.49373   15.392
 6246.00    0.47083   0.49316    8.325
 6247.00    0.44835   0.49274    6.520
 6248.00    0.42320   0.49224    6.656
 6249.00    0.40083   0.49196    6.648
 6250.00    0.39053   0.49184    6.244
 6251.00    0.40219   0.49120    7.351
 6252.00    0.43221   0.49061   12.945
 6253.00    0.46265   0.49030   25.123
 6254.00    0.47963   0.49011   24.066
 6255.00    0.47987   0.49021   19.218
 6256.00    0.46869   0.48998   19.389
 6257.00    0.45747   0.48996   20.379
 6258.00    0.45827   0.49041   19.631
 6259.00    0.47891   0.49078   18.532
 6260.00    0.51371   0.49148   18.183
 6261.00    0.54597   0.49206   18.524
 6262.00    0.56243   0.49287   18.686
 6263.00    0.55863   0.49397   17.513
 6264.00    0.54137   0.49466   15.356
 6265.00    0.52282   0.49545   13.385
 6266.00    0.50525   0.49634   12.169
 6267.00    0.48448   0.49719   11.857
 6268.00    0.46624   0.49805   12.476
 6269.00    0.46241   0.49846   14.090
 6270.00    0.47515   0.49881   16.594
 6271.00    0.49694   0.49938   19.265
 6272.00    0.51750   0.49974   21.215
 6273.00    0.52837   0.50007   22.199
 6274.00    0.52825   0.50018   22.350
 6275.00    0.52091   0.50005   21.992
 6276.00    0.50987   0.50031   21.630
 6277.00    0.49776   0.50042   21.582
 6278.00    0.48690   0.50052   21.570
 6279.00    0.47937   0.50076   21.206
 6280.00    0.47687   0.50052    0.000
 6281.00    0.47954   0.50078    0.000
 6282.00    0.48455   0.50113    0.000
 6283.00    0.48956   0.50124    0.000
 6284.00    0.49702   0.50174    0.000
 6285.00    0.50960   0.50167    0.000
 6286.00    0.52407   0.50176    0.000
 6287.00    0.53435   0.50209    0.000
 6288.00    0.53599   0.50198    0.000
 6289.00    0.52901   0.50221    0.000
 6290.00    0.51987   0.50203    0.000
 6291.00    0.51524   0.50149    0.000
 6292.00    0.51601   0.50121    0.000
 6293.00    0.52040   0.50080    0.000
 6294.00    0.52750   0.50063    0.000
 6295.00    0.53830   0.50024    0.000
 6296.00    0.55568   0.49938    0.000
 6297.00    0.57912   0.49894    0.000
 6298.00    0.60128   0.49880    0.000
 6299.00    0.61509   0.49879    0.000
 6300.00    0.61874   0.49860    0.000
 6301.00    0.61185   0.49823    0.000
 6302.00    0.59308   0.49838    0.000
 6303.00    0.56384   0.49879    0.000
 6304.00    0.53044   0.49905    0.000
 6305.00    0.50145   0.49912    0.000
 6306.00    0.48484   0.49920    0.000
 6307.00    0.48211   0.49954    0.000
 6308.00    0.48648   0.49993    0.000
 6309.00    0.49161   0.49994    0.000
 6310.00    0.49574   0.49972    0.000
 6311.00    0.49909   0.49986    0.000
 6312.00    0.50212   0.49984    0.000
 6313.00    0.50434   0.49962    0.000
 6314.00    0.50431   0.49950    0.000
 6315.00    0.50194   0.49928    0.000
 6316.00    0.49887   0.49949    0.000
 6317.00    0.49623   0.49946    0.000
 6318.00    0.49371   0.49925    0.000
 6319.00    0.48981   0.49965    0.000
 6320.00    0.48308   0.49991    0.000
 6321.00    0.47569   0.50035   22.988
 6322.00    0.47292   0.50062   22.629
 6323.00    0.47737   0.50090   21.937
 6324.00    0.48774   0.50166   21.572
 6325.00    0.50110   0.50181   21.665
 6326.00    0.51367   0.50214   21.874
 6327.00    0.52120   0.50241   22.016
 6328.00    0.52024   0.50260   22.136
 6329.00    0.51105   0.50296   22.174
 6330.00    0.49752   0.50245   22.029
 6331.00    0.48508   0.50221   21.920
 6332.00    0.47887   0.50231   22.153
 6333.00    0.48093   0.50206   22.424
 6334.00    0.49031   0.50175   22.179
 6335.00    0.50463   0.50119   21.798
 6336.00    0.52040   0.50078   22.032
 6337.00    0.53300   0.50075   22.658
 6338.00    0.53811   0.50041   22.869
 6339.00    0.53450   0.49988   22.678
 6340.00    0.52456   0.49986   22.623
 6341.00    0.51429   0.49975   22.655
 6342.00    0.50900   0.49959   22.497
 6343.00    0.50680   0.49951   22.450
 6344.00    0.50317   0.49927   22.880
 6345.00    0.49903   0.49938   23.336
 6346.00    0.49791   0.49940   23.165
 6347.00    0.50041   0.49919   22.750
 6348.00    0.50493   0.49905   22.664
 6349.00    0.50957   0.49882   22.530
 6350.00    0.51330   0.49846   21.934
 6351.00    0.51681   0.49819   21.488
 6352.00    0.52084   0.49779   21.701
 6353.00    0.52419   0.49705   21.918
 6354.00    0.52442   0.49636   21.477
 6355.00    0.51916   0.49571   21.034
 6356.00    0.50936   0.49512   21.231
 6357.00    0.50185   0.49448   21.601
 6358.00    0.50346   0.49367   21.537
 6359.00    0.51542   0.49316   21.307
 6360.00    0.53330   0.49293   21.295
 6361.00    0.54826   0.49272   21.333
 6362.00    0.55423   0.49255   21.135
 6363.00    0.55298   0.49269   20.662
 6364.00    0.54832   0.49310   19.969
 6365.00    0.54171   0.49346   19.100
 6366.00    0.53486   0.49396   18.349
 6367.00    0.53127   0.49462   18.224
 6368.00    0.53314   0.49545   18.713
 6369.00    0.53924   0.49625   18.948
 6370.00    0.54515   0.49672   18.512
 6371.00    0.54435   0.49735   18.179
 6372.00    0.53410   0.49810   18.445
 6373.00    0.51786   0.49857   19.007
 6374.00    0.50078   0.49889   19.545
 6375.00    0.48691   0.49907   20.120
 6376.00    0.47829   0.49927   20.793
 6377.00    0.47486   0.49951   21.380
 6378.00    0.47605   0.49941   21.595
 6379.00    0.48105   0.49920   21.284
 6380.00    0.48678   0.49908   20.812
 6381.00    0.48869   0.49896   20.860
 6382.00    0.48722   0.49884   21.518
 6383.00    0.48830   0.49852   22.173
 6384.00    0.49518   0.49816   22.455
 6385.00    0.50597   0.49791   22.604
 6386.00    0.51568   0.49774   22.811
 6387.00    0.51896   0.49745   23.020
 6388.00    0.51608   0.49685   23.174
 6389.00    0.51246   0.49653   23.265
 6390.00    0.51169   0.49636   23.217
 6391.00    0.51393   0.49613   22.978
 6392.00    0.51751   0.49587   22.870
 6393.00    0.52025   0.49540   23.252
 6394.00    0.52137   0.49515   23.467
 6395.00    0.52091   0.49494   22.295
 6396.00    0.51713   0.49500   20.086
 6397.00    0.50802   0.49515   18.049
 6398.00    0.49580   0.49507   16.699
 6399.00    0.48562   0.49516   16.072
 6400.00    0.48062   0.49497   16.002
 6401.00    0.48153   0.49528   16.302
 6402.00    0.48799   0.49572   16.965
 6403.00    0.49881   0.49548   18.011
 6404.00    0.51185   0.49592   19.014
 6405.00    0.52404   0.49615   19.323
 6406.00    0.53158   0.49597   19.119
 6407.00    0.53153   0.49614   19.105
 6408.00    0.52441   0.49588   19.586
 6409.00    0.51325   0.49609   20.501
 6410.00    0.50161   0.49643   21.535
 6411.00    0.49206   0.49591   22.262
 6412.00    0.48460   0.49583   22.563
 6413.00    0.47838   0.49596   22.591
 6414.00    0.47405   0.49584   22.479
 6415.00    0.47301   0.49586   22.409
 6416.00    0.47620   0.49565   22.717
 6417.00    0.48397   0.49572   23.442
 6418.00    0.49594   0.49613   23.737
 6419.00    0.50938   0.49610   22.930
 6420.00    0.51812   0.49596   21.799
 6421.00    0.51905   0.49606   21.123
 6422.00    0.51767   0.49635   20.752
 6423.00    0.51930   0.49672   20.394
 6424.00    0.52120   0.49680   20.146
 6425.00    0.51871   0.49657   20.189
 6426.00    0.51111   0.49661   20.546
 6427.00    0.50076   0.49691   21.070
 6428.00    0.49168   0.49688   21.404
 6429.00    0.48639   0.49679   21.170
 6430.00    0.48392   0.49655   20.237
 6431.00    0.48219   0.49636   18.915
 6432.00    0.47972   0.49665   17.748
 6433.00    0.47569   0.49638   17.033
 6434.00    0.47015   0.49598   16.806
 6435.00    0.46528   0.49621   17.221
 6436.00    0.46519   0.49625   18.673
 6437.00    0.47096   0.49635   20.983
 6438.00    0.47861   0.49622   22.209
 6439.00    0.48446   0.49579   21.311
 6440.00    0.48755   0.49619   20.321
 6441.00    0.48763   0.49638   20.322
 6442.00    0.48443   0.49605   20.712
 6443.00    0.47890   0.49610   20.937
 6444.00    0.47336   0.49570   21.110
 6445.00    0.46922   0.49531   21.321
 6446.00    0.46639   0.49533   21.409
 6447.00    0.46476   0.49482   21.432
 6448.00    0.46509   0.49461   21.630
 6449.00    0.47016   0.49417   21.534
 6450.00    0.48283   0.49327   20.232
 6451.00    0.49851   0.49331   18.255
 6452.00    0.50647   0.49311   16.810
 6453.00    0.50230   0.49276   16.116
 6454.00    0.49013   0.49273   15.896
 6455.00    0.47675   0.49237   16.207
 6456.00    0.46857   0.49242   17.399
 6457.00    0.46818   0.49222   19.390
 6458.00    0.47411   0.49193   21.155
 6459.00    0.48277   0.49229   21.395
 6460.00    0.49011   0.49244   19.991
 6461.00    0.49418   0.49252   18.326
 6462.00    0.49532   0.49227   17.602
 6463.00    0.49515   0.49206   17.906
 6464.00    0.49538   0.49250   18.801
 6465.00    0.49593   0.49259   19.808
 6466.00    0.49481   0.49250   20.512
 6467.00    0.48894   0.49261   20.894
 6468.00    0.47751   0.49274   21.182
 6469.00    0.46744   0.49275   21.259
 6470.00    0.46761   0.49250   21.001
 6471.00    0.47771   0.49228   21.027
 6472.00    0.49183   0.49234   21.790
 6473.00    0.50696   0.49236   21.959
 6474.00    0.52094   0.49201   20.155
 6475.00    0.52774   0.49156   18.024
 6476.00    0.52198   0.49125   17.057
 6477.00    0.50591   0.49087   16.945
 6478.00    0.48645   0.49034   17.076
 6479.00    0.47015   0.48985   17.560
 6480.00    0.46089   0.48935   18.704
 6481.00    0.45811   0.48860   20.130
 6482.00    0.45891   0.48770   21.078
 6483.00    0.46072   0.48684   21.527
 6484.00    0.46298   0.48600   21.946
 6485.00    0.46825   0.48499   22.491
 6486.00    0.47800   0.48360   23.005
 6487.00    0.48881   0.48242   23.169
 6488.00    0.49644   0.48117   22.942
 6489.00    0.49982   0.47947   22.854
 6490.00    0.50028   0.47799   23.154
 6491.00    0.50018   0.47652   23.234
 6492.00    0.49894   0.47538   22.681
 6493.00    0.49112   0.47445   22.060
 6494.00    0.47563   0.47294   21.756
 6495.00    0.46114   0.47237   21.404
 6496.00    0.45412   0.47226   20.864
 6497.00    0.45169   0.47201   20.651
 6498.00    0.45045   0.47253   21.048
 6499.00    0.45192   0.47290   21.681
 6500.00    0.45838   0.47379   21.861
 6501.00    0.47003   0.47519   21.092
 6502.00    0.48415   0.47603   19.892
 6503.00    0.49561   0.47730   19.420
 6504.00    0.50135   0.47872   19.949
 6505.00    0.50207   0.47991   20.687
 6506.00    0.49862   0.48122   21.088
 6507.00    0.49094   0.48209   21.559
 6508.00    0.48169   0.48279   22.372
 6509.00    0.47666   0.48357   23.147
 6510.00    0.47934   0.48401   23.485
 6511.00    0.48883   0.48424   23.397
 6512.00    0.50100   0.48447   23.205
 6513.00    0.51038   0.48445   23.284
 6514.00    0.51519   0.48442   23.564
 6515.00    0.51759   0.48436   23.555
 6516.00    0.51825   0.48410   23.124
 6517.00    0.51556   0.48404   22.617
 6518.00    0.50923   0.48382   22.300
 6519.00    0.50127   0.48356   22.196
 6520.00    0.49544   0.48366   22.077
 6521.00    0.49460   0.48350   21.696
 6522.00    0.49413   0.48332   21.385
 6523.00    0.48569   0.48324   21.711
 6524.00    0.47110   0.48309   22.394
 6525.00    0.46089   0.48307   22.498
 6526.00    0.46200   0.48283   22.004
 6527.00    0.47399   0.48250   21.693
 6528.00    0.48760   0.48244    0.000
 6529.00    0.49139   0.48224    0.000
 6530.00    0.48585   0.48190    0.000
 6531.00    0.47963   0.48154    0.000
 6532.00    0.47675   0.48109    0.000
 6533.00    0.47691   0.48059    0.000
 6534.00    0.48054   0.48004    0.000
 6535.00    0.48790   0.47941    0.000
 6536.00    0.49622   0.47870    0.000
 6537.00    0.50248   0.47777    0.000
 6538.00    0.50830   0.47665    0.000
 6539.00    0.51687   0.47559    0.000
 6540.00    0.52735   0.47427    0.000
 6541.00    0.53692   0.47255    0.000
 6542.00    0.54470   0.47085    0.000
 6543.00    0.55155   0.46897    0.000
 6544.00    0.55920   0.46695    0.000
 6545.00    0.56869   0.46457    0.000
 6546.00    0.57875   0.46159    0.000
 6547.00    0.58701   0.45891    0.000
 6548.00    0.59152   0.45607    0.000
 6549.00    0.58934   0.45242    0.000
 6550.00    0.57557   0.44872    0.000
 6551.00    0.54836   0.44480    0.000
 6552.00    0.51349   0.44080    0.000
 6553.00    0.47992   0.43663    0.000
 6554.00    0.45558   0.43143    0.000
 6555.00    0.44929   0.42667    0.000
 6556.00    0.47435   0.42281    0.000
 6557.00    0.56186   0.41814    0.000
 6558.00    0.76500   0.41372    0.000
 6559.00    1.11178   0.41049    0.000
 6560.00    1.57048   0.40774    0.000
 6561.00    2.05637   0.40571    0.000
 6562.00    2.44600   0.40352    0.000
 6563.00    2.62900   0.40222    0.000
 6564.00    2.54614   0.40366    0.000
 6565.00    2.21613   0.40520    0.000
 6566.00    1.74105   0.40650    0.000
 6567.00    1.25211   0.40961    0.000
 6568.00    0.86765   0.41324    0.000
 6569.00    0.63875   0.41677    0.000
 6570.00    0.53381   0.42057    0.000
 6571.00    0.49872   0.42445    0.000
 6572.00    0.48946   0.42899    0.000
 6573.00    0.48089   0.43348    0.000
 6574.00    0.46781   0.43721    0.000
 6575.00    0.45438   0.44099    0.000
 6576.00    0.44855   0.44464    0.000
 6577.00    0.45850   0.44778    0.000
 6578.00    0.49069   0.45067    0.000
 6579.00    0.54771   0.45340    0.000
 6580.00    0.62649   0.45579    0.000
 6581.00    0.71469   0.45771    0.000
 6582.00    0.79258   0.45959    0.000
 6583.00    0.84245   0.46128    0.000
 6584.00    0.85291   0.46248    0.000
 6585.00    0.82199   0.46353    0.000
 6586.00    0.75737   0.46444    0.000
 6587.00    0.67431   0.46524    0.000
 6588.00    0.59221   0.46578    0.000
 6589.00    0.52739   0.46613    0.000
 6590.00    0.48869   0.46654    0.000
 6591.00    0.47175   0.46695    0.000
 6592.00    0.46473   0.46718    0.000
 6593.00    0.46361   0.46711    0.000
 6594.00    0.46975   0.46742    0.000
 6595.00    0.47817   0.46799    0.000
 6596.00    0.48102   0.46809    0.000
 6597.00    0.47899   0.46836    0.000
 6598.00    0.47821   0.46876    0.000
 6599.00    0.48097   0.46904    0.000
 6600.00    0.48530   0.46944    0.000
 6601.00    0.48747   0.46955    0.000
 6602.00    0.48570   0.46984    0.000
 6603.00    0.48503   0.47040    0.000
 6604.00    0.49071   0.47051    0.000
 6605.00    0.49809   0.47065    0.000
 6606.00    0.49880   0.47095    0.000
 6607.00    0.49115   0.47122    0.000
 6608.00    0.47838   0.47145    0.000
 6609.00    0.46472   0.47148   21.525
 6610.00    0.45444   0.47186   21.823
 6611.00    0.45117   0.47234   21.652
 6612.00    0.45525   0.47248   21.148
 6613.00    0.46148   0.47269   20.782
 6614.00    0.46534   0.47295   20.820
 6615.00    0.46917   0.47333   20.954
 6616.00    0.47643   0.47344   20.935
 6617.00    0.48576   0.47332   21.162
 6618.00    0.49265   0.47355   21.922
 6619.00    0.49199   0.47358   22.659
 6620.00    0.48356   0.47334   22.805
 6621.00    0.47548   0.47319   22.759
 6622.00    0.47589   0.47288   22.965
 6623.00    0.48617   0.47259   23.147
 6624.00    0.50101   0.47218   22.948
 6625.00    0.51032   0.47156   22.468
 6626.00    0.50884   0.47123   21.976
 6627.00    0.50165   0.47088   21.680
 6628.00    0.49652   0.47028   21.656
 6629.00    0.49830   0.46996   21.837
 6630.00    0.50665   0.46965   22.048
 6631.00    0.51603   0.46920   22.055
 6632.00    0.52268   0.46896   21.820
 6633.00    0.52749   0.46869   21.583
 6634.00    0.53107   0.46847   21.567
 6635.00    0.53150   0.46836   21.818
 6636.00    0.52692   0.46822   22.065
 6637.00    0.51722   0.46825   21.813
 6638.00    0.50546   0.46823   21.237
 6639.00    0.49717   0.46812   21.147
 6640.00    0.49433   0.46811   21.681
 6641.00    0.49400   0.46818   22.129
 6642.00    0.49257   0.46827   22.184
 6643.00    0.48812   0.46803   22.316
 6644.00    0.48232   0.46800   22.704
 6645.00    0.47893   0.46828   23.019
 6646.00    0.47657   0.46812   23.174
 6647.00    0.47000   0.46796   23.428
 6648.00    0.46198   0.46801   23.706
 6649.00    0.46169   0.46793   23.610
 6650.00    0.46947   0.46787   23.210
 6651.00    0.47648   0.46761   22.961
 6652.00    0.47640   0.46735   22.922
 6653.00    0.46869   0.46730   22.846
 6654.00    0.45831   0.46701   22.808
 6655.00    0.45327   0.46655   23.032
 6656.00    0.45904   0.46631   23.133
 6657.00    0.47598   0.46606   22.523
 6658.00    0.49684   0.46562   21.731
 6659.00    0.51059   0.46530   21.672
 6660.00    0.51120   0.46494   22.264
 6661.00    0.49967   0.46462   22.800
 6662.00    0.48405   0.46445   23.059
 6663.00    0.47476   0.46401   23.259
 6664.00    0.47622   0.46381   23.359
 6665.00    0.48616   0.46387   23.232
 6666.00    0.49730   0.46352   23.191
 6667.00    0.50195   0.46337   23.548
 6668.00    0.49877   0.46347   23.852
 6669.00    0.49142   0.46311   23.524
 6670.00    0.48507   0.46287   23.044
 6671.00    0.48221   0.46285   23.024
 6672.00    0.47831   0.46262   23.024
 6673.00    0.46719   0.46240   22.514
 6674.00    0.44866   0.46213   22.138
 6675.00    0.42902   0.46185   22.512
 6676.00    0.41985   0.46181   22.956
 6677.00    0.42885   0.46142   22.606
 6678.00    0.45049   0.46100   21.973
 6679.00    0.47214   0.46117   21.829
 6680.00    0.48220   0.46120   22.152
 6681.00    0.47826   0.46099   22.588
 6682.00    0.47276   0.46111   22.866
 6683.00    0.47818   0.46139   22.882
 6684.00    0.49386   0.46150   22.733
 6685.00    0.51104   0.46156   22.639
 6686.00    0.51914   0.46174   22.842
 6687.00    0.51479   0.46191   23.344
 6688.00    0.50680   0.46195   23.724
 6689.00    0.50304   0.46203   23.673
 6690.00    0.50166   0.46205   23.430
 6691.00    0.49923   0.46205   23.290
 6692.00    0.49634   0.46206   23.281
 6693.00    0.49445   0.46188   23.289
 6694.00    0.49384   0.46179   23.175
 6695.00    0.49447   0.46167   22.919
 6696.00    0.49621   0.46129    0.000
 6697.00    0.49705   0.46123    0.000
 6698.00    0.49336   0.46113    0.000
 6699.00    0.48601   0.46077    0.000
 6700.00    0.48188   0.46074    0.000
 6701.00    0.48530   0.46057    0.000
 6702.00    0.49433   0.46023    0.000
 6703.00    0.50264   0.46014    0.000
 6704.00    0.50254   0.45979    0.000
 6705.00    0.49319   0.45945    0.000
 6706.00    0.48202   0.45926    0.000
 6707.00    0.47672   0.45875    0.000
 6708.00    0.48128   0.45838    0.000
 6709.00    0.49352   0.45795    0.000
 6710.00    0.50931   0.45726    0.000
 6711.00    0.53899   0.45693    0.000
 6712.00    0.60413   0.45647    0.000
 6713.00    0.71052   0.45574    0.000
 6714.00    0.84138   0.45533    0.000
 6715.00    0.96353   0.45492    0.000
 6716.00    1.03764   0.45455    0.000
 6717.00    1.04020   0.45416    0.000
 6718.00    0.96993   0.45379    0.000
 6719.00    0.84799   0.45390    0.000
 6720.00    0.71106   0.45389    0.000
 6721.00    0.59516   0.45370    0.000
 6722.00    0.52434   0.45394    0.000
 6723.00    0.49547   0.45417    0.000
 6724.00    0.48914   0.45432    0.000
 6725.00    0.49843   0.45452    0.000
 6726.00    0.52877   0.45464    0.000
 6727.00    0.58627   0.45494    0.000
 6728.00    0.67063   0.45517    0.000
 6729.00    0.76711   0.45514    0.000
 6730.00    0.84899   0.45530    0.000
 6731.00    0.88465   0.45536    0.000
 6732.00    0.85213   0.45521    0.000
 6733.00    0.75908   0.45519    0.000
 6734.00    0.63735   0.45496    0.000
 6735.00    0.52948   0.45465    0.000
 6736.00    0.46641   0.45453    0.000
 6737.00    0.44169   0.45415    0.000
 6738.00    0.43189   0.45375    0.000
 6739.00    0.42621   0.45345    0.000
 6740.00    0.42327   0.45303    0.000
 6741.00    0.42315   0.45278    0.000
 6742.00    0.42638   0.45233    0.000
 6743.00    0.43382   0.45190    0.000
 6744.00    0.44612   0.45182    0.000
 6745.00    0.46305   0.45150    0.000
 6746.00    0.48147   0.45126    0.000
 6747.00    0.49410   0.45119    0.000
 6748.00    0.49566   0.45113    0.000
 6749.00    0.48807   0.45120    0.000
 6750.00    0.47617   0.45107    0.000
 6751.00    0.46373   0.45129    0.000
 6752.00    0.45237   0.45166    0.000
 6753.00    0.44185   0.45158   24.030
 6754.00    0.43600   0.45197   23.819
 6755.00    0.44495   0.45241   20.711
 6756.00    0.47022   0.45244   16.283
 6757.00    0.49707   0.45286   13.495
 6758.00    0.51150   0.45316   12.311
 6759.00    0.51042   0.45317   11.734
 6760.00    0.49553   0.45343   11.426
 6761.00    0.47046   0.45354   11.800
 6762.00    0.44637   0.45348   13.090
 6763.00    0.44121   0.45356   14.741
 6764.00    0.45978   0.45347   15.786
 6765.00    0.48708   0.45337   15.927
 6766.00    0.50672   0.45342   15.655
 6767.00    0.51064   0.45320   15.664
 6768.00    0.50146   0.45306   16.270
 6769.00    0.49068   0.45322   17.345
 6770.00    0.48762   0.45306   18.581
 6771.00    0.49467   0.45291   19.580
 6772.00    0.50727   0.45309   20.016
 6773.00    0.51621   0.45303   19.866
 6774.00    0.51532   0.45296   19.481
 6775.00    0.50423   0.45295   19.319
 6776.00    0.48813   0.45284   19.411
 6777.00    0.47546   0.45278   19.465
 6778.00    0.47129   0.45255   19.604
 6779.00    0.47576   0.45230   20.197
 6780.00    0.48581   0.45213   20.580
 6781.00    0.49560   0.45178   19.468
 6782.00    0.49671   0.45141   17.646
 6783.00    0.48300   0.45108   16.631
 6784.00    0.46228   0.45069   16.493
 6785.00    0.44983   0.45041   16.642
 6786.00    0.44677   0.45012   16.942
 6787.00    0.44328   0.44981   17.670
 6788.00    0.43655   0.44966   18.890
 6789.00    0.43102   0.44956   20.312
 6790.00    0.43071   0.44933   21.399
 6791.00    0.43657   0.44931   21.591
 6792.00    0.44483   0.44940   20.811
 6793.00    0.44974   0.44921   19.514
 6794.00    0.44897   0.44931   18.276
 6795.00    0.44404   0.44945   17.465
 6796.00    0.43936   0.44930   17.164
 6797.00    0.43901   0.44955   17.383
 6798.00    0.44236   0.44962   18.233
 6799.00    0.44670   0.44949   19.752
 6800.00    0.45185   0.44978   21.357
 6801.00    0.45811   0.44968   22.049
 6802.00    0.46292   0.44962   21.740
 6803.00    0.46545   0.44981   20.887
 6804.00    0.47208   0.44951   19.417
 6805.00    0.48728   0.44958   17.586
 6806.00    0.50312   0.44965   16.348
 6807.00    0.51006   0.44921   16.143
 6808.00    0.50915   0.44936   16.546
 6809.00    0.50192   0.44935   17.119
 6810.00    0.48067   0.44896   18.224
 6811.00    0.44660   0.44910   20.315
 6812.00    0.42483   0.44902   22.573
 6813.00    0.43476   0.44885   22.926
 6814.00    0.46470   0.44895   20.585
 6815.00    0.49261   0.44879   17.392
 6816.00    0.50494   0.44882   15.251
 6817.00    0.49680   0.44892   14.387
 6818.00    0.47086   0.44879   14.175
 6819.00    0.43629   0.44885   14.376
 6820.00    0.40682   0.44889   15.576
 6821.00    0.39254   0.44883   18.218
 6822.00    0.39450   0.44889   20.992
 6823.00    0.40582   0.44887   21.861
 6824.00    0.41482   0.44880   21.911
 6825.00    0.41749   0.44877   22.569
 6826.00    0.42191   0.44873   23.231
 6827.00    0.43222   0.44858   23.198
 6828.00    0.44165   0.44837   22.895
 6829.00    0.44338   0.44828   22.591
 6830.00    0.43637   0.44806   21.916
 6831.00    0.42510   0.44778   20.809
 6832.00    0.41723   0.44755   19.695
 6833.00    0.41417   0.44722   18.836
 6834.00    0.40998   0.44696   18.288
 6835.00    0.40401   0.44666   18.287
 6836.00    0.40280   0.44619   19.246
 6837.00    0.40736   0.44596   21.017
 6838.00    0.41181   0.44562   22.230
 6839.00    0.41587   0.44517   21.265
 6840.00    0.42602   0.44498   18.385
 6841.00    0.44383   0.44464   15.611
 6842.00    0.46235   0.44437   14.147
 6843.00    0.46751   0.44427   13.819
 6844.00    0.44633   0.44396   14.132
 6845.00    0.40817   0.44393   15.052
 6846.00    0.37876   0.44384   16.970
 6847.00    0.36821   0.44353   19.745
 6848.00    0.36897   0.44360   21.882
 6849.00    0.37281   0.44345   22.496
 6850.00    0.37663   0.44312   22.637
 6851.00    0.38530   0.44311   22.843
 6852.00    0.40513   0.44285   22.791
 6853.00    0.42883   0.44265   22.450
 6854.00    0.44197   0.44255   22.141
 6855.00    0.44242   0.44208   22.123
 6856.00    0.43854   0.44203   22.449
 6857.00    0.43830   0.44196   22.815
 6858.00    0.44432   0.44145   22.731
 6859.00    0.44936   0.44151   22.026
 6860.00    0.44487   0.44152   20.930
 6861.00    0.43575   0.44112   19.858
 6862.00    0.43263   0.44118   19.079
 6863.00    0.43660   0.44126   18.527
 6864.00    0.44170   0.44113   18.158
 6865.00    0.44190   0.44118   18.303
 6866.00    0.43588   0.44118   19.226
 6867.00    0.43140   0.44131   20.357
 6868.00    0.43719   0.44136   20.539
 6869.00    0.45260   0.44129   19.340
 6870.00    0.47196   0.44155   17.494
 6871.00    0.49085   0.44165   16.085
 6872.00    0.50292   0.44153   15.646
 6873.00    0.49696   0.44185   16.208
 6874.00    0.47141   0.44206   17.608
 6875.00    0.44699   0.44197   19.278
 6876.00    0.44380   0.44220   20.472
 6877.00    0.45939   0.44246   21.228
 6878.00    0.47871   0.44252   21.896
 6879.00    0.48583   0.44267   22.211
 6880.00    0.47425   0.44290   22.058
 6881.00    0.45323   0.44305   22.139
 6882.00    0.43491   0.44318   22.841
 6883.00    0.42453   0.44336   23.454
 6884.00    0.42353   0.44361   23.295
 6885.00    0.43201   0.44385   22.771
 6886.00    0.44687   0.44396   22.404
 6887.00    0.46104   0.44419   22.223
 6888.00    0.46769   0.44461   22.135
 6889.00    0.46346   0.44471   22.134
 6890.00    0.45147   0.44480   22.244
 6891.00    0.44109   0.44522   22.463
 6892.00    0.43797   0.44536   22.693
 6893.00    0.43990   0.44538   22.721
 6894.00    0.44416   0.44564   22.415
 6895.00    0.45009   0.44574   21.855
 6896.00    0.45286   0.44581   21.350
 6897.00    0.44366   0.44590   21.294
 6898.00    0.42319   0.44595   21.751
 6899.00    0.40429   0.44612   22.340
 6900.00    0.39792   0.44603   22.510
 6901.00    0.40750   0.44603   21.878
 6902.00    0.43033   0.44621   20.716
 6903.00    0.45872   0.44605   19.680
 6904.00    0.48177   0.44604   19.039
 6905.00    0.48896   0.44603   18.757
 6906.00    0.47953   0.44582   18.911
 6907.00    0.46246   0.44588   19.707
 6908.00    0.44686   0.44562   21.110
 6909.00    0.43779   0.44535   22.633
 6910.00    0.43351   0.44541   23.537
 6911.00    0.42718   0.44498   23.395
 6912.00    0.41358   0.44476   22.994
 6913.00    0.39231   0.44475   23.518
 6914.00    0.37079   0.44419   24.698
 6915.00    0.35946   0.44413   25.082
 6916.00    0.35944   0.44415   24.612
 6917.00    0.36425   0.44364   24.456
 6918.00    0.36961   0.44368   24.703
 6919.00    0.37507   0.44371   24.645
 6920.00    0.38254   0.44341   24.163
 6921.00    0.39412   0.44352   23.619
 6922.00    0.40854   0.44352   23.101
 6923.00    0.42219   0.44341   22.559
 6924.00    0.43184   0.44356   22.171
 6925.00    0.43589   0.44353   22.053
 6926.00    0.43531   0.44354   21.798
 6927.00    0.43213   0.44372   21.060
 6928.00    0.42686   0.44372   20.368
 6929.00    0.41985   0.44380   20.257
 6930.00    0.41352   0.44394   20.339
 6931.00    0.40973   0.44400   20.119
 6932.00    0.40614   0.44411   20.110
 6933.00    0.39990   0.44408   20.943
 6934.00    0.39261   0.44412   22.176
 6935.00    0.38958   0.44430   22.774
 6936.00    0.39768   0.44416   22.443
 6937.00    0.41912   0.44414   21.602
 6938.00    0.44555   0.44430   20.684
 6939.00    0.46635   0.44411   19.923
 6940.00    0.47719   0.44405   19.349
 6941.00    0.47563   0.44413   18.986
 6942.00    0.45730   0.44391   18.962
 6943.00    0.42515   0.44389   19.338
 6944.00    0.39612   0.44394   19.963
 6945.00    0.38440   0.44365   20.587
 6946.00    0.38850   0.44371   21.018
 6947.00    0.39993   0.44384   21.265
 6948.00    0.41138   0.44355   21.599
 6949.00    0.42067   0.44369   22.087
 6950.00    0.43198   0.44390   22.299
 6951.00    0.44612   0.44369   22.061
 6952.00    0.45569   0.44386   21.897
 6953.00    0.45546   0.44412   22.168
 6954.00    0.44858   0.44400   22.642
 6955.00    0.44369   0.44419   22.851
 6956.00    0.45044   0.44450   22.441
 6957.00    0.46637   0.44449   21.646
 6958.00    0.47506   0.44467   21.152
 6959.00    0.47248   0.44495   21.090
 6960.00    0.47408   0.44498   20.925
 6961.00    0.48523   0.44512   20.510
 6962.00    0.49246   0.44530   20.318
 6963.00    0.48812   0.44525   20.529
 6964.00    0.47840   0.44528   20.806
 6965.00    0.47105   0.44530   20.841
 6966.00    0.46924   0.44512   20.624
 6967.00    0.46864   0.44498   20.449
 6968.00    0.46037   0.44481   20.711
 6969.00    0.44440   0.44447   21.376
 6970.00    0.42992   0.44415   21.917
 6971.00    0.42061   0.44385   22.010
 6972.00    0.41313   0.44338   21.799
 6973.00    0.40711   0.44302   21.568
 6974.00    0.40575   0.44271   21.537
 6975.00    0.40820   0.44218   21.712
 6976.00    0.40999   0.44192   21.922
 6977.00    0.40978   0.44188   22.012
 6978.00    0.40969   0.44144   21.891
 6979.00    0.41151   0.44132   21.544
 6980.00    0.41640   0.44161   21.061
 6981.00    0.42625   0.44151   20.707
 6982.00    0.44139   0.44157   20.729
 6983.00    0.45515   0.44199   21.010
 6984.00    0.45869   0.44225   21.247
 6985.00    0.45267   0.44242   21.452
 6986.00    0.44470   0.44271   21.814
 6987.00    0.44022   0.44306   22.173
 6988.00    0.44039   0.44320   22.226
 6989.00    0.44165   0.44331   22.148
 6990.00    0.44026   0.44357   22.310
 6991.00    0.43942   0.44356   22.650
 6992.00    0.44361   0.44353   22.916
 6993.00    0.44870   0.44363   23.196
 6994.00    0.44774   0.44342   23.663
 6995.00    0.44082   0.44332   24.053
 6996.00    0.43195   0.44328   23.994
 6997.00    0.42324   0.44291   23.633
 6998.00    0.41528   0.44275   23.370
 6999.00    0.40881   0.44260   23.417
 7000.00    0.40677   0.44222   23.578
 7001.00    0.41574   0.44202   -2.000
 7002.00    0.43653   0.44182   -2.000
 7003.00    0.45540   0.44153   -2.000
 7004.00    0.45925   0.44130   -2.000
 7005.00    0.45100   0.44111   -2.000
 7006.00    0.44101   0.44097   -2.000
 7007.00    0.43738   0.44074   -2.000
 7008.00    0.44258   0.44049   -2.000
 7009.00    0.45183   0.44045   -2.000
 7010.00    0.45886   0.44031   -2.000
 7011.00    0.46050   0.44007   -2.000
 7012.00    0.45549   0.44008   -2.000
 7013.00    0.44384   0.43998   -2.000
 7014.00    0.43021   0.43982   -2.000
 7015.00    0.42464   0.43992   -2.000
 7016.00    0.43020   0.43976   -2.000
 7017.00    0.43724   0.43974   -2.000
 7018.00    0.43889   0.44003   -2.000
 7019.00    0.43918   0.43988   -2.000
 7020.00    0.44271   0.43994   -2.000
 7021.00    0.44838   0.44033   -2.000
 7022.00    0.44981   0.44040   -2.000
 7023.00    0.43852   0.44053   -2.000
 7024.00    0.41835   0.44078   -2.000
 7025.00    0.40739   0.44102   -2.000
 7026.00    0.41413   0.44129   -2.000
 7027.00    0.42927   0.44146   -2.000
 7028.00    0.44050   0.44181   -2.000
 7029.00    0.44034   0.44218   -2.000
 7030.00    0.43077   0.44241   -2.000
 7031.00    0.42106   0.44285   -2.000
 7032.00    0.41361   0.44317   -2.000
 7033.00    0.40238   0.44351   -2.000
 7034.00    0.38665   0.44411   -2.000
 7035.00    0.37403   0.44436   -2.000
 7036.00    0.37441   0.44479   -2.000
 7037.00    0.39424   0.44556   -2.000
 7038.00    0.42619   0.44569   -2.000
 7039.00    0.45247   0.44610   -2.000
 7040.00    0.46280   0.44698   -2.000
 7041.00    0.45662   0.44701   -2.000
 7042.00    0.43519   0.44717   -2.000
 7043.00    0.40322   0.44787   -2.000
 7044.00    0.37782   0.44781   -2.000
 7045.00    0.37851   0.44763   -2.000
 7046.00    0.40007   0.44777   -2.000
 7047.00    0.42078   0.44741   -2.000
 7048.00    0.43263   0.44688   -2.000
 7049.00    0.43956   0.44642   -2.000
 7050.00    0.44103   0.44569   -2.000
 7051.00    0.43207   0.44492   -2.000
 7052.00    0.40966   0.44401   -2.000
 7053.00    0.37885   0.44297   -2.000
 7054.00    0.36027   0.44207   -2.000
 7055.00    0.37138   0.44100   -2.000
 7056.00    0.39584   0.43994   -2.000
 7057.00    0.40521   0.43904   -2.000
 7058.00    0.39796   0.43815   -2.000
 7059.00    0.38890   0.43734   -2.000
 7060.00    0.38640   0.43653   -2.000
 7061.00    0.39149   0.43599   -2.000
 7062.00    0.40092   0.43552   -2.000
 7063.00    0.40915   0.43488   -2.000
 7064.00    0.41055   0.43472   -2.000
 7065.00    0.40436   0.43460   -2.000
 7066.00    0.39898   0.43421   -2.000
 7067.00    0.39852   0.43435   -2.000
 7068.00    0.39028   0.43440   -2.000
 7069.00    0.36754   0.43420   -2.000
 7070.00    0.35085   0.43445   -2.000
 7071.00    0.35946   0.43451   -2.000
 7072.00    0.38480   0.43436   -2.000
 7073.00    0.40790   0.43447   -2.000
 7074.00    0.41710   0.43440   -2.000
 7075.00    0.41181   0.43410   -2.000
 7076.00    0.40303   0.43376   -2.000
 7077.00    0.40064   0.43337   -2.000
 7078.00    0.40440   0.43277   -2.000
 7079.00    0.40843   0.43194   -2.000
 7080.00    0.40587   0.43118   -2.000
 7081.00    0.39530   0.43021   -2.000
 7082.00    0.38347   0.42902   -2.000
 7083.00    0.37682   0.42807   -2.000
 7084.00    0.37650   0.42681   -2.000
 7085.00    0.38069   0.42550   -2.000
 7086.00    0.38682   0.42462   -2.000
 7087.00    0.39485   0.42334   -2.000
 7088.00    0.40731   0.42218   -2.000
 7089.00    0.42089   0.42159   -2.000
 7090.00    0.42542   0.42067   -2.000
 7091.00    0.41926   0.41993   -2.000
 7092.00    0.41303   0.41961   -2.000
 7093.00    0.41474   0.41921   -2.000
 7094.00    0.42342   0.41897   -2.000
 7095.00    0.43038   0.41891   -2.000
 7096.00    0.42446   0.41904   -2.000
 7097.00    0.40851   0.41919   -2.000
 7098.00    0.39809   0.41922   -2.000
 7099.00    0.39550   0.41977   -2.000
 7100.00    0.38813   0.42008   -2.000
 7101.00    0.37236   0.42013   -2.000
 7102.00    0.35761   0.42085   -2.000
 7103.00    0.35433   0.42113   -2.000
 7104.00    0.36745   0.42122   -2.000
 7105.00    0.38953   0.42179   -2.000
 7106.00    0.40597   0.42196   -2.000
 7107.00    0.41330   0.42206   -2.000
 7108.00    0.41828   0.42246   -2.000
 7109.00    0.42373   0.42257   -2.000
 7110.00    0.42533   0.42263   -2.000
 7111.00    0.41267   0.42280   -2.000
 7112.00    0.38217   0.42287   -2.000
 7113.00    0.36199   0.42291   -2.000
 7114.00    0.38388   0.42290   -2.000
 7115.00    0.41968   0.42286   -2.000
 7116.00    0.41650   0.42281   -2.000
 7117.00    0.38241   0.42272   -2.000
 7118.00    0.36255   0.42255   -2.000
 7119.00    0.37195   0.42225   -2.000
 7120.00    0.39689   0.42205   -2.000
 7121.00    0.41649   0.42179   -2.000
 7122.00    0.41558   0.42124   -2.000
 7123.00    0.39819   0.42095   -2.000
 7124.00    0.37849   0.42065   -2.000
 7125.00    0.36563   0.41999   -2.000
 7126.00    0.36406   0.41969   -2.000
 7127.00    0.37619   0.41941   -2.000
 7128.00    0.39481   0.41890   -2.000
 7129.00    0.39593   0.41871   -2.000
 7130.00    0.36919   0.41842   -2.000
 7131.00    0.34979   0.41820   -2.000
 7132.00    0.37520   0.41831   -2.000
 7133.00    0.43752   0.41805   -2.000
 7134.00    0.50210   0.41804   -2.000
 7135.00    0.53270   0.41839   -2.000
 7136.00    0.51084   0.41820   -2.000
 7137.00    0.45003   0.41839   -2.000
 7138.00    0.38045   0.41883   -2.000
 7139.00    0.33279   0.41855   -2.000
 7140.00    0.32342   0.41884   -2.000
 7141.00    0.34519   0.41933   -2.000
 7142.00    0.38171   0.41895   -2.000
 7143.00    0.41853   0.41924   -2.000
 7144.00    0.44192   0.41981   -2.000
 7145.00    0.43932   0.41941   -2.000
 7146.00    0.41099   0.41973   -2.000
 7147.00    0.37483   0.42033   -2.000
 7148.00    0.34901   0.41996   -2.000
 7149.00    0.34094   0.42035   -2.000
 7150.00    0.34691   0.42101   -2.000
 7151.00    0.35500   0.42070   -2.000
 7152.00    0.35981   0.42104   -2.000
 7153.00    0.36663   0.42171   -2.000
 7154.00    0.37336   0.42162   -2.000
 7155.00    0.36758   0.42176   -2.000
 7156.00    0.35517   0.42223   -2.000
 7157.00    0.36158   0.42226   -2.000
 7158.00    0.38070   0.42221   -2.000
 7159.00    0.37071   0.42241   -2.000
 7160.00    0.32576   0.42250   -2.000
 7161.00    0.29143   0.42238   -2.000
 7162.00    0.31259   0.42239   -2.000
 7163.00    0.40446   0.42244   -2.000
 7164.00    0.52429   0.42232   -2.000
 7165.00    0.59144   0.42234   -2.000
 7166.00    0.58110   0.42245   -2.000
 7167.00    0.53232   0.42233   -2.000
 7168.00    0.47983   0.42230   -2.000
 7169.00    0.43871   0.42248   -2.000
 7170.00    0.42086   0.42247   -2.000
 7171.00    0.43299   0.42246   -2.000
 7172.00    0.45938   0.42257   -2.000
 7173.00    0.47027   0.42241   -2.000
 7174.00    0.45254   0.42238   -2.000
 7175.00    0.41294   0.42242   -2.000
 7176.00    0.36792   0.42211   -2.000
 7177.00    0.33698   0.42201   -2.000
 7178.00    0.33367   0.42191   -2.000
 7179.00    0.35770   0.42145   -2.000
 7180.00    0.38433   0.42135   -2.000
 7181.00    0.38677   0.42113   -2.000
 7182.00    0.37911   0.42068   -2.000
 7183.00    0.39061   0.42064   -2.000
 7184.00    0.41018   0.42026   -2.000
 7185.00    0.40999   0.41989   -2.000
 7186.00    0.39644   0.42008   -2.000
 7187.00    0.39104   0.41969   -2.000
 7188.00    0.39093   0.41945   -2.000
 7189.00    0.38145   0.41974   -2.000
 7190.00    0.36111   0.41939   -2.000
 7191.00    0.33731   0.41928   -2.000
 7192.00    0.31649   0.41962   -2.000
 7193.00    0.30455   0.41941   -2.000
 7194.00    0.30837   0.41941   -2.000
 7195.00    0.32938   0.41970   -2.000
 7196.00    0.35696   0.41958   -2.000
 7197.00    0.37641   0.41954   -2.000
 7198.00    0.37860   0.41974   -2.000
 7199.00    0.36361   0.41972   -2.000
 7200.00    0.34326   0.41961   -2.000
 7201.00    0.33827   0.41962   -2.000
 7202.00    0.37236   0.41971   -2.000
 7203.00    0.44378   0.41969   -2.000
 7204.00    0.50690   0.41953   -2.000
 7205.00    0.52090   0.41971   -2.000
 7206.00    0.48779   0.41983   -2.000
 7207.00    0.43378   0.41965   -2.000
 7208.00    0.39057   0.42005   -2.000
 7209.00    0.37603   0.42033   -2.000
 7210.00    0.38294   0.42014   -2.000
 7211.00    0.38973   0.42073   -2.000
 7212.00    0.37345   0.42122   -2.000
 7213.00    0.34319   0.42120   -2.000
 7214.00    0.34700   0.42188   -2.000
 7215.00    0.39790   0.42250   -2.000
 7216.00    0.44572   0.42265   -2.000
 7217.00    0.45423   0.42326   -2.000
 7218.00    0.43588   0.42395   -2.000
