###################################################################
## OUTPUT of StarlightChains_v04.for    [Cid@UFSC - 01/Apr/2007] ##
###################################################################

## Some input info
2005kk.txt                               [arq_obs]
Base.CB07.vall.4m                        [arq_base]
Masks.EmLines.NEW.gm                     [arq_masks]
StCv04.C11.config                        [arq_config]
   66                                    [N_base]
    0                                    [N_YAV_components = # of components with extra extinction!]
    0                                    [i_FitPowerLaw (1/0 = Yes/No)]
-9.99                                    [alpha_PowerLaw]
CCM                                      [red_law_option]
 1.458241                                [q_norm = A(l_norm)/A(V)]

## (Re)Sampling Parameters
 3741.00                                 [l_ini (A)]
 7218.00                                 [l_fin (A)]
    1.00                                 [dl    (A)]     (OBS: dl_cushion =    50.00 A)

## Normalization info
 4020.00                                 [l_norm (A) - for base]
 4010.00                                 [llow_norm (A) - window for f_obs]
 4060.00                                 [lupp_norm (A) - window for f_obs]
8.059202E-17                             [fobs_norm (in input units)]

## S/N
 3691.00                                 [llow_SN (A) - window for S/N]
 7268.00                                 [lupp_SN (A) - window for S/N]
   3.351                                 [S/N in S/N window]
   5.472                                 [S/N in norm. window]
   9.642                                 [S/N_err in S/N window]
  15.743                                 [S/N_err in norm. window]
  1.0000                                 [fscale_chi2]

## etc...
    -2007307                             [idum_orig]
  2382                                   [NOl_eff]
  2342                                   [Nl_eff]
    40    NSIGMA                         [Ntot_cliped & clip_method]
   872900                                [Nglobal_steps]
   7                                     [N_chains]
  17                                     [NEX0s_base = N_base in EX0s-fits]
 0   0   1       11   2.0   3.108E+01    [Clip-Bug, RC-Crash & Burn-In warning-flags, n_censored_weights, wei_nsig_threshold & wei_limit]
    11     10.833     10.336      0.497  [idt_all, wdt_TotTime, wdt_UsrTime & wdt_SysTime (sec)]

## Synthesis Results - Best model ##

 5.97198E-01                             [chi2/Nl_eff]
     5.90967                             [adev (%)]

    99.41710                             [sum-of-x (%)]
 6.97116E-17                             [Flux_tot (units of input spectrum!)]
 1.35748E-13                             [Mini_tot (???)]
 8.20564E-14                             [Mcor_tot (???)]

 -86.44                                  [v0_min  (km/s)]
 199.31                                  [vd_min  (km/s)]
-0.1036                                  [AV_min  (mag)]
 0.0000                                  [YAV_min (mag)]

# j     x_j(%)      Mini_j(%)     Mcor_j(%)     age_j(yr)     Z_j      (L/M)_j    YAV?  Mstars   component_j        a/Fe...       SSP_chi2r SSP_adev(%)   SSP_AV   SSP_x(%)
  1      0.0000     0.0000E+00    0.0000E+00    1.000000E+06  0.00400  1.094E-02    0   1.0000   age020_m42            0.0000     1.1010E+00     7.1976   1.9106    81.1799
  2      0.0000     0.0000E+00    0.0000E+00    3.160000E+06  0.00400  4.007E-02    0   0.9999   age045_m42            0.0000     7.5073E-01     6.3723   1.1346    88.9425
  3      0.0431     8.7660E-04    1.3759E-03    5.010000E+06  0.00400  2.539E-02    0   0.9488   age055_m42            0.0000     8.6915E-01     6.6488   1.4744    85.8983
  4      5.3922     1.0631E-01    1.6215E-01    6.610000E+06  0.00400  2.620E-02    0   0.9220   age061_m42            0.0000     7.2639E-01     6.2960   1.0583    89.2609
  5      0.0000     0.0000E+00    0.0000E+00    1.000000E+07  0.00400  1.322E-02    0   0.8862   age070_m42            0.0000     7.8239E-01     6.3243   0.7865    90.6233
  6      0.0000     0.0000E+00    0.0000E+00    1.445000E+07  0.00400  7.883E-03    0   0.8571   age078_m42            0.0000     8.5683E-01     6.5148   1.1246    87.8569
  7      0.0000     0.0000E+00    0.0000E+00    2.512000E+07  0.00400  5.251E-03    0   0.8174   age090_m42            0.0000     7.8465E-01     6.3632   0.6544    91.2043
  8      0.0621     8.7888E-03    1.1415E-02    4.000000E+07  0.00400  3.649E-03    0   0.7851   age104_m42            0.0000     7.3212E-01     6.2144   0.4176    92.3936
  9      0.0000     0.0000E+00    0.0000E+00    5.500000E+07  0.00400  3.098E-03    0   0.7629   age110_m42            0.0000     6.7199E-01     6.0563   0.5586    93.0331
 10      0.0000     0.0000E+00    0.0000E+00    1.015200E+08  0.00400  2.228E-03    0   0.7207   age116_m42            0.0000     6.4833E-01     6.0249   0.5685    93.7114
 11      0.0000     0.0000E+00    0.0000E+00    2.861200E+08  0.00400  1.093E-03    0   0.6648   age125_m42            0.0000     6.5742E-01     6.0743  -0.0101    96.9990
 12      0.0000     0.0000E+00    0.0000E+00    5.088000E+08  0.00400  6.597E-04    0   0.6365   age130_m42            0.0000     6.4646E-01     6.0426  -0.0333    98.4678
 13      0.0000     0.0000E+00    0.0000E+00    1.434000E+09  0.00400  2.132E-04    0   0.5798   age139_m42            0.0000     6.3285E-01     6.0947  -1.0000   100.2831
 14      4.7939     4.2007E+01    3.7366E+01    4.250000E+09  0.00400  5.895E-05    0   0.5377   age158_m42            0.0000     1.5145E+00     9.1058  -1.0000    80.2974
 15      0.0000     0.0000E+00    0.0000E+00    7.500000E+09  0.00400  3.510E-05    0   0.5212   age171_m42            0.0000     2.3056E+00    11.2999  -1.0000    73.4069
 16      0.0000     0.0000E+00    0.0000E+00    1.300000E+10  0.00400  2.005E-05    0   0.5034   age193_m42            0.0000     3.1454E+00    13.3123  -1.0000    67.7119
 17      0.0000     0.0000E+00    0.0000E+00    1.800000E+10  0.00400  1.525E-05    0   0.4967   age213_m42            0.0000     3.2525E+00    13.6120  -1.0000    66.6647
 18      0.0000     0.0000E+00    0.0000E+00    1.000000E+06  0.00800  1.238E-02    0   1.0000   age020_m52            0.0000     1.1029E+00     7.2028   1.9070    81.3352
 19      0.0000     0.0000E+00    0.0000E+00    3.160000E+06  0.00800  3.074E-02    0   0.9966   age045_m52            0.0000     1.0569E+00     7.1202   1.8239    82.3063
 20      0.0000     0.0000E+00    0.0000E+00    5.010000E+06  0.00800  2.668E-02    0   0.9443   age055_m52            0.0000     9.1219E-01     6.7428   1.5631    84.8587
 21     26.3547     6.3734E-01    9.6758E-01    6.610000E+06  0.00800  2.136E-02    0   0.9177   age061_m52            0.0000     8.1350E-01     6.3785   0.2941    91.2910
 22      0.0000     0.0000E+00    0.0000E+00    1.000000E+07  0.00800  1.215E-02    0   0.8827   age070_m52            0.0000     8.6834E-01     6.5877   0.9739    90.0254
 23      0.0086     5.0745E-04    7.1793E-04    1.445000E+07  0.00800  8.717E-03    0   0.8552   age078_m52            0.0000     8.2829E-01     6.4303   1.0852    89.2707
 24      0.0000     0.0000E+00    0.0000E+00    2.512000E+07  0.00800  5.592E-03    0   0.8162   age090_m52            0.0000     7.8087E-01     6.3613   0.7139    92.4632
 25      0.0018     2.3498E-04    3.0481E-04    4.000000E+07  0.00800  3.896E-03    0   0.7841   age104_m52            0.0000     7.1894E-01     6.1878   0.6148    93.7538
 26      0.0000     0.0000E+00    0.0000E+00    1.015200E+08  0.00800  2.148E-03    0   0.7226   age116_m52            0.0000     6.4594E-01     5.9885   0.5398    94.2755
 27      2.8577     1.4873E+00    1.6443E+00    2.861200E+08  0.00800  9.925E-04    0   0.6683   age125_m52            0.0000     6.3889E-01     6.0119   0.0282    99.5013
 28      0.0000     0.0000E+00    0.0000E+00    9.047900E+08  0.00800  3.141E-04    0   0.6138   age135_m52            0.0000     7.0985E-01     6.4155  -0.7922   104.7959
 29      0.0000     0.0000E+00    0.0000E+00    1.434000E+09  0.00800  1.719E-04    0   0.5853   age139_m52            0.0000     1.2512E+00     8.3185  -1.0000    88.0672
 30      0.0000     0.0000E+00    0.0000E+00    2.500000E+09  0.00800  7.872E-05    0   0.5600   age150_m52            0.0000     2.2864E+00    11.1689  -1.0000    76.2082
 31      0.0000     0.0000E+00    0.0000E+00    4.250000E+09  0.00800  4.336E-05    0   0.5426   age158_m52            0.0000     2.3664E+00    11.3181  -1.0000    74.9753
 32      0.0000     0.0000E+00    0.0000E+00    6.250000E+09  0.00800  3.159E-05    0   0.5319   age166_m52            0.0000     3.4407E+00    13.7386  -1.0000    68.3502
 33      0.0000     0.0000E+00    0.0000E+00    1.300000E+10  0.00800  1.361E-05    0   0.5073   age193_m52            0.0000     6.3329E+00    19.4268  -1.0000    54.1534
 34      0.0000     0.0000E+00    0.0000E+00    1.800000E+10  0.00800  9.886E-06    0   0.4990   age213_m52            0.0000     7.1199E+00    20.5208  -1.0000    51.1271
 35      0.0000     0.0000E+00    0.0000E+00    1.000000E+06  0.02000  1.544E-02    0   1.0000   age020_m62            0.0000     1.1103E+00     7.2300   1.9038    81.4895
 36      0.0000     0.0000E+00    0.0000E+00    3.160000E+06  0.02000  3.762E-02    0   0.9858   age045_m62            0.0000     1.0881E+00     7.2196   1.8389    82.3544
 37      0.0000     0.0000E+00    0.0000E+00    5.010000E+06  0.02000  3.296E-02    0   0.9342   age055_m62            0.0000     8.0392E-01     6.5372   1.4228    87.4591
 38      0.0000     0.0000E+00    0.0000E+00    8.710000E+06  0.02000  1.154E-02    0   0.8861   age067_m62            0.0000     1.5137E+00     8.9675   0.4548    90.8709
 39      0.0000     0.0000E+00    0.0000E+00    1.445000E+07  0.02000  7.663E-03    0   0.8472   age078_m62            0.0000     1.0028E+00     7.1023   0.6258    91.7609
 40      0.0000     0.0000E+00    0.0000E+00    2.512000E+07  0.02000  4.532E-03    0   0.8099   age090_m62            0.0000     1.0116E+00     7.1933   0.6132    91.7215
 41      0.0000     0.0000E+00    0.0000E+00    5.500000E+07  0.02000  2.733E-03    0   0.7595   age110_m62            0.0000     7.3631E-01     6.2257   0.6010    92.8991
 42      0.0170     6.4223E-03    7.4212E-03    1.609000E+08  0.02000  1.369E-03    0   0.6985   age120_m62            0.0000     6.4533E-01     5.9879   0.4081    97.0269
 43     18.7280     1.0733E+01    1.1922E+01    2.861200E+08  0.02000  9.013E-04    0   0.6714   age125_m62            0.0000     6.6850E-01     6.0638   0.1362   100.8571
 44     12.6827     1.3030E+01    1.3901E+01    5.088000E+08  0.02000  5.028E-04    0   0.6449   age130_m62            0.0000     7.3416E-01     6.4173  -0.2606   104.5741
 45      0.0000     0.0000E+00    0.0000E+00    9.047900E+08  0.02000  2.428E-04    0   0.6179   age135_m62            0.0000     7.5960E-01     6.7093  -0.8441   103.8592
 46      0.0000     0.0000E+00    0.0000E+00    1.434000E+09  0.02000  1.263E-04    0   0.5908   age139_m62            0.0000     1.1536E+00     7.8245  -1.0000    91.0192
 47      0.0000     0.0000E+00    0.0000E+00    2.500000E+09  0.02000  5.985E-05    0   0.5673   age150_m62            0.0000     2.4889E+00    11.4228  -1.0000    76.5534
 48      0.0000     0.0000E+00    0.0000E+00    4.250000E+09  0.02000  3.271E-05    0   0.5468   age158_m62            0.0000     4.1607E+00    14.9521  -1.0000    65.9416
 49      0.0000     0.0000E+00    0.0000E+00    1.000000E+10  0.02000  1.360E-05    0   0.5167   age181_m62            0.0000     6.4547E+00    18.9908  -1.0000    55.5268
 50      0.0000     0.0000E+00    0.0000E+00    1.800000E+10  0.02000  7.124E-06    0   0.5013   age213_m62            0.0000     7.9373E+00    21.2191  -1.0000    49.6720
 51      0.0000     0.0000E+00    0.0000E+00    1.000000E+06  0.05000  2.592E-02    0   0.9998   age020_m72            0.0000     1.1473E+00     7.3143   1.8988    81.3627
 52      0.0000     0.0000E+00    0.0000E+00    3.160000E+06  0.05000  4.845E-02    0   0.9577   age045_m72            0.0000     9.6585E-01     6.9554   1.7060    84.1173
 53      0.0000     0.0000E+00    0.0000E+00    5.010000E+06  0.05000  3.072E-02    0   0.9147   age055_m72            0.0000     1.0198E+00     7.0361   1.2232    87.9492
 54      0.0000     0.0000E+00    0.0000E+00    6.610000E+06  0.05000  1.455E-02    0   0.8877   age061_m72            0.0000     2.2282E+00    11.1262   0.5098    91.3602
 55      0.0000     0.0000E+00    0.0000E+00    1.000000E+07  0.05000  9.074E-03    0   0.8524   age070_m72            0.0000     1.1452E+00     7.5506   1.4078    87.7855
 56      0.0000     0.0000E+00    0.0000E+00    2.512000E+07  0.05000  4.250E-03    0   0.7902   age090_m72            0.0000     9.2986E-01     6.9230   1.0826    90.4351
 57      0.0000     0.0000E+00    0.0000E+00    4.000000E+07  0.05000  3.087E-03    0   0.7618   age104_m72            0.0000     9.0756E-01     6.9112   0.8427    92.4337
 58      0.0000     0.0000E+00    0.0000E+00    1.015200E+08  0.05000  1.700E-03    0   0.7096   age116_m72            0.0000     6.7579E-01     6.0836   0.5553    96.3619
 59     10.0030     6.9977E+00    7.6786E+00    2.861200E+08  0.05000  7.384E-04    0   0.6633   age125_m72            0.0000     6.9923E-01     6.2537  -0.0098   102.9673
 60     18.4723     2.4985E+01    2.6338E+01    5.088000E+08  0.05000  3.819E-04    0   0.6372   age130_m72            0.0000     7.3524E-01     6.6185  -0.5123   105.1695
 61      0.0000     0.0000E+00    0.0000E+00    9.047900E+08  0.05000  1.676E-04    0   0.6110   age135_m72            0.0000     1.1174E+00     7.7855  -1.0000    95.0989
 62      0.0000     0.0000E+00    0.0000E+00    1.434000E+09  0.05000  8.837E-05    0   0.5874   age139_m72            0.0000     2.5811E+00    11.5710  -1.0000    77.6492
 63      0.0000     0.0000E+00    0.0000E+00    2.500000E+09  0.05000  4.233E-05    0   0.5598   age150_m72            0.0000     4.2610E+00    14.9947  -1.0000    66.5048
 64      0.0000     0.0000E+00    0.0000E+00    6.250000E+09  0.05000  1.435E-05    0   0.5249   age166_m72            0.0000     7.1090E+00    20.0788  -1.0000    52.7034
 65      0.0000     0.0000E+00    0.0000E+00    1.300000E+10  0.05000  6.513E-06    0   0.5036   age193_m72            0.0000     9.0929E+00    22.9898  -1.0000    46.2656
 66      0.0000     0.0000E+00    0.0000E+00    1.800000E+10  0.05000  4.527E-06    0   0.4945   age213_m72            0.0000     1.0241E+01    24.5680  -1.0000    42.5585


## Synthesis Results - Average & Chains ##

# j      x_j: min, <> & last-chain-values for 1 ...  7 chains
  1      0.0000      0.2064      0.0000      0.0000      1.2543      0.5586      0.0000      1.5634      0.0000
  2      0.0000      1.1911      2.7424      0.0000      0.0000      0.0000      1.4749      0.4450      2.7457
  3      0.0431      0.2527      0.0000      1.9132      0.0000      0.0000      0.0000      0.0000      0.0005
  4      5.3922      0.7905      2.4607      1.6671      0.0000      0.6299      0.0000      0.0000      1.7706
  5      0.0000      0.9511      2.1607      3.6324      0.0683      1.5424      0.2119      0.8040      1.8512
  6      0.0000      0.3297      0.0000      0.0000      0.2057      0.0000      1.1923      0.0000      0.0000
  7      0.0000      0.8744      0.0000      0.0000      0.0000      0.0000      0.0000      0.0386      3.3339
  8      0.0621      1.4732      0.9081      2.1593      4.3674      4.1498      2.1003      0.8040      0.0000
  9      0.0000      1.4309      1.5122      0.4917      0.1469      0.6446      0.0000      0.0000      3.1778
 10      0.0000      2.5008      2.6748      0.0000      0.0000      2.5838      3.3693      0.0000      8.3333
 11      0.0000      0.9940      0.0000      0.0000      0.0000      0.0000      0.0000      0.0000      0.0000
 12      0.0000      3.1022      3.3749      0.0000      1.4813      0.0000      0.0000      4.9753      0.0000
 13      0.0000      0.1193      0.0000      0.0000      0.0000      0.6113      0.7715      0.0000      0.0000
 14      4.7939      0.0612      0.0000      0.6334      0.0000      0.0000      0.0000      0.1066      0.0000
 15      0.0000      0.0127      0.0000      0.0000      0.0000      0.0000      0.0000      0.0000      0.0000
 16      0.0000      0.0908      0.0000      0.0000      0.0000      0.0000      0.0000      0.0000      0.5973
 17      0.0000      0.0133      0.0000      0.0000      0.0000      0.0000      0.0000      0.0000      0.0000
 18      0.0000      0.3600      1.3328      0.0000      1.3335      1.4273      0.0000      0.6148      0.2645
 19      0.0000      0.4020      0.0000      0.0000      0.0000      0.0000      1.1190      0.2054      0.0000
 20      0.0000      0.2547      0.2538      0.0000      3.1081      0.1850      0.0000      0.0000      0.0000
 21     26.3547     12.8044     18.0704     15.5006     18.1278     15.7601     15.9773     16.4266     18.5887
 22      0.0000      0.7777      0.0000      0.0000      0.0000      0.0000      0.5252      0.0000      0.0000
 23      0.0086      0.6679      0.0000      2.7422      0.0000      0.1555      0.0000      0.0000      0.0000
 24      0.0000      0.5910      2.6172      0.0000      0.0000      0.0000      1.8783      0.0000      0.0000
 25      0.0018      0.9632      0.0000      2.1576      0.0000      0.9046      3.6054      2.1204      0.3385
 26      0.0000      4.7195      2.4520      0.0000      0.5695      9.2649      3.5501      8.2411      0.0000
 27      2.8577      6.6363      0.1457      6.6324      7.9727      0.0000      5.9031      6.9059      4.9664
 28      0.0000      0.5815      0.0000      0.0000      0.4726      0.0000      0.0173      0.0000      0.0000
 29      0.0000      0.0841      0.0000      0.0000      0.0000      0.0000      0.0000      0.0000      0.0000
 30      0.0000      0.0276      0.0000      0.0000      0.0000      0.0000      0.0000      0.0000      0.0000
 31      0.0000      0.0702      0.0000      0.0000      0.5375      0.0000      0.0000      0.0000      0.0000
 32      0.0000      0.0153      0.0000      0.0000      0.0000      0.0000      0.0000      0.0000      0.0000
 33      0.0000      0.0011      0.0000      0.0174      0.0000      0.0000      0.0000      0.0000      0.0000
 34      0.0000      0.0018      0.0000      0.0000      0.0000      0.0000      0.0000      0.0000      0.0000
 35      0.0000      0.1831      0.0000      0.0000      0.0000      0.0000      0.0000      0.7500      0.3427
 36      0.0000      0.1866      0.0000      0.0000      1.0533      0.0000      0.0000      1.0031      0.0000
 37      0.0000      0.5095      0.0000      2.8548      0.0000      1.9414      0.0000      0.0000      0.0000
 38      0.0000      0.2320      0.0000      0.0000      0.0000      0.0000      0.0000      0.0000      0.0000
 39      0.0000      0.3804      0.0000      0.0000      0.0000      0.0000      0.0000      0.0000      0.0000
 40      0.0000      0.4477      0.0000      0.1790      0.0000      0.0000      0.0000      0.0423      0.0000
 41      0.0000      0.9811      1.0342      0.4746      0.0000      0.1456      0.6384      3.0099      0.0000
 42      0.0170      1.8741      0.0000      3.6339      0.0000      0.0000      0.2789      0.0000      0.7877
 43     18.7280      8.6928      9.5986      5.1708     20.8404      7.8004      4.0869      3.7568     10.0059
 44     12.6827     14.4118     25.1660     21.5605     16.9263     14.5321     17.5995     14.1424     21.1716
 45      0.0000      0.2403      0.0000      0.0000      0.0000      0.0000      0.0000      0.0000      0.8789
 46      0.0000      0.1107      0.0000      0.1369      0.0000      0.0000      0.0000      0.0000      0.0000
 47      0.0000      0.0515      0.0000      0.0000      0.0000      0.0000      0.0000      0.0000      0.0000
 48      0.0000      0.0122      0.0000      0.0000      0.0000      0.0000      0.0000      0.0000      0.0000
 49      0.0000      0.0156      0.0000      0.0000      0.0000      0.0000      0.0000      0.0000      0.0000
 50      0.0000      0.0058      0.0000      0.0000      0.0000      0.0000      0.0000      0.0000      0.0000
 51      0.0000      0.3488      0.0000      0.6248      0.2266      0.6725      0.9894      0.0000      0.0000
 52      0.0000      0.1997      0.0000      0.0000      0.0000      0.0000      0.0000      0.0000      0.0000
 53      0.0000      0.4206      0.0000      0.0377      0.0000      0.0000      0.7410      0.0000      0.3928
 54      0.0000      0.1046      0.0000      0.0000      0.0000      0.0000      0.0000      0.0000      0.0000
 55      0.0000      0.1743      0.0000      0.0000      0.0000      0.0000      0.8705      0.0000      0.0000
 56      0.0000      0.2459      0.0000      0.0000      0.0000      0.4854      0.6880      0.5836      0.0000
 57      0.0000      0.2625      0.0828      0.0000      0.0000      0.0000      0.0000      0.0000      0.0000
 58      0.0000      1.4029      0.0000      0.0000      1.1202      0.0000      0.0000      2.0813      1.0365
 59     10.0030     15.8559     15.3505     18.7396     11.3205     24.5270     24.0962     18.9914      9.2942
 60     18.4723      7.1579      6.3709      6.4520      7.1569      8.6257      5.9816     10.0906      8.5103
 61      0.0000      0.3412      0.0000      0.4891      0.0000      1.1116      0.0000      0.9297      0.0000
 62      0.0000      0.1042      0.0000      0.8198      0.0000      0.0000      0.5072      0.0000      0.0000
 63      0.0000      0.0102      0.0000      0.0000      0.0000      0.0000      0.2807      0.0000      0.0000
 64      0.0000      0.0072      0.0000      0.0000      0.0000      0.0000      0.0000      0.0000      0.0000
 65      0.0000      0.0060      0.0000      0.0000      0.0000      0.0000      0.0000      0.0000      0.0000
 66      0.0000      0.0053      0.0000      0.0000      0.0000      0.0000      0.0000      0.0000      0.0000

# j      m_j: min, <> & last-chain-values for 1 ...  7 chains
  1  0.0000E+00  2.3991E-02  0.0000E+00  0.0000E+00  1.4968E-01  6.9963E-02  0.0000E+00  1.9083E-01  0.0000E+00
  2  0.0000E+00  3.7803E-02  9.5921E-02  0.0000E+00  0.0000E+00  0.0000E+00  4.8617E-02  1.4827E-02  8.1817E-02
  3  1.3759E-03  1.2008E-02  0.0000E+00  8.6844E-02  0.0000E+00  0.0000E+00  0.0000E+00  0.0000E+00  2.0730E-05
  4  1.6215E-01  3.5379E-02  1.2138E-01  7.1263E-02  0.0000E+00  3.0377E-02  0.0000E+00  0.0000E+00  7.4407E-02
  5  0.0000E+00  8.1084E-02  2.0302E-01  2.9578E-01  5.9755E-03  1.4167E-01  1.8765E-02  7.1970E-02  1.4818E-01
  6  0.0000E+00  4.5587E-02  0.0000E+00  0.0000E+00  2.9196E-02  0.0000E+00  1.7125E-01  0.0000E+00  0.0000E+00
  7  0.0000E+00  1.7310E-01  0.0000E+00  0.0000E+00  0.0000E+00  0.0000E+00  0.0000E+00  8.0220E-03  6.1973E-01
  8  1.1415E-02  4.0311E-01  2.7387E-01  5.6433E-01  1.2267E+00  1.2235E+00  5.9692E-01  2.3098E-01  0.0000E+00
  9  0.0000E+00  4.4816E-01  5.2199E-01  1.4707E-01  4.7239E-02  2.1751E-01  0.0000E+00  0.0000E+00  9.3446E-01
 10  0.0000E+00  1.0288E+00  1.2128E+00  0.0000E+00  0.0000E+00  1.1453E+00  1.4397E+00  0.0000E+00  3.2189E+00
 11  0.0000E+00  7.6892E-01  0.0000E+00  0.0000E+00  0.0000E+00  0.0000E+00  0.0000E+00  0.0000E+00  0.0000E+00
 12  0.0000E+00  3.8067E+00  4.5642E+00  0.0000E+00  1.8657E+00  0.0000E+00  0.0000E+00  6.4098E+00  0.0000E+00
 13  0.0000E+00  4.1259E-01  0.0000E+00  0.0000E+00  0.0000E+00  2.2779E+00  2.7714E+00  0.0000E+00  0.0000E+00
 14  3.7366E+01  7.1040E-01  0.0000E+00  7.0178E+00  0.0000E+00  0.0000E+00  0.0000E+00  1.2987E+00  0.0000E+00
 15  0.0000E+00  2.3891E-01  0.0000E+00  0.0000E+00  0.0000E+00  0.0000E+00  0.0000E+00  0.0000E+00  0.0000E+00
 16  0.0000E+00  2.8983E+00  0.0000E+00  0.0000E+00  0.0000E+00  0.0000E+00  0.0000E+00  0.0000E+00  1.7907E+01
 17  0.0000E+00  5.5029E-01  0.0000E+00  0.0000E+00  0.0000E+00  0.0000E+00  0.0000E+00  0.0000E+00  0.0000E+00
 18  0.0000E+00  3.6980E-02  1.5090E-01  0.0000E+00  1.4061E-01  1.5798E-01  0.0000E+00  6.6313E-02  2.5516E-02
 19  0.0000E+00  1.6577E-02  0.0000E+00  0.0000E+00  0.0000E+00  0.0000E+00  4.7922E-02  8.8897E-03  0.0000E+00
 20  0.0000E+00  1.1466E-02  1.2590E-02  0.0000E+00  1.4361E-01  8.9744E-03  0.0000E+00  0.0000E+00  0.0000E+00
 21  9.6758E-01  6.9965E-01  1.0882E+00  8.0896E-01  1.0167E+00  9.2783E-01  9.0677E-01  9.4237E-01  9.5369E-01
 22  0.0000E+00  7.1853E-02  0.0000E+00  0.0000E+00  0.0000E+00  0.0000E+00  5.0406E-02  0.0000E+00  0.0000E+00
 23  7.1793E-04  8.3333E-02  0.0000E+00  3.2680E-01  0.0000E+00  2.0899E-02  0.0000E+00  0.0000E+00  0.0000E+00
 24  0.0000E+00  1.0970E-01  5.3544E-01  0.0000E+00  0.0000E+00  0.0000E+00  3.6215E-01  0.0000E+00  0.0000E+00
 25  3.0481E-04  2.4655E-01  0.0000E+00  5.2747E-01  0.0000E+00  2.4946E-01  9.5853E-01  5.6982E-01  8.1356E-02
 26  0.0000E+00  2.0192E+00  1.1562E+00  0.0000E+00  2.5010E-01  4.2709E+00  1.5776E+00  3.7019E+00  0.0000E+00
 27  1.6443E+00  5.6831E+00  1.3754E-01  5.4249E+00  7.0082E+00  0.0000E+00  5.2507E+00  6.2092E+00  3.9934E+00
 28  0.0000E+00  1.4452E+00  0.0000E+00  0.0000E+00  1.2055E+00  0.0000E+00  4.4765E-02  0.0000E+00  0.0000E+00
 29  0.0000E+00  3.6400E-01  0.0000E+00  0.0000E+00  0.0000E+00  0.0000E+00  0.0000E+00  0.0000E+00  0.0000E+00
 30  0.0000E+00  2.4968E-01  0.0000E+00  0.0000E+00  0.0000E+00  0.0000E+00  0.0000E+00  0.0000E+00  0.0000E+00
 31  0.0000E+00  1.1172E+00  0.0000E+00  0.0000E+00  8.7815E+00  0.0000E+00  0.0000E+00  0.0000E+00  0.0000E+00
 32  0.0000E+00  3.2728E-01  0.0000E+00  0.0000E+00  0.0000E+00  0.0000E+00  0.0000E+00  0.0000E+00  0.0000E+00
 33  0.0000E+00  5.1301E-02  0.0000E+00  7.8935E-01  0.0000E+00  0.0000E+00  0.0000E+00  0.0000E+00  0.0000E+00
 34  0.0000E+00  1.1560E-01  0.0000E+00  0.0000E+00  0.0000E+00  0.0000E+00  0.0000E+00  0.0000E+00  0.0000E+00
 35  0.0000E+00  1.5085E-02  0.0000E+00  0.0000E+00  0.0000E+00  0.0000E+00  0.0000E+00  6.4861E-02  2.6507E-02
 36  0.0000E+00  6.2187E-03  0.0000E+00  0.0000E+00  3.6030E-02  0.0000E+00  0.0000E+00  3.5098E-02  0.0000E+00
 37  0.0000E+00  1.8365E-02  0.0000E+00  9.8289E-02  0.0000E+00  7.5401E-02  0.0000E+00  0.0000E+00  0.0000E+00
 38  0.0000E+00  2.2661E-02  0.0000E+00  0.0000E+00  0.0000E+00  0.0000E+00  0.0000E+00  0.0000E+00  0.0000E+00
 39  0.0000E+00  5.3487E-02  0.0000E+00  0.0000E+00  0.0000E+00  0.0000E+00  0.0000E+00  0.0000E+00  0.0000E+00
 40  0.0000E+00  1.0174E-01  0.0000E+00  3.8850E-02  0.0000E+00  0.0000E+00  0.0000E+00  1.0092E-02  0.0000E+00
 41  0.0000E+00  3.4674E-01  4.0286E-01  1.6021E-01  0.0000E+00  5.5457E-02  2.3437E-01  1.1169E+00  0.0000E+00
 42  7.4212E-03  1.2161E+00  0.0000E+00  2.2522E+00  0.0000E+00  0.0000E+00  1.8796E-01  0.0000E+00  4.7991E-01
 43  1.1922E+01  8.2356E+00  1.0022E+01  4.6789E+00  2.0266E+01  7.9623E+00  4.0216E+00  3.7369E+00  8.9007E+00
 44  1.3901E+01  2.3509E+01  4.5244E+01  3.3592E+01  2.8341E+01  2.5541E+01  2.9819E+01  2.4221E+01  3.2427E+01
 45  0.0000E+00  7.7769E-01  0.0000E+00  0.0000E+00  0.0000E+00  0.0000E+00  0.0000E+00  0.0000E+00  2.6709E+00
 46  0.0000E+00  6.5866E-01  0.0000E+00  7.7808E-01  0.0000E+00  0.0000E+00  0.0000E+00  0.0000E+00  0.0000E+00
 47  0.0000E+00  6.2034E-01  0.0000E+00  0.0000E+00  0.0000E+00  0.0000E+00  0.0000E+00  0.0000E+00  0.0000E+00
 48  0.0000E+00  2.5969E-01  0.0000E+00  0.0000E+00  0.0000E+00  0.0000E+00  0.0000E+00  0.0000E+00  0.0000E+00
 49  0.0000E+00  7.5395E-01  0.0000E+00  0.0000E+00  0.0000E+00  0.0000E+00  0.0000E+00  0.0000E+00  0.0000E+00
 50  0.0000E+00  5.2145E-01  0.0000E+00  0.0000E+00  0.0000E+00  0.0000E+00  0.0000E+00  0.0000E+00  0.0000E+00
 51  0.0000E+00  1.7111E-02  0.0000E+00  2.9273E-02  1.1412E-02  3.5546E-02  5.0411E-02  0.0000E+00  0.0000E+00
 52  0.0000E+00  5.0209E-03  0.0000E+00  0.0000E+00  0.0000E+00  0.0000E+00  0.0000E+00  0.0000E+00  0.0000E+00
 53  0.0000E+00  1.5927E-02  0.0000E+00  1.3633E-03  0.0000E+00  0.0000E+00  2.9147E-02  0.0000E+00  1.3965E-02
 54  0.0000E+00  8.1197E-03  0.0000E+00  0.0000E+00  0.0000E+00  0.0000E+00  0.0000E+00  0.0000E+00  0.0000E+00
 55  0.0000E+00  2.0828E-02  0.0000E+00  0.0000E+00  0.0000E+00  0.0000E+00  1.0803E-01  0.0000E+00  0.0000E+00
 56  0.0000E+00  5.8138E-02  0.0000E+00  0.0000E+00  0.0000E+00  1.2366E-01  1.6898E-01  1.4490E-01  0.0000E+00
 57  0.0000E+00  8.2401E-02  2.8652E-02  0.0000E+00  0.0000E+00  0.0000E+00  0.0000E+00  0.0000E+00  0.0000E+00
 58  0.0000E+00  7.4477E-01  0.0000E+00  0.0000E+00  6.1040E-01  0.0000E+00  0.0000E+00  1.1601E+00  5.1665E-01
 59  7.6786E+00  1.8115E+01  1.9328E+01  2.0448E+01  1.3275E+01  3.0191E+01  2.8593E+01  2.2780E+01  9.9699E+00
 60  2.6338E+01  1.5189E+01  1.4900E+01  1.3077E+01  1.5589E+01  1.9721E+01  1.3184E+01  2.2481E+01  1.6956E+01
 61  0.0000E+00  1.5822E+00  0.0000E+00  2.1659E+00  0.0000E+00  5.5530E+00  0.0000E+00  4.5258E+00  0.0000E+00
 62  0.0000E+00  8.8110E-01  0.0000E+00  6.6197E+00  0.0000E+00  0.0000E+00  4.4536E+00  0.0000E+00  0.0000E+00
 63  0.0000E+00  1.7129E-01  0.0000E+00  0.0000E+00  0.0000E+00  0.0000E+00  4.9044E+00  0.0000E+00  0.0000E+00
 64  0.0000E+00  3.3489E-01  0.0000E+00  0.0000E+00  0.0000E+00  0.0000E+00  0.0000E+00  0.0000E+00  0.0000E+00
 65  0.0000E+00  5.9101E-01  0.0000E+00  0.0000E+00  0.0000E+00  0.0000E+00  0.0000E+00  0.0000E+00  0.0000E+00
 66  0.0000E+00  7.4266E-01  0.0000E+00  0.0000E+00  0.0000E+00  0.0000E+00  0.0000E+00  0.0000E+00  0.0000E+00

# AV, chi2 & Mass for <> & i_chain = 1 ...  7 solutions
AV      -0.1036      0.1136      0.1102      0.0759      0.1013      0.1132      0.1024      0.0906      0.0881
chi2 5.9720E-01  6.0676E-01  6.0426E-01  6.0349E-01  6.0473E-01  6.0394E-01  6.0513E-01  6.0371E-01  6.0354E-01
Mass 8.2056E-14  7.3816E-14  6.6667E-14  7.3469E-14  7.0729E-14  6.8469E-14  7.0003E-14  6.8162E-14  7.5968E-14
 -86.44                                  [v0_min (km/s) before EX0s...]
 199.31                                  [vd_min (km/s) before EX0s...]


## Synthetic spectrum (Best Model) ##l_obs f_obs f_syn wei
 3478    [Nl_obs]
 3741.00    0.79193   0.64052    0.000
 3742.00    0.57150   0.63157    0.000
 3743.00    0.46081   0.61255    0.000
 3744.00    0.49098   0.58597    0.000
 3745.00    0.51953   0.55517   19.248
 3746.00    0.48205   0.52454   20.745
 3747.00    0.43696   0.49943   22.885
 3748.00    0.44250   0.48529   22.599
 3749.00    0.50252   0.48589   19.900
 3750.00    0.52826   0.50188   18.930
 3751.00    0.41253   0.53014   24.241
 3752.00    0.24103   0.56486   -1.000
 3753.00    0.22554   0.59946   -1.000
 3754.00    0.41655   0.62868   -1.000
 3755.00    0.68567   0.64995   14.584
 3756.00    0.84645   0.66355   11.814
 3757.00    0.78870   0.67162   12.679
 3758.00    0.68356   0.67655   14.629
 3759.00    0.78693   0.67963   12.708
 3760.00    1.00319   0.68053   -1.000
 3761.00    1.04475   0.67778   -1.000
 3762.00    0.85023   0.66956   11.762
 3763.00    0.56927   0.65460   17.566
 3764.00    0.41184   0.63275   -1.000
 3765.00    0.49365   0.60530   20.257
 3766.00    0.65658   0.57512   15.230
 3767.00    0.67954   0.54661   14.716
 3768.00    0.59578   0.52483   16.785
 3769.00    0.55512   0.51437   18.014
 3770.00    0.59379   0.51790   16.841
 3771.00    0.64653   0.53522   15.467
 3772.00    0.60495   0.56354   16.530
 3773.00    0.44262   0.59865   22.593
 3774.00    0.32688   0.63646   -1.000
 3775.00    0.40712   0.67384   -1.000
 3776.00    0.60199   0.70882   16.612
 3777.00    0.75628   0.74019   13.223
 3778.00    0.80702   0.76707   12.391
 3779.00    0.76875   0.78871   13.008
 3780.00    0.70298   0.80447   14.225
 3781.00    0.67559   0.81384   14.802
 3782.00    0.72091   0.81658   13.871
 3783.00    0.81895   0.81285   12.211
 3784.00    0.89130   0.80334   11.220
 3785.00    0.88110   0.78932   11.349
 3786.00    0.80566   0.77231   12.412
 3787.00    0.73154   0.75344   13.670
 3788.00    0.73384   0.73296   13.627
 3789.00    0.76468   0.71011   13.077
 3790.00    0.64290   0.68355   15.555
 3791.00    0.42415   0.65222   -1.000
 3792.00    0.48013   0.61625   20.828
 3793.00    0.85171   0.57760   -1.000
 3794.00    1.06791   0.54016   -1.000
 3795.00    0.87579   0.50926   -1.000
 3796.00    0.50397   0.49042   19.842
 3797.00    0.26391   0.48770   -1.000
 3798.00    0.33157   0.50223   -1.000
 3799.00    0.61393   0.53161   16.288
 3800.00    0.81303   0.57072   -1.000
 3801.00    0.84462   0.61346   -1.000
 3802.00    0.87799   0.65463   -1.000
 3803.00    0.93464   0.69118   -1.000
 3804.00    0.86097   0.72245   11.615
 3805.00    0.68346   0.74939   14.631
 3806.00    0.60739   0.77327   16.464
 3807.00    0.68106   0.79453   14.683
 3808.00    0.78119   0.81236   12.801
 3809.00    0.84335   0.82526   11.857
 3810.00    0.88527   0.83216   11.296
 3811.00    0.90531   0.83335   11.046
 3812.00    0.87496   0.83062   11.429
 3813.00    0.78207   0.82630   12.787
 3814.00    0.65280   0.82215   15.319
 3815.00    0.57346   0.81860   -1.000
 3816.00    0.63056   0.81497   15.859
 3817.00    0.78812   0.81042   12.688
 3818.00    0.93148   0.80467   10.736
 3819.00    0.99088   0.79795   10.092
 3820.00    0.96605   0.79031   10.351
 3821.00    0.92474   0.78109   10.814
 3822.00    0.91973   0.76916   10.873
 3823.00    0.87014   0.75372   11.492
 3824.00    0.71246   0.73474   14.036
 3825.00    0.62645   0.71276   15.963
 3826.00    0.76943   0.68818   12.997
 3827.00    0.90556   0.66080   11.043
 3828.00    0.76399   0.63002   13.089
 3829.00    0.51436   0.59551   19.442
 3830.00    0.43614   0.55818   22.928
 3831.00    0.49339   0.52062   20.268
 3832.00    0.54570   0.48706   18.325
 3833.00    0.60848   0.46232   16.434
 3834.00    0.71437   0.45043   -1.000
 3835.00    0.76826   0.45342   -1.000
 3836.00    0.71271   0.47076   -1.000
 3837.00    0.66890   0.49990   -1.000
 3838.00    0.73493   0.53718   -1.000
 3839.00    0.82630   0.57880   -1.000
 3840.00    0.85246   0.62142   -1.000
 3841.00    0.84881   0.66228   11.781
 3842.00    0.85288   0.69942   11.725
 3843.00    0.82167   0.73169   12.170
 3844.00    0.73063   0.75878   13.687
 3845.00    0.63542   0.78104   15.738
 3846.00    0.61571   0.79927   16.241
 3847.00    0.72259   0.81441    0.000
 3848.00    0.89423   0.82737    0.000
 3849.00    0.95303   0.83873    0.000
 3850.00    0.84093   0.84856    0.000
 3851.00    0.70485   0.85647    0.000
 3852.00    0.69133   0.86197    0.000
 3853.00    0.83603   0.86501    0.000
 3854.00    1.04272   0.86616    0.000
 3855.00    1.12958   0.86647    0.000
 3856.00    1.04934   0.86702    0.000
 3857.00    0.92591   0.86867    0.000
 3858.00    0.83584   0.87186    0.000
 3859.00    0.75906   0.87650    0.000
 3860.00    0.71362   0.88198    0.000
 3861.00    0.77131   0.88732    0.000
 3862.00    0.94582   0.89154    0.000
 3863.00    1.15772   0.89408    0.000
 3864.00    1.24753   0.89479    0.000
 3865.00    1.08453   0.89377    0.000
 3866.00    0.84718   0.89096    0.000
 3867.00    0.88346   0.88609    0.000
 3868.00    1.15553   0.87886    0.000
 3869.00    1.31387   0.86951    0.000
 3870.00    1.22172   0.85901    0.000
 3871.00    0.99453   0.84859    0.000
 3872.00    0.79821   0.83896    0.000
 3873.00    0.75060   0.82971    0.000
 3874.00    0.82032   0.81951    0.000
 3875.00    0.88655   0.80703    0.000
 3876.00    0.88992   0.79167    0.000
 3877.00    0.83640   0.77374    0.000
 3878.00    0.75287   0.75379    0.000
 3879.00    0.67556   0.73191    0.000
 3880.00    0.64295   0.70744    0.000
 3881.00    0.67093   0.67931   14.905
 3882.00    0.71971   0.64678   13.894
 3883.00    0.73305   0.61016   13.642
 3884.00    0.69891   0.57141   14.308
 3885.00    0.64818   0.53429   15.428
 3886.00    0.63865   0.50376   15.658
 3887.00    0.70356   0.48477   -1.000
 3888.00    0.79774   0.48085   -1.000
 3889.00    0.86000   0.49272   -1.000
 3890.00    0.88547   0.51798   -1.000
 3891.00    0.88706   0.55204   -1.000
 3892.00    0.85251   0.58981   -1.000
 3893.00    0.78793   0.62714   12.692
 3894.00    0.75422   0.66151   13.259
 3895.00    0.78352   0.69202   12.763
 3896.00    0.81302   0.71880   12.300
 3897.00    0.77484   0.74236   12.906
 3898.00    0.67316   0.76329   14.855
 3899.00    0.57703   0.78192   17.330
 3900.00    0.59260   0.79831   16.875
 3901.00    0.73466   0.81249   13.612
 3902.00    0.86858   0.82477   11.513
 3903.00    0.91589   0.83598   10.918
 3904.00    0.95601   0.84727   10.460
 3905.00    1.01322   0.85971    9.870
 3906.00    0.97125   0.87358   10.296
 3907.00    0.83298   0.88794   12.005
 3908.00    0.79841   0.90110   12.525
 3909.00    0.90777   0.91138   11.016
 3910.00    0.94399   0.91770   10.593
 3911.00    0.85467   0.92004   11.700
 3912.00    0.85594   0.91929   11.683
 3913.00    0.99331   0.91664   10.067
 3914.00    1.04742   0.91304    9.547
 3915.00    0.94664   0.90908   10.564
 3916.00    0.85229   0.90514   11.733
 3917.00    0.83928   0.90158   11.915
 3918.00    0.83122   0.89872   12.031
 3919.00    0.79979   0.89690   12.503
 3920.00    0.79625   0.89598   12.559
 3921.00    0.82674   0.89505   12.096
 3922.00    0.84367   0.89267   11.853
 3923.00    0.83933   0.88719   11.914
 3924.00    0.85408   0.87720   11.709
 3925.00    0.92162   0.86188   10.851
 3926.00    1.03060   0.84107    9.703
 3927.00    1.07181   0.81509    9.330
 3928.00    0.92678   0.78491   10.790
 3929.00    0.69448   0.75259   14.399
 3930.00    0.58789   0.72151   -1.000
 3931.00    0.60739   0.69642   16.464
 3932.00    0.60607   0.68228   16.500
 3933.00    0.55520   0.68253   -1.000
 3934.00    0.53183   0.69749   -1.000
 3935.00    0.59735   0.72402   16.741
 3936.00    0.75066   0.75668   13.322
 3937.00    0.89263   0.78938   11.203
 3938.00    0.91948   0.81736   10.876
 3939.00    0.87183   0.83841   11.470
 3940.00    0.85256   0.85259   11.729
 3941.00    0.87767   0.86139   11.394
 3942.00    0.91002   0.86677   10.989
 3943.00    0.93214   0.87046   10.728
 3944.00    0.93441   0.87350   10.702
 3945.00    0.89198   0.87600   11.211
 3946.00    0.80896   0.87755   12.361
 3947.00    0.76371   0.87775   13.094
 3948.00    0.80570   0.87639   12.412
 3949.00    0.85311   0.87362   11.722
 3950.00    0.83234   0.86971   12.014
 3951.00    0.81129   0.86467   12.326
 3952.00    0.85218   0.85813   11.735
 3953.00    0.88254   0.84968   11.331
 3954.00    0.85129   0.83909   11.747
 3955.00    0.84804   0.82621   11.792
 3956.00    0.91525   0.81068   10.926
 3957.00    0.92415   0.79189   10.821
 3958.00    0.81220   0.76922   12.312
 3959.00    0.72570   0.74206   13.780
 3960.00    0.75894   0.70996    0.000
 3961.00    0.80551   0.67293    0.000
 3962.00    0.78057   0.63152    0.000
 3963.00    0.74093   0.58673    0.000
 3964.00    0.73572   0.54012    0.000
 3965.00    0.73243   0.49424    0.000
 3966.00    0.70801   0.45310    0.000
 3967.00    0.68675   0.42171    0.000
 3968.00    0.67423   0.40472    0.000
 3969.00    0.63876   0.40504    0.000
 3970.00    0.58099   0.42274    0.000
 3971.00    0.54968   0.45506    0.000
 3972.00    0.57145   0.49733    0.000
 3973.00    0.62699   0.54438    0.000
 3974.00    0.67811   0.59184    0.000
 3975.00    0.68805   0.63680    0.000
 3976.00    0.65323   0.67760    0.000
 3977.00    0.60847   0.71335    0.000
 3978.00    0.60593   0.74377    0.000
 3979.00    0.68745   0.76909    0.000
 3980.00    0.82494   0.79001    0.000
 3981.00    0.93272   0.80765   10.721
 3982.00    0.95347   0.82325   10.488
 3983.00    0.88998   0.83787   11.236
 3984.00    0.82000   0.85204   12.195
 3985.00    0.83899   0.86568   11.919
 3986.00    0.91864   0.87836   10.886
 3987.00    0.95309   0.88968   10.492
 3988.00    0.93521   0.89952   10.693
 3989.00    0.93542   0.90786   10.690
 3990.00    0.97670   0.91456   10.239
 3991.00    1.02482   0.91941    9.758
 3992.00    1.02227   0.92235    9.782
 3993.00    0.95090   0.92352   10.516
 3994.00    0.92223   0.92356   10.843
 3995.00    1.03804   0.92356    9.634
 3996.00    1.15075   0.92470    8.690
 3997.00    1.06103   0.92750    9.425
 3998.00    0.86142   0.93151   11.609
 3999.00    0.76867   0.93546   13.009
 4000.00    0.82320   0.93792   12.148
 4001.00    0.94041   0.93795   10.634
 4002.00    1.03345   0.93572    9.676
 4003.00    1.06214   0.93264    9.415
 4004.00    1.06760   0.93055    9.367
 4005.00    1.10607   0.93071    9.041
 4006.00    1.17320   0.93353    8.524
 4007.00    1.22823   0.93856    8.142
 4008.00    1.22864   0.94451    8.139
 4009.00    1.14741   0.94992    8.715
 4010.00    0.98964   0.95412   10.105
 4011.00    0.82384   0.95731   12.138
 4012.00    0.78890   0.95997   12.676
 4013.00    0.92746   0.96246   10.782
 4014.00    1.07705   0.96504    9.285
 4015.00    1.09743   0.96772    9.112
 4016.00    1.03301   0.97017    9.680
 4017.00    0.98661   0.97186   10.136
 4018.00    1.01745   0.97212    9.829
 4019.00    1.10891   0.97041    9.018
 4020.00    1.17258   0.96653    8.528
 4021.00    1.17590   0.96073    8.504
 4022.00    1.18749   0.95410    8.421
 4023.00    1.19731   0.94811    8.352
 4024.00    1.07033   0.94380    9.343
 4025.00    0.83394   0.94116   11.991
 4026.00    0.74223   0.93949   13.473
 4027.00    0.86746   0.93771   11.528
 4028.00    0.99246   0.93500   10.076
 4029.00    1.00843   0.93153    9.916
 4030.00    1.02828   0.92870    9.725
 4031.00    1.11593   0.92834    8.961
 4032.00    1.20462   0.93181    8.301
 4033.00    1.21911   0.93909    8.203
 4034.00    1.13767   0.94880    8.790
 4035.00    1.03645   0.95896    9.648
 4036.00    1.04033   0.96757    9.612
 4037.00    1.12512   0.97304    8.888
 4038.00    1.13688   0.97450    8.796
 4039.00    1.03421   0.97182    9.669
 4040.00    0.90440   0.96562   11.057
 4041.00    0.80883   0.95705   12.364
 4042.00    0.75859   0.94769   13.182
 4043.00    0.76269   0.93941   13.111
 4044.00    0.82374   0.93384   12.140
 4045.00    0.90045   0.93218   11.106
 4046.00    0.93768   0.93465   10.665
 4047.00    0.94712   0.94013   10.558
 4048.00    0.97385   0.94612   10.269
 4049.00    0.99823   0.94987   10.018
 4050.00    0.97262   0.95022   10.281
 4051.00    0.92205   0.94775   10.845
 4052.00    0.91048   0.94353   10.983
 4053.00    0.95284   0.93880   10.495
 4054.00    1.01509   0.93477    9.851
 4055.00    1.04063   0.93210    9.610
 4056.00    1.00000   0.93070   10.000
 4057.00    0.95173   0.92982   10.507
 4058.00    0.96538   0.92839   10.359
 4059.00    1.01047   0.92577    9.896
 4060.00    1.00915   0.92183    9.909
 4061.00    0.92296   0.91692   10.835
 4062.00    0.79681   0.91203   12.550
 4063.00    0.78287   0.90842   12.773
 4064.00    0.96345   0.90696   10.379
 4065.00    1.17751   0.90759    8.492
 4066.00    1.23003   0.90896    8.130
 4067.00    1.11169   0.90937    8.995
 4068.00    0.94316   0.90822   10.603
 4069.00    0.88765   0.90576   11.266
 4070.00    0.99246   0.90196   10.076
 4071.00    1.09026   0.89668    9.172
 4072.00    1.05469   0.89032    9.481
 4073.00    0.98105   0.88360   10.193
 4074.00    0.97130   0.87698   10.295
 4075.00    0.98508   0.87098   10.151
 4076.00    0.96968   0.86689   10.313
 4077.00    0.94310   0.86602   10.603
 4078.00    0.91637   0.86840   10.913
 4079.00    0.85918   0.87250   11.639
 4080.00    0.80225   0.87584   12.465
 4081.00    0.85758   0.87635   11.661
 4082.00    1.00129   0.87353    9.987
 4083.00    1.02556   0.86822    9.751
 4084.00    0.88466   0.86179   11.304
 4085.00    0.78768   0.85519   12.696
 4086.00    0.82306   0.84845   12.150
 4087.00    0.85586   0.84080   11.684
 4088.00    0.83959   0.83113   11.911
 4089.00    0.88210   0.81840   11.337
 4090.00    0.97360   0.80205   10.271
 4091.00    0.96272   0.78187   10.387
 4092.00    0.85894   0.75767    0.000
 4093.00    0.83919   0.72937    0.000
 4094.00    0.90421   0.69719    0.000
 4095.00    0.87881   0.66168    0.000
 4096.00    0.76648   0.62403    0.000
 4097.00    0.73604   0.58671    0.000
 4098.00    0.77324   0.55303    0.000
 4099.00    0.71667   0.52669    0.000
 4100.00    0.60954   0.51127    0.000
 4101.00    0.63614   0.50933    0.000
 4102.00    0.74821   0.52148    0.000
 4103.00    0.74178   0.54597    0.000
 4104.00    0.62799   0.57847    0.000
 4105.00    0.57410   0.61356    0.000
 4106.00    0.61136   0.64734    0.000
 4107.00    0.65938   0.67797    0.000
 4108.00    0.68880   0.70505    0.000
 4109.00    0.71810   0.72919    0.000
 4110.00    0.75216   0.75114    0.000
 4111.00    0.78090   0.77136    0.000
 4112.00    0.79558   0.78979    0.000
 4113.00    0.80286   0.80585   12.456
 4114.00    0.83911   0.81893   11.917
 4115.00    0.92419   0.82871   10.820
 4116.00    0.99913   0.83555   10.009
 4117.00    1.00424   0.84037    9.958
 4118.00    0.98489   0.84426   10.153
 4119.00    1.00624   0.84816    9.938
 4120.00    1.04007   0.85283    9.615
 4121.00    1.03008   0.85816    9.708
 4122.00    0.97726   0.86313   10.233
 4123.00    0.91740   0.86672   10.900
 4124.00    0.88680   0.86840   11.277
 4125.00    0.90253   0.86790   11.080
 4126.00    0.94890   0.86536   10.538
 4127.00    0.99832   0.86158   10.017
 4128.00    1.03077   0.85800    9.701
 4129.00    1.03285   0.85612    9.682
 4130.00    0.99784   0.85693   10.022
 4131.00    0.94251   0.86058   10.610
 4132.00    0.91452   0.86700   10.935
 4133.00    0.95207   0.87583   10.503
 4134.00    1.05069   0.88604    9.518
 4135.00    1.13672   0.89583    8.797
 4136.00    1.08376   0.90339    9.227
 4137.00    0.90920   0.90736   10.999
 4138.00    0.83239   0.90713   12.014
 4139.00    0.93197   0.90324   10.730
 4140.00    1.01796   0.89680    9.824
 4141.00    0.98236   0.88944   10.180
 4142.00    0.93416   0.88328   10.705
 4143.00    0.94986   0.88004   10.528
 4144.00    0.97843   0.88054   10.221
 4145.00    0.97031   0.88428   10.306
 4146.00    0.93315   0.88911   10.716
 4147.00    0.91331   0.89259   10.949
 4148.00    0.96024   0.89386   10.414
 4149.00    1.02860   0.89325    9.722
 4150.00    1.00269   0.89143    9.973
 4151.00    0.90443   0.88927   11.057
 4152.00    0.88265   0.88738   11.330
 4153.00    0.94753   0.88611   10.554
 4154.00    0.96506   0.88596   10.362
 4155.00    0.89527   0.88737   11.170
 4156.00    0.81423   0.89041   12.282
 4157.00    0.77614   0.89454   12.884
 4158.00    0.78895   0.89903   12.675
 4159.00    0.85148   0.90329   11.744
 4160.00    0.94911   0.90668   10.536
 4161.00    1.02286   0.90893    9.776
 4162.00    1.01360   0.91011    9.866
 4163.00    0.96824   0.91035   10.328
 4164.00    0.97854   0.90936   10.219
 4165.00    1.01815   0.90686    9.822
 4166.00    1.00473   0.90280    9.953
 4167.00    0.96984   0.89702   10.311
 4168.00    0.99154   0.88976   10.085
 4169.00    1.03082   0.88165    9.701
 4170.00    1.00033   0.87331    9.997
 4171.00    0.91333   0.86552   10.949
 4172.00    0.83871   0.85949   11.923
 4173.00    0.80200   0.85627   12.469
 4174.00    0.78650   0.85606   12.715
 4175.00    0.75701   0.85794   13.210
 4176.00    0.70284   0.86064   14.228
 4177.00    0.68179   0.86351   14.667
 4178.00    0.74351   0.86665   13.450
 4179.00    0.84024   0.87036   11.901
 4180.00    0.89707   0.87440   11.147
 4181.00    0.89703   0.87791   11.148
 4182.00    0.87100   0.88016   11.481
 4183.00    0.87314   0.88137   11.453
 4184.00    0.92028   0.88208   10.866
 4185.00    0.94890   0.88262   10.539
 4186.00    0.91470   0.88335   10.933
 4187.00    0.87029   0.88463   11.490
 4188.00    0.87237   0.88691   11.463
 4189.00    0.90843   0.89025   11.008
 4190.00    0.93871   0.89340   10.653
 4191.00    0.93510   0.89477   10.694
 4192.00    0.90990   0.89369   10.990
 4193.00    0.91977   0.89023   10.872
 4194.00    0.97661   0.88449   10.240
 4195.00    1.00933   0.87700    9.908
 4196.00    0.97282   0.86933   10.279
 4197.00    0.90424   0.86324   11.059
 4198.00    0.87163   0.85954   11.473
 4199.00    0.92729   0.85838   10.784
 4200.00    1.02563   0.85978    9.750
 4201.00    1.02850   0.86310    9.723
 4202.00    0.91215   0.86745   10.963
 4203.00    0.81310   0.87262   12.299
 4204.00    0.81327   0.87839   12.296
 4205.00    0.87545   0.88393   11.423
 4206.00    0.95988   0.88868   10.418
 4207.00    1.05467   0.89236    9.482
 4208.00    1.11435   0.89454    8.974
 4209.00    1.07424   0.89504    9.309
 4210.00    0.97191   0.89405   10.289
 4211.00    0.92473   0.89209   10.814
 4212.00    0.93712   0.88972   10.671
 4213.00    0.90709   0.88741   11.024
 4214.00    0.81516   0.88588   12.267
 4215.00    0.74054   0.88587   13.504
 4216.00    0.75739   0.88775   13.203
 4217.00    0.88152   0.89095   11.344
 4218.00    1.01453   0.89340    9.857
 4219.00    1.01942   0.89262    9.810
 4220.00    0.91493   0.88758   10.930
 4221.00    0.83488   0.87879   11.978
 4222.00    0.85236   0.86757   11.732
 4223.00    0.94717   0.85604   10.558
 4224.00    1.01925   0.84687    9.811
 4225.00    0.98010   0.84219   10.203
 4226.00    0.90258   0.84289   11.079
 4227.00    0.91704   0.84849   10.905
 4228.00    1.00221   0.85711    9.978
 4229.00    1.04377   0.86564    9.581
 4230.00    0.97712   0.87090   10.234
 4231.00    0.83379   0.87197   11.993
 4232.00    0.76454   0.87005   13.080
 4233.00    0.86530   0.86698   11.557
 4234.00    0.96467   0.86476   10.366
 4235.00    0.87101   0.86452   11.481
 4236.00    0.68634   0.86593   14.570
 4237.00    0.60235   0.86861   -1.000
 4238.00    0.63831   0.87241   -1.000
 4239.00    0.71724   0.87661   13.942
 4240.00    0.77600   0.88053   12.887
 4241.00    0.78876   0.88357   12.678
 4242.00    0.77592   0.88483   12.888
 4243.00    0.76946   0.88377   12.996
 4244.00    0.78015   0.88072   12.818
 4245.00    0.78896   0.87612   12.675
 4246.00    0.75222   0.87040   13.294
 4247.00    0.68217   0.86479   14.659
 4248.00    0.68608   0.86069   14.576
 4249.00    0.80204   0.85860   12.468
 4250.00    0.90956   0.85807   10.994
 4251.00    0.92811   0.85884   10.775
 4252.00    0.92615   0.86074   10.797
 4253.00    0.95986   0.86272   10.418
 4254.00    0.98546   0.86370   10.148
 4255.00    0.94498   0.86374   10.582
 4256.00    0.82547   0.86331   12.114
 4257.00    0.69749   0.86253   14.338
 4258.00    0.69145   0.86171   14.462
 4259.00    0.79852   0.86193   12.522
 4260.00    0.84389   0.86433   11.851
 4261.00    0.79197   0.86909   12.629
 4262.00    0.80556   0.87506   12.411
 4263.00    0.92573   0.88011   10.797
 4264.00    1.00531   0.88193    9.953
 4265.00    0.96485   0.87945   10.377
 4266.00    0.86182   0.87293   11.580
 4267.00    0.78141   0.86326   12.747
 4268.00    0.77790   0.85207   12.942
 4269.00    0.81833   0.84148   12.344
 4270.00    0.81149   0.83313   12.093
 4271.00    0.74442   0.82818   13.053
 4272.00    0.68801   0.82757   15.576
 4273.00    0.69871   0.83137   15.677
 4274.00    0.78282   0.83797   10.397
 4275.00    0.87963   0.84524    6.998
 4276.00    0.90744   0.85196    6.136
 4277.00    0.87747   0.85710   -2.000
 4278.00    0.87185   0.85956   -2.000
 4279.00    0.93781   0.85922   -2.000
 4280.00    1.05714   0.85685   -2.000
 4281.00    1.13605   0.85337   -2.000
 4282.00    1.08113   0.84929   -2.000
 4283.00    0.93784   0.84457   -2.000
 4284.00    0.81658   0.83922   -2.000
 4285.00    0.72714   0.83334   -2.000
 4286.00    0.63895   0.82732   -2.000
 4287.00    0.61549   0.82195   -2.000
 4288.00    0.72225   0.81786   -2.000
 4289.00    0.86931   0.81535   -2.000
 4290.00    0.93304   0.81469   -2.000
 4291.00    0.94372   0.81565   -2.000
 4292.00    0.97581   0.81662   -2.000
 4293.00    0.98671   0.81521    6.272
 4294.00    0.91558   0.81028    6.483
 4295.00    0.81425   0.80240    6.767
 4296.00    0.76409   0.79286    6.929
 4297.00    0.77286   0.78265    6.966
 4298.00    0.79961   0.77283    6.962
 4299.00    0.79440   0.76452    6.902
 4300.00    0.74135   0.75875    6.791
 4301.00    0.68874   0.75597    6.742
 4302.00    0.68821   0.75530    6.802
 4303.00    0.74093   0.75540    6.834
 4304.00    0.80474   0.75584    6.781
 4305.00    0.81366   0.75638    6.841
 4306.00    0.75798   0.75684    7.101
 4307.00    0.72301   0.75769    7.289
 4308.00    0.75079   0.75985    7.199
 4309.00    0.76743   0.76415    7.051
 4310.00    0.73904   0.77066    7.015
 4311.00    0.74720   0.77854    6.988
 4312.00    0.83041   0.78689    6.900
 4313.00    0.91257   0.79525    6.851
 4314.00    0.93721   0.80344    6.882
 4315.00    0.92736   0.81101    6.896
 4316.00    0.90641   0.81686    6.846
 4317.00    0.86680   0.81905    6.793
 4318.00    0.81712   0.81606    6.778
 4319.00    0.79164   0.80812    6.778
 4320.00    0.79459   0.79661    6.801
 4321.00    0.79318   0.78312    6.892
 4322.00    0.78491   0.76937    7.000
 4323.00    0.80207   0.75667    6.978
 4324.00    0.83083   0.74590    6.835
 4325.00    0.81373   0.73794    6.742
 4326.00    0.75706   0.73313    6.763
 4327.00    0.73013   0.73047    6.825
 4328.00    0.75031   0.72743    6.825
 4329.00    0.77236   0.72111    6.701
 4330.00    0.76248   0.70995    0.000
 4331.00    0.72106   0.69385    0.000
 4332.00    0.68314   0.67297    0.000
 4333.00    0.68605   0.64709    0.000
 4334.00    0.69440   0.61667    0.000
 4335.00    0.65078   0.58359    0.000
 4336.00    0.62642   0.55061    0.000
 4337.00    0.73364   0.52121    0.000
 4338.00    0.88018   0.49961    0.000
 4339.00    0.88377   0.48929    0.000
 4340.00    0.78423   0.49159    0.000
 4341.00    0.73800   0.50618    0.000
 4342.00    0.72908   0.53079    0.000
 4343.00    0.66151   0.56080    0.000
 4344.00    0.59046   0.59130    0.000
 4345.00    0.62155   0.61947    0.000
 4346.00    0.70562   0.64396    0.000
 4347.00    0.72406   0.66401    0.000
 4348.00    0.65235   0.68002    0.000
 4349.00    0.55968   0.69313    0.000
 4350.00    0.57001   0.70444    0.000
 4351.00    0.74031   0.71507   13.746
 4352.00    0.93301   0.72658   10.723
 4353.00    0.99307   0.73995   10.033
 4354.00    0.95311   0.75419   10.492
 4355.00    0.91578   0.76744   10.904
 4356.00    0.91012   0.77903   10.990
 4357.00    0.91065   0.78914   11.077
 4358.00    0.87495   0.79800   11.411
 4359.00    0.79946   0.80604   12.151
 4360.00    0.75478   0.81374   13.360
 4361.00    0.78154   0.82080   14.015
 4362.00    0.81633   0.82624   11.854
 4363.00    0.81149   0.82940    8.787
 4364.00    0.81533   0.83050    7.326
 4365.00    0.84975   0.82998    7.252
 4366.00    0.83974   0.82800    7.612
 4367.00    0.75411   0.82499    7.663
 4368.00    0.68004   0.82190    7.564
 4369.00    0.68765   0.81949    7.590
 4370.00    0.75388   0.81781    7.628
 4371.00    0.81990   0.81668    7.561
 4372.00    0.83526   0.81619    7.477
 4373.00    0.80366   0.81638    7.470
 4374.00    0.78621   0.81736    7.549
 4375.00    0.80654   0.81940    7.670
 4376.00    0.82314   0.82199    7.763
 4377.00    0.81301   0.82309    7.837
 4378.00    0.79734   0.82056    7.977
 4379.00    0.78865   0.81387    8.129
 4380.00    0.77463   0.80425    8.089
 4381.00    0.74247   0.79368    7.946
 4382.00    0.69516   0.78398    8.035
 4383.00    0.67250   0.77681    8.282
 4384.00    0.72522   0.77402    8.213
 4385.00    0.81121   0.77663    7.924
 4386.00    0.82419   0.78327    7.973
 4387.00    0.77605   0.79098    8.329
 4388.00    0.78018   0.79776    8.409
 4389.00    0.85515   0.80341    8.166
 4390.00    0.92075   0.80820    8.092
 4391.00    0.92835   0.81228    8.260
 4392.00    0.88407   0.81589    8.380
 4393.00    0.82154   0.81877    8.378
 4394.00    0.77840   0.82048    8.402
 4395.00    0.76110   0.82161    8.476
 4396.00    0.75363   0.82304    8.511
 4397.00    0.75002   0.82416    8.506
 4398.00    0.75430   0.82339    8.520
 4399.00    0.76805   0.82069    8.536
 4400.00    0.78980   0.81744    8.503
 4401.00    0.81795   0.81490    8.443
 4402.00    0.84937   0.81346    8.411
 4403.00    0.87645   0.81268    8.402
 4404.00    0.89087   0.81235    8.390
 4405.00    0.88963   0.81362    8.400
 4406.00    0.87352   0.81742    8.468
 4407.00    0.84416   0.82242    8.565
 4408.00    0.80680   0.82657    8.636
 4409.00    0.77443   0.82930    8.664
 4410.00    0.76767   0.83058    8.659
 4411.00    0.81096   0.82980    8.629
 4412.00    0.89514   0.82699    8.567
 4413.00    0.94507   0.82326    8.443
 4414.00    0.90586   0.81966    8.297
 4415.00    0.82583   0.81746    8.293
 4416.00    0.78346   0.81796    8.487
 4417.00    0.81022   0.82105    8.637
 4418.00    0.87374   0.82544    8.569
 4419.00    0.88267   0.82980    8.517
 4420.00    0.80287   0.83295    8.664
 4421.00    0.73163   0.83418    8.806
 4422.00    0.75316   0.83405    8.720
 4423.00    0.83724   0.83369    8.488
 4424.00    0.91397   0.83354    8.291
 4425.00    0.93466   0.83325    8.246
 4426.00    0.90023   0.83242    8.364
 4427.00    0.86338   0.83093    8.535
 4428.00    0.84677   0.82890    8.602
 4429.00    0.81152   0.82628    8.457
 4430.00    0.75137   0.82328    8.225
 4431.00    0.72459   0.82081    8.199
 4432.00    0.75045   0.81971    8.349
 4433.00    0.77804   0.81981    8.252
 4434.00    0.78951   0.82083    7.886
 4435.00    0.82266   0.82284    7.730
 4436.00    0.85798   0.82554    7.900
 4437.00    0.81122   0.82779    8.054
 4438.00    0.69722   0.82840    8.027
 4439.00    0.64124   0.82709    8.022
 4440.00    0.68140   0.82432    8.087
 4441.00    0.73976   0.82113    8.050
 4442.00    0.77373   0.81902    7.938
 4443.00    0.80727   0.81911    7.958
 4444.00    0.86296   0.82148    8.038
 4445.00    0.93519   0.82526    7.899
 4446.00    0.97848   0.82869    7.681
 4447.00    0.93888   0.83018    7.776
 4448.00    0.84309   0.82950    8.112
 4449.00    0.77655   0.82694    8.225
 4450.00    0.77287   0.82277    8.091
 4451.00    0.80574   0.81776    8.080
 4452.00    0.83446   0.81262    8.211
 4453.00    0.82766   0.80737    8.260
 4454.00    0.78915   0.80212    8.329
 4455.00    0.74915   0.79767    8.651
 4456.00    0.73611   0.79497    8.898
 4457.00    0.75932   0.79414    8.562
 4458.00    0.78950   0.79427    8.123
 4459.00    0.78774   0.79487    8.214
 4460.00    0.75788   0.79607    8.579
 4461.00    0.73556   0.79764    0.000
 4462.00    0.75636   0.79916    0.000
 4463.00    0.82579   0.80045    0.000
 4464.00    0.88756   0.80085    0.000
 4465.00    0.88268   0.79983    0.000
 4466.00    0.82945   0.79819    0.000
 4467.00    0.77906   0.79718    0.000
 4468.00    0.75033   0.79752    0.000
 4469.00    0.74487   0.79963    0.000
 4470.00    0.77054   0.80385    0.000
 4471.00    0.81586   0.80995    0.000
 4472.00    0.82733   0.81693    0.000
 4473.00    0.78059   0.82325    0.000
 4474.00    0.74160   0.82685    0.000
 4475.00    0.76970   0.82636    0.000
 4476.00    0.83221   0.82239    0.000
 4477.00    0.86479   0.81677    0.000
 4478.00    0.83162   0.81073    0.000
 4479.00    0.75629   0.80511    0.000
 4480.00    0.72636   0.80122    0.000
 4481.00    0.77562   0.80064    0.000
 4482.00    0.81946   0.80405    8.722
 4483.00    0.79312   0.80999    8.975
 4484.00    0.73390   0.81552    9.086
 4485.00    0.70134   0.81872    8.906
 4486.00    0.72319   0.81955    8.771
 4487.00    0.78705   0.81858    8.853
 4488.00    0.84587   0.81637    8.937
 4489.00    0.86333   0.81401    8.893
 4490.00    0.83571   0.81283    8.889
 4491.00    0.78024   0.81322    9.035
 4492.00    0.72548   0.81472    9.249
 4493.00    0.69676   0.81658    9.402
 4494.00    0.70483   0.81827    9.416
 4495.00    0.72730   0.82003    9.377
 4496.00    0.72220   0.82243    9.457
 4497.00    0.70646   0.82567    9.555
 4498.00    0.74744   0.82947    9.329
 4499.00    0.82956   0.83326    8.912
 4500.00    0.85423   0.83658    8.782
 4501.00    0.79265   0.83951    9.024
 4502.00    0.70815   0.84256    9.336
 4503.00    0.66973   0.84560    9.435
 4504.00    0.70995   0.84760    9.271
 4505.00    0.78641   0.84788    9.057
 4506.00    0.82062   0.84668    9.048
 4507.00    0.82054   0.84455    9.158
 4508.00    0.84842   0.84197    9.113
 4509.00    0.87329   0.83935    9.019
 4510.00    0.81699   0.83671    9.195
 4511.00    0.72727   0.83369    9.558
 4512.00    0.71867   0.83010    9.711
 4513.00    0.78011   0.82643    9.589
 4514.00    0.82009   0.82323    9.433
 4515.00    0.82147   0.82087    9.325
 4516.00    0.81718   0.81941    9.232
 4517.00    0.79985   0.81810    9.173
 4518.00    0.75281   0.81628    9.193
 4519.00    0.72107   0.81399    9.263
 4520.00    0.75406   0.81106    9.336
 4521.00    0.80883   0.80723    9.454
 4522.00    0.81307   0.80233    9.671
 4523.00    0.76807   0.79682    9.931
 4524.00    0.72143   0.79171   10.084
 4525.00    0.71300   0.78721    9.986
 4526.00    0.74839   0.78326    9.668
 4527.00    0.78078   0.78017    9.417
 4528.00    0.77560   0.77789    9.437
 4529.00    0.77535   0.77661    9.628
 4530.00    0.81354   0.77697    9.781
 4531.00    0.83188   0.77913    9.807
 4532.00    0.79057   0.78265    9.731
 4533.00    0.76425   0.78664    9.633
 4534.00    0.80742   0.79079    9.615
 4535.00    0.84573   0.79561    9.763
 4536.00    0.80814   0.80106   10.065
 4537.00    0.73029   0.80609   10.334
 4538.00    0.67723   0.80923   10.394
 4539.00    0.67872   0.80984   10.287
 4540.00    0.72046   0.80877   10.192
 4541.00    0.75069   0.80726   10.280
 4542.00    0.74290   0.80571   10.332
 4543.00    0.72639   0.80332    9.692
 4544.00    0.72801   0.79915    8.509
 4545.00    0.74080   0.79416    7.602
 4546.00    0.74819   0.78982    7.222
 4547.00    0.74116   0.78601    7.201
 4548.00    0.73206   0.78207    7.245
 4549.00    0.74826   0.77826    7.047
 4550.00    0.77304   0.77610    0.000
 4551.00    0.74640   0.77660    0.000
 4552.00    0.68592   0.77849    0.000
 4553.00    0.69393   0.78046    0.000
 4554.00    0.77861   0.78297    0.000
 4555.00    0.83205   0.78684    0.000
 4556.00    0.81431   0.79216    0.000
 4557.00    0.78656   0.79783    0.000
 4558.00    0.78843   0.80192    0.000
 4559.00    0.80774   0.80389    0.000
 4560.00    0.82124   0.80463    0.000
 4561.00    0.81449   0.80475    0.000
 4562.00    0.79935   0.80438    0.000
 4563.00    0.80571   0.80365    0.000
 4564.00    0.84661   0.80329    0.000
 4565.00    0.90620   0.80395    0.000
 4566.00    0.93499   0.80512    0.000
 4567.00    0.88688   0.80622    0.000
 4568.00    0.80218   0.80711    0.000
 4569.00    0.76893   0.80729    0.000
 4570.00    0.80342   0.80658    0.000
 4571.00    0.85673   0.80539    0.000
 4572.00    0.87809   0.80465    0.000
 4573.00    0.84631   0.80485    0.000
 4574.00    0.80067   0.80452    0.000
 4575.00    0.79225   0.80243    0.000
 4576.00    0.79749   0.79912    0.000
 4577.00    0.76814   0.79526    0.000
 4578.00    0.72727   0.79074    0.000
 4579.00    0.72850   0.78587    0.000
 4580.00    0.77770   0.78168    0.000
 4581.00    0.83807   0.77908    0.000
 4582.00    0.85473   0.77816    0.000
 4583.00    0.80483   0.77850    0.000
 4584.00    0.74840   0.78005    0.000
 4585.00    0.74600   0.78261    0.000
 4586.00    0.76551   0.78511    0.000
 4587.00    0.76244   0.78679    0.000
 4588.00    0.76720   0.78780    0.000
 4589.00    0.80384   0.78826    0.000
 4590.00    0.81401   0.78797    0.000
 4591.00    0.76860   0.78712    0.000
 4592.00    0.75722   0.78641    0.000
 4593.00    0.83210   0.78647    0.000
 4594.00    0.89183   0.78713    0.000
 4595.00    0.85203   0.78759    0.000
 4596.00    0.76972   0.78791    0.000
 4597.00    0.72846   0.78863    0.000
 4598.00    0.74946   0.78956    0.000
 4599.00    0.79310   0.79034    0.000
 4600.00    0.78204   0.79079    0.000
 4601.00    0.71409   0.79150    0.000
 4602.00    0.69929   0.79319    0.000
 4603.00    0.77612   0.79573    0.000
 4604.00    0.83979   0.79857    0.000
 4605.00    0.82843   0.80131    0.000
 4606.00    0.79854   0.80384    0.000
 4607.00    0.79922   0.80615    0.000
 4608.00    0.81946   0.80777    0.000
 4609.00    0.83856   0.80831    0.000
 4610.00    0.84761   0.80762    0.000
 4611.00    0.83859   0.80584    0.000
 4612.00    0.80501   0.80378    0.000
 4613.00    0.76214   0.80169    0.000
 4614.00    0.74321   0.79954    0.000
 4615.00    0.75910   0.79777    0.000
 4616.00    0.79189   0.79656    0.000
 4617.00    0.82135   0.79597    0.000
 4618.00    0.83522   0.79603    0.000
 4619.00    0.83242   0.79653    0.000
 4620.00    0.81981   0.79755    0.000
 4621.00    0.80091   0.79899    0.000
 4622.00    0.77924   0.80008    0.000
 4623.00    0.77440   0.80020    0.000
 4624.00    0.80536   0.79917    0.000
 4625.00    0.84294   0.79753    0.000
 4626.00    0.83649   0.79607    0.000
 4627.00    0.79551   0.79483    0.000
 4628.00    0.77176   0.79308    0.000
 4629.00    0.78694   0.79082    0.000
 4630.00    0.82582   0.78908    0.000
 4631.00    0.85267   0.78813    0.000
 4632.00    0.83954   0.78680    0.000
 4633.00    0.80754   0.78457    0.000
 4634.00    0.79536   0.78240    0.000
 4635.00    0.79910   0.78112    0.000
 4636.00    0.79286   0.78067    0.000
 4637.00    0.77316   0.78044    0.000
 4638.00    0.75633   0.78012    0.000
 4639.00    0.76404   0.77978    0.000
 4640.00    0.79651   0.77915    0.000
 4641.00    0.80553   0.77768    0.000
 4642.00    0.75720   0.77516    0.000
 4643.00    0.70344   0.77187    0.000
 4644.00    0.70559   0.76854    0.000
 4645.00    0.74665   0.76581    0.000
 4646.00    0.78033   0.76393    0.000
 4647.00    0.78939   0.76345    0.000
 4648.00    0.77803   0.76476    0.000
 4649.00    0.75929   0.76713    0.000
 4650.00    0.75101   0.76959    0.000
 4651.00    0.76986   0.77169    0.000
 4652.00    0.80290   0.77353    0.000
 4653.00    0.79538   0.77544    0.000
 4654.00    0.73050   0.77743    0.000
 4655.00    0.67626   0.77950    0.000
 4656.00    0.68593   0.78163    0.000
 4657.00    0.73473   0.78341    0.000
 4658.00    0.77372   0.78441    0.000
 4659.00    0.77069   0.78401    0.000
 4660.00    0.73069   0.78147    0.000
 4661.00    0.69748   0.77633    0.000
 4662.00    0.70092   0.76916    0.000
 4663.00    0.73091   0.76167    0.000
 4664.00    0.75440   0.75552    0.000
 4665.00    0.73499   0.75115    0.000
 4666.00    0.67896   0.74836    0.000
 4667.00    0.64027   0.74750    0.000
 4668.00    0.65019   0.74933    0.000
 4669.00    0.69336   0.75348    0.000
 4670.00    0.73786   0.75863    0.000
 4671.00    0.75382   0.76366    0.000
 4672.00    0.73448   0.76772    0.000
 4673.00    0.70035   0.77025    0.000
 4674.00    0.68695   0.77143    0.000
 4675.00    0.72400   0.77173    0.000
 4676.00    0.78609   0.77127    0.000
 4677.00    0.80787   0.77000    0.000
 4678.00    0.77115   0.76830    0.000
 4679.00    0.71248   0.76697    0.000
 4680.00    0.67330   0.76636    0.000
 4681.00    0.67737   0.76633    0.000
 4682.00    0.71057   0.76678    0.000
 4683.00    0.73746   0.76755    0.000
 4684.00    0.74937   0.76824    0.000
 4685.00    0.76112   0.76846    0.000
 4686.00    0.78047   0.76837    0.000
 4687.00    0.79971   0.76826    0.000
 4688.00    0.79363   0.76828    0.000
 4689.00    0.74821   0.76846    0.000
 4690.00    0.70964   0.76876    0.000
 4691.00    0.72830   0.76911    0.000
 4692.00    0.75541   0.76933    0.000
 4693.00    0.72377   0.76890    0.000
 4694.00    0.69172   0.76748    0.000
 4695.00    0.73881   0.76539    0.000
 4696.00    0.79381   0.76274    0.000
 4697.00    0.76232   0.75914    0.000
 4698.00    0.71718   0.75476    0.000
 4699.00    0.75753   0.75097    0.000
 4700.00    0.81682   0.74880    0.000
 4701.00    0.80291   0.74762    0.000
 4702.00    0.77153   0.74650    0.000
 4703.00    0.79018   0.74569    0.000
 4704.00    0.78862   0.74589    0.000
 4705.00    0.70826   0.74691    0.000
 4706.00    0.64574   0.74800    0.000
 4707.00    0.68656   0.74882    0.000
 4708.00    0.75825   0.74946    0.000
 4709.00    0.77311   0.75020    0.000
 4710.00    0.74912   0.75145    0.000
 4711.00    0.73146   0.75344    0.000
 4712.00    0.72663   0.75571    0.000
 4713.00    0.72209   0.75788    0.000
 4714.00    0.70587   0.76044    0.000
 4715.00    0.68166   0.76403    0.000
 4716.00    0.67193   0.76821    0.000
 4717.00    0.67931   0.77181    0.000
 4718.00    0.67336   0.77425    0.000
 4719.00    0.65307   0.77589    0.000
 4720.00    0.66647   0.77685    0.000
 4721.00    0.72122   0.77650    0.000
 4722.00    0.75776   0.77438    0.000
 4723.00    0.75375   0.77089    0.000
 4724.00    0.75503   0.76690    0.000
 4725.00    0.77959   0.76266    0.000
 4726.00    0.79019   0.75792    0.000
 4727.00    0.76650   0.75318    0.000
 4728.00    0.72914   0.74978    0.000
 4729.00    0.71219   0.74839    0.000
 4730.00    0.73893   0.74844    0.000
 4731.00    0.77778   0.74913    0.000
 4732.00    0.76289   0.75027    0.000
 4733.00    0.70921   0.75205    0.000
 4734.00    0.69868   0.75420    0.000
 4735.00    0.72565   0.75591    0.000
 4736.00    0.71194   0.75676    0.000
 4737.00    0.67866   0.75758    0.000
 4738.00    0.71747   0.75925    0.000
 4739.00    0.79455   0.76101    0.000
 4740.00    0.79275   0.76199    0.000
 4741.00    0.72998   0.76268    0.000
 4742.00    0.71873   0.76386    0.000
 4743.00    0.76339   0.76510    0.000
 4744.00    0.78342   0.76566    0.000
 4745.00    0.75184   0.76575    0.000
 4746.00    0.69912   0.76582    0.000
 4747.00    0.66556   0.76546    0.000
 4748.00    0.67756   0.76414    0.000
 4749.00    0.72338   0.76228    0.000
 4750.00    0.76648   0.76026    0.000
 4751.00    0.77450   0.75803    0.000
 4752.00    0.73961   0.75563    0.000
 4753.00    0.69938   0.75360    0.000
 4754.00    0.70146   0.75223    0.000
 4755.00    0.75092   0.75133    0.000
 4756.00    0.81219   0.75045    0.000
 4757.00    0.82483   0.74915    0.000
 4758.00    0.76099   0.74729    0.000
 4759.00    0.68405   0.74500    0.000
 4760.00    0.66252   0.74222    0.000
 4761.00    0.67443   0.73891   11.814
 4762.00    0.67818   0.73580   11.908
 4763.00    0.68932   0.73403   12.244
 4764.00    0.72404   0.73387   12.654
 4765.00    0.74513   0.73493   12.021
 4766.00    0.71827   0.73681   10.404
 4767.00    0.66193   0.73921    9.375
 4768.00    0.61688   0.74207    9.281
 4769.00    0.61511   0.74526    9.242
 4770.00    0.65704   0.74823    8.843
 4771.00    0.70224   0.75034    8.993
 4772.00    0.71531   0.75201   10.311
 4773.00    0.69711   0.75398   12.022
 4774.00    0.67591   0.75575   12.525
 4775.00    0.69208   0.75636   12.150
 4776.00    0.74893   0.75597   11.881
 4777.00    0.79620   0.75528   11.803
 4778.00    0.79942   0.75396   11.823
 4779.00    0.77266   0.75164   12.000
 4780.00    0.74468   0.74917   12.306
 4781.00    0.73559   0.74697   12.525
 4782.00    0.73429   0.74448   12.544
 4783.00    0.70579   0.74204   12.476
 4784.00    0.66604   0.74047   12.426
 4785.00    0.68206   0.73959   12.397
 4786.00    0.74323   0.73909   12.402
 4787.00    0.75408   0.73948   12.479
 4788.00    0.69996   0.74103   12.604
 4789.00    0.66520   0.74332   12.666
 4790.00    0.68223   0.74603   12.544
 4791.00    0.70898   0.74874   12.215
 4792.00    0.72485   0.75089   11.923
 4793.00    0.74436   0.75223   11.986
 4794.00    0.76628   0.75255   12.320
 4795.00    0.77343   0.75165   12.480
 4796.00    0.77266   0.74989   12.285
 4797.00    0.78456   0.74798   11.971
 4798.00    0.79194   0.74625   11.872
 4799.00    0.75872   0.74453   12.202
 4800.00    0.70129   0.74283   12.714
 4801.00    0.66946   0.74151   12.851
 4802.00    0.67221   0.74063   12.639
 4803.00    0.68818   0.73950   12.536
 4804.00    0.71639   0.73781   12.626
 4805.00    0.75938   0.73633   12.713
 4806.00    0.77676   0.73566   12.694
 4807.00    0.73125   0.73548   12.612
 4808.00    0.67542   0.73546   12.603
 4809.00    0.68046   0.73592   12.758
 4810.00    0.70860   0.73697   12.925
 4811.00    0.69432   0.73828   12.891
 4812.00    0.68243   0.73962   12.723
 4813.00    0.73356   0.74102   12.614
 4814.00    0.78083   0.74227   12.618
 4815.00    0.74319   0.74302   12.702
 4816.00    0.67925   0.74297   12.824
 4817.00    0.67724   0.74202   12.931
 4818.00    0.71461   0.73985   12.956
 4819.00    0.72723   0.73617   12.903
 4820.00    0.69890   0.73200   12.927
 4821.00    0.66139   0.72856   13.121
 4822.00    0.67726   0.72558   13.331
 4823.00    0.75593   0.72243   13.393
 4824.00    0.79536   0.71989   13.388
 4825.00    0.73343   0.71897   13.432
 4826.00    0.66065   0.71894   13.482
 4827.00    0.66018   0.71824   13.440
 4828.00    0.69016   0.71672   13.264
 4829.00    0.69444   0.71550   13.079
 4830.00    0.68233   0.71474   13.166
 4831.00    0.68247   0.71341   13.525
 4832.00    0.70643   0.71139   13.651
 4833.00    0.73797   0.70958   13.373
 4834.00    0.73765   0.70773   13.263
 4835.00    0.70070   0.70487   13.584
 4836.00    0.67511   0.70131   13.897
 4837.00    0.68000   0.69800   13.886
 4838.00    0.67700   0.69463   13.820
 4839.00    0.64778   0.69053   13.984
 4840.00    0.62101   0.68648   14.394
 4841.00    0.61684   0.68311   14.770
 4842.00    0.62562   0.67958   14.659
 4843.00    0.62885   0.67478   14.241
 4844.00    0.61343   0.66899   14.220
 4845.00    0.58985   0.66306   14.577
 4846.00    0.58661   0.65666   14.518
 4847.00    0.60669   0.64862   13.998
 4848.00    0.62387   0.63896    0.000
 4849.00    0.62223   0.62860    0.000
 4850.00    0.60472   0.61699    0.000
 4851.00    0.57797   0.60288    0.000
 4852.00    0.55052   0.58666    0.000
 4853.00    0.54120   0.56914    0.000
 4854.00    0.57390   0.54982    0.000
 4855.00    0.65828   0.52857    0.000
 4856.00    0.78605   0.50668    0.000
 4857.00    0.93468   0.48655    0.000
 4858.00    1.07479   0.47115    0.000
 4859.00    1.18402   0.46165    0.000
 4860.00    1.24524   0.45760    0.000
 4861.00    1.23732   0.46017    0.000
 4862.00    1.14835   0.47079    0.000
 4863.00    1.00342   0.48744    0.000
 4864.00    0.85105   0.50617    0.000
 4865.00    0.73013   0.52494    0.000
 4866.00    0.65928   0.54251    0.000
 4867.00    0.63004   0.55759    0.000
 4868.00    0.62363   0.57065    0.000
 4869.00    0.63633   0.58266    0.000
 4870.00    0.66327   0.59319    0.000
 4871.00    0.67304   0.60221    0.000
 4872.00    0.64184   0.61135    0.000
 4873.00    0.59861   0.62142    0.000
 4874.00    0.58465   0.63134    0.000
 4875.00    0.60060   0.64060   14.273
 4876.00    0.62602   0.64892   14.147
 4877.00    0.64796   0.65569   13.976
 4878.00    0.66397   0.66109   13.696
 4879.00    0.68097   0.66555   13.490
 4880.00    0.70222   0.66832   13.476
 4881.00    0.71635   0.66896   13.468
 4882.00    0.70966   0.66863   13.336
 4883.00    0.67909   0.66847   13.278
 4884.00    0.64284   0.66836   13.431
 4885.00    0.64093   0.66810   13.594
 4886.00    0.67837   0.66784   13.613
 4887.00    0.69498   0.66839   13.665
 4888.00    0.65779   0.67108   13.805
 4889.00    0.61500   0.67569   13.703
 4890.00    0.61284   0.68090   13.232
 4891.00    0.64386   0.68665   12.751
 4892.00    0.67498   0.69361   12.538
 4893.00    0.67400   0.70101   12.597
 4894.00    0.65172   0.70695   12.761
 4895.00    0.66583   0.71040   12.770
 4896.00    0.72478   0.71190   12.579
 4897.00    0.76116   0.71263   12.440
 4898.00    0.74110   0.71245   12.437
 4899.00    0.70124   0.71093   12.398
 4900.00    0.67734   0.70931   12.315
 4901.00    0.67490   0.70909   12.404
 4902.00    0.68223   0.70948   12.645
 4903.00    0.68450   0.70910   12.706
 4904.00    0.69301   0.70830   12.508
 4905.00    0.73296   0.70758   12.330
 4906.00    0.76668   0.70627   12.376
 4907.00    0.71593   0.70437   12.660
 4908.00    0.61321   0.70272   12.998
 4909.00    0.58329   0.70148   13.095
 4910.00    0.64958   0.70041   12.962
 4911.00    0.72506   0.69989   12.884
 4912.00    0.74450   0.69956   12.928
 4913.00    0.70168   0.69799   12.941
 4914.00    0.64786   0.69432   12.825
 4915.00    0.64969   0.68894   12.619
 4916.00    0.69718   0.68248   12.490
 4917.00    0.72751   0.67579   12.587
 4918.00    0.72036   0.67011   12.769
 4919.00    0.69748   0.66592   12.756
 4920.00    0.68076   0.66396   12.598
 4921.00    0.67835   0.66561   12.553
 4922.00    0.67606   0.67095   12.699
 4923.00    0.65543   0.67764   12.956
 4924.00    0.62597   0.68445   13.174
 4925.00    0.61343   0.69178   13.228
 4926.00    0.63271   0.69885   13.151
 4927.00    0.67778   0.70397   13.061
 4928.00    0.71513   0.70650   13.009
 4929.00    0.71470   0.70643   12.984
 4930.00    0.69067   0.70445   12.957
 4931.00    0.67787   0.70192   12.928
 4932.00    0.69528   0.69898   12.976
 4933.00    0.73428   0.69499   13.112
 4934.00    0.75412   0.69108   13.118
 4935.00    0.72813   0.68927   12.921
 4936.00    0.68853   0.68965   12.936
 4937.00    0.67378   0.69088   13.398
 4938.00    0.67553   0.69253   13.748
 4939.00    0.67159   0.69555   13.503
 4940.00    0.65987   0.70008    0.000
 4941.00    0.65250   0.70441    0.000
 4942.00    0.66516   0.70746    0.000
 4943.00    0.69012   0.71007    0.000
 4944.00    0.68540   0.71244    0.000
 4945.00    0.64792   0.71366    0.000
 4946.00    0.64989   0.71396    0.000
 4947.00    0.71744   0.71420    0.000
 4948.00    0.76832   0.71383    0.000
 4949.00    0.74890   0.71197    0.000
 4950.00    0.70597   0.70928    0.000
 4951.00    0.68993   0.70648    0.000
 4952.00    0.70235   0.70261    0.000
 4953.00    0.73010   0.69708    0.000
 4954.00    0.76645   0.69233    0.000
 4955.00    0.81676   0.69052    0.000
 4956.00    0.89248   0.69005    0.000
 4957.00    0.97402   0.68935    0.000
 4958.00    1.00960   0.69034    0.000
 4959.00    0.98120   0.69402    0.000
 4960.00    0.91906   0.69752    0.000
 4961.00    0.84846   0.69866    0.000
 4962.00    0.77471   0.69856    0.000
 4963.00    0.70615   0.69845    0.000
 4964.00    0.65862   0.69771    0.000
 4965.00    0.64208   0.69608    0.000
 4966.00    0.65469   0.69475    0.000
 4967.00    0.67929   0.69465    0.000
 4968.00    0.69064   0.69544    0.000
 4969.00    0.67809   0.69660    0.000
 4970.00    0.65222   0.69800    0.000
 4971.00    0.64422   0.69943    0.000
 4972.00    0.68225   0.70028    0.000
 4973.00    0.73776   0.69995    0.000
 4974.00    0.75146   0.69807    0.000
 4975.00    0.71819   0.69476    0.000
 4976.00    0.67653   0.69037    0.000
 4977.00    0.64849   0.68493    0.000
 4978.00    0.63678   0.67842    0.000
 4979.00    0.64356   0.67205    0.000
 4980.00    0.66691   0.66727    0.000
 4981.00    0.68922   0.66410    0.000
 4982.00    0.69026   0.66233    0.000
 4983.00    0.67125   0.66277    0.000
 4984.00    0.64794   0.66544    0.000
 4985.00    0.63404   0.66899    0.000
 4986.00    0.63451   0.67245    0.000
 4987.00    0.64045   0.67575    0.000
 4988.00    0.64152   0.67864    0.000
 4989.00    0.64204   0.68048    0.000
 4990.00    0.65143   0.68125    0.000
 4991.00    0.67057   0.68181    0.000
 4992.00    0.69490   0.68238    0.000
 4993.00    0.71921   0.68217    0.000
 4994.00    0.73398   0.68101    0.000
 4995.00    0.72317   0.67932    0.000
 4996.00    0.68449   0.67682    0.000
 4997.00    0.64610   0.67325    0.000
 4998.00    0.63951   0.66911    0.000
 4999.00    0.67510   0.66506    0.000
 5000.00    0.74935   0.66140    0.000
 5001.00    0.85439   0.65800    0.000
 5002.00    0.99396   0.65514    0.000
 5003.00    1.18807   0.65382    0.000
 5004.00    1.42202   0.65401    0.000
 5005.00    1.61949   0.65432    0.000
 5006.00    1.70403   0.65430    0.000
 5007.00    1.64231   0.65461    0.000
 5008.00    1.45424   0.65484    0.000
 5009.00    1.20899   0.65367    0.000
 5010.00    0.97615   0.65101    0.000
 5011.00    0.79865   0.64792    0.000
 5012.00    0.69494   0.64512    0.000
 5013.00    0.66032   0.64237    0.000
 5014.00    0.66531   0.63963    0.000
 5015.00    0.66563   0.63821    0.000
 5016.00    0.64773   0.63900    0.000
 5017.00    0.63615   0.64056    0.000
 5018.00    0.64228   0.64200    0.000
 5019.00    0.65090   0.64466    0.000
 5020.00    0.64958   0.64886    0.000
 5021.00    0.64021   0.65282    0.000
 5022.00    0.63837   0.65578    0.000
 5023.00    0.66103   0.65840    0.000
 5024.00    0.69034   0.66108    0.000
 5025.00    0.68469   0.66371    0.000
 5026.00    0.64418   0.66589    0.000
 5027.00    0.61045   0.66728    0.000
 5028.00    0.61314   0.66865    0.000
 5029.00    0.65172   0.67051   13.740
 5030.00    0.68935   0.67157   13.570
 5031.00    0.68208   0.67064   13.604
 5032.00    0.64727   0.66836   13.773
 5033.00    0.63893   0.66569   13.889
 5034.00    0.66222   0.66210   13.901
 5035.00    0.67990   0.65706   13.890
 5036.00    0.66243   0.65165   13.928
 5037.00    0.61299   0.64736   14.024
 5038.00    0.59089   0.64498   14.073
 5039.00    0.64463   0.64468   14.010
 5040.00    0.69834   0.64575   14.058
 5041.00    0.65741   0.64804   14.414
 5042.00    0.59534   0.65227   14.687
 5043.00    0.62956   0.65710   14.387
 5044.00    0.70744   0.66003   13.931
 5045.00    0.71509   0.66125   13.919
 5046.00    0.65960   0.66206   14.295
 5047.00    0.61256   0.66194   14.664
 5048.00    0.60986   0.66058   14.748
 5049.00    0.64633   0.65970   14.546
 5050.00    0.68598   0.66037   14.354
 5051.00    0.69419   0.66166   14.409
 5052.00    0.66959   0.66308   14.603
 5053.00    0.63089   0.66545   14.760
 5054.00    0.59994   0.66871   14.926
 5055.00    0.59470   0.67149   15.155
 5056.00    0.62254   0.67339   15.276
 5057.00    0.66556   0.67496   15.123
 5058.00    0.67605   0.67611   14.771
 5059.00    0.63750   0.67599   14.477
 5060.00    0.60249   0.67424   14.549
 5061.00    0.61110   0.67137   14.971
 5062.00    0.63754   0.66852   15.167
 5063.00    0.64950   0.66572   14.876
 5064.00    0.64728   0.66220   14.695
 5065.00    0.64034   0.65893   14.992
 5066.00    0.63188   0.65755   15.432
 5067.00    0.62337   0.65688   15.578
 5068.00    0.61809   0.65535   15.370
 5069.00    0.62295   0.65422   15.083
 5070.00    0.64614   0.65433   15.105
 5071.00    0.68104   0.65371   15.422
 5072.00    0.70437   0.65166   15.530
 5073.00    0.70337   0.65006   15.320
 5074.00    0.68475   0.64889   15.306
 5075.00    0.65855   0.64622   15.694
 5076.00    0.63103   0.64271   16.164
 5077.00    0.60518   0.64062   16.462
 5078.00    0.58398   0.63962   16.625
 5079.00    0.58075   0.63829   16.618
 5080.00    0.61229   0.63784   16.311
 5081.00    0.66480   0.63979   15.897
 5082.00    0.69975   0.64288   15.759
 5083.00    0.70601   0.64548   15.898
 5084.00    0.70358   0.64824   16.003
 5085.00    0.70798   0.65179   16.047
 5086.00    0.72130   0.65500   16.241
 5087.00    0.73646   0.65708   16.417
 5088.00    0.74165   0.65878   16.207
 5089.00    0.72822   0.66037   15.929
 5090.00    0.69778   0.66093   16.162
 5091.00    0.67289   0.66012   16.551
 5092.00    0.67849   0.65839   16.224
 5093.00    0.70010   0.65589   15.502
 5094.00    0.70193   0.65252   15.276
 5095.00    0.67700   0.64867   15.631
 5096.00    0.64330   0.64524   16.099
 5097.00    0.61964   0.64298   16.180
 5098.00    0.61443   0.64182   15.697
 5099.00    0.61563   0.64139   15.081
 5100.00    0.60694   0.64177   14.825
 5101.00    0.59404   0.64287   14.971
 5102.00    0.59491   0.64381   15.291
 5103.00    0.62025   0.64380   15.491
 5104.00    0.66231   0.64338   15.377
 5105.00    0.68654   0.64323   15.074
 5106.00    0.66858   0.64296   14.792
 5107.00    0.63662   0.64265   14.561
 5108.00    0.63169   0.64340   14.345
 5109.00    0.65885   0.64512   14.180
 5110.00    0.69586   0.64702   14.094
 5111.00    0.71028   0.64933   14.045
 5112.00    0.69103   0.65195   13.993
 5113.00    0.67127   0.65416   13.968
 5114.00    0.67452   0.65569   14.032
 5115.00    0.67236   0.65631   14.228
 5116.00    0.64794   0.65568   14.489
 5117.00    0.64132   0.65391   14.592
 5118.00    0.67224   0.65117   14.477
 5119.00    0.69007   0.64734   14.454
 5120.00    0.65693   0.64274   14.740
 5121.00    0.60153   0.63826   15.180
 5122.00    0.56871   0.63439   15.457
 5123.00    0.58138   0.63103   15.327
 5124.00    0.62478   0.62851   14.950
 5125.00    0.64907   0.62720   14.836
 5126.00    0.63093   0.62691   15.113
 5127.00    0.59968   0.62746   15.305
 5128.00    0.59247   0.62871   15.114
 5129.00    0.62524   0.63004   14.817
 5130.00    0.67076   0.63133   14.775
 5131.00    0.67081   0.63283   15.155
 5132.00    0.63166   0.63376   15.658
 5133.00    0.63059   0.63348   15.546
 5134.00    0.67227   0.63264   14.981
 5135.00    0.67262   0.63140   14.963
 5136.00    0.61988   0.62945   15.618
 5137.00    0.59430   0.62770   16.033
 5138.00    0.62304   0.62608   15.817
 5139.00    0.65801   0.62402   15.571
 5140.00    0.66964   0.62302   15.621
 5141.00    0.66717   0.62313   15.810
 5142.00    0.66595   0.62244   15.911
 5143.00    0.67174   0.62155   15.809
 5144.00    0.66634   0.62177   15.654
 5145.00    0.62686   0.62207   15.709
 5146.00    0.58160   0.62170   15.944
 5147.00    0.58328   0.62131   16.108
 5148.00    0.61632   0.62138   16.165
 5149.00    0.62395   0.62183   16.261
 5150.00    0.61114   0.62228   16.386
 5151.00    0.61963   0.62297   16.451
 5152.00    0.63579   0.62452   16.593
 5153.00    0.61941   0.62676   16.991
 5154.00    0.58835   0.62900   17.357
 5155.00    0.59019   0.63100   17.237
 5156.00    0.62838   0.63270   16.845
 5157.00    0.67160   0.63346   16.668
 5158.00    0.68892   0.63229   16.728
 5159.00    0.66611   0.62891   16.822
 5160.00    0.62005   0.62387   16.934
 5161.00    0.58018   0.61695   17.086
 5162.00    0.56092   0.60800   17.047
 5163.00    0.56214   0.59821   16.665
 5164.00    0.57490   0.58825   16.264
 5165.00    0.59036   0.57869   16.153
 5166.00    0.60821   0.57137   16.179
 5167.00    0.62468   0.56700   16.116
 5168.00    0.62086   0.56444   16.065
 5169.00    0.58661   0.56423   16.195
 5170.00    0.54329   0.56827   16.460
 5171.00    0.52064   0.57494   16.712
 5172.00    0.53256   0.58137   16.833
 5173.00    0.56945   0.58841   16.816
 5174.00    0.59769   0.59686   16.786
 5175.00    0.59505   0.60351   16.803
 5176.00    0.57567   0.60595   16.737
 5177.00    0.56448   0.60612   16.557
 5178.00    0.57529   0.60521   16.476
 5179.00    0.59869   0.60158   16.601
 5180.00    0.60242   0.59586   16.742
 5181.00    0.58074   0.59173   16.724
 5182.00    0.57376   0.59023   16.569
 5183.00    0.59848   0.58970   16.279
 5184.00    0.61859   0.59048   15.783
 5185.00    0.60465   0.59364   15.320
 5186.00    0.56553   0.59812   15.371
 5187.00    0.53661   0.60163   15.840
 5188.00    0.56009   0.60297   15.854
 5189.00    0.62717   0.60399   15.260
 5190.00    0.67363   0.60579    0.000
 5191.00    0.67237   0.60625    0.000
 5192.00    0.65694   0.60557    0.000
 5193.00    0.65635   0.60663    0.000
 5194.00    0.67091   0.60890    0.000
 5195.00    0.68175   0.61044    0.000
 5196.00    0.66553   0.61211    0.000
 5197.00    0.62972   0.61402    0.000
 5198.00    0.60702   0.61471    0.000
 5199.00    0.60292   0.61427    0.000
 5200.00    0.59632   0.61307    0.000
 5201.00    0.58764   0.61017    0.000
 5202.00    0.59450   0.60624    0.000
 5203.00    0.60478   0.60325    0.000
 5204.00    0.58970   0.60078    0.000
 5205.00    0.56431   0.59842    0.000
 5206.00    0.56900   0.59821    0.000
 5207.00    0.59622   0.60035    0.000
 5208.00    0.60806   0.60279    0.000
 5209.00    0.60559   0.60579    0.000
 5210.00    0.61372   0.60979    0.000
 5211.00    0.62565   0.61326   16.482
 5212.00    0.61965   0.61556   16.592
 5213.00    0.60661   0.61755   16.773
 5214.00    0.61334   0.61946   16.857
 5215.00    0.64185   0.62083   16.806
 5216.00    0.67102   0.62184   16.718
 5217.00    0.67085   0.62266   16.741
 5218.00    0.62673   0.62298   16.970
 5219.00    0.56823   0.62188   17.314
 5220.00    0.53743   0.61910   17.617
 5221.00    0.54339   0.61550   17.853
 5222.00    0.57133   0.61113   18.033
 5223.00    0.60125   0.60577   18.064
 5224.00    0.61552   0.60130   17.905
 5225.00    0.60548   0.59920   17.748
 5226.00    0.57708   0.59803   17.729
 5227.00    0.55380   0.59779   17.682
 5228.00    0.55311   0.59988   17.493
 5229.00    0.56576   0.60252   17.410
 5230.00    0.57613   0.60431   17.546
 5231.00    0.58104   0.60656   17.521
 5232.00    0.58008   0.60921   17.177
 5233.00    0.56838   0.61162   17.062
 5234.00    0.55110   0.61435   17.436
 5235.00    0.55082   0.61755   17.695
 5236.00    0.57734   0.62074   17.427
 5237.00    0.61038   0.62376   17.170
 5238.00    0.62978   0.62653   17.257
 5239.00    0.63467   0.62831   17.274
 5240.00    0.63379   0.62903   16.971
 5241.00    0.63651   0.62943   16.717
 5242.00    0.63936   0.62902   16.776
 5243.00    0.62459   0.62692   17.019
 5244.00    0.59040   0.62441   17.181
 5245.00    0.56056   0.62259   17.053
 5246.00    0.55374   0.62023   16.743
 5247.00    0.56928   0.61720   16.608
 5248.00    0.59132   0.61554   16.644
 5249.00    0.59904   0.61524   16.453
 5250.00    0.59821   0.61492   16.072
 5251.00    0.61705   0.61491   15.989
 5252.00    0.64321   0.61596   16.169
 5253.00    0.62765   0.61760   16.024
 5254.00    0.58026   0.61865   15.490
 5255.00    0.56943   0.61866   15.076
 5256.00    0.61352   0.61789   14.925
 5257.00    0.66783   0.61572   14.827
 5258.00    0.69236   0.61138   14.742
 5259.00    0.67371   0.60518   14.793
 5260.00    0.62686   0.59811   14.879
 5261.00    0.58373   0.59075   14.764
 5262.00    0.56432   0.58300   14.580
 5263.00    0.57102   0.57602   14.660
 5264.00    0.59342   0.57170   14.910
 5265.00    0.61207   0.56880   14.970
 5266.00    0.60434   0.56601   14.935
 5267.00    0.56249   0.56597   15.157
 5268.00    0.52464   0.56891   15.519
 5269.00    0.53822   0.57143   15.632
 5270.00    0.58368   0.57436   15.599
 5271.00    0.60792   0.57973   15.787
 5272.00    0.60404   0.58494   16.149
 5273.00    0.59703   0.58922   16.378
 5274.00    0.59966   0.59435   16.410
 5275.00    0.60995   0.59899   16.421
 5276.00    0.61826   0.60208   16.623
 5277.00    0.61741   0.60473   17.058
 5278.00    0.61401   0.60700   17.316
 5279.00    0.61434   0.60838   17.075
 5280.00    0.60637   0.60920   16.865
 5281.00    0.58052   0.61051   17.217
 5282.00    0.55424   0.61312   17.768
 5283.00    0.54911   0.61626   17.873
 5284.00    0.56411   0.61931   17.586
 5285.00    0.58653   0.62290   17.274
 5286.00    0.60575   0.62664   17.058
 5287.00    0.61576   0.62927   16.952
 5288.00    0.61654   0.63052   17.006
 5289.00    0.61702   0.63066   17.193
 5290.00    0.63418   0.62949   17.325
 5291.00    0.66715   0.62706   17.300
 5292.00    0.68246   0.62377   17.289
 5293.00    0.66019   0.61987   17.419
 5294.00    0.62349   0.61565   17.555
 5295.00    0.60075   0.61202   17.547
 5296.00    0.59879   0.60982   17.413
 5297.00    0.60690   0.60857   17.283
 5298.00    0.60531   0.60811   17.309
 5299.00    0.59394   0.60934   17.416
 5300.00    0.59974   0.61190   17.266
 5301.00    0.62703   0.61461   16.914
 5302.00    0.64090   0.61730   16.921
 5303.00    0.62123   0.62010   17.464
 5304.00    0.58520   0.62256   18.039
 5305.00    0.56235   0.62444   18.095
 5306.00    0.57571   0.62570   17.568
 5307.00    0.61460   0.62625   16.966
 5308.00    0.63805   0.62628   16.931
 5309.00    0.63241   0.62562   17.320
 5310.00    0.62097   0.62400   17.265
 5311.00    0.61535   0.62215   16.817
 5312.00    0.60649   0.62010   16.949
 5313.00    0.59488   0.61724   17.702
 5314.00    0.59144   0.61485   18.053
 5315.00    0.58834   0.61355   17.724
 5316.00    0.56780   0.61194   17.480
 5317.00    0.55197   0.61005   17.533
 5318.00    0.58319   0.60872   17.502
 5319.00    0.63651   0.60716   17.274
 5320.00    0.64387   0.60425   17.068
 5321.00    0.60795   0.60010   17.029
 5322.00    0.58669   0.59607   17.148
 5323.00    0.59621   0.59236   17.256
 5324.00    0.61136   0.58780   17.181
 5325.00    0.61332   0.58365   17.067
 5326.00    0.59970   0.58247   17.200
 5327.00    0.58358   0.58329   17.573
 5328.00    0.58202   0.58454   17.929
 5329.00    0.59647   0.58734   18.021
 5330.00    0.61511   0.59174   17.801
 5331.00    0.62319   0.59602   17.600
 5332.00    0.61375   0.59926   17.786
 5333.00    0.60023   0.60138   18.359
 5334.00    0.59601   0.60259   19.056
 5335.00    0.58526   0.60315   19.601
 5336.00    0.55530   0.60257   19.822
 5337.00    0.54051   0.60116   19.779
 5338.00    0.57369   0.60061   19.598
 5339.00    0.62431   0.60077   19.255
 5340.00    0.64538   0.60066   18.820
 5341.00    0.63249   0.60116   18.673
 5342.00    0.60800   0.60215   18.957
 5343.00    0.59605   0.60293   19.105
 5344.00    0.60123   0.60403   18.785
 5345.00    0.59534   0.60505   18.776
 5346.00    0.56465   0.60577   19.565
 5347.00    0.54628   0.60735   20.202
 5348.00    0.56591   0.60970   19.812
 5349.00    0.59145   0.61186   19.277
 5350.00    0.59478   0.61428   19.301
 5351.00    0.59511   0.61750   19.307
 5352.00    0.60861   0.62051   18.869
 5353.00    0.61658   0.62262   18.560
 5354.00    0.60655   0.62429   18.713
 5355.00    0.59560   0.62526   18.864
 5356.00    0.59713   0.62493   18.683
 5357.00    0.60289   0.62357   18.472
 5358.00    0.60140   0.62121   18.403
 5359.00    0.58922   0.61782   18.230
 5360.00    0.57197   0.61413   17.943
 5361.00    0.56191   0.61015   -2.000
 5362.00    0.56542   0.60581   -2.000
 5363.00    0.57845   0.60187   -2.000
 5364.00    0.59334   0.59821   -2.000
 5365.00    0.60348   0.59483   -2.000
 5366.00    0.60872   0.59229   -2.000
 5367.00    0.61429   0.59028   -2.000
 5368.00    0.61854   0.58917   -2.000
 5369.00    0.61367   0.58995   -2.000
 5370.00    0.60432   0.59197   -2.000
 5371.00    0.60661   0.59442   -2.000
 5372.00    0.62391   0.59792   -2.000
 5373.00    0.64327   0.60172   -2.000
 5374.00    0.64854   0.60451   -2.000
 5375.00    0.63124   0.60679   -2.000
 5376.00    0.60784   0.60829   17.926
 5377.00    0.60521   0.60837   18.188
 5378.00    0.61299   0.60806   18.098
 5379.00    0.60025   0.60763   18.201
 5380.00    0.58165   0.60648   18.510
 5381.00    0.59596   0.60568   18.660
 5382.00    0.62767   0.60548   18.712
 5383.00    0.63181   0.60468   19.004
 5384.00    0.61648   0.60375   19.395
 5385.00    0.61854   0.60308   19.487
 5386.00    0.62949   0.60165   19.442
 5387.00    0.61782   0.59949   19.674
 5388.00    0.58980   0.59740   20.030
 5389.00    0.57220   0.59508   20.090
 5390.00    0.56896   0.59213   19.955
 5391.00    0.56918   0.58943   19.954
 5392.00    0.56869   0.58751   20.026
 5393.00    0.56888   0.58527   19.984
 5394.00    0.57076   0.58289   19.964
 5395.00    0.57502   0.58207   20.141
 5396.00    0.58267   0.58172   20.321
 5397.00    0.59088   0.58029   20.286
 5398.00    0.58924   0.57930   20.262
 5399.00    0.57265   0.57893   20.464
 5400.00    0.55449   0.57734   20.601
 5401.00    0.55077   0.57507   20.345
 5402.00    0.56314   0.57335   19.869
 5403.00    0.58136   0.57179   19.534
 5404.00    0.58876   0.57065   19.565
 5405.00    0.57815   0.57055   19.943
 5406.00    0.56268   0.57111   20.305
 5407.00    0.55525   0.57237   20.343
 5408.00    0.55339   0.57486   20.180
 5409.00    0.55514   0.57792   20.022
 5410.00    0.56873   0.58098   19.883
 5411.00    0.59127   0.58404   19.721
 5412.00    0.59959   0.58712   19.536
 5413.00    0.58827   0.59010   19.363
 5414.00    0.58531   0.59234   19.254
 5415.00    0.59960   0.59374   19.156
 5416.00    0.60004   0.59490   18.927
 5417.00    0.57437   0.59517   18.709
 5418.00    0.55151   0.59457   18.947
 5419.00    0.54887   0.59416   19.604
 5420.00    0.55327   0.59319   19.903
 5421.00    0.55900   0.59150   19.587
 5422.00    0.57803   0.59046   19.358
 5423.00    0.60527   0.58943   19.472
 5424.00    0.61402   0.58800   19.478
 5425.00    0.59744   0.58676   19.254
 5426.00    0.57698   0.58480   19.200
 5427.00    0.57181   0.58299   19.419
 5428.00    0.58579   0.58215   19.601
 5429.00    0.60323   0.58062   19.610
 5430.00    0.59892   0.57934   19.615
 5431.00    0.57243   0.57970   19.793
 5432.00    0.54863   0.58065   20.192
 5433.00    0.54814   0.58210   20.592
 5434.00    0.57500   0.58471   20.638
 5435.00    0.60848   0.58799   20.421
 5436.00    0.61793   0.59117   20.366
 5437.00    0.60318   0.59398   20.590
 5438.00    0.58842   0.59606   20.886
 5439.00    0.58588   0.59700   20.990
 5440.00    0.59209   0.59661   20.790
 5441.00    0.59807   0.59508   20.583
 5442.00    0.59522   0.59296   20.760
 5443.00    0.58241   0.59032   21.199
 5444.00    0.56468   0.58786   21.411
 5445.00    0.54844   0.58662   21.131
 5446.00    0.53783   0.58588   20.522
 5447.00    0.53077   0.58541   20.135
 5448.00    0.52643   0.58567   20.344
 5449.00    0.53658   0.58575   20.717
 5450.00    0.56668   0.58553   20.598
 5451.00    0.58921   0.58519   20.211
 5452.00    0.57767   0.58417   20.115
 5453.00    0.55355   0.58342   20.356
 5454.00    0.55338   0.58350   20.668
 5455.00    0.58217   0.58343   20.775
 5456.00    0.62004   0.58336   20.622
 5457.00    0.63801   0.58377   20.536
 5458.00    0.62317   0.58424   20.711
 5459.00    0.59976   0.58412   20.740
 5460.00    0.59263   0.58347   20.269
 5461.00    0.59268   0.58342   19.661
 5462.00    0.58363   0.58361   19.403
 5463.00    0.56751   0.58308   19.669
 5464.00    0.55274   0.58302   20.267
 5465.00    0.54247   0.58371   20.533
 5466.00    0.53487   0.58360   20.176
 5467.00    0.52656   0.58268   19.846
 5468.00    0.53080   0.58203   19.654
 5469.00    0.57881   0.58083   18.686
 5470.00    0.64169   0.57804   17.562
 5471.00    0.61285   0.57538   -2.000
 5472.00    0.51912   0.57342   -2.000
 5473.00    0.56977   0.57050   -2.000
 5474.00    0.69735   0.56792   -2.000
 5475.00    0.47486   0.56727   -2.000
 5476.00    0.05128   0.56709   -2.000
 5477.00    0.30793   0.56702   -2.000
 5478.00    1.23441   0.56817   -2.000
 5479.00    1.60607   0.57028   -2.000
 5480.00    1.08639   0.57219   -2.000
 5481.00    0.71726   0.57383   -2.000
 5482.00    0.99564   0.57590   -2.000
 5483.00    1.38827   0.57766   -2.000
 5484.00    1.58833   0.57836   -2.000
 5485.00    1.80078   0.57913   -2.000
 5486.00    2.00841   0.58003   -2.000
 5487.00    1.88671   0.57996   -2.000
 5488.00    1.38502   0.57988   -2.000
 5489.00    0.80101   0.58040   -2.000
 5490.00    0.42316   0.58022   -2.000
 5491.00    0.37962   0.57972   -2.000
 5492.00    0.53812   0.57988   -2.000
 5493.00    0.62451   0.57978   -2.000
 5494.00    0.58454   0.57890   -2.000
 5495.00    0.55574   0.57833   17.967
 5496.00    0.58234   0.57804   17.164
 5497.00    0.60916   0.57698   16.424
 5498.00    0.61735   0.57570   16.201
 5499.00    0.62603   0.57481   15.972
 5500.00    0.63513   0.57353   15.745
 5501.00    0.62936   0.57221   15.888
 5502.00    0.60741   0.57133   16.462
 5503.00    0.58143   0.57016   17.207
 5504.00    0.56654   0.56931   17.656
 5505.00    0.57348   0.56910   17.412
 5506.00    0.60009   0.56841   16.654
 5507.00    0.63280   0.56791   15.863
 5508.00    0.65164   0.56813   15.365
 5509.00    0.64417   0.56809   15.356
 5510.00    0.62227   0.56824   16.023
 5511.00    0.60464   0.56916   17.434
 5512.00    0.59275   0.57040   19.100
 5513.00    0.58049   0.57187   20.141
 5514.00    0.56862   0.57372   20.475
 5515.00    0.56186   0.57577   20.576
 5516.00    0.56359   0.57755   20.506
 5517.00    0.57240   0.57887   20.260
 5518.00    0.57997   0.57970   20.194
 5519.00    0.57941   0.57972   20.510
 5520.00    0.57296   0.57900   20.818
 5521.00    0.56854   0.57760   20.733
 5522.00    0.57512   0.57543   20.471
 5523.00    0.59338   0.57324   20.381
 5524.00    0.61048   0.57120   20.539
 5525.00    0.61501   0.56893   20.741
 5526.00    0.60764   0.56744   20.578
 5527.00    0.59524   0.56701   20.120
 5528.00    0.58543   0.56658   20.117
 5529.00    0.58175   0.56661   20.783
 5530.00    0.58145   0.56761   21.255
 5531.00    0.58053   0.56844   21.110
 5532.00    0.57748   0.56895   21.245
 5533.00    0.57672   0.57014   22.031
 5534.00    0.58772   0.57135   22.537
 5535.00    0.61200   0.57211   22.209
 5536.00    0.63808   0.57320   21.761
 5537.00    0.64902   0.57426   21.641
 5538.00    0.63128   0.57489   21.614
 5539.00    0.59604   0.57541   21.626
 5540.00    0.57658   0.57559   21.969
 5541.00    0.58234   0.57569   22.474
 5542.00    0.59091   0.57595   22.442
 5543.00    0.58591   0.57598   21.936
 5544.00    0.56923   0.57629   21.772
 5545.00    0.55294   0.57704   21.984
 5546.00    0.55132   0.57756   21.828
 5547.00    0.56582   0.57800   21.189
 5548.00    0.58433   0.57844   20.650
 5549.00    0.59321   0.57845   20.470
 5550.00    0.58525   0.57813   20.543
 5551.00    0.57074   0.57752   20.753
 5552.00    0.56916   0.57669   21.012
 5553.00    0.58219   0.57592   21.147
 5554.00    0.59637   0.57493   20.998
 5555.00    0.60423   0.57394   20.695
 5556.00    0.60525   0.57312   20.513
 5557.00    0.59764   0.57201   20.518
 5558.00    0.58109   0.57089   20.613
 5559.00    0.56525   0.56971   20.738
 5560.00    0.56297   0.56817   20.842
 5561.00    0.57567   0.56686   20.777
 5562.00    0.59395   0.56563   20.508
 5563.00    0.60350   0.56402   20.438
 5564.00    0.59287   0.56292   20.917
 5565.00    0.56378   0.56241   21.484
 5566.00    0.53078   0.56138   21.436
 5567.00    0.51712   0.56073   21.092
 5568.00    0.53492   0.56118   21.066
 5569.00    0.56193   0.56109   21.178
 5570.00    0.57022   0.56091   20.993
 5571.00    0.56328   0.56210   20.620
 5572.00    0.55868   0.56294   20.424
 5573.00    0.56338   0.56319   20.617
 5574.00    0.57309   0.56448   21.167
 5575.00    0.57573   0.56548   21.672
 5576.00    0.56640   0.56553   21.717
 5577.00    0.55914   0.56585   21.371
 5578.00    0.56229   0.56565   20.980
 5579.00    0.55887   0.56431   20.865
 5580.00    0.53792   0.56264   21.115
 5581.00    0.51816   0.56037   21.474
 5582.00    0.51667   0.55735   21.624
 5583.00    0.52587   0.55414   21.460
 5584.00    0.53453   0.55101   21.032
 5585.00    0.54235   0.54825   20.462
 5586.00    0.54972   0.54615   19.934
 5587.00    0.55226   0.54495   19.639
 5588.00    0.55355   0.54468   19.462
 5589.00    0.56810   0.54516   18.977
 5590.00    0.59223   0.54641   18.285
 5591.00    0.59696   0.54779   18.074
 5592.00    0.57795   0.54902   18.379
 5593.00    0.56926   0.55048   18.333
 5594.00    0.58043   0.55135   17.804
 5595.00    0.57965   0.55142   17.764
 5596.00    0.55795   0.55171   18.490
 5597.00    0.54538   0.55184   19.160
 5598.00    0.55591   0.55168   19.255
 5599.00    0.57236   0.55222   19.221
 5600.00    0.57894   0.55342   19.374
 5601.00    0.57295   0.55516   19.574
 5602.00    0.55974   0.55753   19.767
 5603.00    0.54814   0.56019   20.095
 5604.00    0.54193   0.56301   20.544
 5605.00    0.53930   0.56547   20.872
 5606.00    0.53951   0.56712   20.863
 5607.00    0.54343   0.56804   20.540
 5608.00    0.54921   0.56800   20.381
 5609.00    0.55355   0.56668   20.922
 5610.00    0.55771   0.56477   21.736
 5611.00    0.56433   0.56251   21.700
 5612.00    0.56641   0.55954   21.043
 5613.00    0.55407   0.55696   20.883
 5614.00    0.53423   0.55529   21.281
 5615.00    0.52466   0.55365   21.577
 5616.00    0.53322   0.55270   21.658
 5617.00    0.55612   0.55280   21.843
 5618.00    0.58303   0.55273   22.030
 5619.00    0.60160   0.55273   21.926
 5620.00    0.60378   0.55317   21.757
 5621.00    0.58989   0.55322   21.873
 5622.00    0.57270   0.55330   22.003
 5623.00    0.56609   0.55404   21.726
 5624.00    0.56792   0.55475   21.360
 5625.00    0.56823   0.55560   21.409
 5626.00    0.56392   0.55714   21.805
 5627.00    0.55851   0.55850   22.186
 5628.00    0.55891   0.55938   22.356
 5629.00    0.56835   0.56020   22.310
 5630.00    0.57935   0.56042   22.157
 5631.00    0.58332   0.55982   22.065
 5632.00    0.58129   0.55891   22.203
 5633.00    0.57626   0.55772   22.515
 5634.00    0.56535   0.55617   22.524
 5635.00    0.54980   0.55465   22.019
 5636.00    0.54293   0.55355   21.609
 5637.00    0.55064   0.55262   21.701
 5638.00    0.55683   0.55184   21.855
 5639.00    0.54955   0.55174   21.588
 5640.00    0.53980   0.55196   21.056
 5641.00    0.53670   0.55216   20.684
 5642.00    0.53101   0.55279   20.808
 5643.00    0.51694   0.55356   21.381
 5644.00    0.50528   0.55410   21.800
 5645.00    0.50481   0.55468   21.722
 5646.00    0.51166   0.55505   21.617
 5647.00    0.52056   0.55506   21.803
 5648.00    0.53139   0.55481   21.988
 5649.00    0.54601   0.55404   21.922
 5650.00    0.56482   0.55295   21.734
 5651.00    0.57918   0.55148   21.614
 5652.00    0.57249   0.54931   21.660
 5653.00    0.54246   0.54719   22.043
 5654.00    0.50773   0.54519   22.967
 5655.00    0.49063   0.54275   23.960
 5656.00    0.50532   0.54097   23.783
 5657.00    0.54208   0.54020   22.647
 5658.00    0.57101   0.53948   22.108
 5659.00    0.57745   0.53941   22.464
 5660.00    0.57017   0.54044   22.770
 5661.00    0.56347   0.54161   22.637
 5662.00    0.56749   0.54284   22.560
 5663.00    0.57879   0.54445   22.581
 5664.00    0.58420   0.54606   22.271
 5665.00    0.58039   0.54748   21.875
 5666.00    0.57388   0.54891   22.011
 5667.00    0.56584   0.55036   22.280
 5668.00    0.55290   0.55174   21.621
 5669.00    0.53900   0.55306   20.300
 5670.00    0.53282   0.55434   19.378
 5671.00    0.53497   0.55544   19.209
 5672.00    0.53999   0.55613   19.625
 5673.00    0.54641   0.55652   20.160
 5674.00    0.55710   0.55655   20.304
 5675.00    0.57542   0.55595   20.234
 5676.00    0.60015   0.55490   20.433
 5677.00    0.61824   0.55363   20.692
 5678.00    0.61524   0.55206   20.561
 5679.00    0.59414   0.55019   20.429
 5680.00    0.56953   0.54845   20.910
 5681.00    0.55347   0.54699   21.706
 5682.00    0.55101   0.54561   22.023
 5683.00    0.55741   0.54464   21.767
 5684.00    0.56595   0.54429   21.369
 5685.00    0.57818   0.54426   21.097
 5686.00    0.59566   0.54468   20.965
 5687.00    0.60901   0.54559   20.760
 5688.00    0.60853   0.54663   20.358
 5689.00    0.59709   0.54777   20.006
 5690.00    0.58349   0.54891   19.894
 5691.00    0.57388   0.54966   19.791
 5692.00    0.57157   0.54997   19.549
 5693.00    0.57741   0.54994   19.530
 5694.00    0.58811   0.54939   20.012
 5695.00    0.59570   0.54822   20.693
 5696.00    0.59596   0.54688   21.181
 5697.00    0.59416   0.54539   21.534
 5698.00    0.59224   0.54351   21.931
 5699.00    0.58067   0.54172   22.318
 5700.00    0.55357   0.54004   22.574
 5701.00    0.51873   0.53821   22.681
 5702.00    0.48813   0.53641   22.726
 5703.00    0.47088   0.53461   22.839
 5704.00    0.47164   0.53298   22.940
 5705.00    0.48919   0.53155   22.700
 5706.00    0.51294   0.53022   22.222
 5707.00    0.52523   0.52977   22.142
 5708.00    0.52308   0.53006   22.514
 5709.00    0.52421   0.53060   22.528
 5710.00    0.53990   0.53235   21.951
 5711.00    0.56358   0.53474   21.544
 5712.00    0.58091   0.53695   21.565
 5713.00    0.57894   0.53985   21.533
 5714.00    0.56357   0.54275   21.348
 5715.00    0.55786   0.54498   21.474
 5716.00    0.56872   0.54734   21.824
 5717.00    0.58087   0.54937   21.697
 5718.00    0.58188   0.55067   21.199
 5719.00    0.57076   0.55188   21.179
 5720.00    0.55543   0.55270   21.584
 5721.00    0.54623   0.55286   21.518
 5722.00    0.53970   0.55287   21.044
 5723.00    0.52464   0.55261   21.048
 5724.00    0.51214   0.55189   21.472
 5725.00    0.52536   0.55123   21.468
 5726.00    0.55291   0.55063   21.094
 5727.00    0.55941   0.54995   21.149
 5728.00    0.53900   0.54951   21.780
 5729.00    0.51309   0.54933   22.468
 5730.00    0.49702   0.54930   22.652
 5731.00    0.49557   0.54934   22.183
 5732.00    0.50916   0.54949   21.674
 5733.00    0.53459   0.54971   21.773
 5734.00    0.56404   0.54976   22.108
 5735.00    0.58794   0.54969   21.928
 5736.00    0.60025   0.54960   21.623
 5737.00    0.60104   0.54937   21.933
 5738.00    0.59847   0.54904   22.446
 5739.00    0.59924   0.54874   22.330
 5740.00    0.59476   0.54840    0.000
 5741.00    0.57697   0.54803    0.000
 5742.00    0.56121   0.54762    0.000
 5743.00    0.56375   0.54709    0.000
 5744.00    0.57122   0.54648    0.000
 5745.00    0.56563   0.54566    0.000
 5746.00    0.55654   0.54474    0.000
 5747.00    0.55772   0.54377    0.000
 5748.00    0.55968   0.54262    0.000
 5749.00    0.55125   0.54162    0.000
 5750.00    0.54251   0.54083    0.000
 5751.00    0.54526   0.54010    0.000
 5752.00    0.55404   0.53973    0.000
 5753.00    0.55966   0.53972    0.000
 5754.00    0.56180   0.53967    0.000
 5755.00    0.56331   0.53980    0.000
 5756.00    0.56487   0.54000    0.000
 5757.00    0.56502   0.53987    0.000
 5758.00    0.56152   0.53984    0.000
 5759.00    0.55804   0.53991    0.000
 5760.00    0.56572   0.53986    0.000
 5761.00    0.58268   0.54027    0.000
 5762.00    0.58662   0.54096    0.000
 5763.00    0.56999   0.54161    0.000
 5764.00    0.55449   0.54257    0.000
 5765.00    0.55408   0.54348    0.000
 5766.00    0.55896   0.54390    0.000
 5767.00    0.56189   0.54420    0.000
 5768.00    0.56880   0.54426    0.000
 5769.00    0.58392   0.54373    0.000
 5770.00    0.60331   0.54309    0.000
 5771.00    0.61922   0.54235    0.000
 5772.00    0.62371   0.54115    0.000
 5773.00    0.61482   0.53990    0.000
 5774.00    0.59829   0.53848    0.000
 5775.00    0.58479   0.53654    0.000
 5776.00    0.58328   0.53448    0.000
 5777.00    0.58313   0.53227    0.000
 5778.00    0.56073   0.52985    0.000
 5779.00    0.51858   0.52768    0.000
 5780.00    0.48435   0.52593    0.000
 5781.00    0.47221   0.52463    0.000
 5782.00    0.47718   0.52399    0.000
 5783.00    0.49082   0.52412    0.000
 5784.00    0.50155   0.52486   -2.000
 5785.00    0.48521   0.52585   -2.000
 5786.00    0.42592   0.52729   -2.000
 5787.00    0.36718   0.52897   -2.000
 5788.00    0.37989   0.53029   -2.000
 5789.00    0.47171   0.53171   -2.000
 5790.00    0.59263   0.53313   -2.000
 5791.00    0.68471   0.53407   -2.000
 5792.00    0.70608   0.53508   -2.000
 5793.00    0.65542   0.53605   -2.000
 5794.00    0.56848   0.53672   -2.000
 5795.00    0.50307   0.53745   -2.000
 5796.00    0.50403   0.53817   -2.000
 5797.00    0.55519   0.53869   -2.000
 5798.00    0.60908   0.53904   -2.000
 5799.00    0.63984   0.53934   -2.000
 5800.00    0.64311   0.53944   -2.000
 5801.00    0.62537   0.53915   -2.000
 5802.00    0.59631   0.53890   -2.000
 5803.00    0.56155   0.53864   -2.000
 5804.00    0.52874   0.53817    0.000
 5805.00    0.51395   0.53795    0.000
 5806.00    0.52481   0.53790    0.000
 5807.00    0.54379   0.53780    0.000
 5808.00    0.54859   0.53785    0.000
 5809.00    0.53357   0.53790    0.000
 5810.00    0.50812   0.53787    0.000
 5811.00    0.49138   0.53785    0.000
 5812.00    0.49433   0.53782    0.000
 5813.00    0.50736   0.53784    0.000
 5814.00    0.51921   0.53804    0.000
 5815.00    0.53102   0.53841    0.000
 5816.00    0.54478   0.53886    0.000
 5817.00    0.55524   0.53949    0.000
 5818.00    0.55769   0.54021    0.000
 5819.00    0.55336   0.54075    0.000
 5820.00    0.54826   0.54123    0.000
 5821.00    0.55016   0.54165    0.000
 5822.00    0.55627   0.54186    0.000
 5823.00    0.55123   0.54190    0.000
 5824.00    0.53321   0.54189    0.000
 5825.00    0.52223   0.54184    0.000
 5826.00    0.53199   0.54164    0.000
 5827.00    0.55729   0.54138    0.000
 5828.00    0.58144   0.54114    0.000
 5829.00    0.58513   0.54075    0.000
 5830.00    0.56754   0.54033    0.000
 5831.00    0.54837   0.53994    0.000
 5832.00    0.54193   0.53953    0.000
 5833.00    0.54876   0.53922    0.000
 5834.00    0.56254   0.53902    0.000
 5835.00    0.57496   0.53884    0.000
 5836.00    0.58291   0.53886    0.000
 5837.00    0.58852   0.53895    0.000
 5838.00    0.59192   0.53887    0.000
 5839.00    0.58957   0.53879    0.000
 5840.00    0.57586   0.53864    0.000
 5841.00    0.54789   0.53813    0.000
 5842.00    0.51611   0.53736    0.000
 5843.00    0.49823   0.53651    0.000
 5844.00    0.49838   0.53536    0.000
 5845.00    0.50782   0.53395    0.000
 5846.00    0.51752   0.53253    0.000
 5847.00    0.52180   0.53094    0.000
 5848.00    0.51976   0.52915    0.000
 5849.00    0.51675   0.52738    0.000
 5850.00    0.52612   0.52555    0.000
 5851.00    0.55653   0.52371    0.000
 5852.00    0.59054   0.52202    0.000
 5853.00    0.60190   0.52055    0.000
 5854.00    0.58862   0.51934    0.000
 5855.00    0.56610   0.51866    0.000
 5856.00    0.54855   0.51846    0.000
 5857.00    0.54276   0.51848    0.000
 5858.00    0.54375   0.51912    0.000
 5859.00    0.54234   0.52015    0.000
 5860.00    0.53535   0.52110    0.000
 5861.00    0.52501   0.52228    0.000
 5862.00    0.51642   0.52350    0.000
 5863.00    0.51406   0.52455    0.000
 5864.00    0.51831   0.52557    0.000
 5865.00    0.52672   0.52642    0.000
 5866.00    0.53569   0.52701    0.000
 5867.00    0.54173   0.52746    0.000
 5868.00    0.54303   0.52775    0.000
 5869.00    0.54416   0.52765    0.000
 5870.00    0.55808   0.52730    0.000
 5871.00    0.58790   0.52676    0.000
 5872.00    0.61493   0.52596    0.000
 5873.00    0.62226   0.52510    0.000
 5874.00    0.61167   0.52409    0.000
 5875.00    0.59237   0.52303    0.000
 5876.00    0.57247   0.52196    0.000
 5877.00    0.56018   0.52077    0.000
 5878.00    0.56300   0.51943    0.000
 5879.00    0.57618   0.51768    0.000
 5880.00    0.58020   0.51545    0.000
 5881.00    0.56554   0.51239    0.000
 5882.00    0.54331   0.50851    0.000
 5883.00    0.52899   0.50401    0.000
 5884.00    0.53149   0.49837    0.000
 5885.00    0.54350   0.49233    0.000
 5886.00    0.54368   0.48658    0.000
 5887.00    0.52534   0.48057    0.000
 5888.00    0.50411   0.47565    0.000
 5889.00    0.49802   0.47234    0.000
 5890.00    0.51605   0.46960    0.000
 5891.00    0.54761   0.46892    0.000
 5892.00    0.56693   0.46988    0.000
 5893.00    0.56113   0.47117    0.000
 5894.00    0.53674   0.47452    0.000
 5895.00    0.50900   0.47889    0.000
 5896.00    0.49382   0.48306    0.000
 5897.00    0.49530   0.48848    0.000
 5898.00    0.50595   0.49385    0.000
 5899.00    0.51739   0.49834    0.000
 5900.00    0.52542   0.50307    0.000
 5901.00    0.53480   0.50719   21.887
 5902.00    0.55321   0.51011   21.922
 5903.00    0.57502   0.51248   21.760
 5904.00    0.58572   0.51428   21.573
 5905.00    0.57905   0.51533   21.605
 5906.00    0.56078   0.51592   21.999
 5907.00    0.54804   0.51623   22.514
 5908.00    0.55513   0.51609   22.760
 5909.00    0.56928   0.51563   22.886
 5910.00    0.56833   0.51513   23.212
 5911.00    0.55677   0.51449   23.351
 5912.00    0.55186   0.51398   22.861
 5913.00    0.55325   0.51360   22.482
 5914.00    0.55144   0.51331   23.016
 5915.00    0.54641   0.51355   23.835
 5916.00    0.54371   0.51391   23.839
 5917.00    0.54565   0.51427   23.491
 5918.00    0.55071   0.51496   23.679
 5919.00    0.55437   0.51549   24.032
 5920.00    0.55203   0.51592   23.875
 5921.00    0.54233   0.51630   23.558
 5922.00    0.52762   0.51627   23.568
 5923.00    0.51360   0.51623   23.571
 5924.00    0.50493   0.51605   23.250
 5925.00    0.50115   0.51551   23.101
 5926.00    0.49866   0.51510   23.506
 5927.00    0.49348   0.51467   23.988
 5928.00    0.48690   0.51429   23.953
 5929.00    0.48840   0.51407   23.507
 5930.00    0.50205   0.51391   23.024
 5931.00    0.51749   0.51408   22.706
 5932.00    0.52380   0.51429   22.633
 5933.00    0.51947   0.51442   22.812
 5934.00    0.50842   0.51470   23.223
 5935.00    0.49620   0.51488   23.815
 5936.00    0.48572   0.51494   24.374
 5937.00    0.47582   0.51487   24.505
 5938.00    0.46809   0.51460   24.186
 5939.00    0.46925   0.51441   23.955
 5940.00    0.48241   0.51410   24.172
 5941.00    0.50296   0.51360   24.735
 5942.00    0.52149   0.51329   25.244
 5943.00    0.52795   0.51287   25.191
 5944.00    0.52274   0.51224   24.651
 5945.00    0.51773   0.51179   24.291
 5946.00    0.51941   0.51132   24.307
 5947.00    0.52414   0.51074   24.304
 5948.00    0.52782   0.51020   24.108
 5949.00    0.52955   0.50977   23.959
 5950.00    0.53097   0.50954   24.043
 5951.00    0.53463   0.50935   24.317
 5952.00    0.53985   0.50922   24.446
 5953.00    0.54328   0.50932   24.032
 5954.00    0.54457   0.50972   23.365
 5955.00    0.54540   0.51019   23.148
 5956.00    0.54192   0.51065   23.506
 5957.00    0.52808   0.51136   24.024
 5958.00    0.50945   0.51218   24.275
 5959.00    0.49912   0.51291   24.092
 5960.00    0.49964   0.51358   23.744
 5961.00    0.50372   0.51412   23.644
 5962.00    0.50560   0.51467   23.771
 5963.00    0.50397   0.51504   23.846
 5964.00    0.50243   0.51530   23.914
 5965.00    0.50508   0.51556   24.151
 5966.00    0.50842   0.51564   24.275
 5967.00    0.50687   0.51570   23.952
 5968.00    0.50462   0.51559   23.687
 5969.00    0.50869   0.51520   24.131
 5970.00    0.51490   0.51463   24.903
 5971.00    0.51520   0.51382   25.117
 5972.00    0.51160   0.51280   24.791
 5973.00    0.51124   0.51166   24.497
 5974.00    0.51660   0.51051   24.430
 5975.00    0.52509   0.50942   24.537
 5976.00    0.53068   0.50835   24.797
 5977.00    0.52900   0.50752   25.157
 5978.00    0.52281   0.50675   25.420
 5979.00    0.51640   0.50593   25.443
 5980.00    0.50891   0.50542   25.373
 5981.00    0.49747   0.50495   25.418
 5982.00    0.48131   0.50450   25.597
 5983.00    0.46425   0.50430   25.768
 5984.00    0.45588   0.50422   25.689
 5985.00    0.46331   0.50446   25.312
 5986.00    0.48421   0.50479   24.944
 5987.00    0.50982   0.50516   24.756
 5988.00    0.52873   0.50575   24.494
 5989.00    0.53406   0.50626   24.015
 5990.00    0.52794   0.50664   23.597
 5991.00    0.51625   0.50685   23.437
 5992.00    0.50456   0.50682   23.405
 5993.00    0.49682   0.50678   23.364
 5994.00    0.49455   0.50649   23.352
 5995.00    0.49587   0.50596   23.492
 5996.00    0.49596   0.50559   23.893
 5997.00    0.49257   0.50496   24.390
 5998.00    0.48835   0.50422   24.494
 5999.00    0.48733   0.50374   24.227
 6000.00    0.49253   0.50301   24.258
 6001.00    0.50351   0.50232   24.557
 6002.00    0.51578   0.50171   24.188
 6003.00    0.52265   0.50086   23.319
 6004.00    0.51812   0.50040   23.280
 6005.00    0.50429   0.50003   24.287
 6006.00    0.49195   0.49953   25.089
 6007.00    0.49144   0.49934   24.838
 6008.00    0.50675   0.49906   24.058
 6009.00    0.52815   0.49895   23.526
 6010.00    0.53678   0.49902   23.677
 6011.00    0.52693   0.49866   24.261
 6012.00    0.50861   0.49832   24.515
 6013.00    0.49378   0.49812   24.355
 6014.00    0.49149   0.49767   24.378
 6015.00    0.50604   0.49719   24.678
 6016.00    0.53556   0.49670   24.802
 6017.00    0.56974   0.49633   24.475
 6018.00    0.59341   0.49627   23.868
 6019.00    0.59607   0.49614   23.582
 6020.00    0.57563   0.49632   24.123
 6021.00    0.54142   0.49690   24.953
 6022.00    0.50897   0.49751   24.958
 6023.00    0.48870   0.49846   24.427
 6024.00    0.48406   0.49950   24.386
 6025.00    0.49257   0.50067   24.715
 6026.00    0.50693   0.50192   24.700
 6027.00    0.51700   0.50293   24.440
 6028.00    0.51639   0.50404   24.427
 6029.00    0.51148   0.50500   24.533
 6030.00    0.51195   0.50566   24.360
 6031.00    0.51544   0.50622   23.945
 6032.00    0.51489   0.50659   23.595
 6033.00    0.51094   0.50680   23.522
 6034.00    0.50653   0.50678   23.711
 6035.00    0.49891   0.50661   23.813
 6036.00    0.48659   0.50646   23.680
 6037.00    0.47774   0.50614   23.913
 6038.00    0.48088   0.50593   24.569
 6039.00    0.49451   0.50581   23.810
 6040.00    0.51146   0.50560   21.126
 6041.00    0.52468   0.50561   19.006
 6042.00    0.53079   0.50566   18.524
 6043.00    0.53237   0.50572   18.811
 6044.00    0.53322   0.50578   18.875
 6045.00    0.53420   0.50570   18.703
 6046.00    0.53336   0.50554   18.679
 6047.00    0.52699   0.50524   18.996
 6048.00    0.51444   0.50469   19.549
 6049.00    0.50073   0.50405   19.916
 6050.00    0.48963   0.50336   20.119
 6051.00    0.47997   0.50257   21.064
 6052.00    0.47258   0.50186   23.121
 6053.00    0.47302   0.50125   24.838
 6054.00    0.48162   0.50078   24.870
 6055.00    0.48991   0.50037   24.340
 6056.00    0.49298   0.50005   24.142
 6057.00    0.49408   0.49976   23.798
 6058.00    0.49372   0.49948   23.396
 6059.00    0.48707   0.49923   23.972
 6060.00    0.47737   0.49870   25.517
 6061.00    0.47685   0.49845   26.191
 6062.00    0.48454   0.49850   25.229
 6063.00    0.48409   0.49849   24.181
 6064.00    0.47195   0.49887   23.867
 6065.00    0.46257   0.49941   23.976
 6066.00    0.46731   0.50014   24.120
 6067.00    0.48651   0.50119   24.139
 6068.00    0.51016   0.50195   24.128
 6069.00    0.52381   0.50253   24.306
 6070.00    0.52543   0.50296   24.612
 6071.00    0.52447   0.50291   24.737
 6072.00    0.52493   0.50251   24.653
 6073.00    0.52391   0.50164   24.629
 6074.00    0.52050   0.50047   24.812
 6075.00    0.51640   0.49935   25.148
 6076.00    0.51152   0.49795   25.427
 6077.00    0.50532   0.49646   25.405
 6078.00    0.50192   0.49524   25.098
 6079.00    0.50697   0.49415   24.732
 6080.00    0.51910   0.49327   24.491
 6081.00    0.53172   0.49260   24.476
 6082.00    0.53966   0.49203   24.713
 6083.00    0.53961   0.49183   25.099
 6084.00    0.52851   0.49169   25.311
 6085.00    0.50619   0.49143   25.094
 6086.00    0.47976   0.49145   24.772
 6087.00    0.46021   0.49156   24.810
 6088.00    0.45615   0.49160   25.155
 6089.00    0.46999   0.49177   25.424
 6090.00    0.49446   0.49200   25.312
 6091.00    0.51721   0.49222   24.829
 6092.00    0.52772   0.49235   24.416
 6093.00    0.52234   0.49234   24.441
 6094.00    0.50866   0.49226   24.737
 6095.00    0.49850   0.49194   24.886
 6096.00    0.49916   0.49132   24.634
 6097.00    0.50891   0.49017   24.123
 6098.00    0.51492   0.48896   23.924
 6099.00    0.51014   0.48834   24.315
 6100.00    0.50718   0.48753   24.739
 6101.00    0.51515   0.48695   24.706
 6102.00    0.52085   0.48681   24.673
 6103.00    0.51309   0.48688   25.045
 6104.00    0.50163   0.48783   25.401
 6105.00    0.49911   0.48875   25.345
 6106.00    0.50671   0.48940   25.198
 6107.00    0.51704   0.49038   25.225
 6108.00    0.51882   0.49118   25.163
 6109.00    0.50939   0.49175   24.939
 6110.00    0.49973   0.49207   24.990
 6111.00    0.49652   0.49185   25.356
 6112.00    0.49325   0.49153   25.339
 6113.00    0.48300   0.49116   24.829
 6114.00    0.46599   0.49024   24.719
 6115.00    0.45011   0.48913   25.233
 6116.00    0.44771   0.48790   25.458
 6117.00    0.46026   0.48640   25.008
 6118.00    0.47488   0.48533   24.644
 6119.00    0.48157   0.48443   24.831
 6120.00    0.47966   0.48347   25.376
 6121.00    0.47249   0.48305   26.008
 6122.00    0.46460   0.48286   26.544
 6123.00    0.45985   0.48296   26.644
 6124.00    0.46018   0.48343   25.930
 6125.00    0.46362   0.48374   24.614
 6126.00    0.46620   0.48401   23.250
 6127.00    0.46991   0.48413   21.891
 6128.00    0.48110   0.48392   20.384
 6129.00    0.49859   0.48335   19.138
 6130.00    0.51383   0.48232   18.710
 6131.00    0.52089   0.48080   19.104
 6132.00    0.51919   0.47891   19.912
 6133.00    0.51285   0.47739   20.685
 6134.00    0.50800   0.47615   21.104
 6135.00    0.50714   0.47499   21.255
 6136.00    0.50872   0.47421   21.510
 6137.00    0.50933   0.47405   22.038
 6138.00    0.50669   0.47490   22.784
 6139.00    0.50433   0.47611   23.632
 6140.00    0.50657   0.47724   24.262
 6141.00    0.50825   0.47852   23.865
 6142.00    0.50239   0.47977   22.153
 6143.00    0.49577   0.48088   20.400
 6144.00    0.49982   0.48163   19.619
 6145.00    0.51261   0.48193   19.454
 6146.00    0.52177   0.48213   19.305
 6147.00    0.51359   0.48216   19.489
 6148.00    0.48300   0.48194   20.607
 6149.00    0.44430   0.48156   22.491
 6150.00    0.41848   0.48097   24.095
 6151.00    0.41567   0.48031   24.082
 6152.00    0.43389   0.47934   22.491
 6153.00    0.46064   0.47805   21.191
 6154.00    0.48098   0.47655   21.317
 6155.00    0.48622   0.47462   22.384
 6156.00    0.47770   0.47233   23.330
 6157.00    0.46829   0.46997   23.607
 6158.00    0.46863   0.46779   23.381
 6159.00    0.47541   0.46585   23.277
 6160.00    0.48036   0.46428   23.661
 6161.00    0.47899   0.46307   24.218
 6162.00    0.47216   0.46256   24.564
 6163.00    0.46599   0.46267   24.808
 6164.00    0.46573   0.46290   25.107
 6165.00    0.47128   0.46351   25.287
 6166.00    0.47779   0.46452   25.144
 6167.00    0.47782   0.46558   24.705
 6168.00    0.47112   0.46661   24.256
 6169.00    0.46812   0.46767   24.209
 6170.00    0.47451   0.46885   24.609
 6171.00    0.48432   0.47018   24.967
 6172.00    0.49230   0.47144   25.039
 6173.00    0.49874   0.47260   25.183
 6174.00    0.49963   0.47378   25.612
 6175.00    0.48525   0.47482   26.052
 6176.00    0.45677   0.47577   26.042
 6177.00    0.43028   0.47657   25.242
 6178.00    0.42074   0.47714   23.787
 6179.00    0.43322   0.47754   22.213
 6180.00    0.45654   0.47763   21.117
 6181.00    0.46891   0.47733   20.952
 6182.00    0.46612   0.47683   21.735
 6183.00    0.46392   0.47602   23.067
 6184.00    0.47183   0.47493   24.388
 6185.00    0.48699   0.47379   25.132
 6186.00    0.50338   0.47238   25.062
 6187.00    0.51293   0.47128   24.298
 6188.00    0.50072   0.47073   -2.000
 6189.00    0.45351   0.47016   -2.000
 6190.00    0.38463   0.47009   -2.000
 6191.00    0.33151   0.47040   -2.000
 6192.00    0.33308   0.47099   -2.000
 6193.00    0.40847   0.47197   -2.000
 6194.00    0.52384   0.47267   -2.000
 6195.00    0.61447   0.47333   -2.000
 6196.00    0.64514   0.47417   -2.000
 6197.00    0.61878   0.47481   -2.000
 6198.00    0.56743   0.47532   -2.000
 6199.00    0.52999   0.47577   -2.000
 6200.00    0.51678   0.47620   19.764
 6201.00    0.51711   0.47672   20.216
 6202.00    0.52168   0.47712   21.719
 6203.00    0.52449   0.47723   23.394
 6204.00    0.52014   0.47718   24.613
 6205.00    0.50568   0.47684   25.378
 6206.00    0.48360   0.47612   26.037
 6207.00    0.46140   0.47513   26.799
 6208.00    0.44973   0.47366   27.155
 6209.00    0.45229   0.47199   26.604
 6210.00    0.45551   0.47032   25.689
 6211.00    0.44773   0.46855   24.989
 6212.00    0.43999   0.46704   24.247
 6213.00    0.44484   0.46570   23.374
 6214.00    0.45375   0.46454   23.125
 6215.00    0.45484   0.46394   23.846
 6216.00    0.45072   0.46366   24.469
 6217.00    0.44735   0.46361   24.010
 6218.00    0.44361   0.46384   23.302
 6219.00    0.43718   0.46398   23.048
 6220.00    0.43020   0.46426   22.615
 6221.00    0.42862   0.46458   21.656
 6222.00    0.43986   0.46460   20.953
 6223.00    0.46166   0.46445   21.002
 6224.00    0.47748   0.46402   21.497
 6225.00    0.47810   0.46333   22.232
 6226.00    0.47288   0.46264   23.618
 6227.00    0.47066   0.46203   25.736
 6228.00    0.46945   0.46135   27.367
 6229.00    0.46635   0.46101   27.515
 6230.00    0.46268   0.46086   27.029
 6231.00    0.45959   0.46085   26.785
 6232.00    0.45610   0.46118   26.773
 6233.00    0.45105   0.46128   26.838
 6234.00    0.44436   0.46139   26.963
 6235.00    0.43818   0.46126   26.995
 6236.00    0.43641   0.46077   26.648
 6237.00    0.44065   0.46018   26.011
 6238.00    0.44853   0.45924   25.509
 6239.00    0.45351   0.45839   25.242
 6240.00    0.44812   0.45760   24.987
 6241.00    0.43489   0.45676   24.796
 6242.00    0.42539   0.45626   24.978
 6243.00    0.42493   0.45589   25.470
 6244.00    0.42974   0.45566   25.753
 6245.00    0.43372   0.45559   25.339
 6246.00    0.43369   0.45541   24.175
 6247.00    0.43755   0.45509   22.846
 6248.00    0.45805   0.45477   22.040
 6249.00    0.49187   0.45420   21.901
 6250.00    0.52208   0.45342   22.178
 6251.00    0.53624   0.45261   22.398
 6252.00    0.53081   0.45175   22.051
 6253.00    0.51094   0.45124   21.086
 6254.00    0.48638   0.45099   19.891
 6255.00    0.46361   0.45116   18.953
 6256.00    0.44679   0.45165   18.636
 6257.00    0.44222   0.45248   19.122
 6258.00    0.45316   0.45373   20.493
 6259.00    0.47000   0.45502   22.604
 6260.00    0.47778   0.45644   24.924
 6261.00    0.47043   0.45781   26.643
 6262.00    0.45226   0.45901   27.188
 6263.00    0.43632   0.46002   26.938
 6264.00    0.43466   0.46081   26.626
 6265.00    0.44611   0.46140   26.373
 6266.00    0.46202   0.46196   26.009
 6267.00    0.47550   0.46242   25.573
 6268.00    0.48256   0.46271   25.277
 6269.00    0.48209   0.46297   25.393
 6270.00    0.47564   0.46312   25.878
 6271.00    0.46702   0.46330   26.000
 6272.00    0.46099   0.46330   25.382
 6273.00    0.46156   0.46312   24.971
 6274.00    0.46757   0.46292   25.284
 6275.00    0.47015   0.46250   25.204
 6276.00    0.46495   0.46222   24.071
 6277.00    0.46110   0.46197   23.201
 6278.00    0.46726   0.46170   23.450
 6279.00    0.48070   0.46178   24.151
 6280.00    0.49346   0.46189    0.000
 6281.00    0.49849   0.46225    0.000
 6282.00    0.49607   0.46286    0.000
 6283.00    0.49572   0.46329    0.000
 6284.00    0.50151   0.46379    0.000
 6285.00    0.50494   0.46409    0.000
 6286.00    0.49814   0.46414    0.000
 6287.00    0.48172   0.46415    0.000
 6288.00    0.46357   0.46376    0.000
 6289.00    0.45562   0.46316    0.000
 6290.00    0.46247   0.46239    0.000
 6291.00    0.47758   0.46134    0.000
 6292.00    0.49182   0.46037    0.000
 6293.00    0.49911   0.45931    0.000
 6294.00    0.50283   0.45819    0.000
 6295.00    0.51471   0.45717    0.000
 6296.00    0.54073   0.45618    0.000
 6297.00    0.57680   0.45550    0.000
 6298.00    0.61415   0.45512    0.000
 6299.00    0.64212   0.45498    0.000
 6300.00    0.65066   0.45511    0.000
 6301.00    0.63367   0.45549    0.000
 6302.00    0.59614   0.45613    0.000
 6303.00    0.55193   0.45688    0.000
 6304.00    0.51123   0.45758    0.000
 6305.00    0.47776   0.45807    0.000
 6306.00    0.45127   0.45834    0.000
 6307.00    0.42947   0.45831    0.000
 6308.00    0.41101   0.45790    0.000
 6309.00    0.39724   0.45718    0.000
 6310.00    0.39414   0.45612    0.000
 6311.00    0.40794   0.45502    0.000
 6312.00    0.43524   0.45389    0.000
 6313.00    0.46461   0.45280    0.000
 6314.00    0.48370   0.45205    0.000
 6315.00    0.48485   0.45152    0.000
 6316.00    0.47217   0.45139    0.000
 6317.00    0.45632   0.45174    0.000
 6318.00    0.44403   0.45230    0.000
 6319.00    0.43837   0.45329    0.000
 6320.00    0.44162   0.45439    0.000
 6321.00    0.45288   0.45551   28.407
 6322.00    0.46443   0.45662   27.345
 6323.00    0.46808   0.45746   27.133
 6324.00    0.46388   0.45823   27.370
 6325.00    0.45660   0.45861   27.318
 6326.00    0.45033   0.45872   27.202
 6327.00    0.44829   0.45857   27.384
 6328.00    0.45310   0.45801   27.359
 6329.00    0.46243   0.45732   26.809
 6330.00    0.46574   0.45638   26.629
 6331.00    0.45764   0.45539   27.488
 6332.00    0.44913   0.45441   28.612
 6333.00    0.45092   0.45343   28.776
 6334.00    0.45853   0.45255   27.873
 6335.00    0.46154   0.45183   26.813
 6336.00    0.45303   0.45135   26.726
 6337.00    0.43593   0.45100   27.786
 6338.00    0.42493   0.45088   28.513
 6339.00    0.42905   0.45067   27.960
 6340.00    0.44095   0.45053   27.512
 6341.00    0.44950   0.45046   27.936
 6342.00    0.44900   0.45037   28.049
 6343.00    0.44170   0.45047   27.200
 6344.00    0.43699   0.45059   26.522
 6345.00    0.43974   0.45087   26.708
 6346.00    0.44547   0.45124   27.274
 6347.00    0.44958   0.45158   27.496
 6348.00    0.45180   0.45184   27.019
 6349.00    0.45335   0.45203   26.224
 6350.00    0.45517   0.45189   25.878
 6351.00    0.45656   0.45144   25.768
 6352.00    0.45536   0.45070   24.790
 6353.00    0.45100   0.44966   23.143
 6354.00    0.44541   0.44849   22.095
 6355.00    0.44173   0.44720   21.888
 6356.00    0.44298   0.44592   21.906
 6357.00    0.44931   0.44481   21.897
 6358.00    0.45827   0.44389   22.113
 6359.00    0.46853   0.44327   22.494
 6360.00    0.48031   0.44306   22.651
 6361.00    0.49271   0.44319   22.732
 6362.00    0.50364   0.44365   23.339
 6363.00    0.51174   0.44431   24.491
 6364.00    0.51627   0.44521   25.533
 6365.00    0.51558   0.44625   26.075
 6366.00    0.50809   0.44731   26.306
 6367.00    0.49546   0.44839   26.537
 6368.00    0.48201   0.44930   26.930
 6369.00    0.47176   0.45021   27.232
 6370.00    0.46740   0.45099   27.154
 6371.00    0.46948   0.45167   27.272
 6372.00    0.47593   0.45227   28.209
 6373.00    0.48174   0.45261   28.741
 6374.00    0.48119   0.45281   27.596
 6375.00    0.47177   0.45281   27.364
 6376.00    0.45635   0.45268   30.142
 6377.00    0.44499   0.45250   29.761
 6378.00    0.44662   0.45224   21.945
 6379.00    0.45701   0.45200   16.250
 6380.00    0.46526   0.45187   14.314
 6381.00    0.46510   0.45173   13.847
 6382.00    0.45726   0.45168   13.522
 6383.00    0.44963   0.45162   14.311
 6384.00    0.44590   0.45151   17.951
 6385.00    0.43403   0.45136   23.717
 6386.00    0.40724   0.45096   24.700
 6387.00    0.38556   0.45053   21.684
 6388.00    0.38957   0.44996   20.141
 6389.00    0.41329   0.44932   20.371
 6390.00    0.43923   0.44868   21.512
 6391.00    0.45503   0.44793   22.897
 6392.00    0.45654   0.44725   24.031
 6393.00    0.44873   0.44661   24.857
 6394.00    0.44024   0.44630   25.500
 6395.00    0.43843   0.44621   25.903
 6396.00    0.44584   0.44616   26.093
 6397.00    0.45838   0.44614   26.374
 6398.00    0.46961   0.44610   26.826
 6399.00    0.47429   0.44630   27.016
 6400.00    0.47088   0.44653   26.785
 6401.00    0.46265   0.44677   26.638
 6402.00    0.45486   0.44709   26.782
 6403.00    0.45233   0.44709   26.771
 6404.00    0.45569   0.44687   26.526
 6405.00    0.46025   0.44657   26.648
 6406.00    0.46028   0.44623   27.153
 6407.00    0.45212   0.44597   27.125
 6408.00    0.43802   0.44564   26.329
 6409.00    0.42572   0.44528   25.645
 6410.00    0.41935   0.44506   25.548
 6411.00    0.41705   0.44485   25.842
 6412.00    0.41757   0.44464   26.288
 6413.00    0.42174   0.44450   26.779
 6414.00    0.42843   0.44438   27.179
 6415.00    0.43409   0.44435   27.332
 6416.00    0.43627   0.44447   27.309
 6417.00    0.43464   0.44459   27.292
 6418.00    0.42994   0.44488   26.971
 6419.00    0.42460   0.44529   25.838
 6420.00    0.42496   0.44586   24.354
 6421.00    0.43732   0.44658   23.369
 6422.00    0.45599   0.44722   22.898
 6423.00    0.46699   0.44764   22.591
 6424.00    0.46445   0.44778   22.845
 6425.00    0.45237   0.44773   24.370
 6426.00    0.43896   0.44748   26.397
 6427.00    0.43112   0.44710   26.742
 6428.00    0.42608   0.44655   25.765
 6429.00    0.41765   0.44590   25.458
 6430.00    0.41112   0.44534   25.563
 6431.00    0.41693   0.44481   24.791
 6432.00    0.43452   0.44450   23.667
 6433.00    0.45522   0.44447   23.366
 6434.00    0.47188   0.44452   23.863
 6435.00    0.48036   0.44463   24.543
 6436.00    0.47937   0.44476   25.182
 6437.00    0.46895   0.44500   25.721
 6438.00    0.44864   0.44549   25.652
 6439.00    0.42224   0.44599   24.557
 6440.00    0.40351   0.44649   22.884
 6441.00    0.40470   0.44681   21.268
 6442.00    0.42246   0.44662   19.946
 6443.00    0.44416   0.44610   19.074
 6444.00    0.45739   0.44549   18.983
 6445.00    0.45647   0.44465   19.918
 6446.00    0.44710   0.44367   21.740
 6447.00    0.43535   0.44239   23.884
 6448.00    0.41798   0.44105   25.352
 6449.00    0.39504   0.44002   25.384
 6450.00    0.38020   0.43930   24.434
 6451.00    0.38554   0.43903   23.426
 6452.00    0.40845   0.43891   22.930
 6453.00    0.43526   0.43877   23.082
 6454.00    0.44693   0.43864   23.631
 6455.00    0.43596   0.43851   24.213
 6456.00    0.41572   0.43861   24.573
 6457.00    0.40429   0.43893   24.667
 6458.00    0.41197   0.43909   24.689
 6459.00    0.43388   0.43919   24.903
 6460.00    0.44959   0.43911   25.471
 6461.00    0.44486   0.43917   26.033
 6462.00    0.42243   0.43945   25.652
 6463.00    0.39368   0.43980   24.356
 6464.00    0.37215   0.44030   23.327
 6465.00    0.36585   0.44064   23.069
 6466.00    0.37448   0.44100   23.255
 6467.00    0.39351   0.44113   23.686
 6468.00    0.41648   0.44121   24.543
 6469.00    0.43632   0.44127   25.828
 6470.00    0.44722   0.44128   27.091
 6471.00    0.44930   0.44127   27.779
 6472.00    0.44754   0.44111   27.680
 6473.00    0.44216   0.44096   27.349
 6474.00    0.42910   0.44062   27.651
 6475.00    0.41255   0.44020   28.365
 6476.00    0.40415   0.43972   28.311
 6477.00    0.40830   0.43923   27.527
 6478.00    0.41982   0.43873   27.131
 6479.00    0.42969   0.43808   27.195
 6480.00    0.43064   0.43744   26.937
 6481.00    0.42636   0.43685   26.244
 6482.00    0.42716   0.43631   25.651
 6483.00    0.43447   0.43569   25.460
 6484.00    0.44267   0.43489   25.660
 6485.00    0.45107   0.43376   26.016
 6486.00    0.46146   0.43219   26.223
 6487.00    0.46839   0.43006   26.251
 6488.00    0.46256   0.42762   26.255
 6489.00    0.44074   0.42496   26.231
 6490.00    0.40853   0.42219   26.030
 6491.00    0.38113   0.41965   25.533
 6492.00    0.37307   0.41730   24.872
 6493.00    0.38210   0.41576   24.628
 6494.00    0.39629   0.41502   25.331
 6495.00    0.40807   0.41516   26.831
 6496.00    0.41528   0.41635   28.307
 6497.00    0.41959   0.41802   28.592
 6498.00    0.42294   0.42034   27.460
 6499.00    0.42369   0.42281   26.538
 6500.00    0.42139   0.42530   26.940
 6501.00    0.42227   0.42776   27.600
 6502.00    0.43149   0.42981   27.176
 6503.00    0.44461   0.43157   26.558
 6504.00    0.45325   0.43287   26.790
 6505.00    0.45199   0.43371   27.188
 6506.00    0.44195   0.43418   26.957
 6507.00    0.43240   0.43426   26.805
 6508.00    0.43000   0.43403   27.362
 6509.00    0.43066   0.43353   27.914
 6510.00    0.43042   0.43287   27.718
 6511.00    0.43345   0.43210   27.257
 6512.00    0.44245   0.43124   27.102
 6513.00    0.45206   0.43043   27.133
 6514.00    0.45560   0.42971   27.071
 6515.00    0.45011   0.42918   26.853
 6516.00    0.43741   0.42883   26.639
 6517.00    0.42343   0.42869   26.717
 6518.00    0.41205   0.42878   27.037
 6519.00    0.40291   0.42888   27.067
 6520.00    0.39932   0.42900   26.649
 6521.00    0.40997   0.42906   26.285
 6522.00    0.43534   0.42903   26.137
 6523.00    0.46316   0.42889   25.795
 6524.00    0.47926   0.42855   25.211
 6525.00    0.47450   0.42813   24.899
 6526.00    0.45169   0.42765   25.258
 6527.00    0.42515   0.42714   26.335
 6528.00    0.40767   0.42668    0.000
 6529.00    0.40481   0.42620    0.000
 6530.00    0.41406   0.42571    0.000
 6531.00    0.42631   0.42523    0.000
 6532.00    0.43197   0.42478    0.000
 6533.00    0.42496   0.42436    0.000
 6534.00    0.40824   0.42388    0.000
 6535.00    0.39219   0.42324    0.000
 6536.00    0.38512   0.42243    0.000
 6537.00    0.39053   0.42137    0.000
 6538.00    0.40727   0.42009    0.000
 6539.00    0.43040   0.41852    0.000
 6540.00    0.45323   0.41675    0.000
 6541.00    0.46970   0.41475    0.000
 6542.00    0.47873   0.41258    0.000
 6543.00    0.48631   0.41026    0.000
 6544.00    0.50736   0.40779    0.000
 6545.00    0.55289   0.40528    0.000
 6546.00    0.60543   0.40260    0.000
 6547.00    0.63346   0.39974    0.000
 6548.00    0.62531   0.39655    0.000
 6549.00    0.58911   0.39290    0.000
 6550.00    0.54213   0.38872    0.000
 6551.00    0.50077   0.38389    0.000
 6552.00    0.46876   0.37834    0.000
 6553.00    0.44525   0.37199    0.000
 6554.00    0.43937   0.36499    0.000
 6555.00    0.47907   0.35753    0.000
 6556.00    0.61771   0.34999    0.000
 6557.00    0.90177   0.34296    0.000
 6558.00    1.32996   0.33672    0.000
 6559.00    1.84584   0.33167    0.000
 6560.00    2.33812   0.32814    0.000
 6561.00    2.67895   0.32679    0.000
 6562.00    2.76774   0.32815    0.000
 6563.00    2.57086   0.33166    0.000
 6564.00    2.15204   0.33702    0.000
 6565.00    1.63304   0.34349    0.000
 6566.00    1.14942   0.35030    0.000
 6567.00    0.79523   0.35713    0.000
 6568.00    0.58385   0.36376    0.000
 6569.00    0.48154   0.37007    0.000
 6570.00    0.43942   0.37574    0.000
 6571.00    0.41966   0.38070    0.000
 6572.00    0.41057   0.38504    0.000
 6573.00    0.41036   0.38887    0.000
 6574.00    0.41643   0.39236    0.000
 6575.00    0.42945   0.39553    0.000
 6576.00    0.45553   0.39839    0.000
 6577.00    0.50142   0.40087    0.000
 6578.00    0.57126   0.40303    0.000
 6579.00    0.66356   0.40483    0.000
 6580.00    0.76900   0.40645    0.000
 6581.00    0.86709   0.40782    0.000
 6582.00    0.92823   0.40894    0.000
 6583.00    0.92927   0.40982    0.000
 6584.00    0.86313   0.41035    0.000
 6585.00    0.74793   0.41073    0.000
 6586.00    0.62292   0.41090    0.000
 6587.00    0.51921   0.41093    0.000
 6588.00    0.44921   0.41088    0.000
 6589.00    0.41017   0.41068    0.000
 6590.00    0.38959   0.41049    0.000
 6591.00    0.37795   0.41032    0.000
 6592.00    0.37141   0.41049    0.000
 6593.00    0.36716   0.41095    0.000
 6594.00    0.36409   0.41160    0.000
 6595.00    0.36838   0.41246    0.000
 6596.00    0.38794   0.41326    0.000
 6597.00    0.41507   0.41412    0.000
 6598.00    0.43133   0.41488    0.000
 6599.00    0.42945   0.41556    0.000
 6600.00    0.41476   0.41603    0.000
 6601.00    0.39678   0.41628    0.000
 6602.00    0.38507   0.41635    0.000
 6603.00    0.38486   0.41627    0.000
 6604.00    0.39568   0.41620    0.000
 6605.00    0.41078   0.41611    0.000
 6606.00    0.42158   0.41617    0.000
 6607.00    0.42533   0.41627    0.000
 6608.00    0.42432   0.41663    0.000
 6609.00    0.42226   0.41713   27.155
 6610.00    0.42216   0.41774   27.537
 6611.00    0.42416   0.41841   27.682
 6612.00    0.42501   0.41905   27.203
 6613.00    0.41847   0.41970   26.768
 6614.00    0.40321   0.42020   27.045
 6615.00    0.39179   0.42061   27.501
 6616.00    0.39767   0.42082   27.319
 6617.00    0.41916   0.42089   26.765
 6618.00    0.44526   0.42076   26.365
 6619.00    0.46428   0.42050   25.977
 6620.00    0.46859   0.42007   25.445
 6621.00    0.45832   0.41954   25.182
 6622.00    0.43991   0.41888   25.468
 6623.00    0.42347   0.41818   25.907
 6624.00    0.41376   0.41749   25.933
 6625.00    0.40416   0.41677   25.426
 6626.00    0.39035   0.41611   24.725
 6627.00    0.38002   0.41545   24.408
 6628.00    0.38071   0.41483   24.765
 6629.00    0.39080   0.41428   25.564
 6630.00    0.40482   0.41381   26.355
 6631.00    0.41758   0.41346   26.728
 6632.00    0.42538   0.41327   26.583
 6633.00    0.42679   0.41331   26.255
 6634.00    0.42387   0.41340   26.221
 6635.00    0.42210   0.41364   26.847
 6636.00    0.42672   0.41387   27.777
 6637.00    0.43970   0.41407   27.756
 6638.00    0.45475   0.41420   26.842
 6639.00    0.45875   0.41433   26.736
 6640.00    0.44945   0.41445   27.607
 6641.00    0.43913   0.41445   27.524
 6642.00    0.43479   0.41456   26.158
 6643.00    0.43219   0.41469   25.438
 6644.00    0.42745   0.41489   25.860
 6645.00    0.42118   0.41511   26.260
 6646.00    0.41624   0.41534   26.002
 6647.00    0.41500   0.41557   25.614
 6648.00    0.41345   0.41572   25.534
 6649.00    0.40405   0.41584   25.732
 6650.00    0.39033   0.41585   25.821
 6651.00    0.38472   0.41579   25.388
 6652.00    0.38912   0.41558   24.888
 6653.00    0.39522   0.41530   25.168
 6654.00    0.40052   0.41483   25.988
 6655.00    0.40763   0.41430   26.272
 6656.00    0.41214   0.41369   26.103
 6657.00    0.40677   0.41297   26.500
 6658.00    0.39723   0.41226   27.467
 6659.00    0.39712   0.41151   28.087
 6660.00    0.40964   0.41090   27.981
 6661.00    0.42787   0.41032   27.493
 6662.00    0.44319   0.41001   26.955
 6663.00    0.44919   0.40991   26.507
 6664.00    0.44575   0.40994   26.125
 6665.00    0.43790   0.41017   25.745
 6666.00    0.43263   0.41040   25.425
 6667.00    0.43435   0.41069   25.257
 6668.00    0.43930   0.41083   25.226
 6669.00    0.44154   0.41084   25.212
 6670.00    0.44223   0.41068   25.034
 6671.00    0.44421   0.41034   24.667
 6672.00    0.44366   0.40983   24.456
 6673.00    0.43572   0.40923   24.688
 6674.00    0.42269   0.40862   25.120
 6675.00    0.41153   0.40803   25.402
 6676.00    0.40966   0.40762   25.636
 6677.00    0.41944   0.40758   25.982
 6678.00    0.43363   0.40787   26.148
 6679.00    0.44282   0.40835   25.959
 6680.00    0.44308   0.40906   25.892
 6681.00    0.43653   0.40979   26.186
 6682.00    0.43005   0.41053   26.152
 6683.00    0.42655   0.41119   25.584
 6684.00    0.41922   0.41174   25.668
 6685.00    0.40441   0.41212   26.882
 6686.00    0.39041   0.41231   27.557
 6687.00    0.38515   0.41234   26.632
 6688.00    0.38786   0.41218   25.885
 6689.00    0.39552   0.41191   26.244
 6690.00    0.40693   0.41148   26.363
 6691.00    0.41945   0.41106   25.507
 6692.00    0.42749   0.41052   24.962
 6693.00    0.42670   0.41003   25.296
 6694.00    0.41666   0.40951   25.520
 6695.00    0.40232   0.40910   25.165
 6696.00    0.39278   0.40879    0.000
 6697.00    0.39224   0.40856    0.000
 6698.00    0.39730   0.40844    0.000
 6699.00    0.40498   0.40829    0.000
 6700.00    0.41513   0.40819    0.000
 6701.00    0.42515   0.40802    0.000
 6702.00    0.42975   0.40784    0.000
 6703.00    0.42833   0.40765    0.000
 6704.00    0.42567   0.40744    0.000
 6705.00    0.42439   0.40718    0.000
 6706.00    0.42334   0.40680    0.000
 6707.00    0.42146   0.40637    0.000
 6708.00    0.41957   0.40576    0.000
 6709.00    0.42158   0.40513    0.000
 6710.00    0.43847   0.40445    0.000
 6711.00    0.49738   0.40371    0.000
 6712.00    0.62373   0.40307    0.000
 6713.00    0.79061   0.40245    0.000
 6714.00    0.93096   0.40203    0.000
 6715.00    0.99736   0.40173    0.000
 6716.00    0.97727   0.40169    0.000
 6717.00    0.89341   0.40194    0.000
 6718.00    0.78674   0.40232    0.000
 6719.00    0.68274   0.40284    0.000
 6720.00    0.59079   0.40335    0.000
 6721.00    0.51632   0.40393    0.000
 6722.00    0.46327   0.40443    0.000
 6723.00    0.43445   0.40490    0.000
 6724.00    0.43451   0.40521    0.000
 6725.00    0.47397   0.40552    0.000
 6726.00    0.55754   0.40574    0.000
 6727.00    0.66661   0.40589    0.000
 6728.00    0.76797   0.40595    0.000
 6729.00    0.82995   0.40590    0.000
 6730.00    0.83262   0.40579    0.000
 6731.00    0.77767   0.40556    0.000
 6732.00    0.68547   0.40528    0.000
 6733.00    0.58850   0.40492    0.000
 6734.00    0.51246   0.40453    0.000
 6735.00    0.45760   0.40408    0.000
 6736.00    0.41370   0.40360    0.000
 6737.00    0.37716   0.40312    0.000
 6738.00    0.35230   0.40267    0.000
 6739.00    0.34929   0.40226    0.000
 6740.00    0.36809   0.40186    0.000
 6741.00    0.38700   0.40147    0.000
 6742.00    0.38292   0.40114    0.000
 6743.00    0.34879   0.40085    0.000
 6744.00    0.29510   0.40056    0.000
 6745.00    0.24769   0.40035    0.000
 6746.00    0.22968   0.40014    0.000
 6747.00    0.24893   0.40004    0.000
 6748.00    0.29792   0.40001    0.000
 6749.00    0.35585   0.40014    0.000
 6750.00    0.39879   0.40039    0.000
 6751.00    0.40943   0.40067    0.000
 6752.00    0.39668   0.40115    0.000
 6753.00    0.39671   0.40160   17.485
 6754.00    0.42504   0.40212   17.288
 6755.00    0.45989   0.40259   16.911
 6756.00    0.47968   0.40300   16.746
 6757.00    0.48038   0.40331   17.578
 6758.00    0.47113   0.40346   19.355
 6759.00    0.46596   0.40349   20.387
 6760.00    0.46064   0.40327   19.870
 6761.00    0.43441   0.40299   19.307
 6762.00    0.38994   0.40255   19.337
 6763.00    0.35630   0.40206   19.355
 6764.00    0.34814   0.40155   19.175
 6765.00    0.35739   0.40106   19.267
 6766.00    0.37227   0.40070   19.784
 6767.00    0.38368   0.40053   20.384
 6768.00    0.38545   0.40052   20.580
 6769.00    0.37578   0.40062   20.081
 6770.00    0.36056   0.40091   19.231
 6771.00    0.35126   0.40126   18.602
 6772.00    0.35766   0.40168   18.230
 6773.00    0.38312   0.40202   17.909
 6774.00    0.41869   0.40228   17.870
 6775.00    0.44895   0.40237   18.525
 6776.00    0.46701   0.40229   19.666
 6777.00    0.47296   0.40208   20.544
 6778.00    0.46492   0.40165   20.942
 6779.00    0.44190   0.40115   21.113
 6780.00    0.41202   0.40054   20.729
 6781.00    0.38899   0.39996   19.447
 6782.00    0.38351   0.39939   17.969
 6783.00    0.39606   0.39900   17.086
 6784.00    0.40906   0.39872   16.988
 6785.00    0.40403   0.39856   17.602
 6786.00    0.38682   0.39854   18.709
 6787.00    0.37358   0.39852   19.939
 6788.00    0.36800   0.39855   20.899
 6789.00    0.36601   0.39855   21.261
 6790.00    0.36507   0.39856   20.886
 6791.00    0.36434   0.39850   19.973
 6792.00    0.36378   0.39843   18.982
 6793.00    0.36538   0.39840   18.189
 6794.00    0.37403   0.39834   17.502
 6795.00    0.39125   0.39834   16.949
 6796.00    0.40957   0.39832   16.944
 6797.00    0.41883   0.39831   17.829
 6798.00    0.41344   0.39830   19.498
 6799.00    0.40158   0.39826   21.300
 6800.00    0.40766   0.39821   21.959
 6801.00    0.43321   0.39810   20.875
 6802.00    0.43521   0.39796   19.125
 6803.00    0.39401   0.39782   17.550
 6804.00    0.35363   0.39766   16.139
 6805.00    0.35406   0.39746   14.947
 6806.00    0.38787   0.39734   14.295
 6807.00    0.42523   0.39718   14.431
 6808.00    0.43623   0.39703   15.551
 6809.00    0.41968   0.39697   17.647
 6810.00    0.40921   0.39692   19.901
 6811.00    0.42104   0.39692   21.085
 6812.00    0.43422   0.39692   21.074
 6813.00    0.43146   0.39696   20.759
 6814.00    0.41668   0.39706   21.072
 6815.00    0.40034   0.39722   21.979
 6816.00    0.39077   0.39734   22.307
 6817.00    0.38789   0.39747   21.667
 6818.00    0.38396   0.39755   20.987
 6819.00    0.37581   0.39765   20.396
 6820.00    0.36769   0.39774   19.246
 6821.00    0.36436   0.39775   17.880
 6822.00    0.36851   0.39772   17.244
 6823.00    0.38101   0.39761   17.609
 6824.00    0.40035   0.39748   18.679
 6825.00    0.42097   0.39728   19.687
 6826.00    0.43293   0.39705   19.554
 6827.00    0.42270   0.39684   18.342
 6828.00    0.38318   0.39666   16.987
 6829.00    0.33792   0.39641   15.753
 6830.00    0.32676   0.39610   14.556
 6831.00    0.35783   0.39567   13.676
 6832.00    0.40722   0.39516   13.473
 6833.00    0.44419   0.39454   14.034
 6834.00    0.44612   0.39380   15.319
 6835.00    0.41642   0.39298   17.273
 6836.00    0.37951   0.39218   19.554
 6837.00    0.36381   0.39140   20.954
 6838.00    0.38237   0.39081   20.462
 6839.00    0.40684   0.39037   19.668
 6840.00    0.40041   0.39020   20.364
 6841.00    0.37591   0.39028   21.868
 6842.00    0.36790   0.39060   22.127
 6843.00    0.37838   0.39104   21.471
 6844.00    0.39129   0.39151   21.395
 6845.00    0.40292   0.39195   21.663
 6846.00    0.41446   0.39232   21.399
 6847.00    0.41816   0.39252   20.787
 6848.00    0.40960   0.39257   20.293
 6849.00    0.40256   0.39242   19.673
 6850.00    0.40861   0.39212   18.729
 6851.00    0.41494   0.39170   17.929
 6852.00    0.40772   0.39119   17.717
 6853.00    0.39631   0.39059   18.110
 6854.00    0.39496   0.39012   18.709
 6855.00    0.40343   0.38975   18.621
 6856.00    0.40747   0.38944   17.584
 6857.00    0.38461   0.38929   16.607
 6858.00    0.33724   0.38921   16.155
 6859.00    0.31086   0.38916   15.601
 6860.00    0.33029   0.38920   14.794
 6861.00    0.35942   0.38929   14.613
 6862.00    0.36485   0.38939   15.612
 6863.00    0.35697   0.38941   17.496
 6864.00    0.35404   0.38937   19.461
 6865.00    0.35867   0.38929   20.682
 6866.00    0.36625   0.38914   21.058
 6867.00    0.37149   0.38909   21.457
 6868.00    0.37272   0.38903   22.222
 6869.00    0.37287   0.38899   22.493
 6870.00    0.37386   0.38892   21.920
 6871.00    0.37399   0.38892   21.384
 6872.00    0.37018   0.38897   21.306
 6873.00    0.36062   0.38895   21.277
 6874.00    0.35116   0.38897   21.029
 6875.00    0.35407   0.38895   20.724
 6876.00    0.37221   0.38895   20.437
 6877.00    0.39494   0.38886   20.048
 6878.00    0.40717   0.38880   19.509
 6879.00    0.39769   0.38876   18.930
 6880.00    0.37509   0.38874   18.535
 6881.00    0.36319   0.38888   18.512
 6882.00    0.37031   0.38911   18.627
 6883.00    0.38575   0.38948   18.395
 6884.00    0.39871   0.38985   18.002
 6885.00    0.40311   0.39029   18.056
 6886.00    0.39534   0.39080   18.486
 6887.00    0.37657   0.39120   18.795
 6888.00    0.35989   0.39157   19.485
 6889.00    0.36137   0.39186   21.799
 6890.00    0.37662   0.39206   25.372
 6891.00    0.38691   0.39211   27.014
 6892.00    0.38375   0.39217   26.376
 6893.00    0.37196   0.39211   26.467
 6894.00    0.36493   0.39208   27.295
 6895.00    0.37444   0.39203   26.859
 6896.00    0.39486   0.39203   25.354
 6897.00    0.41056   0.39203   24.311
 6898.00    0.41320   0.39200   24.193
 6899.00    0.40170   0.39206   24.912
 6900.00    0.37777   0.39210   26.474
 6901.00    0.34851   0.39214   28.686
 6902.00    0.33014   0.39210   30.289
 6903.00    0.33445   0.39205   29.903
 6904.00    0.35114   0.39192   28.479
 6905.00    0.36256   0.39176   27.580
 6906.00    0.36421   0.39145   27.457
 6907.00    0.35980   0.39110   27.794
 6908.00    0.35274   0.39063   28.349
 6909.00    0.34470   0.39015   29.011
 6910.00    0.33517   0.38961   29.836
 6911.00    0.32443   0.38915   30.824
 6912.00    0.31605   0.38867   31.083
 6913.00    0.31399   0.38834   31.083
 6914.00    0.31983   0.38816   31.083
 6915.00    0.33400   0.38797   29.940
 6916.00    0.35630   0.38796   28.066
 6917.00    0.38071   0.38790   26.267
 6918.00    0.39303   0.38791   25.443
 6919.00    0.38466   0.38784   25.997
 6920.00    0.36198   0.38777   27.626
 6921.00    0.34165   0.38762   29.270
 6922.00    0.34325   0.38742   29.133
 6923.00    0.36668   0.38726   27.271
 6924.00    0.38527   0.38712   25.956
 6925.00    0.38636   0.38707   25.883
 6926.00    0.38797   0.38705   25.775
 6927.00    0.40083   0.38704   24.948
 6928.00    0.41218   0.38705   24.261
 6929.00    0.40926   0.38710   24.434
 6930.00    0.39137   0.38714   25.551
 6931.00    0.36972   0.38717   27.048
 6932.00    0.36202   0.38720   27.623
 6933.00    0.37158   0.38730   26.912
 6934.00    0.38356   0.38727   26.071
 6935.00    0.38476   0.38725   25.990
 6936.00    0.37288   0.38708   26.818
 6937.00    0.36114   0.38693   27.690
 6938.00    0.36969   0.38663   27.050
 6939.00    0.39350   0.38632   25.413
 6940.00    0.40545   0.38592   24.664
 6941.00    0.39739   0.38546   25.164
 6942.00    0.38364   0.38506   26.066
 6943.00    0.37480   0.38461   26.681
 6944.00    0.37259   0.38437   26.839
 6945.00    0.37606   0.38414   26.591
 6946.00    0.38257   0.38401   26.139
 6947.00    0.38598   0.38390   25.908
 6948.00    0.38140   0.38387   26.219
 6949.00    0.37589   0.38383   26.604
 6950.00    0.37976   0.38388   26.332
 6951.00    0.38467   0.38402   25.996
 6952.00    0.37616   0.38417   26.584
 6953.00    0.36451   0.38440   27.434
 6954.00    0.36379   0.38464   27.489
 6955.00    0.34764   0.38497   28.766
 6956.00    0.29535   0.38519   31.083
 6957.00    0.27221   0.38550   -1.000
 6958.00    0.32413   0.38570   30.852
 6959.00    0.31431   0.38593   31.083
 6960.00    0.13175   0.38608   -1.000
 6961.00   -0.00846   0.38621   -2.000
 6962.00    0.12908   0.38628   -1.000
 6963.00    0.37905   0.38629   26.382
 6964.00    0.47352   0.38622   21.119
 6965.00    0.44290   0.38609   22.579
 6966.00    0.43004   0.38591   23.254
 6967.00    0.44255   0.38551   22.596
 6968.00    0.43305   0.38504   23.092
 6969.00    0.40464   0.38434   24.713
 6970.00    0.38230   0.38359   26.157
 6971.00    0.37659   0.38273   26.554
 6972.00    0.38633   0.38182   25.885
 6973.00    0.40419   0.38088   24.741
 6974.00    0.42168   0.38008   23.715
 6975.00    0.43293   0.37946   23.099
 6976.00    0.43524   0.37909   22.976
 6977.00    0.42904   0.37901   23.308
 6978.00    0.41601   0.37934   24.038
 6979.00    0.39845   0.37986   25.097
 6980.00    0.38421   0.38055   26.027
 6981.00    0.38661   0.38129   25.866
 6982.00    0.40456   0.38206   24.718
 6983.00    0.41633   0.38273   24.020
 6984.00    0.41074   0.38332   24.346
 6985.00    0.40007   0.38377   24.996
 6986.00    0.39497   0.38409   25.319
 6987.00    0.39352   0.38428   25.412
 6988.00    0.39238   0.38436   25.486
 6989.00    0.39162   0.38441   25.535
 6990.00    0.39167   0.38429   25.532
 6991.00    0.39190   0.38413   25.517
 6992.00    0.39111   0.38382   25.568
 6993.00    0.38841   0.38347   25.746
 6994.00    0.38557   0.38302   25.935
 6995.00    0.38542   0.38253   25.946
 6996.00    0.38378   0.38196   26.057
 6997.00    0.37292   0.38138   26.816
 6998.00    0.36099   0.38080   27.701
 6999.00    0.36726   0.38035   27.228
 7000.00    0.39071   0.37994   25.595
 7001.00    0.41098   0.37962   -2.000
 7002.00    0.41602   0.37932   -2.000
 7003.00    0.40714   0.37916   -2.000
 7004.00    0.39246   0.37904   -2.000
 7005.00    0.38189   0.37898   -2.000
 7006.00    0.37980   0.37890   -2.000
 7007.00    0.38540   0.37881   -2.000
 7008.00    0.39686   0.37863   -2.000
 7009.00    0.41041   0.37839   -2.000
 7010.00    0.41695   0.37809   -2.000
 7011.00    0.40835   0.37779   -2.000
 7012.00    0.38968   0.37746   -2.000
 7013.00    0.37435   0.37715   -2.000
 7014.00    0.37191   0.37690   -2.000
 7015.00    0.38071   0.37674   -2.000
 7016.00    0.38111   0.37680   -2.000
 7017.00    0.36018   0.37685   -2.000
 7018.00    0.34605   0.37696   -2.000
 7019.00    0.36881   0.37706   -2.000
 7020.00    0.40480   0.37717   -2.000
 7021.00    0.41621   0.37729   -2.000
 7022.00    0.40706   0.37742   -2.000
 7023.00    0.39841   0.37765   -2.000
 7024.00    0.39309   0.37788   -2.000
 7025.00    0.38322   0.37815   -2.000
 7026.00    0.36316   0.37839   -2.000
 7027.00    0.33709   0.37866   -2.000
 7028.00    0.32311   0.37887   -2.000
 7029.00    0.33164   0.37908   -2.000
 7030.00    0.34813   0.37922   -2.000
 7031.00    0.35867   0.37936   -2.000
 7032.00    0.37064   0.37951   -2.000
 7033.00    0.39288   0.37970   -2.000
 7034.00    0.41977   0.37997   -2.000
 7035.00    0.43835   0.38033   -2.000
 7036.00    0.43601   0.38075   -2.000
 7037.00    0.41191   0.38129   -2.000
 7038.00    0.38143   0.38199   -2.000
 7039.00    0.35688   0.38263   -2.000
 7040.00    0.33831   0.38327   -2.000
 7041.00    0.33089   0.38377   -2.000
 7042.00    0.34897   0.38416   -2.000
 7043.00    0.38193   0.38435   -2.000
 7044.00    0.38925   0.38438   -2.000
 7045.00    0.36596   0.38423   -2.000
 7046.00    0.35694   0.38382   -2.000
 7047.00    0.37329   0.38325   -2.000
 7048.00    0.37498   0.38244   -2.000
 7049.00    0.36015   0.38153   -2.000
 7050.00    0.37708   0.38053   -2.000
 7051.00    0.42258   0.37948   -2.000
 7052.00    0.43419   0.37853   -2.000
 7053.00    0.40456   0.37763   -2.000
 7054.00    0.38976   0.37687   -2.000
 7055.00    0.39985   0.37617   -2.000
 7056.00    0.39219   0.37560   -2.000
 7057.00    0.36372   0.37508   -2.000
 7058.00    0.35448   0.37468   -2.000
 7059.00    0.37721   0.37432   -2.000
 7060.00    0.40773   0.37407   -2.000
 7061.00    0.41379   0.37381   -2.000
 7062.00    0.37751   0.37359   -2.000
 7063.00    0.32840   0.37341   -2.000
 7064.00    0.31590   0.37323   -2.000
 7065.00    0.33315   0.37314   -2.000
 7066.00    0.33967   0.37314   -2.000
 7067.00    0.34155   0.37324   -2.000
 7068.00    0.36966   0.37347   -2.000
 7069.00    0.40855   0.37371   -2.000
 7070.00    0.41793   0.37400   -2.000
 7071.00    0.39339   0.37422   -2.000
 7072.00    0.35930   0.37440   -2.000
 7073.00    0.33976   0.37444   -2.000
 7074.00    0.35142   0.37434   -2.000
 7075.00    0.39824   0.37403   -2.000
 7076.00    0.44057   0.37354   -2.000
 7077.00    0.36371   0.37283   -2.000
 7078.00    0.13354   0.37190   -2.000
 7079.00   -0.01965   0.37082   -2.000
 7080.00    0.10355   0.36953   -2.000
 7081.00    0.31795   0.36821   -2.000
 7082.00    0.37063   0.36684   -2.000
 7083.00    0.31722   0.36554   -2.000
 7084.00    0.30809   0.36436   -2.000
 7085.00    0.33851   0.36332   -2.000
 7086.00    0.34930   0.36242   -2.000
 7087.00    0.34112   0.36171   -2.000
 7088.00    0.33604   0.36121   -2.000
 7089.00    0.33615   0.36086   -2.000
 7090.00    0.33475   0.36075   -2.000
 7091.00    0.32853   0.36078   -2.000
 7092.00    0.32029   0.36094   -2.000
 7093.00    0.31875   0.36133   -2.000
 7094.00    0.32692   0.36168   -2.000
 7095.00    0.33626   0.36233   -2.000
 7096.00    0.34247   0.36277   -2.000
 7097.00    0.35294   0.36346   -2.000
 7098.00    0.36848   0.36387   -2.000
 7099.00    0.37589   0.36439   -2.000
 7100.00    0.36987   0.36465   -2.000
 7101.00    0.36139   0.36491   -2.000
 7102.00    0.35671   0.36495   -2.000
 7103.00    0.34995   0.36493   -2.000
 7104.00    0.34084   0.36474   -2.000
 7105.00    0.33866   0.36450   -2.000
 7106.00    0.34188   0.36420   -2.000
 7107.00    0.33599   0.36389   -2.000
 7108.00    0.32159   0.36360   -2.000
 7109.00    0.31779   0.36336   -2.000
 7110.00    0.33219   0.36319   -2.000
 7111.00    0.35380   0.36309   -2.000
 7112.00    0.36873   0.36304   -2.000
 7113.00    0.37268   0.36303   -2.000
 7114.00    0.39129   0.36303   -2.000
 7115.00    0.46096   0.36303   -2.000
 7116.00    0.55602   0.36299   -2.000
 7117.00    0.60470   0.36295   -2.000
 7118.00    0.58945   0.36282   -2.000
 7119.00    0.54698   0.36271   -2.000
 7120.00    0.49907   0.36253   -2.000
 7121.00    0.44981   0.36234   -2.000
 7122.00    0.41960   0.36214   -2.000
 7123.00    0.42734   0.36189   -2.000
 7124.00    0.43757   0.36170   -2.000
 7125.00    0.39772   0.36148   -2.000
 7126.00    0.33125   0.36138   -2.000
 7127.00    0.29946   0.36128   -2.000
 7128.00    0.29989   0.36137   -2.000
 7129.00    0.29133   0.36150   -2.000
 7130.00    0.26679   0.36182   -2.000
 7131.00    0.24635   0.36220   -2.000
 7132.00    0.24617   0.36262   -2.000
 7133.00    0.26854   0.36309   -2.000
 7134.00    0.29598   0.36347   -2.000
 7135.00    0.30960   0.36384   -2.000
 7136.00    0.31382   0.36404   -2.000
 7137.00    0.32107   0.36419   -2.000
 7138.00    0.32946   0.36415   -2.000
 7139.00    0.33064   0.36404   -2.000
 7140.00    0.32218   0.36378   -2.000
 7141.00    0.31011   0.36346   -2.000
 7142.00    0.30875   0.36309   -2.000
 7143.00    0.32592   0.36274   -2.000
 7144.00    0.34967   0.36238   -2.000
 7145.00    0.36186   0.36219   -2.000
 7146.00    0.35269   0.36207   -2.000
 7147.00    0.32992   0.36215   -2.000
 7148.00    0.32218   0.36235   -2.000
 7149.00    0.35057   0.36269   -2.000
 7150.00    0.40754   0.36304   -2.000
 7151.00    0.46867   0.36346   -2.000
 7152.00    0.50388   0.36378   -2.000
 7153.00    0.48707   0.36409   -2.000
 7154.00    0.40777   0.36421   -2.000
 7155.00    0.30523   0.36421   -2.000
 7156.00    0.26878   0.36403   -2.000
 7157.00    0.31903   0.36371   -2.000
 7158.00    0.36634   0.36332   -2.000
 7159.00    0.36149   0.36284   -2.000
 7160.00    0.35413   0.36239   -2.000
 7161.00    0.37227   0.36197   -2.000
 7162.00    0.37941   0.36175   -2.000
 7163.00    0.36072   0.36167   -2.000
 7164.00    0.34805   0.36182   -2.000
 7165.00    0.35353   0.36206   -2.000
 7166.00    0.35313   0.36246   -2.000
 7167.00    0.33496   0.36285   -2.000
 7168.00    0.31145   0.36328   -2.000
 7169.00    0.29267   0.36361   -2.000
 7170.00    0.28070   0.36381   -2.000
 7171.00    0.28355   0.36387   -2.000
 7172.00    0.31065   0.36369   -2.000
 7173.00    0.34549   0.36345   -2.000
 7174.00    0.35688   0.36300   -2.000
 7175.00    0.35365   0.36252   -2.000
 7176.00    0.37415   0.36189   -2.000
 7177.00    0.41910   0.36128   -2.000
 7178.00    0.45515   0.36064   -2.000
 7179.00    0.46633   0.36010   -2.000
 7180.00    0.45824   0.35958   -2.000
 7181.00    0.43875   0.35906   -2.000
 7182.00    0.40307   0.35864   -2.000
 7183.00    0.31477   0.35816   -2.000
 7184.00    0.15893   0.35781   -2.000
 7185.00    0.04444   0.35751   -2.000
 7186.00    0.10291   0.35731   -2.000
 7187.00    0.28283   0.35724   -2.000
 7188.00    0.43496   0.35721   -2.000
 7189.00    0.50798   0.35734   -2.000
 7190.00    0.52594   0.35748   -2.000
 7191.00    0.50612   0.35780   -2.000
 7192.00    0.45360   0.35807   -2.000
 7193.00    0.37194   0.35841   -2.000
 7194.00    0.27949   0.35871   -2.000
 7195.00    0.22500   0.35902   -2.000
 7196.00    0.24054   0.35924   -2.000
 7197.00    0.28723   0.35937   -2.000
 7198.00    0.31117   0.35941   -2.000
 7199.00    0.31045   0.35937   -2.000
 7200.00    0.31340   0.35927   -2.000
 7201.00    0.34640   0.35907   -2.000
 7202.00    0.40686   0.35884   -2.000
 7203.00    0.44636   0.35851   -2.000
 7204.00    0.42721   0.35830   -2.000
 7205.00    0.36950   0.35815   -2.000
 7206.00    0.31076   0.35810   -2.000
 7207.00    0.27037   0.35816   -2.000
 7208.00    0.25404   0.35828   -2.000
 7209.00    0.26073   0.35849   -2.000
 7210.00    0.29347   0.35872   -2.000
 7211.00    0.36294   0.35903   -2.000
 7212.00    0.46195   0.35931   -2.000
 7213.00    0.55414   0.35961   -2.000
 7214.00    0.60729   0.35989   -2.000
 7215.00    0.61128   0.36011   -2.000
 7216.00    0.56199   0.36031   -2.000
 7217.00    0.45817   0.36049   -2.000
 7218.00    0.33408   0.36066   -2.000
