###################################################################
## OUTPUT of StarlightChains_v04.for    [Cid@UFSC - 01/Apr/2007] ##
###################################################################

## Some input info
2006E.txt                                [arq_obs]
Base.CB07.vall.4m                        [arq_base]
Masks.EmLines.NEW.gm                     [arq_masks]
StCv04.C11.config                        [arq_config]
   66                                    [N_base]
    0                                    [N_YAV_components = # of components with extra extinction!]
    0                                    [i_FitPowerLaw (1/0 = Yes/No)]
-9.99                                    [alpha_PowerLaw]
CCM                                      [red_law_option]
 1.458241                                [q_norm = A(l_norm)/A(V)]

## (Re)Sampling Parameters
 3741.00                                 [l_ini (A)]
 7218.00                                 [l_fin (A)]
    1.00                                 [dl    (A)]     (OBS: dl_cushion =    50.00 A)

## Normalization info
 4020.00                                 [l_norm (A) - for base]
 4010.00                                 [llow_norm (A) - window for f_obs]
 4060.00                                 [lupp_norm (A) - window for f_obs]
2.754242E-17                             [fobs_norm (in input units)]

## S/N
 3691.00                                 [llow_SN (A) - window for S/N]
 7268.00                                 [lupp_SN (A) - window for S/N]
   6.738                                 [S/N in S/N window]
   5.901                                 [S/N in norm. window]
  11.948                                 [S/N_err in S/N window]
  10.464                                 [S/N_err in norm. window]
  1.0000                                 [fscale_chi2]

## etc...
    -2007317                             [idum_orig]
  2384                                   [NOl_eff]
  2344                                   [Nl_eff]
    40    NSIGMA                         [Ntot_cliped & clip_method]
  1618960                                [Nglobal_steps]
   7                                     [N_chains]
  25                                     [NEX0s_base = N_base in EX0s-fits]
 0   0   1       38   2.0   1.888E+01    [Clip-Bug, RC-Crash & Burn-In warning-flags, n_censored_weights, wei_nsig_threshold & wei_limit]
    14     13.969     13.405      0.564  [idt_all, wdt_TotTime, wdt_UsrTime & wdt_SysTime (sec)]

## Synthesis Results - Best model ##

 4.78136E-01                             [chi2/Nl_eff]
     4.65051                             [adev (%)]

   106.92189                             [sum-of-x (%)]
 3.10121E-17                             [Flux_tot (units of input spectrum!)]
 9.68920E-13                             [Mini_tot (???)]
 5.07768E-13                             [Mcor_tot (???)]

  47.12                                  [v0_min  (km/s)]
 120.18                                  [vd_min  (km/s)]
 0.0385                                  [AV_min  (mag)]
 0.0000                                  [YAV_min (mag)]

# j     x_j(%)      Mini_j(%)     Mcor_j(%)     age_j(yr)     Z_j      (L/M)_j    YAV?  Mstars   component_j        a/Fe...       SSP_chi2r SSP_adev(%)   SSP_AV   SSP_x(%)
  1      0.0000     0.0000E+00    0.0000E+00    1.000000E+06  0.00400  1.094E-02    0   1.0000   age020_m42            0.0000     1.4685E+00     7.5969   3.5373    86.7169
  2      0.1827     1.3646E-04    2.6036E-04    3.160000E+06  0.00400  4.007E-02    0   0.9999   age045_m42            0.0000     1.2444E+00     6.9599   2.7621    95.0874
  3      0.0000     0.0000E+00    0.0000E+00    5.010000E+06  0.00400  2.539E-02    0   0.9488   age055_m42            0.0000     1.3388E+00     7.1947   3.1054    91.6283
  4      0.0000     0.0000E+00    0.0000E+00    6.610000E+06  0.00400  2.620E-02    0   0.9220   age061_m42            0.0000     1.2502E+00     6.9017   2.6830    95.5386
  5      0.0000     0.0000E+00    0.0000E+00    1.000000E+07  0.00400  1.322E-02    0   0.8862   age070_m42            0.0000     1.3663E+00     7.0860   2.3747    98.6665
  6      0.0000     0.0000E+00    0.0000E+00    1.445000E+07  0.00400  7.883E-03    0   0.8571   age078_m42            0.0000     1.4262E+00     7.2493   2.7192    95.3222
  7      0.0049     2.7701E-05    4.3208E-05    2.512000E+07  0.00400  5.251E-03    0   0.8174   age090_m42            0.0000     1.3981E+00     7.1644   2.2350    99.6804
  8      0.0000     0.0000E+00    0.0000E+00    4.000000E+07  0.00400  3.649E-03    0   0.7851   age104_m42            0.0000     1.2927E+00     6.9431   1.9984   101.0250
  9      0.0000     0.0000E+00    0.0000E+00    5.500000E+07  0.00400  3.098E-03    0   0.7629   age110_m42            0.0000     1.2398E+00     6.7908   2.1582   100.8239
 10      0.0000     0.0000E+00    0.0000E+00    1.015200E+08  0.00400  2.228E-03    0   0.7207   age116_m42            0.0000     1.2305E+00     6.7401   2.1811   100.9567
 11      0.0000     0.0000E+00    0.0000E+00    2.861200E+08  0.00400  1.093E-03    0   0.6648   age125_m42            0.0000     1.2249E+00     6.8739   1.5781   105.7564
 12      0.0000     0.0000E+00    0.0000E+00    5.088000E+08  0.00400  6.597E-04    0   0.6365   age130_m42            0.0000     1.1149E+00     6.5711   1.5690   106.7172
 13      0.0000     0.0000E+00    0.0000E+00    1.434000E+09  0.00400  2.132E-04    0   0.5798   age139_m42            0.0000     6.8802E-01     5.4752   0.5699   110.4910
 14     10.8447     5.5070E+00    5.6503E+00    4.250000E+09  0.00400  5.895E-05    0   0.5377   age158_m42            0.0000     5.2921E-01     4.8941   0.1564   104.9803
 15     12.2243     1.0425E+01    1.0369E+01    7.500000E+09  0.00400  3.510E-05    0   0.5212   age171_m42            0.0000     5.4672E-01     4.8993  -0.0247   104.0365
 16      6.9898     1.0436E+01    1.0024E+01    1.300000E+10  0.00400  2.005E-05    0   0.5034   age193_m42            0.0000     5.9337E-01     5.0104  -0.1823   103.1838
 17      0.0000     0.0000E+00    0.0000E+00    1.800000E+10  0.00400  1.525E-05    0   0.4967   age213_m42            0.0000     5.8097E-01     4.9750  -0.2067   102.7710
 18      0.0000     0.0000E+00    0.0000E+00    1.000000E+06  0.00800  1.238E-02    0   1.0000   age020_m52            0.0000     1.4628E+00     7.5991   3.5359    86.7974
 19      0.0140     1.3636E-05    2.5931E-05    3.160000E+06  0.00800  3.074E-02    0   0.9966   age045_m52            0.0000     1.4335E+00     7.5286   3.4582    87.6202
 20      0.0000     0.0000E+00    0.0000E+00    5.010000E+06  0.00800  2.668E-02    0   0.9443   age055_m52            0.0000     1.3411E+00     7.2267   3.1929    90.5601
 21      0.0000     0.0000E+00    0.0000E+00    6.610000E+06  0.00800  2.136E-02    0   0.9177   age061_m52            0.0000     1.0843E+00     6.4409   1.8691   100.1252
 22      0.0000     0.0000E+00    0.0000E+00    1.000000E+07  0.00800  1.215E-02    0   0.8827   age070_m52            0.0000     1.4596E+00     7.3178   2.5529    98.4264
 23      0.0000     0.0000E+00    0.0000E+00    1.445000E+07  0.00800  8.717E-03    0   0.8552   age078_m52            0.0000     1.3775E+00     7.1288   2.6785    96.9398
 24      4.4541     2.3844E-02    3.7136E-02    2.512000E+07  0.00800  5.592E-03    0   0.8162   age090_m52            0.0000     1.3764E+00     7.1275   2.2934   101.1332
 25      1.9991     1.5360E-02    2.2982E-02    4.000000E+07  0.00800  3.896E-03    0   0.7841   age104_m52            0.0000     1.2886E+00     6.9624   2.1989   102.3491
 26      0.0000     0.0000E+00    0.0000E+00    1.015200E+08  0.00800  2.148E-03    0   0.7226   age116_m52            0.0000     1.1668E+00     6.6790   2.1382   102.2623
 27      0.0000     0.0000E+00    0.0000E+00    2.861200E+08  0.00800  9.925E-04    0   0.6683   age125_m52            0.0000     1.0858E+00     6.4837   1.6311   107.8423
 28      0.0000     0.0000E+00    0.0000E+00    9.047900E+08  0.00800  3.141E-04    0   0.6138   age135_m52            0.0000     7.1964E-01     5.6622   0.8017   114.3425
 29      0.0000     0.0000E+00    0.0000E+00    1.434000E+09  0.00800  1.719E-04    0   0.5853   age139_m52            0.0000     5.8324E-01     5.1353   0.2352   111.3053
 30      0.0000     0.0000E+00    0.0000E+00    2.500000E+09  0.00800  7.872E-05    0   0.5600   age150_m52            0.0000     5.6920E-01     4.9659  -0.0055   107.0438
 31      0.0000     0.0000E+00    0.0000E+00    4.250000E+09  0.00800  4.336E-05    0   0.5426   age158_m52            0.0000     5.8281E-01     5.0133  -0.0180   105.9071
 32      0.0000     0.0000E+00    0.0000E+00    6.250000E+09  0.00800  3.159E-05    0   0.5319   age166_m52            0.0000     6.6851E-01     5.2464  -0.2126   105.6387
 33      8.0835     1.7779E+01    1.7211E+01    1.300000E+10  0.00800  1.361E-05    0   0.5073   age193_m52            0.0000     8.4701E-01     5.7347  -0.6676   104.4252
 34      0.0000     0.0000E+00    0.0000E+00    1.800000E+10  0.00800  9.886E-06    0   0.4990   age213_m52            0.0000     1.0373E+00     6.2480  -0.7585   103.1830
 35      0.0000     0.0000E+00    0.0000E+00    1.000000E+06  0.02000  1.544E-02    0   1.0000   age020_m62            0.0000     1.4676E+00     7.6164   3.5322    86.9757
 36      0.0000     0.0000E+00    0.0000E+00    3.160000E+06  0.02000  3.762E-02    0   0.9858   age045_m62            0.0000     1.4557E+00     7.6074   3.4738    87.6401
 37      0.0000     0.0000E+00    0.0000E+00    5.010000E+06  0.02000  3.296E-02    0   0.9342   age055_m62            0.0000     1.2819E+00     7.0384   3.0605    93.0244
 38     13.8451     3.5914E-02    6.0726E-02    8.710000E+06  0.02000  1.154E-02    0   0.8861   age067_m62            0.0000     2.4160E+00     9.3704   1.9719   102.3612
 39      2.3188     9.0582E-03    1.4644E-02    1.445000E+07  0.02000  7.663E-03    0   0.8472   age078_m62            0.0000     1.5990E+00     7.6507   2.1788   101.6125
 40      0.9821     6.4867E-03    1.0025E-02    2.512000E+07  0.02000  4.532E-03    0   0.8099   age090_m62            0.0000     1.6969E+00     7.8466   2.1669   101.5269
 41      0.0000     0.0000E+00    0.0000E+00    5.500000E+07  0.02000  2.733E-03    0   0.7595   age110_m62            0.0000     1.2850E+00     6.8752   2.1870   101.3153
 42      0.0000     0.0000E+00    0.0000E+00    1.609000E+08  0.02000  1.369E-03    0   0.6985   age120_m62            0.0000     1.2075E+00     6.6627   2.0162   104.7982
 43      0.0000     0.0000E+00    0.0000E+00    2.861200E+08  0.02000  9.013E-04    0   0.6714   age125_m62            0.0000     1.1502E+00     6.5276   1.7472   108.8963
 44      0.0000     0.0000E+00    0.0000E+00    5.088000E+08  0.02000  5.028E-04    0   0.6449   age130_m62            0.0000     9.3966E-01     6.1604   1.3561   112.7793
 45      0.0014     1.7643E-04    2.0802E-04    9.047900E+08  0.02000  2.428E-04    0   0.6179   age135_m62            0.0000     6.5238E-01     5.3403   0.7681   112.3741
 46      0.0013     3.0264E-04    3.4118E-04    1.434000E+09  0.02000  1.263E-04    0   0.5908   age139_m62            0.0000     5.8074E-01     5.0448   0.3346   110.2214
 47      0.0000     0.0000E+00    0.0000E+00    2.500000E+09  0.02000  5.985E-05    0   0.5673   age150_m62            0.0000     6.6260E-01     5.2366  -0.0086   107.6578
 48     30.7119     2.8106E+01    2.9326E+01    4.250000E+09  0.02000  3.271E-05    0   0.5468   age158_m62            0.0000     8.4138E-01     5.7465  -0.2952   105.9687
 49      7.2209     1.5894E+01    1.5671E+01    1.000000E+10  0.02000  1.360E-05    0   0.5167   age181_m62            0.0000     1.1915E+00     6.7426  -0.6197   104.5420
 50      0.9874     4.1492E+00    3.9690E+00    1.800000E+10  0.02000  7.124E-06    0   0.5013   age213_m62            0.0000     1.5072E+00     7.5713  -0.8010   102.4608
 51      0.0000     0.0000E+00    0.0000E+00    1.000000E+06  0.05000  2.592E-02    0   0.9998   age020_m72            0.0000     1.4917E+00     7.7002   3.5277    86.8158
 52      0.0000     0.0000E+00    0.0000E+00    3.160000E+06  0.05000  4.845E-02    0   0.9577   age045_m72            0.0000     1.3853E+00     7.3912   3.3459    89.3196
 53      0.7206     7.0215E-04    1.2256E-03    5.010000E+06  0.05000  3.072E-02    0   0.9147   age055_m72            0.0000     1.5632E+00     7.6310   2.8064    95.9121
 54      0.0000     0.0000E+00    0.0000E+00    6.610000E+06  0.05000  1.455E-02    0   0.8877   age061_m72            0.0000     3.6702E+00    11.6513   2.0066   103.9057
 55      0.0000     0.0000E+00    0.0000E+00    1.000000E+07  0.05000  9.074E-03    0   0.8524   age070_m72            0.0000     1.8649E+00     8.2642   2.9954    95.5305
 56      0.5816     4.0965E-03    6.1770E-03    2.512000E+07  0.05000  4.250E-03    0   0.7902   age090_m72            0.0000     1.6446E+00     7.7797   2.6666    98.6136
 57      0.4175     4.0483E-03    5.8849E-03    4.000000E+07  0.05000  3.087E-03    0   0.7618   age104_m72            0.0000     1.6745E+00     7.8427   2.4213   101.0967
 58      0.6895     1.2142E-02    1.6441E-02    1.015200E+08  0.05000  1.700E-03    0   0.7096   age116_m72            0.0000     1.3170E+00     6.9691   2.1545   104.4857
 59      0.0000     0.0000E+00    0.0000E+00    2.861200E+08  0.05000  7.384E-04    0   0.6633   age125_m72            0.0000     1.0402E+00     6.3041   1.6091   110.8316
 60      0.0000     0.0000E+00    0.0000E+00    5.088000E+08  0.05000  3.819E-04    0   0.6372   age130_m72            0.0000     7.5444E-01     5.5746   1.1126   113.0665
 61      0.0000     0.0000E+00    0.0000E+00    9.047900E+08  0.05000  1.676E-04    0   0.6110   age135_m72            0.0000     6.8543E-01     5.3482   0.4452   109.8150
 62      0.0000     0.0000E+00    0.0000E+00    1.434000E+09  0.05000  8.837E-05    0   0.5874   age139_m72            0.0000     7.0277E-01     5.3801  -0.0122   109.4161
 63      0.0118     8.3609E-03    8.9312E-03    2.500000E+09  0.05000  4.233E-05    0   0.5598   age150_m72            0.0000     9.3454E-01     6.0435  -0.2887   106.5578
 64      3.6349     7.5826E+00    7.5948E+00    6.250000E+09  0.05000  1.435E-05    0   0.5249   age166_m72            0.0000     1.2738E+00     7.0335  -0.7051   103.5768
 65      0.0000     0.0000E+00    0.0000E+00    1.300000E+10  0.05000  6.513E-06    0   0.5036   age193_m72            0.0000     1.6994E+00     8.1489  -0.9469   102.8530
 66      0.0000     0.0000E+00    0.0000E+00    1.800000E+10  0.05000  4.527E-06    0   0.4945   age213_m72            0.0000     2.0065E+00     8.7621  -1.0000    97.8821


## Synthesis Results - Average & Chains ##

# j      x_j: min, <> & last-chain-values for 1 ...  7 chains
  1      0.0000      0.2451      1.6946      0.0000      1.0145      0.0000      0.0000      0.0000      1.5747
  2      0.1827      0.4609      0.0000      1.2622      0.9232      0.0000      0.0000      1.1217      0.0000
  3      0.0000      0.4259      0.0000      0.0000      0.0000      1.9724      0.3223      1.3119      0.0000
  4      0.0000      1.1194      1.1124      0.0000      3.3669      0.5387      1.9937      2.3881      1.1031
  5      0.0000      0.2258      0.0000      0.0000      0.6943      0.1025      0.0000      0.0000      0.0000
  6      0.0000      0.5855      1.3487      0.0000      0.0000      1.5400      0.0000      1.4270      0.0000
  7      0.0049      0.6989      0.1545      2.1247      0.8310      0.0923      0.5615      1.1601      0.9204
  8      0.0000      0.6281      1.0952      0.0000      3.0498      0.8041      0.0335      0.0000      0.0000
  9      0.0000      0.5585      0.0000      0.1218      0.0000      0.0000      0.0000      0.0000      0.0000
 10      0.0000      0.2646      0.0000      0.0000      0.0316      0.1655      0.0000      0.0000      0.5286
 11      0.0000      0.3355      0.0696      0.0000      0.0000      0.0000      0.0000      0.0000      1.4645
 12      0.0000      0.3464      0.0198      0.0000      0.0000      0.0000      0.0000      0.0000      0.0000
 13      0.0000      1.2447      2.1437      0.0000      1.3349      0.0000      0.0000      0.0000      4.5733
 14     10.8447      6.8481      7.0172      4.2590      3.2066      4.6654      0.0000     10.9370      5.9755
 15     12.2243      7.2774      8.6434     14.4029      8.0251      9.0970      7.6704      6.1147      5.3945
 16      6.9898     10.3258      7.6314      9.7577      9.2361      3.8152     13.4486     10.4663     11.7668
 17      0.0000      3.2042      5.0746      0.0000      4.7650      7.0414      6.0893      3.4913      2.9093
 18      0.0000      0.3930      0.0000      0.1730      0.2022      0.0000      0.0000      0.0000      0.7532
 19      0.0140      0.2243      0.0000      0.5740      0.0000      0.0000      0.0000      0.8543      0.0213
 20      0.0000      0.4906      0.0000      0.0000      0.0000      0.9323      0.5749      0.0000      0.0000
 21      0.0000      0.2526      0.1761      0.0000      0.5833      0.0000      0.0000      0.0000      0.2021
 22      0.0000      0.4803      0.5117      0.0000      0.7365      2.2433      0.0000      0.0000      0.0000
 23      0.0000      0.2504      1.7730      0.0000      0.3739      0.0000      0.9130      0.0000      0.0000
 24      4.4541      1.0209      0.0000      1.4939      0.4223      1.1699      4.9176      3.2762      0.2116
 25      1.9991      0.7075      1.2329      1.7223      0.0000      0.0000      4.0277      0.0000      0.0000
 26      0.0000      0.2288      0.0000      0.0000      0.0000      0.0000      0.0000      0.0000      0.0000
 27      0.0000      0.1835      0.0000      0.0000      0.0000      0.9166      0.1055      0.0000      0.0000
 28      0.0000      0.3621      0.1514      0.0000      0.0000      0.0000      0.0000      0.0160      2.0802
 29      0.0000      1.6372      0.0000      1.3279      0.0000      0.9234      0.0000      0.0000      0.0000
 30      0.0000      1.5787      1.9828      0.0000      0.0000      0.6019      0.0000      3.2496      0.0000
 31      0.0000      1.7544      0.0000      0.0000      0.6658      0.6757      2.5660      0.0000      0.0929
 32      0.0000      1.2333      0.1629      0.0065      2.3914      1.0415      0.0000      0.0000      1.2666
 33      8.0835      4.8037      7.0270      3.9101      5.2412      5.7372      6.5461      4.8991      3.9777
 34      0.0000      0.2637      0.0000      0.0000      0.0000      0.0000      0.1916      0.0000      0.9159
 35      0.0000      0.3324      1.3331      0.1886      0.4038      0.9497      0.5425      0.0000      0.0000
 36      0.0000      0.3415      0.0000      0.0000      0.0000      0.0000      0.0000      0.0000      2.6316
 37      0.0000      0.2124      0.0000      0.0000      0.6294      1.8837      0.0000      0.1798      0.0000
 38     13.8451      4.4537      5.9367      5.0738      6.0263      5.2421      5.6571      4.5418      4.4668
 39      2.3188      2.2852      1.8021      3.5063      2.8928      2.1813      0.0000      1.3618      3.0952
 40      0.9821      0.2733      0.0000      1.1786      0.2742      0.4404      0.5582      1.5428      1.0779
 41      0.0000      0.4039      0.2407      0.5025      0.0000      2.3955      0.1618      0.0000      0.0000
 42      0.0000      0.2291      0.0000      0.0000      0.0000      0.9028      0.0000      0.0000      0.0000
 43      0.0000      0.1786      0.0000      0.0000      0.0000      0.0000      1.2106      0.0000      0.0000
 44      0.0000      0.2754      0.0000      0.0000      1.3184      0.0000      0.0000      0.0000      0.0000
 45      0.0014      0.5411      1.7649      0.6036      0.0000      0.0000      0.0000      0.6545      0.0000
 46      0.0013      1.3594      1.6457      3.6017      0.4226      0.0000      1.1141      0.0000      1.2584
 47      0.0000      1.9813      1.5568      0.3720      0.0000      2.8102      2.6742      0.0000      0.0000
 48     30.7119     14.4999     16.3898     19.8871     17.2058     25.1283     19.7682     14.3639     15.5053
 49      7.2209      5.6285      6.9385      7.3773      6.7764      3.2919      7.3016      6.6765      7.7151
 50      0.9874      1.5165      0.5531      1.9640      0.8653      1.8835      0.0000      1.5459      1.6065
 51      0.0000      0.1432      0.5828      0.0000      0.0000      0.0000      0.0542      0.0000      0.0000
 52      0.0000      0.2956      1.3353      0.2376      0.0000      0.0000      0.0000      0.0000      0.1534
 53      0.7206      0.1504      0.0000      1.0745      0.0000      0.0000      0.0000      0.1205      0.0000
 54      0.0000      0.2742      0.0000      0.0000      1.2796      0.8917      0.3895      0.4518      0.3096
 55      0.0000      2.7520      3.0650      2.3039      0.8613      0.0000      3.6441      3.3508      3.0503
 56      0.5816      0.2968      0.0000      0.8138      0.1160      0.4074      0.8638      1.0564      0.8258
 57      0.4175      1.5684      0.8352      3.0000      2.3228      1.4641      2.2882      1.0398      1.9637
 58      0.6895      0.2389      0.0000      0.8869      0.0000      0.7406      0.0000      0.8896      0.0000
 59      0.0000      0.2805      0.0000      0.1862      0.0000      0.0000      0.0000      0.2238      0.8185
 60      0.0000      0.2917      0.0000      0.0000      0.0000      0.0000      0.0000      2.2105      0.0000
 61      0.0000      1.1867      0.0000      0.0000      0.0655      0.0000      0.0986      0.0000      0.0000
 62      0.0000      2.9346      1.3355      0.0000      7.4209      1.1736      1.2728      1.4894      3.3161
 63      0.0118      9.5205     10.9079     10.4742      8.9798     11.0302      8.0374     12.9199     10.9298
 64      3.6349      1.7332      1.1051      3.0567      1.2763      0.0000      0.6463      0.0038      2.6987
 65      0.0000      0.2981      0.0000      0.0000      0.9233      0.0000      1.2181      1.7386      0.0000
 66      0.0000      0.2341      0.7431      0.0000      0.0000      0.2532      0.0000      0.0000      0.0000

# j      m_j: min, <> & last-chain-values for 1 ...  7 chains
  1  0.0000E+00  1.3609E-03  9.0329E-03  0.0000E+00  5.5131E-03  0.0000E+00  0.0000E+00  0.0000E+00  8.4721E-03
  2  2.6036E-04  6.9863E-04  0.0000E+00  1.8803E-03  1.3695E-03  0.0000E+00  0.0000E+00  1.6473E-03  0.0000E+00
  3  0.0000E+00  9.6686E-04  0.0000E+00  0.0000E+00  0.0000E+00  4.4946E-03  6.6491E-04  2.8851E-03  0.0000E+00
  4  0.0000E+00  2.3930E-03  2.2828E-03  0.0000E+00  7.0441E-03  1.1560E-03  3.8729E-03  4.9458E-03  2.2849E-03
  5  0.0000E+00  9.1938E-04  0.0000E+00  0.0000E+00  2.7669E-03  4.1899E-04  0.0000E+00  0.0000E+00  0.0000E+00
  6  0.0000E+00  3.8676E-03  8.5515E-03  0.0000E+00  0.0000E+00  1.0210E-02  0.0000E+00  9.1309E-03  0.0000E+00
  7  4.3208E-05  6.6090E-03  1.4028E-03  1.9745E-02  7.6908E-03  8.7614E-04  4.8251E-03  1.0628E-02  8.4329E-03
  8  0.0000E+00  8.2098E-03  1.3741E-02  0.0000E+00  3.9012E-02  1.0550E-02  3.9803E-04  0.0000E+00  0.0000E+00
  9  0.0000E+00  8.3547E-03  0.0000E+00  1.7911E-03  0.0000E+00  0.0000E+00  0.0000E+00  0.0000E+00  0.0000E+00
 10  0.0000E+00  5.1999E-03  0.0000E+00  0.0000E+00  6.0714E-04  3.2644E-03  0.0000E+00  0.0000E+00  1.0064E-02
 11  0.0000E+00  1.2398E-02  2.4682E-03  0.0000E+00  0.0000E+00  0.0000E+00  0.0000E+00  0.0000E+00  5.2430E-02
 12  0.0000E+00  2.0302E-02  1.1165E-03  0.0000E+00  0.0000E+00  0.0000E+00  0.0000E+00  0.0000E+00  0.0000E+00
 13  0.0000E+00  2.0564E-01  3.3997E-01  0.0000E+00  2.1582E-01  0.0000E+00  0.0000E+00  0.0000E+00  7.3205E-01
 14  5.6503E+00  3.7946E+00  3.7326E+00  2.3192E+00  1.7389E+00  2.5949E+00  0.0000E+00  5.8709E+00  3.2081E+00
 15  1.0369E+01  6.5647E+00  7.4846E+00  1.2768E+01  7.0847E+00  8.2371E+00  6.2874E+00  5.3436E+00  4.7149E+00
 16  1.0024E+01  1.5750E+01  1.1173E+01  1.4626E+01  1.3787E+01  5.8411E+00  1.8639E+01  1.5465E+01  1.7389E+01
 17  0.0000E+00  6.3399E+00  9.6385E+00  0.0000E+00  9.2269E+00  1.3985E+01  1.0948E+01  6.6921E+00  5.5775E+00
 18  0.0000E+00  1.9287E-03  0.0000E+00  8.3416E-04  9.7103E-04  0.0000E+00  0.0000E+00  0.0000E+00  3.5812E-03
 19  2.5931E-05  4.4176E-04  0.0000E+00  1.1110E-03  0.0000E+00  0.0000E+00  0.0000E+00  1.6300E-03  4.0654E-05
 20  0.0000E+00  1.0548E-03  0.0000E+00  0.0000E+00  0.0000E+00  2.0122E-03  1.1232E-03  0.0000E+00  0.0000E+00
 21  0.0000E+00  6.5922E-04  4.4118E-04  0.0000E+00  1.4899E-03  0.0000E+00  0.0000E+00  0.0000E+00  5.1101E-04
 22  0.0000E+00  2.1200E-03  2.1680E-03  0.0000E+00  3.1811E-03  9.9379E-03  0.0000E+00  0.0000E+00  0.0000E+00
 23  0.0000E+00  1.4924E-03  1.0144E-02  0.0000E+00  2.1810E-03  0.0000E+00  4.9445E-03  0.0000E+00  0.0000E+00
 24  3.7136E-02  9.0527E-03  0.0000E+00  1.3017E-02  3.6648E-03  1.0413E-02  3.9622E-02  2.8142E-02  1.8181E-03
 25  2.2982E-02  8.6496E-03  1.4470E-02  2.0693E-02  0.0000E+00  0.0000E+00  4.4748E-02  0.0000E+00  0.0000E+00
 26  0.0000E+00  4.6768E-03  0.0000E+00  0.0000E+00  0.0000E+00  0.0000E+00  0.0000E+00  0.0000E+00  0.0000E+00
 27  0.0000E+00  7.5065E-03  0.0000E+00  0.0000E+00  0.0000E+00  3.7637E-02  3.9222E-03  0.0000E+00  0.0000E+00
 28  0.0000E+00  4.2989E-02  1.7248E-02  0.0000E+00  0.0000E+00  0.0000E+00  0.0000E+00  1.8377E-03  2.3927E-01
 29  0.0000E+00  3.3864E-01  0.0000E+00  2.6992E-01  0.0000E+00  1.9173E-01  0.0000E+00  0.0000E+00  0.0000E+00
 30  0.0000E+00  6.8227E-01  8.2255E-01  0.0000E+00  0.0000E+00  2.6108E-01  0.0000E+00  1.3605E+00  0.0000E+00
 31  0.0000E+00  1.3337E+00  0.0000E+00  0.0000E+00  4.9534E-01  5.1561E-01  1.7726E+00  0.0000E+00  6.8437E-02
 32  0.0000E+00  1.2615E+00  1.5994E-01  6.5627E-03  2.3939E+00  1.0693E+00  0.0000E+00  0.0000E+00  1.2552E+00
 33  1.7211E+01  1.0878E+01  1.5274E+01  8.7008E+00  1.1615E+01  1.3040E+01  1.3469E+01  1.0747E+01  8.7269E+00
 34  0.0000E+00  8.0852E-01  0.0000E+00  0.0000E+00  0.0000E+00  0.0000E+00  5.3383E-01  0.0000E+00  2.7212E+00
 35  0.0000E+00  1.3080E-03  5.0352E-03  7.2906E-04  1.5549E-03  3.7506E-03  1.9394E-03  0.0000E+00  0.0000E+00
 36  0.0000E+00  5.4370E-04  0.0000E+00  0.0000E+00  0.0000E+00  0.0000E+00  0.0000E+00  0.0000E+00  4.0589E-03
 37  0.0000E+00  3.6569E-04  0.0000E+00  0.0000E+00  1.0607E-03  3.2557E-03  0.0000E+00  2.9999E-04  0.0000E+00
 38  6.0726E-02  2.0775E-02  2.6583E-02  2.3259E-02  2.7510E-02  2.4545E-02  2.3979E-02  2.0524E-02  2.0188E-02
 39  1.4644E-02  1.5348E-02  1.1619E-02  2.3143E-02  1.9014E-02  1.4706E-02  0.0000E+00  8.8607E-03  2.0142E-02
 40  1.0025E-02  2.9670E-03  0.0000E+00  1.2574E-02  2.9134E-03  4.7990E-03  5.5067E-03  1.6226E-02  1.1338E-02
 41  0.0000E+00  6.8185E-03  3.9011E-03  8.3374E-03  0.0000E+00  4.0594E-02  2.4825E-03  0.0000E+00  0.0000E+00
 42  0.0000E+00  7.1014E-03  0.0000E+00  0.0000E+00  0.0000E+00  2.8089E-02  0.0000E+00  0.0000E+00  0.0000E+00
 43  0.0000E+00  8.0802E-03  0.0000E+00  0.0000E+00  0.0000E+00  0.0000E+00  4.9783E-02  0.0000E+00  0.0000E+00
 44  0.0000E+00  2.1461E-02  0.0000E+00  0.0000E+00  1.0053E-01  0.0000E+00  0.0000E+00  0.0000E+00  0.0000E+00
 45  2.0802E-04  8.3660E-02  2.6192E-01  9.1712E-02  0.0000E+00  0.0000E+00  0.0000E+00  9.8019E-02  0.0000E+00
 46  3.4118E-04  3.8631E-01  4.4892E-01  1.0058E+00  1.1753E-01  0.0000E+00  2.8769E-01  0.0000E+00  3.4647E-01
 47  0.0000E+00  1.1409E+00  8.6056E-01  2.1052E-01  0.0000E+00  1.6243E+00  1.3993E+00  0.0000E+00  0.0000E+00
 48  2.9326E+01  1.4725E+01  1.5978E+01  1.9847E+01  1.7100E+01  2.5615E+01  1.8242E+01  1.4131E+01  1.5256E+01
 49  1.5671E+01  1.2991E+01  1.5373E+01  1.6733E+01  1.5306E+01  7.6264E+00  1.5314E+01  1.4928E+01  1.7253E+01
 50  3.9690E+00  6.4830E+00  2.2698E+00  8.2505E+00  3.6201E+00  8.0819E+00  0.0000E+00  6.4019E+00  6.6538E+00
 51  0.0000E+00  3.3548E-04  1.3109E-03  0.0000E+00  0.0000E+00  0.0000E+00  1.1532E-04  0.0000E+00  0.0000E+00
 52  0.0000E+00  3.5499E-04  1.5393E-03  2.8039E-04  0.0000E+00  0.0000E+00  0.0000E+00  0.0000E+00  1.7848E-04
 53  1.2256E-03  2.7204E-04  0.0000E+00  1.9099E-03  0.0000E+00  0.0000E+00  0.0000E+00  2.1108E-04  0.0000E+00
 54  0.0000E+00  1.0164E-03  0.0000E+00  0.0000E+00  4.6413E-03  3.3175E-03  1.3117E-03  1.6224E-03  1.1120E-03
 55  0.0000E+00  1.5705E-02  1.6791E-02  1.2921E-02  4.8105E-03  0.0000E+00  1.8897E-02  1.8525E-02  1.6866E-02
 56  6.1770E-03  3.3523E-03  0.0000E+00  9.0335E-03  1.2827E-03  4.6186E-03  8.8656E-03  1.1560E-02  9.0377E-03
 57  5.8849E-03  2.3513E-02  1.2019E-02  4.4197E-02  3.4078E-02  2.2032E-02  3.1171E-02  1.5101E-02  2.8523E-02
 58  1.6441E-02  6.0584E-03  0.0000E+00  2.2100E-02  0.0000E+00  1.8849E-02  0.0000E+00  2.1853E-02  0.0000E+00
 59  0.0000E+00  1.5307E-02  0.0000E+00  9.9854E-03  0.0000E+00  0.0000E+00  0.0000E+00  1.1833E-02  4.3276E-02
 60  0.0000E+00  2.9570E-02  0.0000E+00  0.0000E+00  0.0000E+00  0.0000E+00  0.0000E+00  2.1705E-01  0.0000E+00
 61  0.0000E+00  2.6281E-01  0.0000E+00  0.0000E+00  1.4205E-02  0.0000E+00  1.9846E-02  0.0000E+00  0.0000E+00
 62  0.0000E+00  1.1850E+00  5.1768E-01  0.0000E+00  2.9326E+00  4.7568E-01  4.6703E-01  5.8262E-01  1.2974E+00
 63  8.9312E-03  7.6487E+00  8.4123E+00  8.2694E+00  7.0603E+00  8.8950E+00  5.8676E+00  1.0055E+01  8.5078E+00
 64  7.5948E+00  3.8515E+00  2.3572E+00  6.6749E+00  2.7755E+00  0.0000E+00  1.3050E+00  8.2865E-03  5.8103E+00
 65  0.0000E+00  1.4003E+00  0.0000E+00  0.0000E+00  4.2442E+00  0.0000E+00  5.1991E+00  7.9115E+00  0.0000E+00
 66  0.0000E+00  1.5533E+00  4.7333E+00  0.0000E+00  0.0000E+00  1.6865E+00  0.0000E+00  0.0000E+00  0.0000E+00

# AV, chi2 & Mass for <> & i_chain = 1 ...  7 solutions
AV       0.0385      0.1050      0.0880      0.0824      0.1048      0.1098      0.0815      0.1172      0.1004
chi2 4.7814E-01  4.8351E-01  4.8163E-01  4.8145E-01  4.8212E-01  4.8171E-01  4.8188E-01  4.8299E-01  4.8217E-01
Mass 5.0777E-13  5.2204E-13  5.3157E-13  5.1531E-13  5.3330E-13  5.2343E-13  5.5662E-13  5.4781E-13  5.3546E-13
  47.12                                  [v0_min (km/s) before EX0s...]
 120.18                                  [vd_min (km/s) before EX0s...]


## Synthetic spectrum (Best Model) ##l_obs f_obs f_syn wei
 3478    [Nl_obs]
 3741.00    0.93121   0.70927    0.000
 3742.00    0.86854   0.71221    0.000
 3743.00    0.82725   0.69102    0.000
 3744.00    0.82561   0.65709    0.000
 3745.00    0.75730   0.61986   13.205
 3746.00    0.61056   0.58380   16.378
 3747.00    0.45770   0.54920   18.882
 3748.00    0.36119   0.51523   18.882
 3749.00    0.36078   0.49058   18.882
 3750.00    0.47855   0.49136   18.882
 3751.00    0.69491   0.52526   14.390
 3752.00    0.91684   0.58372   -1.000
 3753.00    1.03299   0.64989   -1.000
 3754.00    0.99379   0.70863   -1.000
 3755.00    0.84805   0.74685   11.792
 3756.00    0.76000   0.75471   13.158
 3757.00    0.83763   0.73262   11.938
 3758.00    0.96511   0.69729   10.362
 3759.00    1.00469   0.67295   -1.000
 3760.00    0.99258   0.67081   -1.000
 3761.00    0.97153   0.68395   -1.000
 3762.00    0.85177   0.69844   11.740
 3763.00    0.62165   0.70485   16.086
 3764.00    0.48636   0.70344   -1.000
 3765.00    0.56739   0.69692   17.624
 3766.00    0.70912   0.68364   14.102
 3767.00    0.70932   0.66524   14.098
 3768.00    0.49552   0.64833   18.882
 3769.00    0.20783   0.63614   -1.000
 3770.00    0.16335   0.63060   -1.000
 3771.00    0.42967   0.63782   -1.000
 3772.00    0.69391   0.66098   14.411
 3773.00    0.75923   0.69348   13.171
 3774.00    0.73189   0.72467   13.663
 3775.00    0.74062   0.74844   13.502
 3776.00    0.81306   0.76633   12.299
 3777.00    0.90571   0.78283   11.041
 3778.00    0.94379   0.80076   10.596
 3779.00    0.91139   0.82144   10.972
 3780.00    0.85980   0.84277   11.631
 3781.00    0.82800   0.86002   12.077
 3782.00    0.83014   0.87062   12.046
 3783.00    0.89650   0.87424   11.155
 3784.00    1.04618   0.86860    9.559
 3785.00    1.18648   0.84898    8.428
 3786.00    1.18913   0.81564   -1.000
 3787.00    1.12961   0.77834   -1.000
 3788.00    1.18508   0.74753   -1.000
 3789.00    1.29627   0.72826   -1.000
 3790.00    1.27771   0.72053   -1.000
 3791.00    1.17173   0.71914   -1.000
 3792.00    1.15691   0.71431   -1.000
 3793.00    1.26353   0.69810   -1.000
 3794.00    1.37837   0.66974   -1.000
 3795.00    1.34189   0.63420   -1.000
 3796.00    1.08858   0.59729   -1.000
 3797.00    0.81271   0.56403   -1.000
 3798.00    0.74637   0.54390   13.398
 3799.00    0.84728   0.54931   -1.000
 3800.00    0.94901   0.58425   -1.000
 3801.00    0.98727   0.63910   -1.000
 3802.00    0.98392   0.69821   -1.000
 3803.00    0.99464   0.74861   10.054
 3804.00    1.03565   0.78159    9.656
 3805.00    1.03023   0.79468    9.707
 3806.00    0.94144   0.79291   10.622
 3807.00    0.87468   0.78846   11.433
 3808.00    0.89791   0.79403   11.137
 3809.00    0.91287   0.81118   10.954
 3810.00    0.84346   0.82982   11.856
 3811.00    0.76261   0.83690   13.113
 3812.00    0.75589   0.82461   13.229
 3813.00    0.82907   0.79529   12.062
 3814.00    0.93988   0.75983   10.640
 3815.00    1.02807   0.73001   -1.000
 3816.00    1.05524   0.71344   -1.000
 3817.00    1.02098   0.70868   -1.000
 3818.00    0.93591   0.70328   10.685
 3819.00    0.80927   0.68695   12.357
 3820.00    0.65571   0.66542   15.251
 3821.00    0.50128   0.65426   18.882
 3822.00    0.39387   0.65860   -1.000
 3823.00    0.38424   0.66598   -1.000
 3824.00    0.44485   0.66104   -1.000
 3825.00    0.48899   0.64249   18.882
 3826.00    0.52879   0.62087   18.882
 3827.00    0.65038   0.60591   15.376
 3828.00    0.78755   0.59915   12.698
 3829.00    0.76923   0.59583   13.000
 3830.00    0.62475   0.58891   16.006
 3831.00    0.53390   0.57123   18.730
 3832.00    0.50771   0.54126   18.882
 3833.00    0.42339   0.50653   18.882
 3834.00    0.27228   0.47825   -1.000
 3835.00    0.15088   0.46473   -1.000
 3836.00    0.13167   0.46696   -1.000
 3837.00    0.22831   0.47833   -1.000
 3838.00    0.38327   0.49325   18.882
 3839.00    0.51715   0.51267   18.882
 3840.00    0.61046   0.54038   16.381
 3841.00    0.68454   0.57951   14.608
 3842.00    0.75382   0.62786   13.266
 3843.00    0.82395   0.67595   12.137
 3844.00    0.89843   0.71475   11.130
 3845.00    0.97743   0.74071   10.231
 3846.00    1.05541   0.75597    9.475
 3847.00    1.12341   0.76476    0.000
 3848.00    1.17069   0.76724    0.000
 3849.00    1.17273   0.76296    0.000
 3850.00    1.08684   0.75706    0.000
 3851.00    0.92796   0.75714    0.000
 3852.00    0.82056   0.76344    0.000
 3853.00    0.84779   0.76826    0.000
 3854.00    0.93679   0.76512    0.000
 3855.00    0.96555   0.75315    0.000
 3856.00    0.85889   0.73651    0.000
 3857.00    0.65075   0.71967    0.000
 3858.00    0.49342   0.70261    0.000
 3859.00    0.47767   0.68724    0.000
 3860.00    0.54864   0.68240    0.000
 3861.00    0.66142   0.69589    0.000
 3862.00    0.84325   0.72472    0.000
 3863.00    1.05490   0.75532    0.000
 3864.00    1.16325   0.77461    0.000
 3865.00    1.14038   0.77934    0.000
 3866.00    1.10386   0.77532    0.000
 3867.00    1.10518   0.76903    0.000
 3868.00    1.08281   0.76213    0.000
 3869.00    1.01780   0.75184    0.000
 3870.00    0.96547   0.73467    0.000
 3871.00    0.96248   0.71336    0.000
 3872.00    0.99382   0.69724    0.000
 3873.00    0.99305   0.69691    0.000
 3874.00    0.88746   0.71327    0.000
 3875.00    0.71534   0.73389    0.000
 3876.00    0.59230   0.74279    0.000
 3877.00    0.55132   0.73357    0.000
 3878.00    0.54284   0.71412    0.000
 3879.00    0.52492   0.69889    0.000
 3880.00    0.48972   0.69291    0.000
 3881.00    0.47266   0.69011   -1.000
 3882.00    0.50989   0.68580   -1.000
 3883.00    0.56156   0.68013   17.808
 3884.00    0.56980   0.67067   17.550
 3885.00    0.57233   0.64984   17.472
 3886.00    0.62798   0.61595   15.924
 3887.00    0.68325   0.57876   14.636
 3888.00    0.65187   0.55199   15.340
 3889.00    0.54666   0.54725   18.293
 3890.00    0.45391   0.56982   18.882
 3891.00    0.47361   0.61334   18.882
 3892.00    0.63194   0.66335   15.824
 3893.00    0.80447   0.70475   12.430
 3894.00    0.85822   0.73083   11.652
 3895.00    0.79788   0.74513   12.533
 3896.00    0.70645   0.75625   14.155
 3897.00    0.67028   0.76790   14.919
 3898.00    0.71184   0.77702   14.048
 3899.00    0.75339   0.78271   13.273
 3900.00    0.73357   0.78798   13.632
 3901.00    0.68613   0.79502   14.574
 3902.00    0.65465   0.79982   15.275
 3903.00    0.63824   0.79816   15.668
 3904.00    0.64406   0.79087   15.526
 3905.00    0.70710   0.78188   14.142
 3906.00    0.80598   0.78003   12.407
 3907.00    0.84475   0.79268   11.838
 3908.00    0.80482   0.81768   12.425
 3909.00    0.78549   0.84637   12.731
 3910.00    0.82880   0.86979   12.066
 3911.00    0.86839   0.88476   11.516
 3912.00    0.86039   0.89213   11.623
 3913.00    0.82774   0.89269   12.081
 3914.00    0.81352   0.88778   12.292
 3915.00    0.84850   0.87918   11.785
 3916.00    0.90659   0.86719   11.030
 3917.00    0.92128   0.85225   10.854
 3918.00    0.87979   0.83310   11.366
 3919.00    0.82814   0.80937   12.075
 3920.00    0.80385   0.78462   12.440
 3921.00    0.81580   0.76552   12.258
 3922.00    0.84306   0.75717   11.862
 3923.00    0.84757   0.75746   11.798
 3924.00    0.80301   0.75851   12.453
 3925.00    0.71261   0.75036   14.033
 3926.00    0.62942   0.72785   15.888
 3927.00    0.60953   0.69228   16.406
 3928.00    0.62202   0.64812   16.077
 3929.00    0.59631   0.60082   16.770
 3930.00    0.52736   0.55356   18.882
 3931.00    0.45777   0.50799   18.882
 3932.00    0.42308   0.46674   18.882
 3933.00    0.43379   0.43513   18.882
 3934.00    0.46368   0.42090   18.882
 3935.00    0.47331   0.42959   18.882
 3936.00    0.44215   0.46060   18.882
 3937.00    0.38117   0.50763   18.882
 3938.00    0.34006   0.56164   -1.000
 3939.00    0.37692   0.61409   -1.000
 3940.00    0.52252   0.65774   18.882
 3941.00    0.74100   0.68783   13.495
 3942.00    0.91014   0.70474   10.987
 3943.00    0.94432   0.71347   10.590
 3944.00    0.88857   0.72297   11.254
 3945.00    0.82536   0.74162   12.116
 3946.00    0.79830   0.76824   12.527
 3947.00    0.81899   0.79381   12.210
 3948.00    0.87773   0.81280   11.393
 3949.00    0.95890   0.82727   10.429
 3950.00    1.04788   0.84053    9.543
 3951.00    1.11735   0.85127    8.950
 3952.00    1.13090   0.85618    8.843
 3953.00    1.10155   0.85725    9.078
 3954.00    1.09812   0.85798    9.106
 3955.00    1.13417   0.85611    8.817
 3956.00    1.14411   0.84888    8.740
 3957.00    1.10355   0.83861    9.062
 3958.00    1.05694   0.82825    9.461
 3959.00    1.02535   0.81443    9.753
 3960.00    0.98354   0.78787    0.000
 3961.00    0.90594   0.74434    0.000
 3962.00    0.79120   0.69158    0.000
 3963.00    0.68496   0.64022    0.000
 3964.00    0.65020   0.59254    0.000
 3965.00    0.66819   0.54343    0.000
 3966.00    0.66481   0.48801    0.000
 3967.00    0.64500   0.42917    0.000
 3968.00    0.66167   0.37768    0.000
 3969.00    0.66945   0.34672    0.000
 3970.00    0.58087   0.34555    0.000
 3971.00    0.44743   0.37503    0.000
 3972.00    0.39462   0.42763    0.000
 3973.00    0.43307   0.49225    0.000
 3974.00    0.48812   0.55988    0.000
 3975.00    0.51075   0.62511    0.000
 3976.00    0.50398   0.68481    0.000
 3977.00    0.52955   0.73857    0.000
 3978.00    0.63528   0.78710    0.000
 3979.00    0.75885   0.82931    0.000
 3980.00    0.80586   0.86168    0.000
 3981.00    0.76382   0.88046   13.092
 3982.00    0.69278   0.88709   14.434
 3983.00    0.69153   0.88902   14.461
 3984.00    0.81152   0.89371   12.323
 3985.00    0.98066   0.90424   10.197
 3986.00    1.09888   0.91848    9.100
 3987.00    1.13455   0.93347    8.814
 3988.00    1.11801   0.94730    8.945
 3989.00    1.11863   0.95685    8.940
 3990.00    1.16222   0.96290    8.604
 3991.00    1.18330   0.96888    8.451
 3992.00    1.13694   0.97580    8.796
 3993.00    1.06806   0.98112    9.363
 3994.00    1.03171   0.97950    9.693
 3995.00    1.04031   0.96996    9.613
 3996.00    1.07178   0.95648    9.330
 3997.00    1.08332   0.94624    9.231
 3998.00    1.04911   0.94665    9.532
 3999.00    0.97809   0.96069   10.224
 4000.00    0.90434   0.98296   11.058
 4001.00    0.86983   1.00402   11.496
 4002.00    0.87421   1.01612   11.439
 4003.00    0.87441   1.01363   11.436
 4004.00    0.86449   0.99447   11.567
 4005.00    0.88456   0.96541   11.305
 4006.00    0.94362   0.94264   10.598
 4007.00    1.00235   0.93891    9.976
 4008.00    1.00726   0.95318    9.927
 4009.00    0.93386   0.97467   10.711
 4010.00    0.87217   0.99363   11.469
 4011.00    0.95580   1.00728   10.456
 4012.00    1.12552   1.01675    8.879
 4013.00    1.19782   1.02454    8.361
 4014.00    1.16023   1.03114    8.632
 4015.00    1.13587   1.03657    8.762
 4016.00    1.16541   1.03942    8.550
 4017.00    1.20198   1.03928    8.431
 4018.00    1.19152   1.03991    8.463
 4019.00    1.11367   1.04358    8.621
 4020.00    1.02105   1.04733    9.581
 4021.00    0.97651   1.04685   11.899
 4022.00    0.95045   1.03998   11.152
 4023.00    0.89245   1.02814    6.778
 4024.00    0.84890   1.01498    4.662
 4025.00    0.89020   1.00686    4.250
 4026.00    1.00000   1.00921    4.487
 4027.00    1.10927   1.02070    4.635
 4028.00    1.15395   1.03146    4.568
 4029.00    1.10497   1.02809    4.525
 4030.00    0.99045   1.00448    4.569
 4031.00    0.86746   0.96924    4.655
 4032.00    0.79098   0.93777    4.729
 4033.00    0.79579   0.92174    4.745
 4034.00    0.88139   0.92668    4.691
 4035.00    0.99923   0.95122    4.590
 4036.00    1.05739   0.98997    4.494
 4037.00    1.02086   1.03234    4.453
 4038.00    0.96609   1.06496    4.498
 4039.00    0.96780   1.07951    4.583
 4040.00    1.02819   1.07660    4.572
 4041.00    1.10932   1.06371    4.453
 4042.00    1.16348   1.04555    4.398
 4043.00    1.17951   1.01758    4.444
 4044.00    1.19107   0.97591    4.422
 4045.00    1.20184   0.92999    4.300
 4046.00    1.16797   0.90234    4.264
 4047.00    1.07903   0.91049    4.399
 4048.00    0.98087   0.94882    4.624
 4049.00    0.92383   0.99665    4.798
 4050.00    0.93245   1.03459    4.802
 4051.00    0.97517   1.05351    4.703
 4052.00    0.98661   1.05414    4.682
 4053.00    0.96907   1.04218    4.741
 4054.00    0.98307   1.02406    4.730
 4055.00    1.02806   1.00567    4.667
 4056.00    1.04518   0.99064    4.711
 4057.00    1.01460   0.97959    4.865
 4058.00    0.96692   0.97521    4.975
 4059.00    0.94767   0.97984    4.942
 4060.00    0.98555   0.98880    4.801
 4061.00    1.04612   0.99042    4.679
 4062.00    1.07167   0.97476    4.678
 4063.00    1.07359   0.94627    4.748
 4064.00    1.09815   0.92330    4.759
 4065.00    1.13784   0.92079    4.675
 4066.00    1.15181   0.93699    4.570
 4067.00    1.12218   0.96191    4.571
 4068.00    1.05767   0.98587    4.741
 4069.00    0.98493   1.00148    4.930
 4070.00    0.93220   1.00284    4.936
 4071.00    0.91015   0.99052    4.860
 4072.00    0.91650   0.97668    4.862
 4073.00    0.94386   0.97321    4.841
 4074.00    0.97490   0.97653    4.694
 4075.00    0.97985   0.97290    4.585
 4076.00    0.95249   0.95447    4.633
 4077.00    0.93865   0.93040    4.698
 4078.00    0.97341   0.92030    4.646
 4079.00    1.02940   0.93568    4.587
 4080.00    1.06525   0.97137    4.634
 4081.00    1.06583   1.01000    4.718
 4082.00    1.02958   1.03368    4.766
 4083.00    0.95952   1.03694    4.830
 4084.00    0.87764   1.02793    4.953
 4085.00    0.82833   1.02109    5.080
 4086.00    0.84045   1.02692    5.152
 4087.00    0.90798   1.04593    5.171
 4088.00    1.00926   1.06933    5.138
 4089.00    1.11792   1.08588    5.033
 4090.00    1.20185   1.08907    4.885
 4091.00    1.22924   1.08020    4.776
 4092.00    1.19666   1.06462    0.000
 4093.00    1.13391   1.04717    0.000
 4094.00    1.07401   1.02705    0.000
 4095.00    1.03538   0.99996    0.000
 4096.00    1.00369   0.96649    0.000
 4097.00    0.94553   0.93062    0.000
 4098.00    0.87129   0.89473    0.000
 4099.00    0.82819   0.85595    0.000
 4100.00    0.82146   0.81145    0.000
 4101.00    0.81391   0.76805    0.000
 4102.00    0.78639   0.74351    0.000
 4103.00    0.75130   0.75142    0.000
 4104.00    0.74441   0.79012    0.000
 4105.00    0.79333   0.84535    0.000
 4106.00    0.85719   0.89935    0.000
 4107.00    0.86802   0.93992    0.000
 4108.00    0.83389   0.96358    0.000
 4109.00    0.81651   0.97269    0.000
 4110.00    0.85554   0.97435    0.000
 4111.00    0.94383   0.97678    0.000
 4112.00    1.01375   0.98538    0.000
 4113.00    1.00806   1.00136    5.169
 4114.00    0.97855   1.02087    5.274
 4115.00    0.99391   1.03781    5.207
 4116.00    1.00838   1.04675    5.126
 4117.00    0.95751   1.04429    5.233
 4118.00    0.88421   1.03140    5.390
 4119.00    0.85119   1.01502    5.401
 4120.00    0.83834   1.00368    5.410
 4121.00    0.81686   1.00103    5.559
 4122.00    0.82379   1.00612    5.627
 4123.00    0.88184   1.01573    5.453
 4124.00    0.93352   1.02717    5.332
 4125.00    0.93687   1.03686    5.456
 4126.00    0.93547   1.03950    5.610
 4127.00    0.96930   1.03326    5.572
 4128.00    1.01285   1.02050    5.472
 4129.00    1.02559   1.00580    5.464
 4130.00    0.99069   0.99039    5.540
 4131.00    0.92884   0.97360    5.639
 4132.00    0.89331   0.95672    5.722
 4133.00    0.90536   0.94745    5.761
 4134.00    0.93125   0.95242    5.754
 4135.00    0.94402   0.97337    5.740
 4136.00    0.94918   1.00357    5.784
 4137.00    0.95997   1.03210    5.864
 4138.00    0.98337   1.05329    5.862
 4139.00    1.01177   1.06312    5.789
 4140.00    1.02501   1.05884    5.802
 4141.00    1.00870   1.03695    5.930
 4142.00    0.96260   0.99816    6.044
 4143.00    0.90501   0.95513    6.081
 4144.00    0.86413   0.92823    6.090
 4145.00    0.84931   0.93029    6.080
 4146.00    0.85136   0.95559    6.013
 4147.00    0.86585   0.98647    5.925
 4148.00    0.89426   1.00663    5.897
 4149.00    0.93138   1.01161    5.932
 4150.00    0.96615   1.00714    5.962
 4151.00    0.99023   1.00044    5.919
 4152.00    1.00208   0.99415    5.789
 4153.00    1.01057   0.98820    5.662
 4154.00    1.02342   0.98162    5.637
 4155.00    1.02648   0.97721    5.681
 4156.00    1.00291   0.97804    5.707
 4157.00    0.96858   0.98648    5.715
 4158.00    0.95179   1.00214    5.752
 4159.00    0.95629   1.02097    5.806
 4160.00    0.97338   1.03881    5.843
 4161.00    1.00416   1.05268    5.872
 4162.00    1.04828   1.06262    5.889
 4163.00    1.08858   1.06789    5.814
 4164.00    1.11013   1.06652    5.632
 4165.00    1.12127   1.05813    5.506
 4166.00    1.13493   1.04458    5.535
 4167.00    1.14915   1.03057    5.585
 4168.00    1.15775   1.02115    5.531
 4169.00    1.16191   1.01619    5.475
 4170.00    1.17312   1.00955    5.500
 4171.00    1.21018   0.99427    5.498
 4172.00    1.26364   0.96974    5.396
 4173.00    1.27977   0.94617    5.309
 4174.00    1.23059   0.93466    5.330
 4175.00    1.15192   0.93774    5.433
 4176.00    1.08169   0.94912    5.568
 4177.00    1.02673   0.96078    5.716
 4178.00    0.99624   0.97051    5.824
 4179.00    1.01149   0.98009    5.800
 4180.00    1.05731   0.98901    5.698
 4181.00    1.07692   0.99474    5.710
 4182.00    1.05811   0.99705    5.830
 4183.00    1.05001   0.99965    5.806
 4184.00    1.07164   1.00464    5.635
 4185.00    1.09225   1.00947    5.598
 4186.00    1.09875   1.00760    5.762
 4187.00    1.10599   0.99861    5.924
 4188.00    1.10696   0.99077    5.959
 4189.00    1.07637   0.99113    5.930
 4190.00    1.03060   1.00056    5.924
 4191.00    1.01833   1.01436    5.978
 4192.00    1.04726   1.02840    6.061
 4193.00    1.08679   1.03930    6.105
 4194.00    1.12343   1.04102    6.122
 4195.00    1.15942   1.02888    6.170
 4196.00    1.17963   1.00455    6.212
 4197.00    1.15997   0.97631    6.166
 4198.00    1.09894   0.95290    6.088
 4199.00    1.02068   0.93950    6.097
 4200.00    0.96774   0.93563    6.226
 4201.00    0.97206   0.93763    6.421
 4202.00    1.01215   0.94407    6.554
 4203.00    1.04520   0.95550    6.531
 4204.00    1.06360   0.97212    6.460
 4205.00    1.08162   0.99302    6.483
 4206.00    1.10600   1.01540    6.559
 4207.00    1.13109   1.03529    6.600
 4208.00    1.13910   1.05013    6.666
 4209.00    1.12037   1.05751    6.819
 4210.00    1.09288   1.05880    6.923
 4211.00    1.07226   1.05793    6.861
 4212.00    1.04341   1.05563    6.796
 4213.00    0.99818   1.04837    6.873
 4214.00    0.96736   1.03323    6.984
 4215.00    0.97839   1.01383    6.967
 4216.00    1.02115   1.00266    6.815
 4217.00    1.07164   1.01001    6.616
 4218.00    1.11184   1.03357    6.463
 4219.00    1.12967   1.06238    6.414
 4220.00    1.11783   1.08316    6.479
 4221.00    1.07167   1.08718    6.609
 4222.00    0.99027   1.07010    6.697
 4223.00    0.88980   1.03144    6.713
 4224.00    0.80585   0.97443    6.759
 4225.00    0.76820   0.90887    6.852
 4226.00    0.78502   0.85205    6.858
 4227.00    0.83190   0.82556    6.784
 4228.00    0.86317   0.84303    6.811
 4229.00    0.87678   0.89584    6.914
 4230.00    0.91746   0.95982    6.837
 4231.00    0.98979   1.00962    6.624
 4232.00    1.04631   1.03191    6.590
 4233.00    1.05857   1.03045    6.732
 4234.00    1.03147   1.01726    6.746
 4235.00    0.97257   1.00135    6.624
 4236.00    0.89232   0.98881    6.647
 4237.00    0.83036   0.98368    6.831
 4238.00    0.83391   0.98626    6.941
 4239.00    0.88869   0.99645    6.907
 4240.00    0.93832   1.01236    6.858
 4241.00    0.96542   1.03142    6.858
 4242.00    0.98878   1.05072    6.877
 4243.00    1.02037   1.06875    6.850
 4244.00    1.05634   1.08368    6.742
 4245.00    1.07797   1.08989    6.617
 4246.00    1.07022   1.08257    6.564
 4247.00    1.05059   1.06098    6.575
 4248.00    1.04648   1.03120    6.585
 4249.00    1.05492   1.00302    6.540
 4250.00    1.04982   0.98378    6.431
 4251.00    1.00242   0.97782    6.300
 4252.00    0.91463   0.98199    6.219
 4253.00    0.85123   0.98771    6.258
 4254.00    0.87033   0.99070    6.407
 4255.00    0.94524   0.99417    6.477
 4256.00    1.00917   1.00322   -2.000
 4257.00    1.01298   1.01475   -2.000
 4258.00    0.96387   1.01683   -2.000
 4259.00    0.94411   1.00408   -2.000
 4260.00    1.00251   0.98469   -2.000
 4261.00    1.07694   0.97659   -2.000
 4262.00    1.11169   0.99227   -2.000
 4263.00    1.13776   1.02709   -2.000
 4264.00    1.17585   1.06591   -2.000
 4265.00    1.18066   1.09357   -2.000
 4266.00    1.13652   1.10201   -2.000
 4267.00    1.10086   1.09048   -2.000
 4268.00    1.09789   1.06380   -2.000
 4269.00    1.07790   1.02628   -2.000
 4270.00    1.02600   0.98175   -2.000
 4271.00    0.99379   0.93674   -2.000
 4272.00    0.98258   0.90205    6.271
 4273.00    0.92467   0.88687    6.363
 4274.00    0.83416   0.89216    6.528
 4275.00    0.82053   0.91598    6.642
 4276.00    0.90073   0.95312    6.617
 4277.00    0.97409   0.99447    6.501
 4278.00    0.98238   1.02887    6.433
 4279.00    0.94709   1.04535    6.533
 4280.00    0.91023   1.04268    6.702
 4281.00    0.90716   1.03162    6.681
 4282.00    0.94518   1.02201    6.518
 4283.00    1.00296   1.01780    6.499
 4284.00    1.04427   1.01547    6.662
 4285.00    1.03653   1.00846    6.849
 4286.00    0.98310   0.99626    7.004
 4287.00    0.91217   0.97969    7.183
 4288.00    0.83961   0.95861    7.343
 4289.00    0.77712   0.93495    7.385
 4290.00    0.75979   0.91694    7.365
 4291.00    0.80849   0.91468    7.401
 4292.00    0.86274   0.93040    7.441
 4293.00    0.85028   0.95471    7.377
 4294.00    0.80471   0.97246    7.276
 4295.00    0.79972   0.97650    7.243
 4296.00    0.83657   0.96520    7.219
 4297.00    0.87052   0.93962    7.140
 4298.00    0.86496   0.90303    7.130
 4299.00    0.81905   0.86052    7.278
 4300.00    0.78600   0.82383    7.376
 4301.00    0.80951   0.80270    7.245
 4302.00    0.86135   0.79733    7.106
 4303.00    0.89253   0.80261    7.169
 4304.00    0.88642   0.81061    7.312
 4305.00    0.85541   0.81326    7.351
 4306.00    0.82951   0.80719    7.294
 4307.00    0.81819   0.79262    7.242
 4308.00    0.78940   0.77638    7.268
 4309.00    0.72638   0.77039    7.356
 4310.00    0.66218   0.78171    7.380
 4311.00    0.63925   0.81024    7.289
 4312.00    0.67982   0.85033    7.193
 4313.00    0.77284   0.89677    7.151
 4314.00    0.87537   0.94824    7.098
 4315.00    0.95378   1.00664    7.019
 4316.00    1.00095   1.06955    7.004
 4317.00    1.01546   1.12532    7.076
 4318.00    0.99681   1.16232    7.146
 4319.00    0.96859   1.17499    7.144
 4320.00    0.97070   1.16535    7.086
 4321.00    0.99381   1.13871    7.035
 4322.00    0.98200   1.09881    7.057
 4323.00    0.92739   1.04544    7.147
 4324.00    0.87939   0.98610    7.228
 4325.00    0.86997   0.93703    7.269
 4326.00    0.89653   0.91831    7.294
 4327.00    0.94182   0.94057    7.300
 4328.00    0.98684   0.99216    7.263
 4329.00    1.02780   1.04865    7.203
 4330.00    1.06636   1.08934    0.000
 4331.00    1.07872   1.10988    0.000
 4332.00    1.03937   1.11796    0.000
 4333.00    0.98254   1.12078    0.000
 4334.00    0.96354   1.11921    0.000
 4335.00    0.96487   1.10618    0.000
 4336.00    0.93191   1.07186    0.000
 4337.00    0.86238   1.01231    0.000
 4338.00    0.79584   0.93726    0.000
 4339.00    0.77263   0.86461    0.000
 4340.00    0.80634   0.81398    0.000
 4341.00    0.85798   0.80166    0.000
 4342.00    0.88554   0.82839    0.000
 4343.00    0.90736   0.87944    0.000
 4344.00    0.95386   0.93764    0.000
 4345.00    1.00621   0.99071    0.000
 4346.00    1.02998   1.03282    0.000
 4347.00    1.01678   1.06493    0.000
 4348.00    0.98136   1.08809    0.000
 4349.00    0.95206   1.09828    0.000
 4350.00    0.94386   1.08912    0.000
 4351.00    0.94001   1.06148    7.425
 4352.00    0.92534   1.03059    7.384
 4353.00    0.91135   1.01568    7.417
 4354.00    0.92100   1.02425    7.478
 4355.00    0.97254   1.04995    7.419
 4356.00    1.05445   1.07998    7.232
 4357.00    1.11912   1.10251    7.128
 4358.00    1.13748   1.11270    7.247
 4359.00    1.12579   1.11477    7.551
 4360.00    1.11699   1.11830    7.851
 4361.00    1.13883   1.12955    7.846
 4362.00    1.18741   1.14728    7.553
 4363.00    1.22623   1.16584    7.329
 4364.00    1.23415   1.18031    7.306
 4365.00    1.21914   1.18624    7.350
 4366.00    1.19010   1.17973    7.400
 4367.00    1.14892   1.16201    7.531
 4368.00    1.10255   1.14059    7.698
 4369.00    1.06292   1.12404    7.731
 4370.00    1.03315   1.11502    7.686
 4371.00    1.01307   1.11020    7.791
 4372.00    1.02613   1.10235    7.937
 4373.00    1.09874   1.08621    7.771
 4374.00    1.18967   1.06474    7.426
 4375.00    1.22069   1.04884    7.297
 4376.00    1.18784   1.04961    7.361
 4377.00    1.14242   1.06850    7.366
 4378.00    1.09720   1.09452    7.367
 4379.00    1.03919   1.11170    7.579
 4380.00    0.99031   1.10768    7.853
 4381.00    0.97877   1.07799    7.859
 4382.00    0.97307   1.02486    7.763
 4383.00    0.93187   0.96136    7.891
 4384.00    0.89502   0.91227    8.053
 4385.00    0.92044   0.89804    7.898
 4386.00    0.97961   0.92017    7.648
 4387.00    1.01610   0.96070    7.623
 4388.00    1.03608   0.99840    7.685
 4389.00    1.07022   1.02300    7.608
 4390.00    1.11748   1.03636    7.529
 4391.00    1.15677   1.04680    7.610
 4392.00    1.16716   1.05867    7.687
 4393.00    1.14281   1.06989    7.614
 4394.00    1.10333   1.07835    7.602
 4395.00    1.07505   1.08697    7.798
 4396.00    1.07261   1.10103    7.938
 4397.00    1.08912   1.11892    7.814
 4398.00    1.09412   1.13129    7.672
 4399.00    1.06742   1.13081    7.711
 4400.00    1.02042   1.11769    7.813
 4401.00    0.97479   1.10072    7.850
 4402.00    0.94684   1.08564    7.877
 4403.00    0.94234   1.06714    7.965
 4404.00    0.95539   1.04145    8.086
 4405.00    0.97584   1.01687    8.102
 4406.00    0.99274   1.00524    7.847
 4407.00    0.99162   1.01038    7.504
 4408.00    0.96183   1.03007    7.478
 4409.00    0.93273   1.06082    7.759
 4410.00    0.96566   1.09781    7.838
 4411.00    1.06250   1.13340    7.559
 4412.00    1.15377   1.15777    7.330
 4413.00    1.18463   1.16120    7.315
 4414.00    1.14760   1.14117    7.369
 4415.00    1.08426   1.11030    7.365
 4416.00    1.05991   1.08892    7.277
 4417.00    1.09204   1.08891    7.144
 4418.00    1.15004   1.11011    7.023
 4419.00    1.20875   1.14086    6.928
 4420.00    1.25674   1.16414    6.853
 4421.00    1.28176   1.17044    6.830
 4422.00    1.27186   1.16152    6.916
 4423.00    1.22548   1.14767    7.121
 4424.00    1.15857   1.13830    7.400
 4425.00    1.11277   1.13527    7.650
 4426.00    1.12627   1.13642    7.762
 4427.00    1.18238   1.13871    7.746
 4428.00    1.23177   1.14078    7.699
 4429.00    1.24192   1.14108    7.678
 4430.00    1.20486   1.13804    7.713
 4431.00    1.13645   1.13432    7.848
 4432.00    1.06831   1.12915    8.052
 4433.00    1.03569   1.11862    8.093
 4434.00    1.05179   1.10315    7.844
 4435.00    1.08294   1.08955    7.635
 4436.00    1.09279   1.08994    7.718
 4437.00    1.08962   1.11029    7.878
 4438.00    1.09589   1.14280    7.855
 4439.00    1.11480   1.17164    7.812
 4440.00    1.13541   1.18154    7.939
 4441.00    1.14184   1.16921    8.092
 4442.00    1.12954   1.14517    8.126
 4443.00    1.11503   1.12611    8.168
 4444.00    1.11627   1.12501    8.254
 4445.00    1.13820   1.14280    8.110
 4446.00    1.17625   1.16825    7.635
 4447.00    1.21874   1.18888    7.124
 4448.00    1.24445   1.20033    6.861
 4449.00    1.22887   1.20235    6.982
 4450.00    1.18486   1.19706    7.341
 4451.00    1.16867   1.18829    7.405
 4452.00    1.20323   1.17478    7.118
 4453.00    1.25222   1.15349    7.121
 4454.00    1.27409   1.12504    7.645
 4455.00    1.25019   1.09528    8.280
 4456.00    1.19679   1.07375    8.588
 4457.00    1.15604   1.06387    8.624
 4458.00    1.14887   1.06172    8.617
 4459.00    1.16260   1.06183    8.707
 4460.00    1.16737   1.06154    8.853
 4461.00    1.13710   1.06198    0.000
 4462.00    1.09209   1.06894    0.000
 4463.00    1.08030   1.08666    0.000
 4464.00    1.09687   1.10947    0.000
 4465.00    1.09428   1.12938    0.000
 4466.00    1.05747   1.14127    0.000
 4467.00    1.01098   1.14324    0.000
 4468.00    0.99387   1.13811    0.000
 4469.00    1.03372   1.13103    0.000
 4470.00    1.10910   1.12904    0.000
 4471.00    1.17603   1.13690    0.000
 4472.00    1.22621   1.15571    0.000
 4473.00    1.26949   1.18232    0.000
 4474.00    1.29113   1.20937    0.000
 4475.00    1.27632   1.23111    0.000
 4476.00    1.25288   1.24660    0.000
 4477.00    1.25196   1.25491    0.000
 4478.00    1.25191   1.25168    0.000
 4479.00    1.22221   1.23301    0.000
 4480.00    1.18131   1.20175    0.000
 4481.00    1.16063   1.16988    0.000
 4482.00    1.16004   1.15268    9.242
 4483.00    1.16482   1.15946    9.236
 4484.00    1.16735   1.18575    9.196
 4485.00    1.17154   1.21763    9.173
 4486.00    1.19188   1.24046    9.101
 4487.00    1.22580   1.24454    8.970
 4488.00    1.23769   1.23017    8.945
 4489.00    1.20804   1.20727    9.106
 4490.00    1.16444   1.18901    9.308
 4491.00    1.14043   1.18310    9.378
 4492.00    1.14697   1.18652    9.303
 4493.00    1.17494   1.18914    9.182
 4494.00    1.20264   1.18386    9.143
 4495.00    1.22241   1.17460    9.193
 4496.00    1.24739   1.17044    9.189
 4497.00    1.27405   1.17806    9.119
 4498.00    1.27523   1.19638    9.152
 4499.00    1.25253   1.21693    9.305
 4500.00    1.24410   1.23245    9.371
 4501.00    1.26094   1.24225    9.321
 4502.00    1.27539   1.25378    9.360
 4503.00    1.27441   1.27228    9.504
 4504.00    1.27090   1.29344    9.531
 4505.00    1.27522   1.30968    9.379
 4506.00    1.28859   1.31543    9.201
 4507.00    1.31225   1.31121    9.083
 4508.00    1.34526   1.30357    9.023
 4509.00    1.37175   1.29807    9.051
 4510.00    1.37138   1.29523    9.202
 4511.00    1.35196   1.29086    9.359
 4512.00    1.33958   1.28088    9.328
 4513.00    1.34034   1.26612    9.154
 4514.00    1.34052   1.25050    9.040
 4515.00    1.32448   1.23880    9.053
 4516.00    1.28773   1.23327    9.156
 4517.00    1.25261   1.23169    9.304
 4518.00    1.24832   1.23331    9.447
 4519.00    1.27462   1.23925    9.517
 4520.00    1.30667   1.24718    9.481
 4521.00    1.31235   1.25274    9.412
 4522.00    1.28109   1.24978    9.387
 4523.00    1.25470   1.23678    9.349
 4524.00    1.27195   1.21709    9.245
 4525.00    1.30150   1.19175    9.182
 4526.00    1.29758   1.16295    9.266
 4527.00    1.26649   1.13413    9.447
 4528.00    1.23586   1.10944    9.617
 4529.00    1.21736   1.09500    9.737
 4530.00    1.20786   1.09367    9.780
 4531.00    1.19463   1.10191    9.673
 4532.00    1.16468   1.11319    9.486
 4533.00    1.11344   1.11932    9.498
 4534.00    1.05475   1.11984    9.803
 4535.00    1.02242   1.12312   10.064
 4536.00    1.03277   1.13884    9.993
 4537.00    1.06534   1.16882    9.762
 4538.00    1.10072   1.20130    9.578
 4539.00    1.14029   1.22377    9.442
 4540.00    1.18207   1.23143    9.347
 4541.00    1.21020   1.22839    9.348
 4542.00    1.21264   1.22385    9.457
 4543.00    1.19086   1.22125    9.605
 4544.00    1.16141   1.21776    9.714
 4545.00    1.14990   1.21219    9.745
 4546.00    1.16501   1.20553    9.706
 4547.00    1.19274   1.19799    9.649
 4548.00    1.21486   1.18963    9.612
 4549.00    1.21905   1.18106    9.608
 4550.00    1.20854   1.17608    0.000
 4551.00    1.19964   1.17585    0.000
 4552.00    1.20508   1.17587    0.000
 4553.00    1.22662   1.17435    0.000
 4554.00    1.24997   1.17209    0.000
 4555.00    1.25519   1.17374    0.000
 4556.00    1.24489   1.18616    0.000
 4557.00    1.24126   1.20965    0.000
 4558.00    1.26387   1.23710    0.000
 4559.00    1.31548   1.26078    0.000
 4560.00    1.36535   1.27510    0.000
 4561.00    1.37309   1.27855    0.000
 4562.00    1.33684   1.27176    0.000
 4563.00    1.28196   1.25589    0.000
 4564.00    1.22831   1.23703    0.000
 4565.00    1.18914   1.22409    0.000
 4566.00    1.17699   1.22386    0.000
 4567.00    1.19574   1.23663    0.000
 4568.00    1.22988   1.25328    0.000
 4569.00    1.26055   1.26389    0.000
 4570.00    1.28605   1.26343    0.000
 4571.00    1.31153   1.25339    0.000
 4572.00    1.33528   1.24524    0.000
 4573.00    1.35180   1.24742    0.000
 4574.00    1.35648   1.25612    0.000
 4575.00    1.34646   1.26572    0.000
 4576.00    1.32146   1.27121    0.000
 4577.00    1.28833   1.26765    0.000
 4578.00    1.26248   1.25450    0.000
 4579.00    1.25098   1.23440    0.000
 4580.00    1.24198   1.21246    0.000
 4581.00    1.22101   1.19579    0.000
 4582.00    1.18383   1.18857    0.000
 4583.00    1.14334   1.18868    0.000
 4584.00    1.12812   1.19247    0.000
 4585.00    1.15266   1.19793    0.000
 4586.00    1.20273   1.20540    0.000
 4587.00    1.24704   1.21801    0.000
 4588.00    1.25256   1.23455    0.000
 4589.00    1.22452   1.24882    0.000
 4590.00    1.20929   1.25459    0.000
 4591.00    1.23190   1.24916    0.000
 4592.00    1.27642   1.23603    0.000
 4593.00    1.31238   1.22212    0.000
 4594.00    1.31284   1.21158    0.000
 4595.00    1.27916   1.20580    0.000
 4596.00    1.23879   1.20518    0.000
 4597.00    1.21338   1.20772    0.000
 4598.00    1.20845   1.21150    0.000
 4599.00    1.21292   1.21502    0.000
 4600.00    1.20984   1.21533    0.000
 4601.00    1.20192   1.21422    0.000
 4602.00    1.20495   1.21460    0.000
 4603.00    1.21921   1.21625    0.000
 4604.00    1.23372   1.21991    0.000
 4605.00    1.24799   1.22591    0.000
 4606.00    1.26615   1.23602    0.000
 4607.00    1.27869   1.25211    0.000
 4608.00    1.27439   1.27272    0.000
 4609.00    1.26456   1.29196    0.000
 4610.00    1.26840   1.30245    0.000
 4611.00    1.28560   1.30210    0.000
 4612.00    1.30411   1.29454    0.000
 4613.00    1.31659   1.28527    0.000
 4614.00    1.32518   1.28066    0.000
 4615.00    1.34293   1.28183    0.000
 4616.00    1.37432   1.28448    0.000
 4617.00    1.39575   1.28717    0.000
 4618.00    1.38609   1.28775    0.000
 4619.00    1.35767   1.28566    0.000
 4620.00    1.33373   1.28602    0.000
 4621.00    1.32473   1.28998    0.000
 4622.00    1.32788   1.29399    0.000
 4623.00    1.32984   1.29716    0.000
 4624.00    1.31814   1.29811    0.000
 4625.00    1.29007   1.29507    0.000
 4626.00    1.25417   1.29050    0.000
 4627.00    1.22876   1.28715    0.000
 4628.00    1.22796   1.28440    0.000
 4629.00    1.25303   1.28192    0.000
 4630.00    1.29343   1.28172    0.000
 4631.00    1.33004   1.28326    0.000
 4632.00    1.34721   1.28200    0.000
 4633.00    1.33842   1.27621    0.000
 4634.00    1.30380   1.26780    0.000
 4635.00    1.25075   1.25784    0.000
 4636.00    1.20194   1.24719    0.000
 4637.00    1.18906   1.23627    0.000
 4638.00    1.21774   1.22610    0.000
 4639.00    1.26382   1.21896    0.000
 4640.00    1.30657   1.21731    0.000
 4641.00    1.33705   1.22306    0.000
 4642.00    1.34786   1.23168    0.000
 4643.00    1.33259   1.23529    0.000
 4644.00    1.29367   1.22995    0.000
 4645.00    1.24216   1.21453    0.000
 4646.00    1.19159   1.19230    0.000
 4647.00    1.15451   1.17323    0.000
 4648.00    1.13839   1.16564    0.000
 4649.00    1.14561   1.17183    0.000
 4650.00    1.17503   1.18913    0.000
 4651.00    1.21921   1.20991    0.000
 4652.00    1.25914   1.22660    0.000
 4653.00    1.27664   1.23443    0.000
 4654.00    1.27601   1.23190    0.000
 4655.00    1.27313   1.22525    0.000
 4656.00    1.27394   1.22334    0.000
 4657.00    1.27935   1.23222    0.000
 4658.00    1.29610   1.25334    0.000
 4659.00    1.32846   1.27921    0.000
 4660.00    1.36637   1.29834    0.000
 4661.00    1.38854   1.30302    0.000
 4662.00    1.36953   1.29224    0.000
 4663.00    1.29955   1.27063    0.000
 4664.00    1.20235   1.24424    0.000
 4665.00    1.11598   1.21563    0.000
 4666.00    1.07165   1.18422    0.000
 4667.00    1.08057   1.15459    0.000
 4668.00    1.12574   1.13727    0.000
 4669.00    1.17425   1.13890    0.000
 4670.00    1.19182   1.15787    0.000
 4671.00    1.17428   1.18613    0.000
 4672.00    1.16058   1.21205    0.000
 4673.00    1.17827   1.22906    0.000
 4674.00    1.21344   1.23876    0.000
 4675.00    1.24211   1.24543    0.000
 4676.00    1.25078   1.25133    0.000
 4677.00    1.24267   1.25348    0.000
 4678.00    1.23488   1.24814    0.000
 4679.00    1.23293   1.23635    0.000
 4680.00    1.22569   1.22216    0.000
 4681.00    1.21486   1.21112    0.000
 4682.00    1.21844   1.20855    0.000
 4683.00    1.23508   1.21526    0.000
 4684.00    1.24100   1.22625    0.000
 4685.00    1.22717   1.23613    0.000
 4686.00    1.20504   1.24214    0.000
 4687.00    1.18315   1.24274    0.000
 4688.00    1.16184   1.23979    0.000
 4689.00    1.13998   1.23660    0.000
 4690.00    1.12066   1.23361    0.000
 4691.00    1.12003   1.23177    0.000
 4692.00    1.15658   1.23391    0.000
 4693.00    1.22203   1.24041    0.000
 4694.00    1.28615   1.24995    0.000
 4695.00    1.32100   1.26005    0.000
 4696.00    1.31429   1.26526    0.000
 4697.00    1.28359   1.26041    0.000
 4698.00    1.25801   1.24540    0.000
 4699.00    1.24335   1.22610    0.000
 4700.00    1.22935   1.20888    0.000
 4701.00    1.21020   1.19565    0.000
 4702.00    1.18719   1.18696    0.000
 4703.00    1.16773   1.18366    0.000
 4704.00    1.15963   1.18601    0.000
 4705.00    1.16418   1.19136    0.000
 4706.00    1.17691   1.19513    0.000
 4707.00    1.18987   1.19523    0.000
 4708.00    1.19587   1.19309    0.000
 4709.00    1.19281   1.19258    0.000
 4710.00    1.18381   1.19815    0.000
 4711.00    1.17651   1.20972    0.000
 4712.00    1.17776   1.22060    0.000
 4713.00    1.18958   1.22598    0.000
 4714.00    1.21326   1.22678    0.000
 4715.00    1.25148   1.22865    0.000
 4716.00    1.29859   1.23785    0.000
 4717.00    1.33600   1.25418    0.000
 4718.00    1.34779   1.27369    0.000
 4719.00    1.33075   1.29204    0.000
 4720.00    1.29298   1.30450    0.000
 4721.00    1.25148   1.30956    0.000
 4722.00    1.22560   1.30949    0.000
 4723.00    1.22954   1.30777    0.000
 4724.00    1.25351   1.30570    0.000
 4725.00    1.26419   1.30023    0.000
 4726.00    1.24410   1.28653    0.000
 4727.00    1.20451   1.26277    0.000
 4728.00    1.16790   1.23451    0.000
 4729.00    1.15493   1.21101    0.000
 4730.00    1.16470   1.19814    0.000
 4731.00    1.17649   1.19792    0.000
 4732.00    1.17684   1.20821    0.000
 4733.00    1.16693   1.22233    0.000
 4734.00    1.15806   1.23499    0.000
 4735.00    1.16405   1.24420    0.000
 4736.00    1.18571   1.24799    0.000
 4737.00    1.21098   1.24966    0.000
 4738.00    1.22499   1.25427    0.000
 4739.00    1.21889   1.25961    0.000
 4740.00    1.20266   1.26320    0.000
 4741.00    1.19621   1.26607    0.000
 4742.00    1.20746   1.26886    0.000
 4743.00    1.23007   1.27237    0.000
 4744.00    1.24794   1.27674    0.000
 4745.00    1.25192   1.28171    0.000
 4746.00    1.26289   1.28788    0.000
 4747.00    1.30439   1.29379    0.000
 4748.00    1.36045   1.29766    0.000
 4749.00    1.39731   1.29974    0.000
 4750.00    1.39903   1.29921    0.000
 4751.00    1.37142   1.29434    0.000
 4752.00    1.33944   1.28531    0.000
 4753.00    1.32315   1.27415    0.000
 4754.00    1.31419   1.26275    0.000
 4755.00    1.29479   1.25370    0.000
 4756.00    1.25871   1.24901    0.000
 4757.00    1.21522   1.24894    0.000
 4758.00    1.18838   1.25215    0.000
 4759.00    1.19454   1.25596    0.000
 4760.00    1.22544   1.25657    0.000
 4761.00    1.25512   1.24979   10.503
 4762.00    1.25132   1.23539   10.550
 4763.00    1.21204   1.21787   10.836
 4764.00    1.17876   1.20124   10.990
 4765.00    1.17576   1.18886   10.834
 4766.00    1.18342   1.18492   10.681
 4767.00    1.19143   1.19121   10.661
 4768.00    1.21745   1.20529   10.535
 4769.00    1.25596   1.22305   10.310
 4770.00    1.26798   1.23899   10.338
 4771.00    1.24606   1.24842   10.621
 4772.00    1.22738   1.25335   10.693
 4773.00    1.23198   1.25915   10.454
 4774.00    1.24726   1.26828   10.319
 4775.00    1.26210   1.27890   10.371
 4776.00    1.27551   1.28807   10.331
 4777.00    1.28424   1.29437   10.192
 4778.00    1.28178   1.29571   10.226
 4779.00    1.26763   1.29151   10.406
 4780.00    1.24800   1.28417   10.451
 4781.00    1.23059   1.27500   10.360
 4782.00    1.22251   1.26366   10.361
 4783.00    1.22858   1.25173   10.372
 4784.00    1.24588   1.24269   10.173
 4785.00    1.25372   1.23627    9.999
 4786.00    1.23031   1.23008   10.230
 4787.00    1.18778   1.22644   10.721
 4788.00    1.15970   1.22586   10.963
 4789.00    1.16725   1.22654   10.858
 4790.00    1.21236   1.23132   10.690
 4791.00    1.27726   1.24184   10.622
 4792.00    1.33715   1.25685   10.656
 4793.00    1.37822   1.27600   10.682
 4794.00    1.39443   1.29600   10.589
 4795.00    1.38059   1.31034   10.404
 4796.00    1.33873   1.31445   10.260
 4797.00    1.28584   1.30781   10.315
 4798.00    1.24378   1.29351   10.595
 4799.00    1.22739   1.27816   10.803
 4800.00    1.24194   1.26928   10.695
 4801.00    1.28171   1.27019   10.512
 4802.00    1.32878   1.27792   10.511
 4803.00    1.35500   1.28565   10.601
 4804.00    1.34646   1.28722   10.626
 4805.00    1.31920   1.28127   10.594
 4806.00    1.28972   1.27144   10.579
 4807.00    1.25616   1.26135   10.626
 4808.00    1.22283   1.25476   10.684
 4809.00    1.21260   1.25453   10.611
 4810.00    1.23948   1.25906   10.439
 4811.00    1.29355   1.26520   10.430
 4812.00    1.35180   1.27137   10.621
 4813.00    1.38860   1.27680   10.693
 4814.00    1.39545   1.28198   10.521
 4815.00    1.38645   1.28813   10.373
 4816.00    1.38017   1.29598   10.382
 4817.00    1.38937   1.30477   10.432
 4818.00    1.41371   1.31252   10.454
 4819.00    1.43794   1.31714   10.508
 4820.00    1.43626   1.31598   10.613
 4821.00    1.38579   1.30779   10.714
 4822.00    1.30385   1.29305   10.774
 4823.00    1.23917   1.27449   10.805
 4824.00    1.21158   1.25992   10.860
 4825.00    1.20579   1.25501   10.973
 4826.00    1.20299   1.25742   11.037
 4827.00    1.19206   1.26198   10.923
 4828.00    1.17461   1.26437   10.831
 4829.00    1.16159   1.26283   11.056
 4830.00    1.16323   1.25849   11.359
 4831.00    1.18465   1.25254   11.234
 4832.00    1.22189   1.24794   10.923
 4833.00    1.26427   1.24871   10.956
 4834.00    1.29995   1.25415   11.175
 4835.00    1.31856   1.26051   11.116
 4836.00    1.31397   1.26497   10.899
 4837.00    1.28769   1.26539   10.895
 4838.00    1.25277   1.25980   11.090
 4839.00    1.22674   1.24936   11.265
 4840.00    1.22124   1.23879   11.318
 4841.00    1.23693   1.23213   11.281
 4842.00    1.25987   1.22986   11.248
 4843.00    1.27221   1.23143   11.272
 4844.00    1.26477   1.23766   11.288
 4845.00    1.24329   1.24657   11.228
 4846.00    1.23041   1.25307   11.143
 4847.00    1.23828   1.25392   11.103
 4848.00    1.24728   1.24920    0.000
 4849.00    1.23575   1.24292    0.000
 4850.00    1.20488   1.23890    0.000
 4851.00    1.17299   1.23569    0.000
 4852.00    1.16565   1.23043    0.000
 4853.00    1.18631   1.22039    0.000
 4854.00    1.20381   1.20209    0.000
 4855.00    1.19348   1.17727    0.000
 4856.00    1.15981   1.15247    0.000
 4857.00    1.11979   1.12838    0.000
 4858.00    1.09026   1.09836    0.000
 4859.00    1.07470   1.05777    0.000
 4860.00    1.06235   1.00905    0.000
 4861.00    1.05210   0.96508    0.000
 4862.00    1.05667   0.94536    0.000
 4863.00    1.07542   0.95779    0.000
 4864.00    1.09187   0.99410    0.000
 4865.00    1.10514   1.04271    0.000
 4866.00    1.13005   1.09073    0.000
 4867.00    1.15951   1.12698    0.000
 4868.00    1.16783   1.14818    0.000
 4869.00    1.15682   1.15569    0.000
 4870.00    1.15352   1.15044    0.000
 4871.00    1.16663   1.13764    0.000
 4872.00    1.18379   1.12917    0.000
 4873.00    1.19432   1.13268    0.000
 4874.00    1.19630   1.14618    0.000
 4875.00    1.19929   1.16525   10.542
 4876.00    1.21473   1.18666   10.635
 4877.00    1.23656   1.20653   10.759
 4878.00    1.25031   1.22299   10.697
 4879.00    1.25587   1.23711   10.508
 4880.00    1.26192   1.24574   10.399
 4881.00    1.27047   1.24548   10.434
 4882.00    1.27798   1.23977   10.562
 4883.00    1.28089   1.23178   10.702
 4884.00    1.27620   1.22062   10.793
 4885.00    1.26112   1.20728   10.866
 4886.00    1.23242   1.19506   10.973
 4887.00    1.18655   1.18559   11.095
 4888.00    1.13060   1.17800   11.194
 4889.00    1.09170   1.17089   11.278
 4890.00    1.08950   1.16427   11.352
 4891.00    1.11057   1.16303   11.356
 4892.00    1.13600   1.17662   11.267
 4893.00    1.16712   1.20680   11.170
 4894.00    1.21119   1.24631   11.122
 4895.00    1.26689   1.28597   11.057
 4896.00    1.31665   1.31612   10.971
 4897.00    1.32723   1.33129   11.003
 4898.00    1.28775   1.33205   11.154
 4899.00    1.23015   1.32166   11.150
 4900.00    1.19551   1.30632   10.954
 4901.00    1.20878   1.29271   10.950
 4902.00    1.25966   1.28244   11.246
 4903.00    1.30382   1.27592   11.422
 4904.00    1.31815   1.27595   11.243
 4905.00    1.31894   1.28238   11.001
 4906.00    1.31695   1.28960   10.937
 4907.00    1.30396   1.29084   11.048
 4908.00    1.28404   1.28292   11.203
 4909.00    1.27762   1.26706   11.232
 4910.00    1.28781   1.24908   11.166
 4911.00    1.29703   1.23803   11.205
 4912.00    1.29794   1.23881   11.335
 4913.00    1.29748   1.24926   11.331
 4914.00    1.29732   1.26400   11.201
 4915.00    1.29253   1.27586   11.140
 4916.00    1.28455   1.27585   11.077
 4917.00    1.27846   1.25770   10.815
 4918.00    1.26802   1.22245   10.613
 4919.00    1.24144   1.17926   10.873
 4920.00    1.20218   1.14201   11.358
 4921.00    1.16698   1.12298   11.409
 4922.00    1.15222   1.12610   11.156
 4923.00    1.16433   1.14454   11.194
 4924.00    1.18843   1.16941   11.487
 4925.00    1.20405   1.19707   11.632
 4926.00    1.21341   1.22630   11.601
 4927.00    1.22930   1.25434   11.611
 4928.00    1.25071   1.27966   11.674
 4929.00    1.26840   1.30057   11.703
 4930.00    1.27761   1.31248   11.751
 4931.00    1.27967   1.31292   11.856
 4932.00    1.28118   1.30208   11.835
 4933.00    1.28481   1.28222   11.579
 4934.00    1.28051   1.26125   11.358
 4935.00    1.26170   1.24580   11.395
 4936.00    1.24096   1.23338   11.535
 4937.00    1.23478   1.22004   11.545
 4938.00    1.24837   1.20736   11.423
 4939.00    1.27691   1.20159   11.293
 4940.00    1.30856   1.20887    0.000
 4941.00    1.33090   1.22871    0.000
 4942.00    1.33632   1.25448    0.000
 4943.00    1.32580   1.27970    0.000
 4944.00    1.31014   1.29855    0.000
 4945.00    1.30233   1.30771    0.000
 4946.00    1.31134   1.31083    0.000
 4947.00    1.33423   1.31422    0.000
 4948.00    1.35523   1.31956    0.000
 4949.00    1.36209   1.32573    0.000
 4950.00    1.35438   1.33152    0.000
 4951.00    1.34198   1.33461    0.000
 4952.00    1.33868   1.33152    0.000
 4953.00    1.33963   1.32079    0.000
 4954.00    1.32173   1.30277    0.000
 4955.00    1.27938   1.27706    0.000
 4956.00    1.23236   1.24389    0.000
 4957.00    1.20564   1.20973    0.000
 4958.00    1.21519   1.19011    0.000
 4959.00    1.24772   1.19441    0.000
 4960.00    1.27005   1.21619    0.000
 4961.00    1.27148   1.24347    0.000
 4962.00    1.26550   1.26659    0.000
 4963.00    1.26441   1.27882    0.000
 4964.00    1.27240   1.27703    0.000
 4965.00    1.28517   1.26450    0.000
 4966.00    1.29234   1.24922    0.000
 4967.00    1.28295   1.23734    0.000
 4968.00    1.25419   1.23106    0.000
 4969.00    1.22452   1.23156    0.000
 4970.00    1.21784   1.23844    0.000
 4971.00    1.23407   1.25010    0.000
 4972.00    1.25917   1.26424    0.000
 4973.00    1.28732   1.27782    0.000
 4974.00    1.31693   1.28822    0.000
 4975.00    1.34055   1.29269    0.000
 4976.00    1.34398   1.28955    0.000
 4977.00    1.30871   1.27890    0.000
 4978.00    1.23460   1.26173    0.000
 4979.00    1.16147   1.24052    0.000
 4980.00    1.12881   1.21701    0.000
 4981.00    1.13423   1.19077    0.000
 4982.00    1.15422   1.16379    0.000
 4983.00    1.16811   1.14334    0.000
 4984.00    1.16503   1.13613    0.000
 4985.00    1.14812   1.14355    0.000
 4986.00    1.13367   1.16327    0.000
 4987.00    1.14591   1.18949    0.000
 4988.00    1.18671   1.21304    0.000
 4989.00    1.22195   1.22757    0.000
 4990.00    1.22851   1.23300    0.000
 4991.00    1.21968   1.23324    0.000
 4992.00    1.21785   1.23312    0.000
 4993.00    1.23561   1.23409    0.000
 4994.00    1.26508   1.23646    0.000
 4995.00    1.28049   1.24085    0.000
 4996.00    1.27327   1.24429    0.000
 4997.00    1.26105   1.24288    0.000
 4998.00    1.25551   1.23499    0.000
 4999.00    1.25036   1.22056    0.000
 5000.00    1.22893   1.20284    0.000
 5001.00    1.17738   1.18684    0.000
 5002.00    1.11762   1.17507    0.000
 5003.00    1.09761   1.16694    0.000
 5004.00    1.12745   1.15978    0.000
 5005.00    1.17565   1.15168    0.000
 5006.00    1.21475   1.14566    0.000
 5007.00    1.23325   1.14797    0.000
 5008.00    1.23180   1.15941    0.000
 5009.00    1.21890   1.17308    0.000
 5010.00    1.20372   1.18100    0.000
 5011.00    1.19367   1.17808    0.000
 5012.00    1.19301   1.16335    0.000
 5013.00    1.19689   1.14238    0.000
 5014.00    1.18233   1.12407    0.000
 5015.00    1.13130   1.11531    0.000
 5016.00    1.07077   1.11661    0.000
 5017.00    1.04365   1.12346    0.000
 5018.00    1.05549   1.13259    0.000
 5019.00    1.08729   1.14323    0.000
 5020.00    1.12455   1.15349    0.000
 5021.00    1.15715   1.16102    0.000
 5022.00    1.17490   1.16657    0.000
 5023.00    1.17539   1.17328    0.000
 5024.00    1.17237   1.18151    0.000
 5025.00    1.18076   1.18863    0.000
 5026.00    1.20029   1.19310    0.000
 5027.00    1.21748   1.19519    0.000
 5028.00    1.21169   1.19857    0.000
 5029.00    1.18072   1.20699   11.655
 5030.00    1.15735   1.21992   11.713
 5031.00    1.16894   1.23525   12.051
 5032.00    1.20746   1.25020   12.225
 5033.00    1.24723   1.25952   11.971
 5034.00    1.26207   1.25748   11.708
 5035.00    1.24550   1.24269   11.752
 5036.00    1.21775   1.22031   11.965
 5037.00    1.19562   1.19655   12.083
 5038.00    1.17788   1.17178   11.953
 5039.00    1.16291   1.14516   11.687
 5040.00    1.15553   1.12012   11.594
 5041.00    1.15392   1.10474   11.711
 5042.00    1.14803   1.10864   11.750
 5043.00    1.14003   1.13331   11.640
 5044.00    1.14635   1.17036   11.647
 5045.00    1.17206   1.20884   11.856
 5046.00    1.20519   1.23749   12.078
 5047.00    1.23196   1.24748   12.195
 5048.00    1.24345   1.23848   12.260
 5049.00    1.23883   1.21954   12.315
 5050.00    1.22395   1.20126   12.347
 5051.00    1.20478   1.19031   12.350
 5052.00    1.18488   1.19011   12.363
 5053.00    1.16402   1.20098   12.514
 5054.00    1.14312   1.21869   12.915
 5055.00    1.13567   1.23732   13.334
 5056.00    1.15661   1.25299   13.345
 5057.00    1.19446   1.26498   13.024
 5058.00    1.22401   1.27394   12.781
 5059.00    1.24054   1.28029   12.743
 5060.00    1.25472   1.28463   12.801
 5061.00    1.27243   1.28628   12.794
 5062.00    1.29068   1.28190   12.633
 5063.00    1.29734   1.26832   12.443
 5064.00    1.27975   1.24627   12.409
 5065.00    1.23695   1.22281   12.572
 5066.00    1.18133   1.20593   12.825
 5067.00    1.13722   1.19715   12.920
 5068.00    1.12293   1.19500   12.754
 5069.00    1.13172   1.19860   12.676
 5070.00    1.14897   1.20490   12.940
 5071.00    1.17200   1.20859   13.198
 5072.00    1.20584   1.20866   12.986
 5073.00    1.25540   1.20883   12.385
 5074.00    1.30805   1.20991   11.817
 5075.00    1.32487   1.20951   11.683
 5076.00    1.28823   1.20660   12.044
 5077.00    1.23280   1.19983   12.420
 5078.00    1.19370   1.18551   12.414
 5079.00    1.17115   1.16354   12.276
 5080.00    1.15269   1.14246   12.193
 5081.00    1.13030   1.13103   11.903
 5082.00    1.10751   1.13080   11.290
 5083.00    1.09804   1.13959   10.611
 5084.00    1.09961   1.15561   10.065
 5085.00    1.08976   1.17531    9.712
 5086.00    1.07168   1.19357    9.665
 5087.00    1.08272   1.20777   10.116
 5088.00    1.13504   1.21863   10.982
 5089.00    1.19992   1.22743   11.646
 5090.00    1.24882   1.23476   11.718
 5091.00    1.27081   1.24167   11.573
 5092.00    1.27435   1.24898   11.589
 5093.00    1.27946   1.25482   11.831
 5094.00    1.29214   1.25515   12.048
 5095.00    1.30074   1.24708   11.883
 5096.00    1.28972   1.23071   11.616
 5097.00    1.25037   1.20865   11.835
 5098.00    1.19705   1.18583   12.339
 5099.00    1.15910   1.16950   12.322
 5100.00    1.15261   1.16600   11.925
 5101.00    1.17526   1.17429   11.907
 5102.00    1.21038   1.18725   12.238
 5103.00    1.23501   1.19775   12.393
 5104.00    1.23375   1.20193   12.396
 5105.00    1.20765   1.19902   12.567
 5106.00    1.18364   1.19032   12.607
 5107.00    1.18848   1.17879   12.127
 5108.00    1.20739   1.16898   11.674
 5109.00    1.20701   1.16386   11.853
 5110.00    1.17722   1.16425   12.401
 5111.00    1.13278   1.17155   12.694
 5112.00    1.10600   1.18458   12.713
 5113.00    1.12076   1.19976   12.748
 5114.00    1.16511   1.21505   12.722
 5115.00    1.21343   1.22926   12.502
 5116.00    1.25273   1.24164   12.280
 5117.00    1.27747   1.25151   12.260
 5118.00    1.28263   1.25672   12.409
 5119.00    1.26911   1.25470   12.585
 5120.00    1.24797   1.24431   12.670
 5121.00    1.23121   1.22629   12.643
 5122.00    1.22400   1.20299   12.612
 5123.00    1.22335   1.17776   12.624
 5124.00    1.21945   1.15587   12.573
 5125.00    1.20749   1.14162   12.474
 5126.00    1.19362   1.13501   12.563
 5127.00    1.18382   1.13371   12.872
 5128.00    1.17756   1.13584   13.057
 5129.00    1.17021   1.14052   13.007
 5130.00    1.15719   1.14799   13.084
 5131.00    1.14576   1.15862   13.328
 5132.00    1.15399   1.17100   13.257
 5133.00    1.18175   1.18316   12.872
 5134.00    1.20515   1.19369   12.774
 5135.00    1.20553   1.20055   13.020
 5136.00    1.18103   1.20006   13.040
 5137.00    1.14507   1.19156   12.729
 5138.00    1.11959   1.17836   12.578
 5139.00    1.11603   1.16476   12.749
 5140.00    1.13028   1.15546   12.984
 5141.00    1.14637   1.15046   12.984
 5142.00    1.14551   1.14657   12.636
 5143.00    1.12602   1.14490   12.200
 5144.00    1.10239   1.14616   12.048
 5145.00    1.09026   1.14713   12.254
 5146.00    1.09829   1.14642   12.640
 5147.00    1.11913   1.14554   12.889
 5148.00    1.13655   1.14585   12.802
 5149.00    1.14281   1.14695   12.752
 5150.00    1.14154   1.14657   13.169
 5151.00    1.14616   1.14388   13.557
 5152.00    1.16714   1.14083   13.148
 5153.00    1.19328   1.14000   12.588
 5154.00    1.20588   1.14413   12.708
 5155.00    1.20305   1.15540   13.070
 5156.00    1.19619   1.17314   12.845
 5157.00    1.20003   1.19371   12.331
 5158.00    1.22138   1.21217   12.121
 5159.00    1.24828   1.22470   12.106
 5160.00    1.26296   1.22996   12.055
 5161.00    1.25739   1.22656   12.153
 5162.00    1.23730   1.21316   12.484
 5163.00    1.22163   1.19005   12.496
 5164.00    1.21421   1.15612   11.995
 5165.00    1.18394   1.10995   11.851
 5166.00    1.10960   1.05527   12.549
 5167.00    1.01345   1.00232   13.347
 5168.00    0.93246   0.96370   13.371
 5169.00    0.89304   0.94518   13.075
 5170.00    0.89671   0.94053   13.042
 5171.00    0.91674   0.93821   13.156
 5172.00    0.92959   0.93532   13.149
 5173.00    0.93294   0.94205   12.942
 5174.00    0.93846   0.96807   12.673
 5175.00    0.96285   1.01070   12.598
 5176.00    1.00613   1.05933   12.739
 5177.00    1.04802   1.10324   12.838
 5178.00    1.07828   1.13321   12.818
 5179.00    1.10366   1.14283   12.897
 5180.00    1.12102   1.13027   13.092
 5181.00    1.11342   1.09775   13.145
 5182.00    1.07620   1.05144   13.049
 5183.00    1.02329   1.00471   13.086
 5184.00    0.97612   0.97799   13.268
 5185.00    0.95556   0.98457   13.319
 5186.00    0.96993   1.01958   13.185
 5187.00    1.01308   1.06732   13.062
 5188.00    1.06899   1.11207   13.010
 5189.00    1.11755   1.14416   12.967
 5190.00    1.14500   1.15872    0.000
 5191.00    1.14786   1.15489    0.000
 5192.00    1.13552   1.14068    0.000
 5193.00    1.12207   1.12855    0.000
 5194.00    1.10982   1.12460    0.000
 5195.00    1.09387   1.12873    0.000
 5196.00    1.07584   1.14055    0.000
 5197.00    1.06377   1.15806    0.000
 5198.00    1.06764   1.17714    0.000
 5199.00    1.09212   1.19407    0.000
 5200.00    1.12755   1.20529    0.000
 5201.00    1.15766   1.20791    0.000
 5202.00    1.17156   1.20048    0.000
 5203.00    1.16592   1.18304    0.000
 5204.00    1.14519   1.15665    0.000
 5205.00    1.11523   1.12564    0.000
 5206.00    1.07723   1.09756    0.000
 5207.00    1.03858   1.07764    0.000
 5208.00    1.02187   1.06794    0.000
 5209.00    1.04257   1.07165    0.000
 5210.00    1.09010   1.08991    0.000
 5211.00    1.14347   1.11910   12.591
 5212.00    1.18606   1.15258   12.477
 5213.00    1.21013   1.18189   12.467
 5214.00    1.21827   1.20035   12.464
 5215.00    1.21562   1.20653   12.396
 5216.00    1.20525   1.20579   12.304
 5217.00    1.19279   1.20620   12.236
 5218.00    1.18799   1.21261   12.197
 5219.00    1.19690   1.22449   12.164
 5220.00    1.21752   1.23734   12.108
 5221.00    1.24048   1.24556   12.007
 5222.00    1.25223   1.24358   11.869
 5223.00    1.24750   1.22804   11.735
 5224.00    1.23248   1.19990   11.668
 5225.00    1.21496   1.16494   11.675
 5226.00    1.19944   1.13262   11.712
 5227.00    1.18487   1.11428   11.782
 5228.00    1.16758   1.11744   11.902
 5229.00    1.15313   1.13811   11.849
 5230.00    1.15213   1.16511   11.343
 5231.00    1.15681   1.18805   10.735
 5232.00    1.14841   1.19985   10.581
 5233.00    1.13544   1.20153   10.772
 5234.00    1.14548   1.20090   10.763
 5235.00    1.18046   1.20507   10.503
 5236.00    1.22116   1.21705   10.346
 5237.00    1.26074   1.23435   10.337
 5238.00    1.29896   1.25153   10.307
 5239.00    1.31658   1.26461   10.278
 5240.00    1.29384   1.27251   10.385
 5241.00    1.25152   1.27627   10.623
 5242.00    1.22785   1.27707   10.869
 5243.00    1.22970   1.27621   11.017
 5244.00    1.23965   1.27392   11.057
 5245.00    1.23905   1.26741   11.142
 5246.00    1.22244   1.25360   11.401
 5247.00    1.21026   1.23462   11.672
 5248.00    1.22215   1.21643   11.697
 5249.00    1.24443   1.20202   11.500
 5250.00    1.25355   1.19204   11.310
 5251.00    1.24518   1.18851   11.370
 5252.00    1.22564   1.19154   11.740
 5253.00    1.20040   1.19822   12.112
 5254.00    1.17572   1.20605   12.156
 5255.00    1.16078   1.21575   12.000
 5256.00    1.16424   1.23026   11.914
 5257.00    1.19027   1.24840   11.986
 5258.00    1.23092   1.26426   12.127
 5259.00    1.26329   1.27103   12.110
 5260.00    1.26837   1.26335   11.879
 5261.00    1.24377   1.23944   11.689
 5262.00    1.20109   1.20233   11.699
 5263.00    1.16029   1.15917   11.817
 5264.00    1.12988   1.11820   11.935
 5265.00    1.10067   1.08572   12.040
 5266.00    1.06947   1.06509   12.101
 5267.00    1.04691   1.05563   12.039
 5268.00    1.03725   1.05061   11.908
 5269.00    1.03330   1.04532   11.891
 5270.00    1.03451   1.04584   12.034
 5271.00    1.05017   1.05989   12.186
 5272.00    1.08349   1.08548   12.232
 5273.00    1.12770   1.11534   12.177
 5274.00    1.17403   1.14409   12.088
 5275.00    1.21527   1.16939   12.038
 5276.00    1.24803   1.19317   12.014
 5277.00    1.27101   1.21748   11.949
 5278.00    1.27880   1.23919   11.871
 5279.00    1.26446   1.25287   11.885
 5280.00    1.23020   1.25507   12.016
 5281.00    1.18930   1.24681   12.201
 5282.00    1.16422   1.23361   12.309
 5283.00    1.17446   1.22298   12.234
 5284.00    1.21389   1.22241   12.056
 5285.00    1.25904   1.23560   11.956
 5286.00    1.29264   1.25847   12.029
 5287.00    1.30968   1.28280   12.220
 5288.00    1.31969   1.30257   12.249
 5289.00    1.33630   1.31604   11.967
 5290.00    1.36154   1.32374   11.851
 5291.00    1.38805   1.32596   12.299
 5292.00    1.40561   1.32264   12.748
 5293.00    1.40505   1.31397   12.426
 5294.00    1.38218   1.29996   11.865
 5295.00    1.34002   1.27969   11.777
 5296.00    1.29029   1.25326   12.041
 5297.00    1.24737   1.22499   12.290
 5298.00    1.22177   1.20303   12.466
 5299.00    1.21722   1.19407   12.619
 5300.00    1.22892   1.19788   12.647
 5301.00    1.24729   1.21036   12.535
 5302.00    1.26181   1.22880   12.532
 5303.00    1.26584   1.25114   12.727
 5304.00    1.26033   1.27410   12.810
 5305.00    1.25520   1.29361   12.726
 5306.00    1.26709   1.30687   12.945
 5307.00    1.29967   1.31418   13.066
 5308.00    1.33462   1.31848   11.573
 5309.00    1.34994   1.32214    9.429
 5310.00    1.33466   1.32517    8.418
 5311.00    1.30786   1.32638    8.361
 5312.00    1.31359   1.32468    8.172
 5313.00    1.35556   1.31972    7.827
 5314.00    1.38512   1.31223    8.524
 5315.00    1.37757   1.30314   10.911
 5316.00    1.35272   1.29374   13.228
 5317.00    1.32936   1.28636   12.973
 5318.00    1.31046   1.28231   12.405
 5319.00    1.29368   1.28029   12.683
 5320.00    1.27690   1.27819   12.829
 5321.00    1.26328   1.27384   12.462
 5322.00    1.25843   1.26521   12.220
 5323.00    1.25862   1.25109   12.301
 5324.00    1.25156   1.23219   12.443
 5325.00    1.22672   1.21051   12.591
 5326.00    1.18304   1.18569   12.863
 5327.00    1.13944   1.15733   13.020
 5328.00    1.12152   1.13210   12.714
 5329.00    1.13038   1.12225   12.293
 5330.00    1.14861   1.13313   12.301
 5331.00    1.16341   1.15943   12.623
 5332.00    1.17145   1.19180   12.772
 5333.00    1.17923   1.22297   12.618
 5334.00    1.19487   1.24903   12.336
 5335.00    1.21585   1.26723   12.013
 5336.00    1.23183   1.27606   -2.000
 5337.00    1.23169   1.27593   -2.000
 5338.00    1.21358   1.26813   -2.000
 5339.00    1.19473   1.25404   -2.000
 5340.00    1.19107   1.23784   -2.000
 5341.00    1.19507   1.22700   -2.000
 5342.00    1.20050   1.22599   -2.000
 5343.00    1.22654   1.23267   -2.000
 5344.00    1.28047   1.24179   -2.000
 5345.00    1.32581   1.24842   -2.000
 5346.00    1.32766   1.25064   -2.000
 5347.00    1.29183   1.24945   -2.000
 5348.00    1.24985   1.24648   -2.000
 5349.00    1.24071   1.24530   -2.000
 5350.00    1.27824   1.25021   12.090
 5351.00    1.33518   1.26214   12.067
 5352.00    1.38113   1.27853   12.270
 5353.00    1.40528   1.29644   12.472
 5354.00    1.40378   1.31430   12.471
 5355.00    1.37428   1.33049   12.417
 5356.00    1.32886   1.34320   12.494
 5357.00    1.29482   1.35159   12.742
 5358.00    1.28657   1.35521   13.051
 5359.00    1.29513   1.35358   13.193
 5360.00    1.30110   1.34637   13.119
 5361.00    1.28552   1.33394   13.025
 5362.00    1.24903   1.31828   13.024
 5363.00    1.21191   1.30219   13.075
 5364.00    1.18975   1.28718   13.110
 5365.00    1.18507   1.27401   13.085
 5366.00    1.18884   1.26291   12.988
 5367.00    1.18729   1.25214   12.860
 5368.00    1.17902   1.23920   12.847
 5369.00    1.17322   1.22274   13.071
 5370.00    1.17323   1.20493   13.281
 5371.00    1.17563   1.19283   13.077
 5372.00    1.17817   1.19433   12.772
 5373.00    1.18174   1.21123   12.914
 5374.00    1.19037   1.23782   13.173
 5375.00    1.20900   1.26586   12.841
 5376.00    1.23910   1.28822   12.336
 5377.00    1.27654   1.30187   12.379
 5378.00    1.30981   1.30783   12.649
 5379.00    1.32644   1.30785   12.469
 5380.00    1.32339   1.30360   12.197
 5381.00    1.30899   1.29718   12.418
 5382.00    1.30212   1.29058   12.748
 5383.00    1.31267   1.28555   12.545
 5384.00    1.31933   1.28397   12.181
 5385.00    1.29773   1.28557   12.243
 5386.00    1.25457   1.28764   12.660
 5387.00    1.21339   1.28745   13.037
 5388.00    1.19454   1.28306   13.050
 5389.00    1.20164   1.27399   12.691
 5390.00    1.21353   1.26196   12.307
 5391.00    1.21083   1.24963   12.213
 5392.00    1.19742   1.23861   12.484
 5393.00    1.18386   1.22915   12.931
 5394.00    1.17384   1.22047   13.042
 5395.00    1.16905   1.21140   12.695
 5396.00    1.17286   1.20155   12.511
 5397.00    1.18781   1.19405   12.774
 5398.00    1.21308   1.19394   13.016
 5399.00    1.24026   1.20144   12.915
 5400.00    1.25406   1.21211   12.814
 5401.00    1.24814   1.22111   12.955
 5402.00    1.23037   1.22354   13.168
 5403.00    1.20786   1.21534   13.261
 5404.00    1.18095   1.19748   13.223
 5405.00    1.14932   1.17665   13.226
 5406.00    1.11531   1.16128   13.495
 5407.00    1.08599   1.15628   13.918
 5408.00    1.07194   1.16025   14.024
 5409.00    1.08035   1.16913   13.762
 5410.00    1.11102   1.18139   13.566
 5411.00    1.15176   1.19768   13.538
 5412.00    1.18264   1.21692   13.448
 5413.00    1.19189   1.23624   13.319
 5414.00    1.18175   1.25324   13.379
 5415.00    1.17125   1.26732   13.580
 5416.00    1.18427   1.27894   13.645
 5417.00    1.22121   1.28756   13.510
 5418.00    1.26277   1.29194   13.309
 5419.00    1.29184   1.29172   13.084
 5420.00    1.30185   1.28785   12.809
 5421.00    1.30284   1.28241   12.548
 5422.00    1.30679   1.27693   12.394
 5423.00    1.30196   1.27147   12.378
 5424.00    1.27265   1.26727   12.460
 5425.00    1.23536   1.26666   12.531
 5426.00    1.21788   1.26870   12.536
 5427.00    1.22249   1.26889   12.626
 5428.00    1.23228   1.26233   12.895
 5429.00    1.22688   1.24842   13.010
 5430.00    1.19802   1.23298   12.718
 5431.00    1.16359   1.22111   12.477
 5432.00    1.14608   1.21253   12.655
 5433.00    1.14906   1.20613   12.868
 5434.00    1.16450   1.20239   12.684
 5435.00    1.18250   1.20338   12.412
 5436.00    1.19657   1.21194   12.381
 5437.00    1.20697   1.22917   12.412
 5438.00    1.21619   1.25320   12.314
 5439.00    1.22523   1.27920   12.245
 5440.00    1.23351   1.30180   12.307
 5441.00    1.23966   1.31698   12.314
 5442.00    1.24509   1.32246   12.160
 5443.00    1.25387   1.31710   12.016
 5444.00    1.25840   1.30075   12.006
 5445.00    1.23801   1.27590   -2.000
 5446.00    1.19590   1.24888   -2.000
 5447.00    1.16736   1.22899   -2.000
 5448.00    1.16445   1.22310   -2.000
 5449.00    1.16238   1.23019   -2.000
 5450.00    1.15734   1.24359   -2.000
 5451.00    1.16273   1.25541   -2.000
 5452.00    1.09744   1.25955   -2.000
 5453.00    0.84726   1.25375   -2.000
 5454.00    0.62501   1.24012   -2.000
 5455.00    0.86848   1.22510   -2.000
 5456.00    1.52253   1.21735   -2.000
 5457.00    2.04776   1.22136   -2.000
 5458.00    2.11181   1.23397   -2.000
 5459.00    1.79502   1.24803   -2.000
 5460.00    1.57168   1.25688   -2.000
 5461.00    1.91251   1.25766   -2.000
 5462.00    2.40580   1.25176   -2.000
 5463.00    2.22448   1.24411   -2.000
 5464.00    1.52520   1.24038   -2.000
 5465.00    1.08857   1.24233   -2.000
 5466.00    1.06761   1.24803   -2.000
 5467.00    1.13288   1.25503   -2.000
 5468.00    1.14481   1.26075   -2.000
 5469.00    1.14570   1.26273    8.736
 5470.00    1.16075   1.26040    8.617
 5471.00    1.18360   1.25483    8.442
 5472.00    1.20152   1.24659    8.321
 5473.00    1.20652   1.23559    8.302
 5474.00    1.20452   1.22280    8.304
 5475.00    1.20549   1.20910    8.258
 5476.00    1.21087   1.19597    8.258
 5477.00    1.21517   1.18798    8.334
 5478.00    1.21012   1.18858    8.254
 5479.00    1.19296   1.19536    8.083
 5480.00    1.17330   1.20326    8.600
 5481.00    1.16629   1.20995   10.490
 5482.00    1.18443   1.21680   12.726
 5483.00    1.22449   1.22568   12.651
 5484.00    1.26099   1.23670   11.608
 5485.00    1.27116   1.24748   11.438
 5486.00    1.25332   1.25426   11.917
 5487.00    1.22568   1.25561   12.407
 5488.00    1.21916   1.25391   12.572
 5489.00    1.24441   1.25242   12.525
 5490.00    1.27815   1.25260   12.703
 5491.00    1.29524   1.25483   13.161
 5492.00    1.28755   1.25779   13.316
 5493.00    1.26825   1.25954   13.012
 5494.00    1.26453   1.25991   12.860
 5495.00    1.27927   1.25940   13.054
 5496.00    1.28553   1.25786   13.154
 5497.00    1.27138   1.25594   12.986
 5498.00    1.25072   1.25544   12.865
 5499.00    1.23681   1.25618   12.932
 5500.00    1.23286   1.25547   13.030
 5501.00    1.23411   1.25187   13.030
 5502.00    1.23395   1.24651   12.944
 5503.00    1.23889   1.24101   12.928
 5504.00    1.26282   1.23607   13.130
 5505.00    1.30101   1.23165   13.309
 5506.00    1.33304   1.22816   13.133
 5507.00    1.34615   1.22729   13.202
 5508.00    1.33866   1.22933   14.127
 5509.00    1.31490   1.23165   13.768
 5510.00    1.28502   1.23145   10.576
 5511.00    1.26621   1.22712    8.173
 5512.00    1.27016   1.21943    7.585
 5513.00    1.28185   1.21215    7.781
 5514.00    1.27813   1.20937    7.695
 5515.00    1.26212   1.21326    7.825
 5516.00    1.25080   1.22367    9.338
 5517.00    1.24951   1.23868   12.285
 5518.00    1.25757   1.25544   13.839
 5519.00    1.27989   1.27043   13.007
 5520.00    1.31829   1.28105   12.232
 5521.00    1.36005   1.28667   12.014
 5522.00    1.38504   1.28776   11.993
 5523.00    1.37581   1.28495   12.059
 5524.00    1.33005   1.27836   12.218
 5525.00    1.26954   1.26785   12.399
 5526.00    1.21980   1.25405   12.540
 5527.00    1.19174   1.23924   12.667
 5528.00    1.18559   1.22758   12.758
 5529.00    1.19573   1.22353   12.653
 5530.00    1.21296   1.22776   12.381
 5531.00    1.22748   1.23664   12.291
 5532.00    1.23864   1.24558   12.551
 5533.00    1.25763   1.25152   12.926
 5534.00    1.28466   1.25360   13.107
 5535.00    1.29987   1.25339   13.009
 5536.00    1.29006   1.25381   12.843
 5537.00    1.26182   1.25643   12.967
 5538.00    1.23247   1.26140   13.379
 5539.00    1.22172   1.26833   13.579
 5540.00    1.23700   1.27566   13.358
 5541.00    1.26988   1.28100   13.085
 5542.00    1.30766   1.28258   12.972
 5543.00    1.33851   1.28061   12.921
 5544.00    1.35223   1.27726   12.877
 5545.00    1.34287   1.27481   12.892
 5546.00    1.31607   1.27492   12.943
 5547.00    1.28726   1.27871   12.932
 5548.00    1.26958   1.28563   12.860
 5549.00    1.26895   1.29326   12.814
 5550.00    1.28120   1.29907   12.755
 5551.00    1.29645   1.30125   12.574
 5552.00    1.31090   1.29896   12.320
 5553.00    1.32483   1.29299   12.142
 5554.00    1.33189   1.28565   12.090
 5555.00    1.32264   1.27957   12.106
 5556.00    1.29586   1.27592   12.041
 5557.00    1.25810   1.27430   11.793
 5558.00    1.21881   1.27387   11.501
 5559.00    1.18953   1.27359   11.315
 5560.00    1.18352   1.27213   11.075
 5561.00    1.20722   1.26863   10.638
 5562.00    1.24878   1.26301   10.276
 5563.00    1.29106   1.25620   10.236
 5564.00    1.33004   1.24952   10.317
 5565.00    1.36307   1.24356   10.229
 5566.00    1.37362   1.23873   10.067
 5567.00    1.35379   1.23558   10.044
 5568.00    1.32780   1.23387   10.177
 5569.00    1.31941   1.23316   10.401
 5570.00    1.31959   1.23362   10.685
 5571.00    1.31130   1.23487   10.999
 5572.00    1.29350   1.23581   11.279
 5573.00    1.27192   1.23740   11.482
 5574.00    1.25024   1.24118   11.652
 5575.00    1.23288   1.24644   11.825
 5576.00    1.22662   1.25217   11.971
 5577.00    1.23485   1.25801   12.123
 5578.00    1.25368   1.26292   12.431
 5579.00    1.27239   1.26625   12.852
 5580.00    1.27694   1.26786   12.993
 5581.00    1.26577   1.26711   12.805
 5582.00    1.25372   1.26364   12.818
 5583.00    1.24763   1.25726   13.194
 5584.00    1.23810   1.24679   13.442
 5585.00    1.21880   1.23132   13.314
 5586.00    1.19299   1.21162   13.169
 5587.00    1.16371   1.19092   13.274
 5588.00    1.13188   1.17413   13.571
 5589.00    1.10480   1.16526   13.801
 5590.00    1.09503   1.16561   13.668
 5591.00    1.10680   1.17329   13.345
 5592.00    1.13312   1.18447   13.284
 5593.00    1.16158   1.19608   13.418
 5594.00    1.17994   1.20684   13.291
 5595.00    1.18585   1.21681   12.991
 5596.00    1.18446   1.22491   12.969
 5597.00    1.17629   1.22823   13.143
 5598.00    1.15835   1.22544   13.094
 5599.00    1.13343   1.21810   12.954
 5600.00    1.11075   1.20871   13.115
 5601.00    1.10286   1.20028   13.307
 5602.00    1.11884   1.19670   12.993
 5603.00    1.15339   1.20126   12.513
 5604.00    1.19283   1.21489   12.441
 5605.00    1.22792   1.23490   12.595
 5606.00    1.25504   1.25661   12.520
 5607.00    1.27461   1.27558   12.354
 5608.00    1.29021   1.28914   12.414
 5609.00    1.30722   1.29684   12.523
 5610.00    1.32689   1.29953   12.394
 5611.00    1.34016   1.29786   12.189
 5612.00    1.33751   1.29124   12.173
 5613.00    1.32019   1.27829   12.324
 5614.00    1.29482   1.25887   12.506
 5615.00    1.26674   1.23690   12.660
 5616.00    1.23998   1.21962   12.762
 5617.00    1.21787   1.21180   12.773
 5618.00    1.20522   1.21294   12.725
 5619.00    1.20877   1.21985   12.771
 5620.00    1.22786   1.22877   12.956
 5621.00    1.24944   1.23616   13.088
 5622.00    1.26201   1.23919   13.056
 5623.00    1.26461   1.23654   13.038
 5624.00    1.26078   1.22990   13.160
 5625.00    1.25459   1.22391   13.313
 5626.00    1.25075   1.22290   13.355
 5627.00    1.25338   1.22817   13.245
 5628.00    1.25873   1.23871   13.064
 5629.00    1.25592   1.25204   12.959
 5630.00    1.24675   1.26470   12.966
 5631.00    1.24854   1.27384   12.986
 5632.00    1.26838   1.27800   12.966
 5633.00    1.29549   1.27699   12.951
 5634.00    1.31346   1.27166   12.977
 5635.00    1.30873   1.26346   13.046
 5636.00    1.28253   1.25411   13.137
 5637.00    1.25033   1.24539   13.197
 5638.00    1.22854   1.23883   13.062
 5639.00    1.22648   1.23477   12.594
 5640.00    1.23677   1.23235   12.030
 5641.00    1.24204   1.23108   11.698
 5642.00    1.23764   1.23145   11.503
 5643.00    1.23168   1.23365   11.166
 5644.00    1.23216   1.23737   10.810
 5645.00    1.24223   1.24218   10.729
 5646.00    1.25695   1.24725   10.892
 5647.00    1.26709   1.25173   11.092
 5648.00    1.26743   1.25504   11.330
 5649.00    1.26066   1.25724   11.711
 5650.00    1.26051   1.25909   12.068
 5651.00    1.27680   1.26111   12.146
 5652.00    1.29354   1.26257   12.113
 5653.00    1.28731   1.26176   12.266
 5654.00    1.25615   1.25722   12.533
 5655.00    1.21451   1.24887   12.688
 5656.00    1.18144   1.23735   12.739
 5657.00    1.16869   1.22320   12.803
 5658.00    1.17029   1.20881   12.876
 5659.00    1.17587   1.19869   12.919
 5660.00    1.18447   1.19527   12.960
 5661.00    1.19528   1.19724   12.961
 5662.00    1.19925   1.20282   12.734
 5663.00    1.19077   1.21102   12.248
 5664.00    1.17730   1.22055   11.786
 5665.00    1.17232   1.22941   11.583
 5666.00    1.18762   1.23584   11.672
 5667.00    1.22075   1.23924   11.958
 5668.00    1.25078   1.24072   12.240
 5669.00    1.26381   1.24227   12.385
 5670.00    1.26648   1.24561   12.464
 5671.00    1.27000   1.25165   12.574
 5672.00    1.28068   1.26017   12.719
 5673.00    1.30036   1.26951   12.809
 5674.00    1.32677   1.27751   12.696
 5675.00    1.35337   1.28295   12.376
 5676.00    1.37054   1.28591   12.020
 5677.00    1.37049   1.28649   11.795
 5678.00    1.35122   1.28449   11.788
 5679.00    1.32281   1.28007   11.931
 5680.00    1.30314   1.27361   12.031
 5681.00    1.29567   1.26534   12.045
 5682.00    1.28879   1.25604   12.090
 5683.00    1.27718   1.24764   12.146
 5684.00    1.26496   1.24152   12.075
 5685.00    1.25534   1.23749   11.916
 5686.00    1.24716   1.23458   11.838
 5687.00    1.23375   1.23265   11.845
 5688.00    1.20880   1.23276   11.842
 5689.00    1.17985   1.23625   11.910
 5690.00    1.16281   1.24352   12.201
 5691.00    1.16470   1.25346   12.546
 5692.00    1.18154   1.26395   12.588
 5693.00    1.20156   1.27251   12.326
 5694.00    1.21294   1.27745   12.049
 5695.00    1.21532   1.27848   11.967
 5696.00    1.21547   1.27590   12.131
 5697.00    1.21775   1.26999   12.365
 5698.00    1.22541   1.26133   12.433
 5699.00    1.24365   1.25133   12.345
 5700.00    1.27127   1.24130   12.266
 5701.00    1.29078   1.23250   12.325
 5702.00    1.28413   1.22643   12.575
 5703.00    1.25140   1.22342   12.966
 5704.00    1.20539   1.22184   13.310
 5705.00    1.16324   1.21893   13.289
 5706.00    1.13802   1.21273   12.864
 5707.00    1.13207   1.20319   12.504
 5708.00    1.14058   1.19190   12.506
 5709.00    1.15553   1.18189   12.659
 5710.00    1.16903   1.17652   12.686
 5711.00    1.17590   1.17758   12.591
 5712.00    1.17552   1.18561   12.468
 5713.00    1.17248   1.19982   12.354
 5714.00    1.17317   1.21723   12.264
 5715.00    1.18237   1.23462   12.215
 5716.00    1.19641   1.24981   12.143
 5717.00    1.20358   1.26177   11.914
 5718.00    1.20568   1.27091   11.639
 5719.00    1.22261   1.27851   11.650
 5720.00    1.26112   1.28538   11.920
 5721.00    1.30413   1.29178   11.957
 5722.00    1.32884   1.29726   11.623
 5723.00    1.31998   1.30071   11.337
 5724.00    1.28850   1.30111   11.327
 5725.00    1.26620   1.29813   11.513
 5726.00    1.26374   1.29235   11.729
 5727.00    1.26525   1.28560   11.829
 5728.00    1.25763   1.28017   11.850
 5729.00    1.24016   1.27693   11.966
 5730.00    1.22431   1.27514   12.181
 5731.00    1.22556   1.27434   12.337
 5732.00    1.24347   1.27508   12.402
 5733.00    1.26512   1.27781   12.450
 5734.00    1.28442   1.28189   12.393
 5735.00    1.30167   1.28604   12.104
 5736.00    1.31336   1.28890   11.767
 5737.00    1.31558   1.28983   11.631
 5738.00    1.31389   1.28911   11.584
 5739.00    1.31586   1.28747   11.385
 5740.00    1.31554   1.28570    0.000
 5741.00    1.30108   1.28430    0.000
 5742.00    1.27048   1.28355    0.000
 5743.00    1.23376   1.28379    0.000
 5744.00    1.21157   1.28510    0.000
 5745.00    1.22031   1.28671    0.000
 5746.00    1.25414   1.28715    0.000
 5747.00    1.29163   1.28547    0.000
 5748.00    1.30780   1.28230    0.000
 5749.00    1.29471   1.27908    0.000
 5750.00    1.27801   1.27600    0.000
 5751.00    1.28012   1.27186    0.000
 5752.00    1.28708   1.26577    0.000
 5753.00    1.27938   1.25883    0.000
 5754.00    1.25966   1.25409    0.000
 5755.00    1.24299   1.25454    0.000
 5756.00    1.24536   1.26044   -2.000
 5757.00    1.26859   1.26903   -2.000
 5758.00    1.29276   1.27612   -2.000
 5759.00    1.29365   1.27813   -2.000
 5760.00    1.25646   1.27406   -2.000
 5761.00    1.18764   1.26599   -2.000
 5762.00    1.11583   1.25812   -2.000
 5763.00    1.06312   1.25485   -2.000
 5764.00    1.03282   1.25847   -2.000
 5765.00    1.02516   1.26768   -2.000
 5766.00    1.04323   1.27912   -2.000
 5767.00    1.08520   1.28944   -2.000
 5768.00    1.14260   1.29628   -2.000
 5769.00    1.20720   1.29892   -2.000
 5770.00    1.27130   1.29796   -2.000
 5771.00    1.31970   1.29452   -2.000
 5772.00    1.33405   1.28991   -2.000
 5773.00    1.31531   1.28540   -2.000
 5774.00    1.28302   1.28180   -2.000
 5775.00    1.25267   1.27947   -2.000
 5776.00    1.23065   1.27803    0.000
 5777.00    1.21842   1.27587    0.000
 5778.00    1.21528   1.27084    0.000
 5779.00    1.22177   1.26123    0.000
 5780.00    1.23598   1.24693    0.000
 5781.00    1.24455   1.23022    0.000
 5782.00    1.23474   1.21491    0.000
 5783.00    1.21972   1.20394    0.000
 5784.00    1.22125   1.19852    0.000
 5785.00    1.23272   1.19901    0.000
 5786.00    1.23506   1.20522    0.000
 5787.00    1.23071   1.21565    0.000
 5788.00    1.23070   1.22771    0.000
 5789.00    1.23019   1.23886    0.000
 5790.00    1.22190   1.24740    0.000
 5791.00    1.21654   1.25357    0.000
 5792.00    1.22661   1.25900    0.000
 5793.00    1.24595   1.26479    0.000
 5794.00    1.26503   1.27082    0.000
 5795.00    1.28817   1.27593    0.000
 5796.00    1.31778   1.27879    0.000
 5797.00    1.33991   1.27957    0.000
 5798.00    1.34444   1.28041    0.000
 5799.00    1.34185   1.28360    0.000
 5800.00    1.34670   1.28942    0.000
 5801.00    1.36242   1.29604    0.000
 5802.00    1.37401   1.30077    0.000
 5803.00    1.35005   1.30134    0.000
 5804.00    1.28487   1.29760    0.000
 5805.00    1.21780   1.29161    0.000
 5806.00    1.18381   1.28614    0.000
 5807.00    1.18631   1.28312    0.000
 5808.00    1.21331   1.28310    0.000
 5809.00    1.24905   1.28548    0.000
 5810.00    1.28385   1.28899    0.000
 5811.00    1.31644   1.29211    0.000
 5812.00    1.34400   1.29351    0.000
 5813.00    1.35978   1.29243    0.000
 5814.00    1.36087   1.28893    0.000
 5815.00    1.35090   1.28419    0.000
 5816.00    1.33838   1.28053    0.000
 5817.00    1.33193   1.28028    0.000
 5818.00    1.32797   1.28419    0.000
 5819.00    1.31357   1.29098    0.000
 5820.00    1.28590   1.29837    0.000
 5821.00    1.25509   1.30428    0.000
 5822.00    1.23642   1.30764    0.000
 5823.00    1.24213   1.30871    0.000
 5824.00    1.26772   1.30863    0.000
 5825.00    1.29740   1.30842    0.000
 5826.00    1.32247   1.30853    0.000
 5827.00    1.34020   1.30906    0.000
 5828.00    1.34422   1.30988    0.000
 5829.00    1.32880   1.31066    0.000
 5830.00    1.29926   1.31093    0.000
 5831.00    1.26943   1.31026    0.000
 5832.00    1.25438   1.30855    0.000
 5833.00    1.26261   1.30592    0.000
 5834.00    1.28724   1.30279    0.000
 5835.00    1.31301   1.29997    0.000
 5836.00    1.32731   1.29812    0.000
 5837.00    1.32525   1.29733    0.000
 5838.00    1.31310   1.29770    0.000
 5839.00    1.30002   1.29955    0.000
 5840.00    1.28895   1.30288    0.000
 5841.00    1.27973   1.30691    0.000
 5842.00    1.27312   1.31042    0.000
 5843.00    1.27121   1.31204    0.000
 5844.00    1.27688   1.31084    0.000
 5845.00    1.28927   1.30668    0.000
 5846.00    1.30117   1.30036    0.000
 5847.00    1.30751   1.29324    0.000
 5848.00    1.31091   1.28668    0.000
 5849.00    1.31644   1.28116    0.000
 5850.00    1.32733   1.27611    0.000
 5851.00    1.34151   1.27040    0.000
 5852.00    1.35109   1.26329    0.000
 5853.00    1.35072   1.25509    0.000
 5854.00    1.34128   1.24681    0.000
 5855.00    1.32608   1.23897    0.000
 5856.00    1.30799   1.23154    0.000
 5857.00    1.28591   1.22515    0.000
 5858.00    1.25685   1.22144    0.000
 5859.00    1.23008   1.22185    0.000
 5860.00    1.22417   1.22637    0.000
 5861.00    1.23720   1.23354    0.000
 5862.00    1.24764   1.24120    0.000
 5863.00    1.25193   1.24779    0.000
 5864.00    1.26476   1.25254    0.000
 5865.00    1.28380   1.25533    0.000
 5866.00    1.29018   1.25686    0.000
 5867.00    1.27723   1.25863    0.000
 5868.00    1.25401   1.26188    0.000
 5869.00    1.23446   1.26670    0.000
 5870.00    1.23052   1.27207    0.000
 5871.00    1.24346   1.27649    0.000
 5872.00    1.26635   1.27880    0.000
 5873.00    1.29267   1.27879    0.000
 5874.00    1.31721   1.27701    0.000
 5875.00    1.33470   1.27402    0.000
 5876.00    1.34052   1.27014    0.000
 5877.00    1.33230   1.26547    0.000
 5878.00    1.31325   1.26008    0.000
 5879.00    1.29580   1.25422    0.000
 5880.00    1.29128   1.24864    0.000
 5881.00    1.29637   1.24412    0.000
 5882.00    1.30011   1.24067    0.000
 5883.00    1.29475   1.23727    0.000
 5884.00    1.27974   1.23220    0.000
 5885.00    1.26358   1.22287    0.000
 5886.00    1.25140   1.20574    0.000
 5887.00    1.23404   1.17762    0.000
 5888.00    1.20189   1.13827    0.000
 5889.00    1.15754   1.09300    0.000
 5890.00    1.11064   1.05253    0.000
 5891.00    1.07214   1.02697    0.000
 5892.00    1.05005   1.01884    0.000
 5893.00    1.04618   1.02289    0.000
 5894.00    1.05407   1.03060    0.000
 5895.00    1.05986   1.03630    0.000
 5896.00    1.05495   1.04170    0.000
 5897.00    1.04294   1.05284    0.000
 5898.00    1.03542   1.07334    0.000
 5899.00    1.04648   1.10230    0.000
 5900.00    1.07853   1.13544    0.000
 5901.00    1.11880   1.16716   12.850
 5902.00    1.15478   1.19316   12.826
 5903.00    1.18124   1.21194   12.835
 5904.00    1.19982   1.22410   12.981
 5905.00    1.21618   1.23134   13.196
 5906.00    1.23093   1.23578   13.352
 5907.00    1.23821   1.23919   13.353
 5908.00    1.23209   1.24240   13.300
 5909.00    1.21214   1.24533   13.398
 5910.00    1.19303   1.24741   13.538
 5911.00    1.19666   1.24771   13.405
 5912.00    1.22457   1.24528   13.132
 5913.00    1.25945   1.23994   13.112
 5914.00    1.28705   1.23299   13.286
 5915.00    1.30157   1.22676   13.273
 5916.00    1.30508   1.22344   13.044
 5917.00    1.30466   1.22412   12.844
 5918.00    1.30684   1.22829   12.730
 5919.00    1.31401   1.23429   12.621
 5920.00    1.32021   1.24024   12.496
 5921.00    1.31577   1.24479   12.388
 5922.00    1.29617   1.24774   12.324
 5923.00    1.26406   1.24973   12.323
 5924.00    1.22974   1.25136   12.419
 5925.00    1.20519   1.25269   12.613
 5926.00    1.19599   1.25317   12.818
 5927.00    1.19964   1.25203   12.911
 5928.00    1.20562   1.24912   12.842
 5929.00    1.20457   1.24523   12.691
 5930.00    1.19752   1.24190   12.664
 5931.00    1.18708   1.24040   12.842
 5932.00    1.16889   1.24064   12.979
 5933.00    1.14382   1.24159   12.936
 5934.00    1.12807   1.24249   13.054
 5935.00    1.13833   1.24353   13.476
 5936.00    1.17815   1.24527   13.624
 5937.00    1.23262   1.24777   13.237
 5938.00    1.27010   1.25035   13.068
 5939.00    1.27663   1.25182   13.504
 5940.00    1.27335   1.25129   13.931
 5941.00    1.27941   1.24915   13.793
 5942.00    1.29166   1.24698   13.415
 5943.00    1.30207   1.24628   13.188
 5944.00    1.30778   1.24754   13.150
 5945.00    1.30869   1.24995   13.198
 5946.00    1.30530   1.25176   13.205
 5947.00    1.29533   1.25139   13.152
 5948.00    1.27523   1.24857   13.135
 5949.00    1.25197   1.24445   13.143
 5950.00    1.24185   1.24058   13.040
 5951.00    1.24883   1.23772   12.846
 5952.00    1.26097   1.23583   12.741
 5953.00    1.26592   1.23484   12.802
 5954.00    1.25794   1.23456   12.945
 5955.00    1.24278   1.23460   12.963
 5956.00    1.23371   1.23482   12.683
 5957.00    1.23734   1.23571   12.329
 5958.00    1.25142   1.23807   12.292
 5959.00    1.26952   1.24241   12.601
 5960.00    1.28511   1.24852   12.960
 5961.00    1.29778   1.25531   13.026
 5962.00    1.31016   1.26124   12.666
 5963.00    1.31925   1.26506   12.216
 5964.00    1.31965   1.26638   12.111
 5965.00    1.31242   1.26584   12.456
 5966.00    1.30342   1.26488   13.089
 5967.00    1.29786   1.26489   13.589
 5968.00    1.29839   1.26650   13.537
 5969.00    1.30378   1.26950   13.151
 5970.00    1.30858   1.27300   12.874
 5971.00    1.30360   1.27576   12.789
 5972.00    1.28298   1.27658   12.827
 5973.00    1.25210   1.27461   13.025
 5974.00    1.22056   1.26955   13.350
 5975.00    1.19332   1.26197   13.472
 5976.00    1.17258   1.25342   13.179
 5977.00    1.16044   1.24599   12.815
 5978.00    1.15880   1.24142   12.640
 5979.00    1.16832   1.24025   12.425
 5980.00    1.18368   1.24137   12.078
 5981.00    1.19195   1.24253   11.981
 5982.00    1.19034   1.24163   12.235
 5983.00    1.19572   1.23802   12.242
 5984.00    1.21609   1.23306   11.767
 5985.00    1.23472   1.22924   11.485
 5986.00    1.23630   1.22843   11.713
 5987.00    1.22293   1.23099   12.010
 5988.00    1.20804   1.23598   12.087
 5989.00    1.20879   1.24184   12.282
 5990.00    1.22754   1.24719   12.676
 5991.00    1.24808   1.25161   12.749
 5992.00    1.26066   1.25542   12.461
 5993.00    1.26924   1.25883   12.485
 5994.00    1.27278   1.26135   12.970
 5995.00    1.26180   1.26205   13.334
 5996.00    1.23538   1.26034   13.393
 5997.00    1.20493   1.25660   13.643
 5998.00    1.18493   1.25214   14.048
 5999.00    1.18581   1.24836   13.953
 6000.00    1.20283   1.24589   13.487
 6001.00    1.21937   1.24436   13.405
 6002.00    1.22505   1.24301   13.678
 6003.00    1.22033   1.24135   13.667
 6004.00    1.21472   1.23913   13.346
 6005.00    1.21947   1.23605   13.196
 6006.00    1.23266   1.23209   13.223
 6007.00    1.24267   1.22788   13.126
 6008.00    1.24205   1.22485   12.933
 6009.00    1.23137   1.22438   12.837
 6010.00    1.22051   1.22654   12.701
 6011.00    1.22174   1.22990   12.344
 6012.00    1.23800   1.23261   12.056
 6013.00    1.26445   1.23357   12.142
 6014.00    1.29371   1.23286   12.327
 6015.00    1.31529   1.23112   12.217
 6016.00    1.31457   1.22906   12.087
 6017.00    1.28415   1.22708   12.336
 6018.00    1.23715   1.22513   12.773
 6019.00    1.19414   1.22300   12.947
 6020.00    1.16673   1.22096   12.761
 6021.00    1.15602   1.21974   12.469
 6022.00    1.15397   1.22008   12.429
 6023.00    1.15312   1.22241   12.725
 6024.00    1.15492   1.22674   12.901
 6025.00    1.16324   1.23263   12.675
 6026.00    1.17836   1.23930   12.551
 6027.00    1.19705   1.24615   12.856
 6028.00    1.21369   1.25279   13.168
 6029.00    1.22610   1.25892   13.131
 6030.00    1.23851   1.26430   13.091
 6031.00    1.25636   1.26889   13.322
 6032.00    1.28169   1.27274   13.604
 6033.00    1.30770   1.27584   13.612
 6034.00    1.31891   1.27819   13.258
 6035.00    1.30790   1.27974   12.779
 6036.00    1.28197   1.28041   12.558
 6037.00    1.25359   1.28011   12.678
 6038.00    1.23396   1.27883   12.883
 6039.00    1.22600   1.27682   12.973
 6040.00    1.22417   1.27467   12.957
 6041.00    1.22440   1.27316   12.873
 6042.00    1.22684   1.27299   12.733
 6043.00    1.23203   1.27449   12.579
 6044.00    1.24015   1.27736   12.488
 6045.00    1.25279   1.28086   12.511
 6046.00    1.27139   1.28416   12.632
 6047.00    1.29121   1.28667   12.690
 6048.00    1.30333   1.28810   12.511
 6049.00    1.30376   1.28852   12.282
 6050.00    1.29358   1.28797   12.342
 6051.00    1.27415   1.28629   12.638
 6052.00    1.24727   1.28329   12.879
 6053.00    1.21795   1.27894   13.142
 6054.00    1.19481   1.27365   13.664
 6055.00    1.18944   1.26827   14.030
 6056.00    1.20656   1.26392   13.666
 6057.00    1.22883   1.26160   13.187
 6058.00    1.23624   1.26162   13.379
 6059.00    1.23785   1.26332   13.874
 6060.00    1.25021   1.26527   13.870
 6061.00    1.26248   1.26570   13.618
 6062.00    1.25744   1.26341   13.707
 6063.00    1.24247   1.25838   13.952
 6064.00    1.23429   1.25210   13.879
 6065.00    1.23738   1.24728   13.483
 6066.00    1.24685   1.24658   13.067
 6067.00    1.25474   1.25112   12.903
 6068.00    1.26026   1.25999   13.026
 6069.00    1.27648   1.27083   13.105
 6070.00    1.30892   1.28108   12.911
 6071.00    1.33977   1.28899   12.698
 6072.00    1.35170   1.29392   12.677
 6073.00    1.34589   1.29597   12.702
 6074.00    1.33110   1.29540   12.670
 6075.00    1.31518   1.29230   12.738
 6076.00    1.30540   1.28677   12.864
 6077.00    1.30713   1.27916   12.640
 6078.00    1.31292   1.27040   12.133
 6079.00    1.30198   1.26172   12.024
 6080.00    1.26972   1.25410   12.548
 6081.00    1.23722   1.24807   13.217
 6082.00    1.22210   1.24387   13.545
 6083.00    1.22607   1.24146   13.570
 6084.00    1.24207   1.24063   13.477
 6085.00    1.25881   1.24108   13.364
 6086.00    1.26502   1.24236   13.339
 6087.00    1.25386   1.24374   13.502
 6088.00    1.23232   1.24431   13.729
 6089.00    1.21811   1.24354   13.738
 6090.00    1.22053   1.24171   13.621
 6091.00    1.23783   1.23981   13.747
 6092.00    1.26723   1.23908   14.020
 6093.00    1.30563   1.24049   13.975
 6094.00    1.34396   1.24413   13.674
 6095.00    1.37109   1.24906   13.479
 6096.00    1.38566   1.25391   13.064
 6097.00    1.39149   1.25740   12.003
 6098.00    1.38270   1.25852   10.913
 6099.00    1.34877   1.25633   10.435
 6100.00    1.28999   1.25016   10.427
 6101.00    1.21967   1.24022   10.486
 6102.00    1.16215   1.22865   10.531
 6103.00    1.13906   1.21914   10.695
 6104.00    1.14949   1.21491   10.986
 6105.00    1.17903   1.21711   11.320
 6106.00    1.21656   1.22429   11.643
 6107.00    1.25463   1.23351   11.887
 6108.00    1.28660   1.24212   11.892
 6109.00    1.30426   1.24873   11.801
 6110.00    1.29650   1.25327   12.383
 6111.00    1.26305   1.25644   13.722
 6112.00    1.22706   1.25902   13.036
 6113.00    1.21440   1.26129    9.976
 6114.00    1.23357   1.26303    8.025
 6115.00    1.28275   1.26365    7.510
 6116.00    1.35558   1.26254    7.411
 6117.00    1.42566   1.25920    7.106
 6118.00    1.44231   1.25317    6.915
 6119.00    1.39035   1.24436    7.133
 6120.00    1.32159   1.23341    7.594
 6121.00    1.27984   1.22207    7.926
 6122.00    1.25774   1.21310    7.874
 6123.00    1.23775   1.20888    7.783
 6124.00    1.21723   1.21000    8.546
 6125.00    1.20618   1.21515   10.695
 6126.00    1.22001   1.22190   12.727
 6127.00    1.25491   1.22822   12.406
 6128.00    1.28359   1.23348   11.608
 6129.00    1.28727   1.23815   11.654
 6130.00    1.26802   1.24265   12.076
 6131.00    1.24095   1.24636   12.294
 6132.00    1.22496   1.24751   12.194
 6133.00    1.22285   1.24373   12.046
 6134.00    1.22175   1.23341   12.229
 6135.00    1.21658   1.21710   12.727
 6136.00    1.21238   1.19827   13.112
 6137.00    1.20917   1.18230   13.130
 6138.00    1.20198   1.17403   12.934
 6139.00    1.19212   1.17528   12.831
 6140.00    1.18653   1.18438   13.046
 6141.00    1.18933   1.19760   13.451
 6142.00    1.19991   1.21155   13.695
 6143.00    1.21325   1.22430   13.789
 6144.00    1.22162   1.23517   13.998
 6145.00    1.21794   1.24368   14.260
 6146.00    1.20367   1.24905   14.250
 6147.00    1.20014   1.25062   13.806
 6148.00    1.22713   1.24869   13.069
 6149.00    1.26789   1.24463   12.392
 6150.00    1.29057   1.24035   11.995
 6151.00    1.28580   1.23734   11.763
 6152.00    1.26372   1.23600   11.607
 6153.00    1.24240   1.23565   11.804
 6154.00    1.23602   1.23520   12.513
 6155.00    1.24350   1.23368   13.044
 6156.00    1.25634   1.23043   12.777
 6157.00    1.26883   1.22476   12.601
 6158.00    1.28266   1.21556   -2.000
 6159.00    1.30889   1.20158   -2.000
 6160.00    1.35372   1.18267   -2.000
 6161.00    1.40597   1.16085   -2.000
 6162.00    1.43831   1.14039   -2.000
 6163.00    1.41434   1.12614   -2.000
 6164.00    1.32768   1.12114   -2.000
 6165.00    1.22311   1.12501   -2.000
 6166.00    1.15062   1.13407   -2.000
 6167.00    1.13245   1.14347   -2.000
 6168.00    1.15305   1.14984   -2.000
 6169.00    1.16484   1.15278   -2.000
 6170.00    1.14483   1.15439   11.322
 6171.00    1.11633   1.15742   11.338
 6172.00    1.10644   1.16344   11.599
 6173.00    1.12417   1.17197   12.151
 6174.00    1.15914   1.18118   12.916
 6175.00    1.18871   1.18938   13.829
 6176.00    1.20590   1.19589   14.445
 6177.00    1.22297   1.20102   14.140
 6178.00    1.24487   1.20546   13.738
 6179.00    1.26311   1.20974   14.613
 6180.00    1.26730   1.21401   15.106
 6181.00    1.25202   1.21801   11.927
 6182.00    1.22477   1.22124    8.837
 6183.00    1.20183   1.22298    7.893
 6184.00    1.19172   1.22242    8.222
 6185.00    1.19412   1.21898    8.547
 6186.00    1.20788   1.21255    8.339
 6187.00    1.23104   1.20358    8.043
 6188.00    1.25677   1.19291    7.922
 6189.00    1.27756   1.18173    7.918
 6190.00    1.29451   1.17154    7.775
 6191.00    1.31032   1.16427    7.430
 6192.00    1.31443   1.16186    7.496
 6193.00    1.29306   1.16536    8.717
 6194.00    1.24883   1.17407   11.095
 6195.00    1.19867   1.18544   12.876
 6196.00    1.16527   1.19608   13.228
 6197.00    1.16210   1.20318   13.669
 6198.00    1.17679   1.20571   14.501
 6199.00    1.18769   1.20465   15.002
 6200.00    1.18606   1.20237   14.914
 6201.00    1.17641   1.20143   14.559
 6202.00    1.17291   1.20332   14.371
 6203.00    1.18545   1.20793   14.455
 6204.00    1.20755   1.21394   14.354
 6205.00    1.22712   1.21976   13.834
 6206.00    1.23735   1.22421   13.427
 6207.00    1.23913   1.22672   13.409
 6208.00    1.24125   1.22696   13.327
 6209.00    1.25213   1.22459   12.898
 6210.00    1.27338   1.21918   12.534
 6211.00    1.29727   1.21049   12.526
 6212.00    1.30756   1.19881   12.714
 6213.00    1.29235   1.18532   12.788
 6214.00    1.25214   1.17200   12.537
 6215.00    1.20098   1.16109   12.129
 6216.00    1.16295   1.15414   12.005
 6217.00    1.15383   1.15132   12.131
 6218.00    1.17291   1.15155   11.947
 6219.00    1.20794   1.15327   11.523
 6220.00    1.23998   1.15551   11.585
 6221.00    1.25298   1.15813   12.134
 6222.00    1.24079   1.16143   12.214
 6223.00    1.21750   1.16546   11.434
 6224.00    1.20946   1.16967   10.463
 6225.00    1.21816   1.17308    9.792
 6226.00    1.21985   1.17452    9.570
 6227.00    1.20014   1.17294    9.819
 6228.00    1.16220   1.16778   10.524
 6229.00    1.11988   1.15952   11.589
 6230.00    1.09033   1.15005   12.754
 6231.00    1.08102   1.14244   13.763
 6232.00    1.08981   1.13969   14.474
 6233.00    1.11205   1.14330   14.692
 6234.00    1.14259   1.15223   14.360
 6235.00    1.17664   1.16335   13.925
 6236.00    1.20809   1.17277   13.820
 6237.00    1.22657   1.17759   13.791
 6238.00    1.22372   1.17685   13.409
 6239.00    1.20356   1.17153   12.942
 6240.00    1.17725   1.16365   12.834
 6241.00    1.15304   1.15523   13.047
 6242.00    1.13611   1.14769   13.297
 6243.00    1.12991   1.14189   13.407
 6244.00    1.13198   1.13846   13.315
 6245.00    1.12975   1.13801   13.028
 6246.00    1.11556   1.14091   12.691
 6247.00    1.10178   1.14676   12.611
 6248.00    1.10363   1.15408   12.912
 6249.00    1.12121   1.16045   13.262
 6250.00    1.14514   1.16340   13.395
 6251.00    1.16356   1.16137   13.670
 6252.00    1.16750   1.15455   14.319
 6253.00    1.15493   1.14464   14.755
 6254.00    1.13170   1.13392   14.560
 6255.00    1.11031   1.12428   14.389
 6256.00    1.09753   1.11678   14.646
 6257.00    1.08823   1.11204   14.832
 6258.00    1.07812   1.11074   14.622
 6259.00    1.07064   1.11372   14.458
 6260.00    1.07098   1.12128   14.611
 6261.00    1.08202   1.13260   14.807
 6262.00    1.10184   1.14567   14.777
 6263.00    1.12360   1.15796   14.530
 6264.00    1.14068   1.16748   14.161
 6265.00    1.14903   1.17349   13.758
 6266.00    1.14741   1.17653   13.504
 6267.00    1.13852   1.17782   13.603
 6268.00    1.13268   1.17849   13.952
 6269.00    1.14397   1.17923   14.121
 6270.00    1.17344   1.18041   13.890
 6271.00    1.20772   1.18218   13.440
 6272.00    1.23169   1.18456   13.078
 6273.00    1.23543   1.18728   13.038
 6274.00    1.22222   1.18983   13.295
 6275.00    1.20682   1.19153   13.625
 6276.00    1.20597   1.19183   13.856
 6277.00    1.22791   1.19043   13.941
 6278.00    1.25538   1.18738   13.923
 6279.00    1.25961   1.18320   13.891
 6280.00    1.23466   1.17895    0.000
 6281.00    1.19577   1.17600    0.000
 6282.00    1.16335   1.17557    0.000
 6283.00    1.15227   1.17815    0.000
 6284.00    1.15976   1.18337    0.000
 6285.00    1.17401   1.19018    0.000
 6286.00    1.18938   1.19740    0.000
 6287.00    1.20283   1.20395    0.000
 6288.00    1.20685   1.20891    0.000
 6289.00    1.19782   1.21156    0.000
 6290.00    1.18625   1.21147    0.000
 6291.00    1.18261   1.20886    0.000
 6292.00    1.18160   1.20451    0.000
 6293.00    1.17469   1.19938    0.000
 6294.00    1.16364   1.19407    0.000
 6295.00    1.15569   1.18869    0.000
 6296.00    1.15733   1.18316    0.000
 6297.00    1.17009   1.17761    0.000
 6298.00    1.18802   1.17248    0.000
 6299.00    1.20318   1.16828    0.000
 6300.00    1.21007   1.16532    0.000
 6301.00    1.20667   1.16373    0.000
 6302.00    1.19489   1.16378    0.000
 6303.00    1.17914   1.16601    0.000
 6304.00    1.16531   1.17079    0.000
 6305.00    1.15919   1.17788    0.000
 6306.00    1.16461   1.18619    0.000
 6307.00    1.17852   1.19428    0.000
 6308.00    1.19105   1.20069    0.000
 6309.00    1.19667   1.20431    0.000
 6310.00    1.19808   1.20459    0.000
 6311.00    1.20037   1.20179    0.000
 6312.00    1.20697   1.19671    0.000
 6313.00    1.21416   1.19030    0.000
 6314.00    1.21311   1.18333    0.000
 6315.00    1.20336   1.17632    0.000
 6316.00    1.19265   1.16981    0.000
 6317.00    1.18297   1.16461    0.000
 6318.00    1.17021   1.16162    0.000
 6319.00    1.15503   1.16151    0.000
 6320.00    1.14336   1.16462    0.000
 6321.00    1.14008   1.17061   12.853
 6322.00    1.14629   1.17848   12.586
 6323.00    1.15717   1.18696   12.210
 6324.00    1.16506   1.19507   11.871
 6325.00    1.16675   1.20207   11.711
 6326.00    1.16442   1.20748   11.778
 6327.00    1.16429   1.21114   11.902
 6328.00    1.17142   1.21327   11.889
 6329.00    1.18194   1.21432   11.921
 6330.00    1.18853   1.21469   12.278
 6331.00    1.19048   1.21439   12.830
 6332.00    1.19070   1.21299   13.244
 6333.00    1.18960   1.20978   13.550
 6334.00    1.18434   1.20418   13.946
 6335.00    1.16935   1.19661   14.334
 6336.00    1.14403   1.18875   14.458
 6337.00    1.11990   1.18303   14.239
 6338.00    1.10697   1.18122   13.906
 6339.00    1.10050   1.18333   13.925
 6340.00    1.09522   1.18768   14.414
 6341.00    1.09802   1.19199   14.673
 6342.00    1.11564   1.19441   14.212
 6343.00    1.14371   1.19431   13.724
 6344.00    1.17038   1.19263   13.706
 6345.00    1.18141   1.19123   13.814
 6346.00    1.17327   1.19182   13.740
 6347.00    1.15946   1.19497   13.716
 6348.00    1.15572   1.20005   13.872
 6349.00    1.16958   1.20577   13.914
 6350.00    1.19601   1.21061   13.745
 6351.00    1.21874   1.21328   13.705
 6352.00    1.22817   1.21302   13.933
 6353.00    1.22813   1.20971   14.120
 6354.00    1.22436   1.20380   13.900
 6355.00    1.21746   1.19612   13.195
 6356.00    1.19679   1.18762   12.414
 6357.00    1.14752   1.17896   12.087
 6358.00    1.08499   1.17032   12.229
 6359.00    1.05183   1.16190   12.441
 6360.00    1.06491   1.15437   12.557
 6361.00    1.10502   1.14864   12.766
 6362.00    1.14218   1.14552   13.120
 6363.00    1.15272   1.14567   13.441
 6364.00    1.14306   1.14953   13.558
 6365.00    1.14116   1.15683   13.448
 6366.00    1.15955   1.16660   13.294
 6367.00    1.19167   1.17745   13.311
 6368.00    1.22506   1.18797   13.423
 6369.00    1.24767   1.19714   13.388
 6370.00    1.25395   1.20453   13.208
 6371.00    1.24514   1.21041   13.063
 6372.00    1.22709   1.21531   13.020
 6373.00    1.20686   1.21947   13.108
 6374.00    1.18766   1.22262   13.497
 6375.00    1.17206   1.22422   14.249
 6376.00    1.16750   1.22392   14.741
 6377.00    1.17894   1.22173   14.319
 6378.00    1.19826   1.21804   13.682
 6379.00    1.21306   1.21370   13.616
 6380.00    1.21923   1.20979   13.856
 6381.00    1.21942   1.20717   13.860
 6382.00    1.21916   1.20619   13.738
 6383.00    1.22154   1.20669   13.813
 6384.00    1.22314   1.20815   14.077
 6385.00    1.22348   1.21006   14.352
 6386.00    1.23255   1.21212   14.456
 6387.00    1.25701   1.21391   14.179
 6388.00    1.28866   1.21477   13.363
 6389.00    1.31077   1.21393   12.335
 6390.00    1.30610   1.21082   11.750
 6391.00    1.27328   1.20538   11.739
 6392.00    1.23450   1.19838   11.797
 6393.00    1.21258   1.19146   11.691
 6394.00    1.21559   1.18675   11.878
 6395.00    1.23428   1.18565   12.556
 6396.00    1.24580   1.18761   13.151
 6397.00    1.23748   1.19036   13.180
 6398.00    1.21597   1.19157   12.949
 6399.00    1.19183   1.19045   12.823
 6400.00    1.17250   1.18835   12.864
 6401.00    1.16460   1.18806   12.964
 6402.00    1.17335   1.19159   12.948
 6403.00    1.19664   1.19840   12.832
 6404.00    1.22479   1.20592   12.838
 6405.00    1.24740   1.21140   13.145
 6406.00    1.25619   1.21317   13.776
 6407.00    1.24595   1.21129   14.341
 6408.00    1.21720   1.20716   14.156
 6409.00    1.18251   1.20262   13.342
 6410.00    1.16119   1.19895   12.587
 6411.00    1.16203   1.19643   12.076
 6412.00    1.18053   1.19512   11.736
 6413.00    1.20333   1.19529   11.794
 6414.00    1.21642   1.19684   12.553
 6415.00    1.21946   1.19911   13.580
 6416.00    1.21894   1.20108   13.739
 6417.00    1.21033   1.20167   12.990
 6418.00    1.18525   1.20012   12.255
 6419.00    1.14905   1.19668   12.036
 6420.00    1.11864   1.19274   12.397
 6421.00    1.11388   1.19044   12.945
 6422.00    1.14376   1.19171   13.101
 6423.00    1.19052   1.19703   12.892
 6424.00    1.22867   1.20508   12.705
 6425.00    1.25099   1.21344   12.705
 6426.00    1.26037   1.21994   12.865
 6427.00    1.25742   1.22307   13.049
 6428.00    1.24524   1.22210   13.180
 6429.00    1.23510   1.21731   13.404
 6430.00    1.23828   1.21012   13.753
 6431.00    1.25757   1.20298   13.806
 6432.00    1.28355   1.19849   13.337
 6433.00    1.29498   1.19804   12.822
 6434.00    1.28168   1.20090   12.612
 6435.00    1.25892   1.20493   12.568
 6436.00    1.24196   1.20778   12.566
 6437.00    1.22936   1.20805   12.765
 6438.00    1.21594   1.20607   13.235
 6439.00    1.20161   1.20388   13.728
 6440.00    1.19009   1.20418   13.982
 6441.00    1.18731   1.20850   13.983
 6442.00    1.19830   1.21615   13.792
 6443.00    1.22450   1.22493   13.445
 6444.00    1.25880   1.23231   13.103
 6445.00    1.28651   1.23617   12.994
 6446.00    1.29883   1.23507   13.057
 6447.00    1.29545   1.22849   12.977
 6448.00    1.27194   1.21705   12.867
 6449.00    1.22150   1.20293   13.235
 6450.00    1.15789   1.18975   14.046
 6451.00    1.11228   1.18136   14.527
 6452.00    1.09882   1.17963   14.352
 6453.00    1.11018   1.18345   14.042
 6454.00    1.13635   1.19009   13.996
 6455.00    1.16814   1.19698   14.271
 6456.00    1.19205   1.20296   14.651
 6457.00    1.19621   1.20816   14.753
 6458.00    1.18676   1.21263   14.450
 6459.00    1.18125   1.21543   13.930
 6460.00    1.18727   1.21517   13.437
 6461.00    1.20171   1.21112   13.156
 6462.00    1.21833   1.20425   13.170
 6463.00    1.23143   1.19745   13.449
 6464.00    1.23985   1.19408   13.751
 6465.00    1.24727   1.19567   13.791
 6466.00    1.26132   1.20119   13.641
 6467.00    1.28484   1.20812   13.549
 6468.00    1.30471   1.21388   13.602
 6469.00    1.30515   1.21677   13.732
 6470.00    1.28618   1.21664   13.772
 6471.00    1.26008   1.21455   13.668
 6472.00    1.24374   1.21196   13.677
 6473.00    1.24773   1.21008   13.929
 6474.00    1.26638   1.20930   14.007
 6475.00    1.28475   1.20939   13.683
 6476.00    1.28755   1.21014   13.576
 6477.00    1.27160   1.21118   14.101
 6478.00    1.25355   1.21165   14.724
 6479.00    1.25012   1.21054   14.799
 6480.00    1.26229   1.20723   14.577
 6481.00    1.27832   1.20191   14.498
 6482.00    1.27943   1.19586   14.605
 6483.00    1.25751   1.19120   14.716
 6484.00    1.22403   1.18963   14.587
 6485.00    1.19514   1.19141   14.256
 6486.00    1.18196   1.19528   14.078
 6487.00    1.18770   1.19926   14.125
 6488.00    1.20681   1.20127   14.027
 6489.00    1.22695   1.19958   13.527
 6490.00    1.23252   1.19303   12.784
 6491.00    1.21488   1.18117   12.261
 6492.00    1.17719   1.16427   12.426
 6493.00    1.13541   1.14347   13.155
 6494.00    1.11080   1.12113   13.627
 6495.00    1.10319   1.10102   13.616
 6496.00    1.09390   1.08717   13.840
 6497.00    1.08460   1.08205   14.450
 6498.00    1.09645   1.08591   14.801
 6499.00    1.13222   1.09705   14.618
 6500.00    1.17368   1.11291   14.295
 6501.00    1.20443   1.13094   14.226
 6502.00    1.21830   1.14885   14.571
 6503.00    1.22428   1.16500   15.090
 6504.00    1.23680   1.17841   15.291
 6505.00    1.25350   1.18867   15.118
 6506.00    1.26236   1.19578   14.879
 6507.00    1.26419   1.20005   14.672
 6508.00    1.26790   1.20216   14.440
 6509.00    1.27491   1.20302   14.239
 6510.00    1.28023   1.20351   14.156
 6511.00    1.27861   1.20389   14.160
 6512.00    1.26723   1.20383   14.177
 6513.00    1.24813   1.20274   14.210
 6514.00    1.22633   1.20016   14.231
 6515.00    1.20680   1.19604   14.023
 6516.00    1.19138   1.19103   13.531
 6517.00    1.17601   1.18633   13.145
 6518.00    1.15538   1.18322   13.191
 6519.00    1.12860   1.18265   13.569
 6520.00    1.10375   1.18499   13.948
 6521.00    1.09973   1.18952   13.983
 6522.00    1.12737   1.19480   13.682
 6523.00    1.17463   1.19936   13.544
 6524.00    1.22297   1.20223   13.801
 6525.00    1.26113   1.20306   14.002
 6526.00    1.28305   1.20208   13.895
 6527.00    1.28666   1.20010   14.012
 6528.00    1.28017   1.19820    0.000
 6529.00    1.28202   1.19700    0.000
 6530.00    1.29585   1.19636    0.000
 6531.00    1.30113   1.19581    0.000
 6532.00    1.28287   1.19518    0.000
 6533.00    1.24612   1.19480    0.000
 6534.00    1.20627   1.19529    0.000
 6535.00    1.18104   1.19700    0.000
 6536.00    1.17851   1.19966    0.000
 6537.00    1.19438   1.20264    0.000
 6538.00    1.22165   1.20537    0.000
 6539.00    1.25362   1.20739    0.000
 6540.00    1.28011   1.20812    0.000
 6541.00    1.28900   1.20688    0.000
 6542.00    1.27529   1.20323    0.000
 6543.00    1.24407   1.19727    0.000
 6544.00    1.21007   1.18961    0.000
 6545.00    1.19158   1.18128    0.000
 6546.00    1.19520   1.17356    0.000
 6547.00    1.21338   1.16788    0.000
 6548.00    1.22861   1.16488    0.000
 6549.00    1.22465   1.16387    0.000
 6550.00    1.20743   1.16331    0.000
 6551.00    1.19571   1.16168    0.000
 6552.00    1.19447   1.15807    0.000
 6553.00    1.19651   1.15229    0.000
 6554.00    1.19461   1.14466    0.000
 6555.00    1.18487   1.13584    0.000
 6556.00    1.16847   1.12628    0.000
 6557.00    1.15181   1.11541    0.000
 6558.00    1.14562   1.10129    0.000
 6559.00    1.15679   1.08137    0.000
 6560.00    1.17841   1.05420    0.000
 6561.00    1.19663   1.02107    0.000
 6562.00    1.20105   0.98725    0.000
 6563.00    1.19285   0.96199    0.000
 6564.00    1.19007   0.95448    0.000
 6565.00    1.20390   0.96752    0.000
 6566.00    1.21732   0.99611    0.000
 6567.00    1.20907   1.03161    0.000
 6568.00    1.17610   1.06560    0.000
 6569.00    1.12988   1.09246    0.000
 6570.00    1.09001   1.11038    0.000
 6571.00    1.07053   1.12049    0.000
 6572.00    1.07127   1.12506    0.000
 6573.00    1.08655   1.12674    0.000
 6574.00    1.11193   1.12819    0.000
 6575.00    1.14756   1.13145    0.000
 6576.00    1.19704   1.13745    0.000
 6577.00    1.25109   1.14557    0.000
 6578.00    1.28479   1.15414    0.000
 6579.00    1.28803   1.16140    0.000
 6580.00    1.27611   1.16635    0.000
 6581.00    1.26971   1.16915    0.000
 6582.00    1.28226   1.17082    0.000
 6583.00    1.30783   1.17234    0.000
 6584.00    1.32459   1.17409    0.000
 6585.00    1.32381   1.17605    0.000
 6586.00    1.31476   1.17807    0.000
 6587.00    1.30551   1.17996    0.000
 6588.00    1.29673   1.18123    0.000
 6589.00    1.28313   1.18084    0.000
 6590.00    1.25908   1.17774    0.000
 6591.00    1.23195   1.17145    0.000
 6592.00    1.21703   1.16260    0.000
 6593.00    1.21707   1.15335    0.000
 6594.00    1.22193   1.14674    0.000
 6595.00    1.21910   1.14479    0.000
 6596.00    1.20133   1.14727    0.000
 6597.00    1.17662   1.15261    0.000
 6598.00    1.16078   1.15917    0.000
 6599.00    1.16101   1.16594    0.000
 6600.00    1.17482   1.17238    0.000
 6601.00    1.19332   1.17785    0.000
 6602.00    1.20593   1.18151    0.000
 6603.00    1.20642   1.18269    0.000
 6604.00    1.19588   1.18111    0.000
 6605.00    1.18471   1.17720    0.000
 6606.00    1.18490   1.17189    0.000
 6607.00    1.20024   1.16634    0.000
 6608.00    1.22352   1.16172    0.000
 6609.00    1.23631   1.15919   13.464
 6610.00    1.22477   1.15971   13.551
 6611.00    1.19450   1.16328   13.801
 6612.00    1.16214   1.16874   14.058
 6613.00    1.14521   1.17463   14.113
 6614.00    1.15132   1.18012   13.985
 6615.00    1.17162   1.18495   14.052
 6616.00    1.19392   1.18895   14.426
 6617.00    1.21217   1.19199   14.583
 6618.00    1.22209   1.19415   14.248
 6619.00    1.21881   1.19551   13.965
 6620.00    1.20360   1.19590   14.125
 6621.00    1.18642   1.19496   14.590
 6622.00    1.17703   1.19237   15.020
 6623.00    1.17898   1.18817   15.096
 6624.00    1.18508   1.18298   14.820
 6625.00    1.18051   1.17797   14.535
 6626.00    1.16635   1.17431   14.399
 6627.00    1.16199   1.17224   14.295
 6628.00    1.17260   1.17116   14.145
 6629.00    1.18296   1.17014   14.004
 6630.00    1.18418   1.16830   13.954
 6631.00    1.18021   1.16518   14.022
 6632.00    1.17571   1.16099   14.030
 6633.00    1.17317   1.15661   13.729
 6634.00    1.17693   1.15347   13.327
 6635.00    1.19016   1.15289   13.279
 6636.00    1.20409   1.15511   13.618
 6637.00    1.20454   1.15915   14.004
 6638.00    1.19442   1.16357   14.196
 6639.00    1.18907   1.16702   14.186
 6640.00    1.19373   1.16885   14.115
 6641.00    1.20338   1.16902   14.137
 6642.00    1.21262   1.16767   14.245
 6643.00    1.21732   1.16521   14.330
 6644.00    1.21429   1.16283   14.358
 6645.00    1.20369   1.16179   14.380
 6646.00    1.19287   1.16236   14.493
 6647.00    1.19304   1.16403   14.689
 6648.00    1.21273   1.16621   14.647
 6649.00    1.24910   1.16842   14.175
 6650.00    1.27909   1.17013   13.748
 6651.00    1.28021   1.17103   13.798
 6652.00    1.25637   1.17120   14.102
 6653.00    1.22604   1.17096   14.209
 6654.00    1.20529   1.17058   14.018
 6655.00    1.20001   1.17023   13.746
 6656.00    1.20127   1.16985   13.711
 6657.00    1.19897   1.16922   13.973
 6658.00    1.19381   1.16803   14.092
 6659.00    1.18992   1.16588   13.820
 6660.00    1.18841   1.16245   13.648
 6661.00    1.19073   1.15775   13.929
 6662.00    1.20092   1.15218   14.379
 6663.00    1.22091   1.14656   14.575
 6664.00    1.24656   1.14225   14.415
 6665.00    1.26439   1.14029   14.085
 6666.00    1.25487   1.14077   13.888
 6667.00    1.22146   1.14332   13.981
 6668.00    1.19780   1.14750   14.293
 6669.00    1.20266   1.15280   14.510
 6670.00    1.22247   1.15845   14.207
 6671.00    1.23796   1.16350   13.586
 6672.00    1.23827   1.16703   13.343
 6673.00    1.22639   1.16840   13.609
 6674.00    1.21488   1.16715   13.878
 6675.00    1.20309   1.16311   13.771
 6676.00    1.17737   1.15648   13.300
 6677.00    1.14017   1.14816   12.407
 6678.00    1.11098   1.14014   11.119
 6679.00    1.09960   1.13506    9.980
 6680.00    1.10035   1.13418    9.449
 6681.00    1.09971   1.13695    9.418
 6682.00    1.08638   1.14204    9.516
 6683.00    1.06984   1.14807    9.558
 6684.00    1.07151   1.15373    9.580
 6685.00    1.09507   1.15817    9.670
 6686.00    1.12896   1.16111    9.909
 6687.00    1.16472   1.16274   10.319
 6688.00    1.19661   1.16350   10.861
 6689.00    1.21421   1.16387   11.461
 6690.00    1.20759   1.16405   12.012
 6691.00    1.17800   1.16393   12.422
 6692.00    1.13859   1.16318   12.651
 6693.00    1.11219   1.16154   12.740
 6694.00    1.11806   1.15886   12.789
 6695.00    1.15481   1.15525   12.916
 6696.00    1.20241   1.15136    0.000
 6697.00    1.22949   1.14830    0.000
 6698.00    1.21767   1.14699    0.000
 6699.00    1.18514   1.14754    0.000
 6700.00    1.15695   1.14942    0.000
 6701.00    1.13416   1.15156    0.000
 6702.00    1.11281   1.15291    0.000
 6703.00    1.10244   1.15303    0.000
 6704.00    1.11155   1.15222    0.000
 6705.00    1.13498   1.15131    0.000
 6706.00    1.16220   1.15094    0.000
 6707.00    1.18457   1.15112    0.000
 6708.00    1.19694   1.15143    0.000
 6709.00    1.19756   1.15135    0.000
 6710.00    1.18226   1.15036    0.000
 6711.00    1.14459   1.14824    0.000
 6712.00    1.09664   1.14490    0.000
 6713.00    1.07434   1.14017    0.000
 6714.00    1.10325   1.13420    0.000
 6715.00    1.18004   1.12754    0.000
 6716.00    1.26960   1.12099    0.000
 6717.00    1.31674   1.11571    0.000
 6718.00    1.29694   1.11311    0.000
 6719.00    1.23217   1.11402    0.000
 6720.00    1.16899   1.11785    0.000
 6721.00    1.15429   1.12317    0.000
 6722.00    1.18501   1.12878    0.000
 6723.00    1.21315   1.13387    0.000
 6724.00    1.21321   1.13780    0.000
 6725.00    1.19575   1.14028    0.000
 6726.00    1.18518   1.14163    0.000
 6727.00    1.20319   1.14264    0.000
 6728.00    1.24434   1.14391    0.000
 6729.00    1.28204   1.14547    0.000
 6730.00    1.29571   1.14711    0.000
 6731.00    1.27901   1.14843    0.000
 6732.00    1.24275   1.14909    0.000
 6733.00    1.20228   1.14899    0.000
 6734.00    1.15418   1.14829    0.000
 6735.00    1.09423   1.14718    0.000
 6736.00    1.05280   1.14564    0.000
 6737.00    1.06608   1.14352    0.000
 6738.00    1.12478   1.14083    0.000
 6739.00    1.18981   1.13799    0.000
 6740.00    1.22562   1.13556    0.000
 6741.00    1.21835   1.13378    0.000
 6742.00    1.19056   1.13245    0.000
 6743.00    1.17001   1.13145    0.000
 6744.00    1.15417   1.13087    0.000
 6745.00    1.13019   1.13051    0.000
 6746.00    1.09910   1.12991    0.000
 6747.00    1.07340   1.12880    0.000
 6748.00    1.07051   1.12717    0.000
 6749.00    1.09325   1.12520    0.000
 6750.00    1.11829   1.12337    0.000
 6751.00    1.13146   1.12235    0.000
 6752.00    1.14995   1.12246    0.000
 6753.00    1.18050   1.12383   10.906
 6754.00    1.19669   1.12670   11.122
 6755.00    1.18830   1.13098   11.717
 6756.00    1.18463   1.13612   12.307
 6757.00    1.20248   1.14162   12.520
 6758.00    1.22258   1.14687   12.491
 6759.00    1.22698   1.15130   12.284
 6760.00    1.21670   1.15449   11.699
 6761.00    1.19911   1.15619   10.973
 6762.00    1.18214   1.15636   10.639
 6763.00    1.17643   1.15521   10.727
 6764.00    1.18972   1.15287   10.820
 6765.00    1.20265   1.14937   10.883
 6766.00    1.17725   1.14492   11.365
 6767.00    1.11663   1.14008   12.285
 6768.00    1.06556   1.13586   12.865
 6769.00    1.04807   1.13310   12.406
 6770.00    1.05816   1.13193   11.177
 6771.00    1.08980   1.13233    9.996
 6772.00    1.13965   1.13447    9.369
 6773.00    1.19212   1.13832    9.211
 6774.00    1.22422   1.14336    9.279
 6775.00    1.22522   1.14880    9.648
 6776.00    1.19969   1.15381   10.588
 6777.00    1.16357   1.15771   11.886
 6778.00    1.13586   1.16008   12.673
 6779.00    1.12500   1.16063   12.775
 6780.00    1.12793   1.15903   12.872
 6781.00    1.13345   1.15513   13.194
 6782.00    1.13112   1.14923   13.544
 6783.00    1.12333   1.14218   13.728
 6784.00    1.11823   1.13536   13.565
 6785.00    1.11734   1.13024   12.855
 6786.00    1.11784   1.12765   11.778
 6787.00    1.11734   1.12769   10.967
 6788.00    1.11253   1.12974   10.690
 6789.00    1.09776   1.13263   10.572
 6790.00    1.07389   1.13531   10.366
 6791.00    1.05615   1.13720   10.541
 6792.00    1.05803   1.13797   11.457
 6793.00    1.07655   1.13762   12.419
 6794.00    1.10426   1.13670   12.265
 6795.00    1.13911   1.13595   11.175
 6796.00    1.17208   1.13581   10.013
 6797.00    1.18108   1.13649    9.221
 6798.00    1.16156   1.13790    8.842
 6799.00    1.14327   1.13979    8.713
 6800.00    1.15638   1.14187    8.603
 6801.00    1.20892   1.14374    8.282
 6802.00    1.28664   1.14502    7.780
 6803.00    1.35807   1.14545    7.363
 6804.00    1.39702   1.14504    7.165
 6805.00    1.39472   1.14416    7.160
 6806.00    1.36045   1.14305    7.321
 6807.00    1.31589   1.14188    7.638
 6808.00    1.27129   1.14097    7.962
 6809.00    1.22292   1.14029    8.039
 6810.00    1.18307   1.13970    8.154
 6811.00    1.17768   1.13932    9.114
 6812.00    1.19839   1.13914   11.092
 6813.00    1.20404   1.13895   12.264
 6814.00    1.17819   1.13864   11.690
 6815.00    1.13681   1.13849   11.381
 6816.00    1.09687   1.13897   11.801
 6817.00    1.06936   1.14010   11.933
 6818.00    1.06506   1.14138   11.524
 6819.00    1.08864   1.14248   11.257
 6820.00    1.12220   1.14347   11.400
 6821.00    1.13664   1.14475   11.799
 6822.00    1.12310   1.14651   12.156
 6823.00    1.09408   1.14841   12.150
 6824.00    1.07221   1.14992   11.708
 6825.00    1.07651   1.15055   11.040
 6826.00    1.10342   1.15004   10.446
 6827.00    1.13645   1.14834   10.127
 6828.00    1.16603   1.14595   10.112
 6829.00    1.18660   1.14394   10.374
 6830.00    1.18866   1.14310   10.927
 6831.00    1.16893   1.14343   11.706
 6832.00    1.14312   1.14442   12.324
 6833.00    1.12586   1.14559   12.388
 6834.00    1.10782   1.14658   12.185
 6835.00    1.08106   1.14679   12.180
 6836.00    1.06574   1.14552   12.452
 6837.00    1.08061   1.14234   12.803
 6838.00    1.11411   1.13730   12.890
 6839.00    1.14103   1.13087   12.615
 6840.00    1.14084   1.12400   12.382
 6841.00    1.11105   1.11799   12.478
 6842.00    1.07332   1.11421   12.746
 6843.00    1.04882   1.11365   12.983
 6844.00    1.04189   1.11636   13.216
 6845.00    1.05169   1.12140   13.428
 6846.00    1.07868   1.12729   13.390
 6847.00    1.11395   1.13277   13.058
 6848.00    1.13737   1.13707   12.706
 6849.00    1.14180   1.13975   12.448
 6850.00    1.14069   1.14076   12.132
 6851.00    1.14200   1.14025   11.747
 6852.00    1.13963   1.13842   11.488
 6853.00    1.13259   1.13537   11.461
 6854.00    1.12783   1.13111   11.620
 6855.00    1.11833   1.12620   11.855
 6856.00    1.08564   1.12181   11.999
 6857.00    1.03902   1.11865   11.846
 6858.00    1.01371   1.11676   11.319
 6859.00    1.02135   1.11597   10.783
 6860.00    1.04351   1.11591   10.720
 6861.00    1.05992   1.11635   11.199
 6862.00    1.05977   1.11769   11.941
 6863.00    1.04835   1.12028   12.632
 6864.00    1.04152   1.12349   13.053
 6865.00    1.04897   1.12609   13.173
 6866.00    1.06949   1.12721   13.143
 6867.00    1.09025   1.12666   13.142
 6868.00    1.09727   1.12497   13.270
 6869.00    1.09525   1.12315   13.414
 6870.00    1.09802   1.12187   13.373
 6871.00    1.10595   1.12106   13.144
 6872.00    1.11089   1.12069   12.885
 6873.00    1.11028   1.12112   12.759
 6874.00    1.10885   1.12251   12.794
 6875.00    1.11703   1.12459   12.737
 6876.00    1.13821   1.12721   12.396
 6877.00    1.15425   1.13017   12.069
 6878.00    1.14831   1.13284   12.033
 6879.00    1.13183   1.13440   12.093
 6880.00    1.12260   1.13438   12.018
 6881.00    1.11918   1.13278   12.015
 6882.00    1.11430   1.13024   12.271
 6883.00    1.10971   1.12797   12.520
 6884.00    1.11169   1.12711   12.486
 6885.00    1.12517   1.12787   12.360
 6886.00    1.14742   1.13001   12.352
 6887.00    1.16540   1.13342   12.343
 6888.00    1.17055   1.13776   12.197
 6889.00    1.16826   1.14228   11.974
 6890.00    1.16818   1.14627   11.756
 6891.00    1.17597   1.14935   11.552
 6892.00    1.18505   1.15116   11.352
 6893.00    1.17717   1.15160   11.157
 6894.00    1.15060   1.15097   10.945
 6895.00    1.12917   1.14966   10.676
 6896.00    1.13196   1.14815   10.399
 6897.00    1.15877   1.14696   10.240
 6898.00    1.19411   1.14631   10.296
 6899.00    1.21426   1.14607   10.591
 6900.00    1.20660   1.14616   11.020
 6901.00    1.17671   1.14678   11.339
 6902.00    1.14524   1.14804   11.474
 6903.00    1.13818   1.14958   11.586
 6904.00    1.16057   1.15109   11.689
 6905.00    1.19520   1.15258   11.642
 6906.00    1.22401   1.15415   11.545
 6907.00    1.23543   1.15573   11.655
 6908.00    1.22648   1.15685   11.915
 6909.00    1.20161   1.15707   12.024
 6910.00    1.16878   1.15606   11.999
 6911.00    1.13810   1.15365   12.071
 6912.00    1.12082   1.15005   12.088
 6913.00    1.12152   1.14565   11.773
 6914.00    1.12446   1.14118   11.419
 6915.00    1.11181   1.13775   11.430
 6916.00    1.09891   1.13600   11.546
 6917.00    1.11112   1.13592   11.303
 6918.00    1.13841   1.13742   10.948
 6919.00    1.15699   1.14000   10.903
 6920.00    1.16964   1.14278   11.013
 6921.00    1.18651   1.14490   10.969
 6922.00    1.19386   1.14561   10.940
 6923.00    1.17464   1.14452   11.178
 6924.00    1.13655   1.14187   11.468
 6925.00    1.09987   1.13883   11.504
 6926.00    1.08006   1.13675   11.435
 6927.00    1.08140   1.13642   11.493
 6928.00    1.09386   1.13762   11.574
 6929.00    1.10689   1.13956   11.524
 6930.00    1.12053   1.14146   11.408
 6931.00    1.13269   1.14275   11.325
 6932.00    1.13076   1.14319   11.258
 6933.00    1.11177   1.14301   11.214
 6934.00    1.09427   1.14303   11.284
 6935.00    1.09510   1.14378   11.433
 6936.00    1.11406   1.14505   11.402
 6937.00    1.13920   1.14658   11.153
 6938.00    1.15378   1.14819   11.020
 6939.00    1.15292   1.14969   11.121
 6940.00    1.14756   1.15065   11.201
 6941.00    1.13960   1.15056   11.173
 6942.00    1.11604   1.14907   11.298
 6943.00    1.07801   1.14626   11.628
 6944.00    1.04699   1.14268   11.854
 6945.00    1.03639   1.13932   11.870
 6946.00    1.04336   1.13751   11.934
 6947.00    1.06195   1.13760   12.103
 6948.00    1.08659   1.13886   12.152
 6949.00    1.10716   1.14035   12.086
 6950.00    1.11389   1.14120   12.129
 6951.00    1.11612   1.14092   12.201
 6952.00    1.13221   1.13992   12.010
 6953.00    1.14927   1.13893   11.751
 6954.00    1.13730   1.13851   11.829
 6955.00    1.10856   1.13923   11.979
 6956.00    1.10439   1.14125   11.608
 6957.00    1.13532   1.14415   11.049
 6958.00    1.17790   1.14730   10.962
 6959.00    1.19588   1.15029   11.200
 6960.00    1.16520   1.15289   11.224
 6961.00    1.10880   1.15502   11.094
 6962.00    1.06850   1.15668   11.190
 6963.00    1.05072   1.15787   11.446
 6964.00    1.04276   1.15864   11.542
 6965.00    1.04850   1.15898   11.393
 6966.00    1.07372   1.15915   11.169
 6967.00    1.10127   1.15960   11.120
 6968.00    1.11202   1.16032   11.338
 6969.00    1.11233   1.16079   11.533
 6970.00    1.11493   1.16056   11.428
 6971.00    1.11596   1.15944   11.274
 6972.00    1.11032   1.15758   11.334
 6973.00    1.10748   1.15477   11.398
 6974.00    1.11387   1.15030   11.267
 6975.00    1.11772   1.14377   11.179
 6976.00    1.10652   1.13561   11.283
 6977.00    1.08188   1.12675   11.291
 6978.00    1.05538   1.11863   11.054
 6979.00    1.04253   1.11358   10.918
 6980.00    1.04918   1.11358   11.062
 6981.00    1.06484   1.11848   11.198
 6982.00    1.07775   1.12663   11.131
 6983.00    1.08390   1.13611   11.068
 6984.00    1.08414   1.14506   11.087
 6985.00    1.08195   1.15207   10.941
 6986.00    1.08123   1.15655   10.563
 6987.00    1.08410   1.15850   10.199
 6988.00    1.08638   1.15844   10.023
 6989.00    1.07970   1.15727   10.042
 6990.00    1.06814   1.15616   10.175
 6991.00    1.06807   1.15589   10.296
 6992.00    1.08274   1.15641   10.364
 6993.00    1.09811   1.15716   10.433
 6994.00    1.10085   1.15759   10.495
 6995.00    1.08638   1.15750   10.494
 6996.00    1.06385   1.15684   10.535
 6997.00    1.05192   1.15537   10.778
 6998.00    1.06356   1.15290   10.964
 6999.00    1.09590   1.14952   10.652
 7000.00    1.11714   1.14600   10.272
 7001.00    1.09032   1.14333   -2.000
 7002.00    1.03104   1.14172   -2.000
 7003.00    0.98984   1.14055   -2.000
 7004.00    0.99171   1.13938   -2.000
 7005.00    1.03047   1.13852   -2.000
 7006.00    1.08173   1.13842   -2.000
 7007.00    1.11672   1.13919   -2.000
 7008.00    1.12107   1.14073   -2.000
 7009.00    1.10197   1.14266   -2.000
 7010.00    1.09200   1.14425   -2.000
 7011.00    1.11673   1.14481   -2.000
 7012.00    1.15308   1.14414   -2.000
 7013.00    1.16678   1.14222   -2.000
 7014.00    1.16254   1.13886   -2.000
 7015.00    1.15687   1.13416   -2.000
 7016.00    1.14385   1.12939   -2.000
 7017.00    1.12263   1.12694   -2.000
 7018.00    1.12393   1.12815   -2.000
 7019.00    1.16293   1.13203   -2.000
 7020.00    1.20032   1.13675   -2.000
 7021.00    1.19923   1.14073   -2.000
 7022.00    1.17096   1.14272   -2.000
 7023.00    1.14112   1.14235   -2.000
 7024.00    1.12193   1.14066   -2.000
 7025.00    1.11586   1.13930   -2.000
 7026.00    1.12117   1.13927   -2.000
 7027.00    1.14294   1.14057   -2.000
 7028.00    1.19361   1.14287   -2.000
 7029.00    1.25839   1.14579   -2.000
 7030.00    1.28887   1.14880   -2.000
 7031.00    1.26901   1.15134   -2.000
 7032.00    1.23706   1.15294   -2.000
 7033.00    1.23009   1.15357   -2.000
 7034.00    1.25490   1.15341   -2.000
 7035.00    1.27794   1.15282   -2.000
 7036.00    1.24867   1.15214   -2.000
 7037.00    1.19683   1.15137   -2.000
 7038.00    1.21031   1.15095   -2.000
 7039.00    1.24232   1.15249   -2.000
 7040.00    1.15201   1.15712   -2.000
 7041.00    1.01988   1.16395   -2.000
 7042.00    1.08396   1.17133   -2.000
 7043.00    1.30607   1.17792   -2.000
 7044.00    1.42434   1.18281   -2.000
 7045.00    1.37872   1.18598   -2.000
 7046.00    1.30327   1.18811   -2.000
 7047.00    1.26796   1.18960   -2.000
 7048.00    1.25836   1.19012   -2.000
 7049.00    1.25584   1.18896   -2.000
 7050.00    1.25495   1.18547   -2.000
 7051.00    1.26354   1.17926   -2.000
 7052.00    1.28370   1.17039   -2.000
 7053.00    1.28255   1.15987   -2.000
 7054.00    1.22781   1.14950   -2.000
 7055.00    1.14606   1.14080   -2.000
 7056.00    1.08522   1.13448   -2.000
 7057.00    1.05324   1.13029   -2.000
 7058.00    1.03802   1.12724   -2.000
 7059.00    1.04116   1.12435   -2.000
 7060.00    1.06651   1.12147   -2.000
 7061.00    1.10367   1.11910   -2.000
 7062.00    1.13704   1.11752   -2.000
 7063.00    1.15628   1.11645   -2.000
 7064.00    1.14993   1.11563   -2.000
 7065.00    1.10273   1.11455   -2.000
 7066.00    1.03203   1.11273   -2.000
 7067.00    1.00705   1.11047   -2.000
 7068.00    1.05723   1.10862   -2.000
 7069.00    1.11559   1.10844   -2.000
 7070.00    1.12338   1.11080   -2.000
 7071.00    1.09696   1.11520   -2.000
 7072.00    1.07314   1.12052   -2.000
 7073.00    1.07150   1.12597   -2.000
 7074.00    1.09197   1.13091   -2.000
 7075.00    1.12031   1.13478   -2.000
 7076.00    1.15791   1.13746   -2.000
 7077.00    1.22657   1.13912   -2.000
 7078.00    1.32040   1.13992   -2.000
 7079.00    1.39404   1.13966   -2.000
 7080.00    1.40851   1.13803   -2.000
 7081.00    1.35252   1.13457   -2.000
 7082.00    1.24717   1.12868   -2.000
 7083.00    1.13586   1.12020   -2.000
 7084.00    1.04560   1.10983   -2.000
 7085.00    0.97793   1.09922   -2.000
 7086.00    0.92261   1.08985   -2.000
 7087.00    0.86601   1.08192   -2.000
 7088.00    0.80202   1.07528   -2.000
 7089.00    0.74315   1.07002   -2.000
 7090.00    0.73888   1.06604   -2.000
 7091.00    0.83065   1.06335   -2.000
 7092.00    0.94421   1.06189   -2.000
 7093.00    0.96235   1.06127   -2.000
 7094.00    0.91881   1.06150   -2.000
 7095.00    0.92902   1.06259   -2.000
 7096.00    0.99057   1.06457   -2.000
 7097.00    1.02767   1.06752   -2.000
 7098.00    1.02708   1.07146   -2.000
 7099.00    1.01978   1.07632   -2.000
 7100.00    1.01852   1.08103   -2.000
 7101.00    1.02332   1.08489   -2.000
 7102.00    1.04135   1.08769   -2.000
 7103.00    1.07480   1.08975   -2.000
 7104.00    1.10431   1.09153   -2.000
 7105.00    1.11331   1.09298   -2.000
 7106.00    1.11514   1.09358   -2.000
 7107.00    1.12054   1.09321   -2.000
 7108.00    1.10759   1.09227   -2.000
 7109.00    1.08769   1.09096   -2.000
 7110.00    1.14714   1.08916   -2.000
 7111.00    1.23897   1.08727   -2.000
 7112.00    1.07038   1.08629   -2.000
 7113.00    0.64706   1.08684   -2.000
 7114.00    0.56847   1.08865   -2.000
 7115.00    1.07181   1.09113   -2.000
 7116.00    1.50834   1.09386   -2.000
 7117.00    1.39893   1.09621   -2.000
 7118.00    1.01882   1.09769   -2.000
 7119.00    0.75035   1.09812   -2.000
 7120.00    0.70251   1.09752   -2.000
 7121.00    0.79061   1.09600   -2.000
 7122.00    0.83624   1.09375   -2.000
 7123.00    0.78997   1.09142   -2.000
 7124.00    0.77786   1.08899   -2.000
 7125.00    0.85763   1.08570   -2.000
 7126.00    0.94928   1.08147   -2.000
 7127.00    0.97704   1.07692   -2.000
 7128.00    0.92660   1.07249   -2.000
 7129.00    0.84417   1.06815   -2.000
 7130.00    0.80761   1.06414   -2.000
 7131.00    0.84224   1.06148   -2.000
 7132.00    0.91217   1.06132   -2.000
 7133.00    0.97186   1.06361   -2.000
 7134.00    0.98579   1.06767   -2.000
 7135.00    0.93967   1.07249   -2.000
 7136.00    0.84996   1.07719   -2.000
 7137.00    0.77773   1.08130   -2.000
 7138.00    0.79325   1.08420   -2.000
 7139.00    0.89805   1.08582   -2.000
 7140.00    1.03399   1.08688   -2.000
 7141.00    1.13253   1.08789   -2.000
 7142.00    1.14940   1.08853   -2.000
 7143.00    1.10527   1.08857   -2.000
 7144.00    1.05652   1.08792   -2.000
 7145.00    1.03971   1.08642   -2.000
 7146.00    1.06422   1.08405   -2.000
 7147.00    1.11449   1.08084   -2.000
 7148.00    1.15748   1.07751   -2.000
 7149.00    1.15470   1.07587   -2.000
 7150.00    1.10451   1.07680   -2.000
 7151.00    1.08161   1.07990   -2.000
 7152.00    1.15193   1.08471   -2.000
 7153.00    1.28350   1.09046   -2.000
 7154.00    1.39288   1.09595   -2.000
 7155.00    1.40132   1.10037   -2.000
 7156.00    1.26929   1.10392   -2.000
 7157.00    1.02293   1.10663   -2.000
 7158.00    0.75961   1.10772   -2.000
 7159.00    0.63047   1.10681   -2.000
 7160.00    0.69512   1.10430   -2.000
 7161.00    0.84430   1.10075   -2.000
 7162.00    0.96733   1.09632   -2.000
 7163.00    1.05368   1.09062   -2.000
 7164.00    1.13257   1.08427   -2.000
 7165.00    1.22675   1.07910   -2.000
 7166.00    1.31452   1.07699   -2.000
 7167.00    1.33023   1.07826   -2.000
 7168.00    1.25579   1.08186   -2.000
 7169.00    1.14370   1.08657   -2.000
 7170.00    1.02616   1.09164   -2.000
 7171.00    0.89189   1.09658   -2.000
 7172.00    0.75184   1.10082   -2.000
 7173.00    0.65801   1.10366   -2.000
 7174.00    0.67611   1.10460   -2.000
 7175.00    0.84371   1.10360   -2.000
 7176.00    1.07481   1.10119   -2.000
 7177.00    1.20737   1.09840   -2.000
 7178.00    1.21993   1.09556   -2.000
 7179.00    1.20700   1.09217   -2.000
 7180.00    1.15702   1.08818   -2.000
 7181.00    0.97961   1.08465   -2.000
 7182.00    0.70293   1.08283   -2.000
 7183.00    0.46851   1.08289   -2.000
 7184.00    0.41848   1.08344   -2.000
 7185.00    0.60512   1.08305   -2.000
 7186.00    0.87428   1.08107   -2.000
 7187.00    1.00926   1.07751   -2.000
 7188.00    1.00948   1.07360   -2.000
 7189.00    0.99810   1.07074   -2.000
 7190.00    1.00566   1.06966   -2.000
 7191.00    1.00684   1.07042   -2.000
 7192.00    1.01758   1.07220   -2.000
 7193.00    1.06037   1.07455   -2.000
 7194.00    1.10514   1.07746   -2.000
 7195.00    1.10583   1.08061   -2.000
 7196.00    1.05140   1.08307   -2.000
 7197.00    0.96175   1.08454   -2.000
 7198.00    0.87496   1.08576   -2.000
 7199.00    0.82022   1.08708   -2.000
 7200.00    0.79595   1.08810   -2.000
 7201.00    0.79769   1.08842   -2.000
 7202.00    0.84088   1.08816   -2.000
 7203.00    0.93429   1.08789   -2.000
 7204.00    1.05851   1.08742   -2.000
 7205.00    1.17469   1.08581   -2.000
 7206.00    1.23552   1.08242   -2.000
 7207.00    1.20916   1.07794   -2.000
 7208.00    1.09539   1.07459   -2.000
 7209.00    0.92922   1.07376   -2.000
 7210.00    0.77291   1.07550   -2.000
 7211.00    0.66514   1.07908   -2.000
 7212.00    0.60523   1.08307   -2.000
 7213.00    0.60790   1.08653   -2.000
 7214.00    0.70862   1.08941   -2.000
 7215.00    0.87068   1.09192   -2.000
 7216.00    0.98064   1.09424   -2.000
 7217.00    0.98985   1.09666   -2.000
 7218.00    0.94472   1.09911   -2.000
