###################################################################
## OUTPUT of StarlightChains_v04.for    [Cid@UFSC - 01/Apr/2007] ##
###################################################################

## Some input info
2006ct.txt                               [arq_obs]
Base.CB07.vall.4m                        [arq_base]
Masks.EmLines.NEW.gm                     [arq_masks]
StCv04.C11.config                        [arq_config]
   66                                    [N_base]
    0                                    [N_YAV_components = # of components with extra extinction!]
    0                                    [i_FitPowerLaw (1/0 = Yes/No)]
-9.99                                    [alpha_PowerLaw]
CCM                                      [red_law_option]
 1.458241                                [q_norm = A(l_norm)/A(V)]

## (Re)Sampling Parameters
 3741.00                                 [l_ini (A)]
 7218.00                                 [l_fin (A)]
    1.00                                 [dl    (A)]     (OBS: dl_cushion =    50.00 A)

## Normalization info
 4020.00                                 [l_norm (A) - for base]
 4010.00                                 [llow_norm (A) - window for f_obs]
 4060.00                                 [lupp_norm (A) - window for f_obs]
4.422469E-17                             [fobs_norm (in input units)]

## S/N
 3691.00                                 [llow_SN (A) - window for S/N]
 7268.00                                 [lupp_SN (A) - window for S/N]
   5.117                                 [S/N in S/N window]
   3.977                                 [S/N in norm. window]
  24.383                                 [S/N_err in S/N window]
  18.952                                 [S/N_err in norm. window]
  1.0000                                 [fscale_chi2]

## etc...
    -2007315                             [idum_orig]
  2310                                   [NOl_eff]
  2306                                   [Nl_eff]
     4    NSIGMA                         [Ntot_cliped & clip_method]
   509390                                [Nglobal_steps]
   7                                     [N_chains]
   7                                     [NEX0s_base = N_base in EX0s-fits]
 0   0   1       11   2.0   3.369E+01    [Clip-Bug, RC-Crash & Burn-In warning-flags, n_censored_weights, wei_nsig_threshold & wei_limit]
    12     12.213     11.479      0.733  [idt_all, wdt_TotTime, wdt_UsrTime & wdt_SysTime (sec)]

## Synthesis Results - Best model ##

 5.91016E-01                             [chi2/Nl_eff]
     3.12155                             [adev (%)]

   115.88199                             [sum-of-x (%)]
 3.80063E-17                             [Flux_tot (units of input spectrum!)]
 1.48719E-12                             [Mini_tot (???)]
 7.85268E-13                             [Mcor_tot (???)]

 -21.49                                  [v0_min  (km/s)]
 198.87                                  [vd_min  (km/s)]
-0.2226                                  [AV_min  (mag)]
 0.0000                                  [YAV_min (mag)]

# j     x_j(%)      Mini_j(%)     Mcor_j(%)     age_j(yr)     Z_j      (L/M)_j    YAV?  Mstars   component_j        a/Fe...       SSP_chi2r SSP_adev(%)   SSP_AV   SSP_x(%)
  1      0.0000     0.0000E+00    0.0000E+00    1.000000E+06  0.00400  1.094E-02    0   1.0000   age020_m42            0.0000     8.3567E+00    10.1911   3.6258    96.4720
  2      0.0000     0.0000E+00    0.0000E+00    3.160000E+06  0.00400  4.007E-02    0   0.9999   age045_m42            0.0000     7.2843E+00     9.2467   2.8648   105.0935
  3      0.0000     0.0000E+00    0.0000E+00    5.010000E+06  0.00400  2.539E-02    0   0.9488   age055_m42            0.0000     7.8529E+00     9.7146   3.1988   101.7460
  4      0.0000     0.0000E+00    0.0000E+00    6.610000E+06  0.00400  2.620E-02    0   0.9220   age061_m42            0.0000     7.4192E+00     9.3416   2.7849   105.6969
  5      0.0000     0.0000E+00    0.0000E+00    1.000000E+07  0.00400  1.322E-02    0   0.8862   age070_m42            0.0000     8.7224E+00    10.6052   2.4648   110.0705
  6      0.0000     0.0000E+00    0.0000E+00    1.445000E+07  0.00400  7.883E-03    0   0.8571   age078_m42            0.0000     8.9213E+00    10.7024   2.8092   106.3395
  7      0.0000     0.0000E+00    0.0000E+00    2.512000E+07  0.00400  5.251E-03    0   0.8174   age090_m42            0.0000     8.9972E+00    10.8505   2.3231   111.3422
  8      0.0000     0.0000E+00    0.0000E+00    4.000000E+07  0.00400  3.649E-03    0   0.7851   age104_m42            0.0000     8.3921E+00    10.5073   2.0888   112.6683
  9      0.0000     0.0000E+00    0.0000E+00    5.500000E+07  0.00400  3.098E-03    0   0.7629   age110_m42            0.0000     7.7599E+00     9.8130   2.2578   111.8400
 10      0.0000     0.0000E+00    0.0000E+00    1.015200E+08  0.00400  2.228E-03    0   0.7207   age116_m42            0.0000     7.3851E+00     9.4151   2.2875   111.5660
 11      0.0000     0.0000E+00    0.0000E+00    2.861200E+08  0.00400  1.093E-03    0   0.6648   age125_m42            0.0000     7.3022E+00     9.7722   1.6946   116.6860
 12      0.0000     0.0000E+00    0.0000E+00    5.088000E+08  0.00400  6.597E-04    0   0.6365   age130_m42            0.0000     6.2107E+00     8.9390   1.6924   117.1736
 13      0.0000     0.0000E+00    0.0000E+00    1.434000E+09  0.00400  2.132E-04    0   0.5798   age139_m42            0.0000     3.6262E+00     7.2708   0.6888   121.3226
 14      0.0000     0.0000E+00    0.0000E+00    4.250000E+09  0.00400  5.895E-05    0   0.5377   age158_m42            0.0000     1.8936E+00     5.5941   0.2684   115.4108
 15      0.0000     0.0000E+00    0.0000E+00    7.500000E+09  0.00400  3.510E-05    0   0.5212   age171_m42            0.0000     1.4217E+00     4.9272   0.0919   114.1147
 16      0.0000     0.0000E+00    0.0000E+00    1.300000E+10  0.00400  2.005E-05    0   0.5034   age193_m42            0.0000     1.1458E+00     4.4502  -0.0600   112.8967
 17      0.0000     0.0000E+00    0.0000E+00    1.800000E+10  0.00400  1.525E-05    0   0.4967   age213_m42            0.0000     1.1916E+00     4.5399  -0.0857   112.5196
 18      0.0000     0.0000E+00    0.0000E+00    1.000000E+06  0.00800  1.238E-02    0   1.0000   age020_m52            0.0000     8.3249E+00    10.1798   3.6231    96.6135
 19      0.0000     0.0000E+00    0.0000E+00    3.160000E+06  0.00800  3.074E-02    0   0.9966   age045_m52            0.0000     8.1828E+00    10.0597   3.5432    97.6226
 20      0.0000     0.0000E+00    0.0000E+00    5.010000E+06  0.00800  2.668E-02    0   0.9443   age055_m52            0.0000     7.8992E+00     9.8296   3.2838   100.6865
 21      0.0000     0.0000E+00    0.0000E+00    6.610000E+06  0.00800  2.136E-02    0   0.9177   age061_m52            0.0000     7.1626E+00    10.0473   1.9490   112.0821
 22      0.0000     0.0000E+00    0.0000E+00    1.000000E+07  0.00800  1.215E-02    0   0.8827   age070_m52            0.0000     9.2711E+00    11.1100   2.6424   110.0260
 23      0.0000     0.0000E+00    0.0000E+00    1.445000E+07  0.00800  8.717E-03    0   0.8552   age078_m52            0.0000     8.7123E+00    10.6145   2.7671   108.2252
 24      0.0000     0.0000E+00    0.0000E+00    2.512000E+07  0.00800  5.592E-03    0   0.8162   age090_m52            0.0000     8.8461E+00    10.8300   2.3835   112.9711
 25      0.0000     0.0000E+00    0.0000E+00    4.000000E+07  0.00800  3.896E-03    0   0.7841   age104_m52            0.0000     8.2164E+00    10.3891   2.2957   113.9324
 26      0.0000     0.0000E+00    0.0000E+00    1.015200E+08  0.00800  2.148E-03    0   0.7226   age116_m52            0.0000     7.2243E+00     9.6235   2.2409   113.3299
 27      0.0000     0.0000E+00    0.0000E+00    2.861200E+08  0.00800  9.925E-04    0   0.6683   age125_m52            0.0000     6.0173E+00     8.8708   1.7517   118.5669
 28      0.0000     0.0000E+00    0.0000E+00    9.047900E+08  0.00800  3.141E-04    0   0.6138   age135_m52            0.0000     2.8786E+00     6.8202   0.9318   124.9823
 29      0.0000     0.0000E+00    0.0000E+00    1.434000E+09  0.00800  1.719E-04    0   0.5853   age139_m52            0.0000     2.2056E+00     5.9949   0.3616   121.9392
 30      0.0000     0.0000E+00    0.0000E+00    2.500000E+09  0.00800  7.872E-05    0   0.5600   age150_m52            0.0000     1.2305E+00     4.5614   0.1180   117.0852
 31      0.0000     0.0000E+00    0.0000E+00    4.250000E+09  0.00800  4.336E-05    0   0.5426   age158_m52            0.0000     1.1706E+00     4.4538   0.1032   115.9299
 32      0.0000     0.0000E+00    0.0000E+00    6.250000E+09  0.00800  3.159E-05    0   0.5319   age166_m52            0.0000     8.2574E-01     3.6951  -0.0845   115.1977
 33      0.0000     0.0000E+00    0.0000E+00    1.300000E+10  0.00800  1.361E-05    0   0.5073   age193_m52            0.0000     5.7740E-01     3.1124  -0.5348   113.5303
 34     15.4771     3.4526E+01    3.2628E+01    1.800000E+10  0.00800  9.886E-06    0   0.4990   age213_m52            0.0000     6.2102E-01     3.2431  -0.6204   111.8615
 35      0.0000     0.0000E+00    0.0000E+00    1.000000E+06  0.02000  1.544E-02    0   1.0000   age020_m62            0.0000     8.3420E+00    10.2012   3.6186    96.8568
 36      0.0000     0.0000E+00    0.0000E+00    3.160000E+06  0.02000  3.762E-02    0   0.9858   age045_m62            0.0000     8.2829E+00    10.1661   3.5587    97.6826
 37      0.0000     0.0000E+00    0.0000E+00    5.010000E+06  0.02000  3.296E-02    0   0.9342   age055_m62            0.0000     7.4988E+00     9.3876   3.1580   103.0791
 38      0.0000     0.0000E+00    0.0000E+00    8.710000E+06  0.02000  1.154E-02    0   0.8861   age067_m62            0.0000     1.4565E+01    14.6796   2.0363   116.6546
 39      0.0000     0.0000E+00    0.0000E+00    1.445000E+07  0.02000  7.663E-03    0   0.8472   age078_m62            0.0000     1.0105E+01    12.0181   2.2660   114.0762
 40      0.0000     0.0000E+00    0.0000E+00    2.512000E+07  0.02000  4.532E-03    0   0.8099   age090_m62            0.0000     1.0618E+01    12.2514   2.2564   113.9652
 41      0.0000     0.0000E+00    0.0000E+00    5.500000E+07  0.02000  2.733E-03    0   0.7595   age110_m62            0.0000     8.2548E+00    10.3882   2.2830   112.8275
 42      0.0000     0.0000E+00    0.0000E+00    1.609000E+08  0.02000  1.369E-03    0   0.6985   age120_m62            0.0000     7.1637E+00     9.4727   2.1249   115.8183
 43      0.0000     0.0000E+00    0.0000E+00    2.861200E+08  0.02000  9.013E-04    0   0.6714   age125_m62            0.0000     6.2684E+00     8.9797   1.8618   119.8922
 44      0.0000     0.0000E+00    0.0000E+00    5.088000E+08  0.02000  5.028E-04    0   0.6449   age130_m62            0.0000     4.1284E+00     7.6393   1.4812   123.3562
 45      0.0000     0.0000E+00    0.0000E+00    9.047900E+08  0.02000  2.428E-04    0   0.6179   age135_m62            0.0000     2.1058E+00     5.8549   0.8934   122.8421
 46      0.0000     0.0000E+00    0.0000E+00    1.434000E+09  0.02000  1.263E-04    0   0.5908   age139_m62            0.0000     1.4055E+00     4.8842   0.4548   120.6859
 47      0.0000     0.0000E+00    0.0000E+00    2.500000E+09  0.02000  5.985E-05    0   0.5673   age150_m62            0.0000     8.9024E-01     3.8821   0.1147   117.5787
 48     33.8287     2.2808E+01    2.3619E+01    4.250000E+09  0.02000  3.271E-05    0   0.5468   age158_m62            0.0000     6.0934E-01     3.1837  -0.1659   115.2769
 49     13.8113     2.2396E+01    2.1916E+01    1.000000E+10  0.02000  1.360E-05    0   0.5167   age181_m62            0.0000     7.3862E-01     3.5308  -0.4826   113.2646
 50      0.0000     0.0000E+00    0.0000E+00    1.800000E+10  0.02000  7.124E-06    0   0.5013   age213_m62            0.0000     1.0964E+00     4.3703  -0.6580   110.6830
 51      0.0000     0.0000E+00    0.0000E+00    1.000000E+06  0.05000  2.592E-02    0   0.9998   age020_m72            0.0000     8.4359E+00    10.3134   3.6113    96.8151
 52      0.0000     0.0000E+00    0.0000E+00    3.160000E+06  0.05000  4.845E-02    0   0.9577   age045_m72            0.0000     7.9319E+00     9.8139   3.4368    99.2716
 53      0.0000     0.0000E+00    0.0000E+00    5.010000E+06  0.05000  3.072E-02    0   0.9147   age055_m72            0.0000     9.2619E+00    11.2206   2.9092   106.8881
 54      0.0000     0.0000E+00    0.0000E+00    6.610000E+06  0.05000  1.455E-02    0   0.8877   age061_m72            0.0000     1.9068E+01    17.0593   2.1102   117.8501
 55      0.0000     0.0000E+00    0.0000E+00    1.000000E+07  0.05000  9.074E-03    0   0.8524   age070_m72            0.0000     9.7892E+00    11.5125   3.1303   105.4036
 56      0.0000     0.0000E+00    0.0000E+00    2.512000E+07  0.05000  4.250E-03    0   0.7902   age090_m72            0.0000     9.4820E+00    11.2355   2.7863   109.2618
 57      0.0000     0.0000E+00    0.0000E+00    4.000000E+07  0.05000  3.087E-03    0   0.7618   age104_m72            0.0000     9.7477E+00    11.4122   2.5424   112.0107
 58      0.0000     0.0000E+00    0.0000E+00    1.015200E+08  0.05000  1.700E-03    0   0.7096   age116_m72            0.0000     7.8863E+00    10.0300   2.2646   115.6484
 59      0.0000     0.0000E+00    0.0000E+00    2.861200E+08  0.05000  7.384E-04    0   0.6633   age125_m72            0.0000     5.1175E+00     8.2676   1.7288   121.6569
 60      0.0000     0.0000E+00    0.0000E+00    5.088000E+08  0.05000  3.819E-04    0   0.6372   age130_m72            0.0000     2.8598E+00     6.4982   1.2328   123.7975
 61      0.0000     0.0000E+00    0.0000E+00    9.047900E+08  0.05000  1.676E-04    0   0.6110   age135_m72            0.0000     1.2031E+00     4.4054   0.5640   120.0704
 62     26.5962     6.6373E+00    7.3836E+00    1.434000E+09  0.05000  8.837E-05    0   0.5874   age139_m72            0.0000     7.7038E-01     3.6311   0.1132   119.4055
 63     26.1687     1.3634E+01    1.4454E+01    2.500000E+09  0.05000  4.233E-05    0   0.5598   age150_m72            0.0000     6.2931E-01     3.1810  -0.1574   115.8130
 64      0.0000     0.0000E+00    0.0000E+00    6.250000E+09  0.05000  1.435E-05    0   0.5249   age166_m72            0.0000     8.5457E-01     3.7908  -0.5663   112.1290
 65      0.0000     0.0000E+00    0.0000E+00    1.300000E+10  0.05000  6.513E-06    0   0.5036   age193_m72            0.0000     1.4474E+00     5.0067  -0.8019   111.0223
 66      0.0000     0.0000E+00    0.0000E+00    1.800000E+10  0.05000  4.527E-06    0   0.4945   age213_m72            0.0000     1.9257E+00     5.8029  -0.9323   109.3356


## Synthesis Results - Average & Chains ##

# j      x_j: min, <> & last-chain-values for 1 ...  7 chains
  1      0.0000      0.0044      0.0000      0.0314      0.0000      0.0000      0.0000      0.0000      0.0000
  2      0.0000      0.0100      0.0000      0.0581      0.0000      0.0000      0.0000      0.0000      0.0000
  3      0.0000      0.0036      0.0000      0.0000      0.0000      0.0000      0.0000      0.0000      0.0000
  4      0.0000      0.0067      0.0000      0.0000      0.0000      0.0405      0.0000      0.0000      0.0000
  5      0.0000      0.0074      0.0000      0.0000      0.0000      0.0000      0.0000      0.0000      0.0000
  6      0.0000      0.0067      0.0000      0.0000      0.0000      0.0000      0.0000      0.0000      0.0000
  7      0.0000      0.0075      0.0000      0.0000      0.0000      0.0000      0.0000      0.0062      0.0000
  8      0.0000      0.0057      0.0000      0.0000      0.0000      0.0000      0.0086      0.0000      0.0000
  9      0.0000      0.0080      0.0000      0.0000      0.0000      0.0000      0.0000      0.0000      0.0000
 10      0.0000      0.0111      0.0000      0.0000      0.0000      0.0000      0.0000      0.0000      0.0000
 11      0.0000      0.0058      0.0000      0.2712      0.0000      0.0000      0.0000      0.0000      0.0000
 12      0.0000      0.0121      0.0000      0.0000      0.0000      0.0000      0.0000      0.0000      0.0000
 13      0.0000      0.0400      0.0000      0.0000      0.0000      0.0000      0.0000      0.0000      0.0000
 14      0.0000      0.2112      0.0447      0.0000      0.0000      0.0000      0.0000      0.5390      0.0000
 15      0.0000      0.2488      0.0000      0.0000      0.0000      0.0000      0.0000      0.0000      0.0000
 16      0.0000      0.4976      1.2134      0.0000      0.0000      0.0000      0.4157      0.7210      0.0000
 17      0.0000      0.4324      0.0000      0.0000      0.0000      0.0000      0.0000      0.0000      0.0000
 18      0.0000      0.0038      0.0000      0.0000      0.0000      0.0000      0.0000      0.0000      0.0000
 19      0.0000      0.0061      0.0000      0.0000      0.0000      0.0000      0.0000      0.0053      0.0000
 20      0.0000      0.0077      0.0000      0.0000      0.0000      0.0019      0.0000      0.0000      0.0000
 21      0.0000      0.0046      0.0000      0.0000      0.0000      0.0000      0.0000      0.0000      0.0000
 22      0.0000      0.0074      0.0000      0.0000      0.0000      0.0000      0.0000      0.0000      0.0000
 23      0.0000      0.0071      0.0000      0.0000      0.0000      0.0000      0.0000      0.0000      0.0179
 24      0.0000      0.0126      0.0000      0.0000      0.0000      0.0000      0.0000      0.0000      0.0000
 25      0.0000      0.0128      0.0000      0.0000      0.0000      0.0000      0.0000      0.0000      0.0000
 26      0.0000      0.0037      0.0000      0.0000      0.0000      0.0000      0.0000      0.0000      0.0000
 27      0.0000      0.0105      0.0000      0.0000      0.0000      0.0000      0.0000      0.0000      0.0000
 28      0.0000      0.0407      0.4941      0.0000      0.0000      0.0000      0.0000      0.0000      0.0000
 29      0.0000      0.0770      0.0000      0.0000      0.0715      0.0000      0.0605      0.0668      0.0487
 30      0.0000      0.3048      0.0000      0.0000      0.0000      0.0000      1.3480      0.0000      0.0000
 31      0.0000      0.3120      0.1089      0.0000      0.3300      0.0000      0.0000      0.0000      0.0000
 32      0.0000      1.0854      0.0000      1.2049      3.8128      0.8971      0.0000      0.0000      0.6423
 33      0.0000      0.1494      0.0000      0.0000      0.0000      0.0000      0.0000      0.0000      0.0000
 34     15.4771      0.2070      0.0000      0.0285      0.0877      0.0000      1.1038      0.1564      0.0000
 35      0.0000      0.0027      0.0000      0.0000      0.0000      0.0000      0.0000      0.0000      0.0000
 36      0.0000      0.0059      0.0000      0.0000      0.0000      0.0000      0.0000      0.0000      0.0000
 37      0.0000      0.0020      0.0000      0.0000      0.0000      0.0000      0.0000      0.0000      0.0000
 38      0.0000      0.0119      0.0000      0.0000      0.0000      0.0000      0.0000      0.0000      0.0000
 39      0.0000      0.0126      0.0172      0.0000      0.0000      0.0000      0.0140      0.0000      0.0000
 40      0.0000      0.0083      0.0000      0.0000      0.0000      0.0000      0.0000      0.0000      0.0000
 41      0.0000      0.0133      0.0000      0.0000      0.0000      0.0000      0.0000      0.0000      0.0000
 42      0.0000      0.0032      0.0451      0.0000      0.0139      0.0000      0.0000      0.0000      0.0000
 43      0.0000      0.0129      0.0000      0.0000      0.0000      0.0000      0.0000      0.1957      0.0000
 44      0.0000      0.0169      0.0000      0.0000      0.0000      0.0000      0.0000      0.0000      0.0000
 45      0.0000      0.1338      0.0000      0.3278      0.0000      0.2165      0.0000      0.0000      0.6226
 46      0.0000      0.4272      0.0000      0.0000      0.0000      0.0000      0.0000      0.9617      0.7683
 47      0.0000      0.7195      0.1267      0.0000      0.0000      0.0000      0.1871      0.0000      0.6460
 48     33.8287     29.8558     30.3216     30.0946     29.6780     30.9103     30.2482     31.3480     30.4912
 49     13.8113      1.4642      1.2331      1.9405      0.8759      3.2299      1.4232      2.2275      0.8582
 50      0.0000      0.1773      0.0000      0.0520      0.0000      0.8397      0.0000      0.0000      0.9080
 51      0.0000      0.0016      0.0000      0.0000      0.0000      0.0000      0.0000      0.0000      0.0000
 52      0.0000      0.0047      0.0000      0.0000      0.0000      0.0000      0.0000      0.0000      0.0000
 53      0.0000      0.0048      0.0000      0.0000      0.0000      0.0000      0.0000      0.0000      0.0000
 54      0.0000      0.0047      0.0000      0.0000      0.0153      0.0000      0.0000      0.0000      0.0000
 55      0.0000      0.0023      0.0000      0.0000      0.0000      0.0000      0.0000      0.0000      0.0000
 56      0.0000      0.0096      0.0000      0.0000      0.0000      0.0000      0.0000      0.0000      0.0000
 57      0.0000      0.0074      0.0000      0.0000      0.0000      0.0000      0.0000      0.0000      0.0000
 58      0.0000      0.0098      0.0000      0.0052      0.0000      0.1006      0.0000      0.0000      0.0000
 59      0.0000      0.0056      0.0000      0.0000      0.0915      0.0000      0.0000      0.0000      0.0000
 60      0.0000      0.0494      0.0000      0.0474      0.0000      0.0000      0.0000      0.0000      0.0000
 61      0.0000      7.9457      7.6526      6.9042      8.7249      7.8498      7.9418      6.8226      8.3732
 62     26.5962     27.8275     27.5588     28.1164     27.7827     28.2204     29.0064     28.7152     28.7353
 63     26.1687     42.9902     45.5928     45.9188     43.7795     43.7014     43.9359     44.1017     42.7169
 64      0.0000      0.5614      1.6806      1.0043      0.8715      0.0000      0.8860      0.6414      1.0125
 65      0.0000      0.1129      0.0000      0.1808      0.1178      0.0000      0.0890      0.0000      0.0000
 66      0.0000      0.1021      0.0000      0.0000      0.0000      0.0000      0.0000      0.0000      0.4889

# j      m_j: min, <> & last-chain-values for 1 ...  7 chains
  1  0.0000E+00  2.7537E-05  0.0000E+00  1.9453E-04  0.0000E+00  0.0000E+00  0.0000E+00  0.0000E+00  0.0000E+00
  2  0.0000E+00  1.6902E-05  0.0000E+00  9.8336E-05  0.0000E+00  0.0000E+00  0.0000E+00  0.0000E+00  0.0000E+00
  3  0.0000E+00  9.2299E-06  0.0000E+00  0.0000E+00  0.0000E+00  0.0000E+00  0.0000E+00  0.0000E+00  0.0000E+00
  4  0.0000E+00  1.5993E-05  0.0000E+00  0.0000E+00  0.0000E+00  9.4580E-05  0.0000E+00  0.0000E+00  0.0000E+00
  5  0.0000E+00  3.3515E-05  0.0000E+00  0.0000E+00  0.0000E+00  0.0000E+00  0.0000E+00  0.0000E+00  0.0000E+00
  6  0.0000E+00  4.9738E-05  0.0000E+00  0.0000E+00  0.0000E+00  0.0000E+00  0.0000E+00  0.0000E+00  0.0000E+00
  7  0.0000E+00  7.9550E-05  0.0000E+00  0.0000E+00  0.0000E+00  0.0000E+00  0.0000E+00  6.5399E-05  0.0000E+00
  8  0.0000E+00  8.3284E-05  0.0000E+00  0.0000E+00  0.0000E+00  0.0000E+00  1.2483E-04  0.0000E+00  0.0000E+00
  9  0.0000E+00  1.3408E-04  0.0000E+00  0.0000E+00  0.0000E+00  0.0000E+00  0.0000E+00  0.0000E+00  0.0000E+00
 10  0.0000E+00  2.4345E-04  0.0000E+00  0.0000E+00  0.0000E+00  0.0000E+00  0.0000E+00  0.0000E+00  0.0000E+00
 11  0.0000E+00  2.4163E-04  0.0000E+00  1.1197E-02  0.0000E+00  0.0000E+00  0.0000E+00  0.0000E+00  0.0000E+00
 12  0.0000E+00  7.9453E-04  0.0000E+00  0.0000E+00  0.0000E+00  0.0000E+00  0.0000E+00  0.0000E+00  0.0000E+00
 13  0.0000E+00  7.3956E-03  0.0000E+00  0.0000E+00  0.0000E+00  0.0000E+00  0.0000E+00  0.0000E+00  0.0000E+00
 14  0.0000E+00  1.3084E-01  2.7857E-02  0.0000E+00  0.0000E+00  0.0000E+00  0.0000E+00  3.3515E-01  0.0000E+00
 15  0.0000E+00  2.5090E-01  0.0000E+00  0.0000E+00  0.0000E+00  0.0000E+00  0.0000E+00  0.0000E+00  0.0000E+00
 16  0.0000E+00  8.4850E-01  2.0814E+00  0.0000E+00  0.0000E+00  0.0000E+00  7.0535E-01  1.2342E+00  0.0000E+00
 17  0.0000E+00  9.5651E-01  0.0000E+00  0.0000E+00  0.0000E+00  0.0000E+00  0.0000E+00  0.0000E+00  0.0000E+00
 18  0.0000E+00  2.0852E-05  0.0000E+00  0.0000E+00  0.0000E+00  0.0000E+00  0.0000E+00  0.0000E+00  0.0000E+00
 19  0.0000E+00  1.3377E-05  0.0000E+00  0.0000E+00  0.0000E+00  0.0000E+00  0.0000E+00  1.1619E-05  0.0000E+00
 20  0.0000E+00  1.8413E-05  0.0000E+00  0.0000E+00  0.0000E+00  4.4018E-06  0.0000E+00  0.0000E+00  0.0000E+00
 21  0.0000E+00  1.3494E-05  0.0000E+00  0.0000E+00  0.0000E+00  0.0000E+00  0.0000E+00  0.0000E+00  0.0000E+00
 22  0.0000E+00  3.6431E-05  0.0000E+00  0.0000E+00  0.0000E+00  0.0000E+00  0.0000E+00  0.0000E+00  0.0000E+00
 23  0.0000E+00  4.7519E-05  0.0000E+00  0.0000E+00  0.0000E+00  0.0000E+00  0.0000E+00  0.0000E+00  1.1673E-04
 24  0.0000E+00  1.2506E-04  0.0000E+00  0.0000E+00  0.0000E+00  0.0000E+00  0.0000E+00  0.0000E+00  0.0000E+00
 25  0.0000E+00  1.7553E-04  0.0000E+00  0.0000E+00  0.0000E+00  0.0000E+00  0.0000E+00  0.0000E+00  0.0000E+00
 26  0.0000E+00  8.5590E-05  0.0000E+00  0.0000E+00  0.0000E+00  0.0000E+00  0.0000E+00  0.0000E+00  0.0000E+00
 27  0.0000E+00  4.7834E-04  0.0000E+00  0.0000E+00  0.0000E+00  0.0000E+00  0.0000E+00  0.0000E+00  0.0000E+00
 28  0.0000E+00  5.4004E-03  6.5967E-02  0.0000E+00  0.0000E+00  0.0000E+00  0.0000E+00  0.0000E+00  0.0000E+00
 29  0.0000E+00  1.7803E-02  0.0000E+00  0.0000E+00  1.6920E-02  0.0000E+00  1.3929E-02  1.5510E-02  1.1017E-02
 30  0.0000E+00  1.4727E-01  0.0000E+00  0.0000E+00  0.0000E+00  0.0000E+00  6.4813E-01  0.0000E+00  0.0000E+00
 31  0.0000E+00  2.6520E-01  9.3104E-02  0.0000E+00  2.8703E-01  0.0000E+00  0.0000E+00  0.0000E+00  0.0000E+00
 32  0.0000E+00  1.2412E+00  0.0000E+00  1.3770E+00  4.4616E+00  1.0014E+00  0.0000E+00  0.0000E+00  7.1839E-01
 33  0.0000E+00  3.7808E-01  0.0000E+00  0.0000E+00  0.0000E+00  0.0000E+00  0.0000E+00  0.0000E+00  0.0000E+00
 34  3.2628E+01  7.0968E-01  0.0000E+00  9.7780E-02  3.0768E-01  0.0000E+00  3.7659E+00  5.3805E-01  0.0000E+00
 35  0.0000E+00  1.1693E-05  0.0000E+00  0.0000E+00  0.0000E+00  0.0000E+00  0.0000E+00  0.0000E+00  0.0000E+00
 36  0.0000E+00  1.0421E-05  0.0000E+00  0.0000E+00  0.0000E+00  0.0000E+00  0.0000E+00  0.0000E+00  0.0000E+00
 37  0.0000E+00  3.7903E-06  0.0000E+00  0.0000E+00  0.0000E+00  0.0000E+00  0.0000E+00  0.0000E+00  0.0000E+00
 38  0.0000E+00  6.1925E-05  0.0000E+00  0.0000E+00  0.0000E+00  0.0000E+00  0.0000E+00  0.0000E+00  0.0000E+00
 39  0.0000E+00  9.4274E-05  1.2971E-04  0.0000E+00  0.0000E+00  0.0000E+00  1.0449E-04  0.0000E+00  0.0000E+00
 40  0.0000E+00  1.0027E-04  0.0000E+00  0.0000E+00  0.0000E+00  0.0000E+00  0.0000E+00  0.0000E+00  0.0000E+00
 41  0.0000E+00  2.5008E-04  0.0000E+00  0.0000E+00  0.0000E+00  0.0000E+00  0.0000E+00  0.0000E+00  0.0000E+00
 42  0.0000E+00  1.1055E-04  1.5726E-03  0.0000E+00  4.9342E-04  0.0000E+00  0.0000E+00  0.0000E+00  0.0000E+00
 43  0.0000E+00  6.5304E-04  0.0000E+00  0.0000E+00  0.0000E+00  0.0000E+00  0.0000E+00  9.9397E-03  0.0000E+00
 44  0.0000E+00  1.4756E-03  0.0000E+00  0.0000E+00  0.0000E+00  0.0000E+00  0.0000E+00  0.0000E+00  0.0000E+00
 45  0.0000E+00  2.3130E-02  0.0000E+00  5.6616E-02  0.0000E+00  3.6520E-02  0.0000E+00  0.0000E+00  1.0526E-01
 46  0.0000E+00  1.3570E-01  0.0000E+00  0.0000E+00  0.0000E+00  0.0000E+00  0.0000E+00  3.0668E-01  2.3873E-01
 47  0.0000E+00  4.6317E-01  8.2031E-02  0.0000E+00  0.0000E+00  0.0000E+00  1.1988E-01  0.0000E+00  4.0676E-01
 48  2.3619E+01  3.3895E+01  3.4631E+01  3.4146E+01  3.4478E+01  3.4257E+01  3.4176E+01  3.5724E+01  3.3859E+01
 49  2.1916E+01  3.7781E+00  3.2009E+00  5.0041E+00  2.3127E+00  8.1356E+00  3.6545E+00  5.7692E+00  2.1659E+00
 50  0.0000E+00  8.4746E-01  0.0000E+00  2.4843E-01  0.0000E+00  3.9176E+00  0.0000E+00  0.0000E+00  4.2445E+00
 51  0.0000E+00  4.0695E-06  0.0000E+00  0.0000E+00  0.0000E+00  0.0000E+00  0.0000E+00  0.0000E+00  0.0000E+00
 52  0.0000E+00  6.2905E-06  0.0000E+00  0.0000E+00  0.0000E+00  0.0000E+00  0.0000E+00  0.0000E+00  0.0000E+00
 53  0.0000E+00  9.7750E-06  0.0000E+00  0.0000E+00  0.0000E+00  0.0000E+00  0.0000E+00  0.0000E+00  0.0000E+00
 54  0.0000E+00  1.9411E-05  0.0000E+00  0.0000E+00  6.4742E-05  0.0000E+00  0.0000E+00  0.0000E+00  0.0000E+00
 55  0.0000E+00  1.4420E-05  0.0000E+00  0.0000E+00  0.0000E+00  0.0000E+00  0.0000E+00  0.0000E+00  0.0000E+00
 56  0.0000E+00  1.2112E-04  0.0000E+00  0.0000E+00  0.0000E+00  0.0000E+00  0.0000E+00  0.0000E+00  0.0000E+00
 57  0.0000E+00  1.2472E-04  0.0000E+00  0.0000E+00  0.0000E+00  0.0000E+00  0.0000E+00  0.0000E+00  0.0000E+00
 58  0.0000E+00  2.7699E-04  0.0000E+00  1.4719E-04  0.0000E+00  2.7852E-03  0.0000E+00  0.0000E+00  0.0000E+00
 59  0.0000E+00  3.4374E-04  0.0000E+00  0.0000E+00  5.7137E-03  0.0000E+00  0.0000E+00  0.0000E+00  0.0000E+00
 60  0.0000E+00  5.5983E-03  0.0000E+00  5.3640E-03  0.0000E+00  0.0000E+00  0.0000E+00  0.0000E+00  0.0000E+00
 61  0.0000E+00  1.9673E+00  1.9061E+00  1.7084E+00  2.2105E+00  1.8972E+00  1.9569E+00  1.6956E+00  2.0277E+00
 62  7.3836E+00  1.2562E+01  1.2516E+01  1.2685E+01  1.2834E+01  1.2436E+01  1.3032E+01  1.3012E+01  1.2688E+01
 63  1.4454E+01  3.8612E+01  4.1195E+01  4.1217E+01  4.0236E+01  3.8316E+01  3.9272E+01  3.9760E+01  3.7526E+01
 64  0.0000E+00  1.3946E+00  4.1999E+00  2.4934E+00  2.2153E+00  0.0000E+00  2.1906E+00  1.5995E+00  2.4603E+00
 65  0.0000E+00  5.9284E-01  0.0000E+00  9.4892E-01  6.3292E-01  0.0000E+00  4.6523E-01  0.0000E+00  0.0000E+00
 66  0.0000E+00  7.5756E-01  0.0000E+00  0.0000E+00  0.0000E+00  0.0000E+00  0.0000E+00  0.0000E+00  3.5476E+00

# AV, chi2 & Mass for <> & i_chain = 1 ...  7 solutions
AV      -0.2226     -0.0464     -0.0541     -0.0583     -0.0475     -0.0560     -0.0643     -0.0595     -0.0514
chi2 5.9102E-01  6.4035E-01  6.3474E-01  6.3350E-01  6.3821E-01  6.3439E-01  6.3121E-01  6.3239E-01  6.3635E-01
Mass 7.8527E-13  6.1183E-13  6.0196E-13  6.0249E-13  5.9701E-13  6.1877E-13  6.0019E-13  5.9891E-13  6.2133E-13
 -21.49                                  [v0_min (km/s) before EX0s...]
 198.87                                  [vd_min (km/s) before EX0s...]


## Synthetic spectrum (Best Model) ##l_obs f_obs f_syn wei
 3478    [Nl_obs]
 3741.00    0.63758   0.57640    0.000
 3742.00    0.64437   0.56580    0.000
 3743.00    0.61767   0.54155    0.000
 3744.00    0.56783   0.51002    0.000
 3745.00    0.50290   0.47773   19.885
 3746.00    0.43424   0.45052   23.029
 3747.00    0.38809   0.43359   25.767
 3748.00    0.38873   0.43156   25.725
 3749.00    0.43407   0.44738   23.038
 3750.00    0.50294   0.48061   19.883
 3751.00    0.56879   0.52622   17.581
 3752.00    0.61381   0.57518   16.292
 3753.00    0.64060   0.61682   15.610
 3754.00    0.65815   0.64215   15.194
 3755.00    0.66905   0.64703   14.947
 3756.00    0.67516   0.63384   14.811
 3757.00    0.68095   0.61061   14.685
 3758.00    0.68025   0.58756   14.701
 3759.00    0.65346   0.57246   15.303
 3760.00    0.60620   0.56784   16.496
 3761.00    0.58127   0.57130   17.204
 3762.00    0.60191   0.57822   16.614
 3763.00    0.64876   0.58459   15.414
 3764.00    0.69125   0.58857   14.466
 3765.00    0.70680   0.59051   14.148
 3766.00    0.69683   0.59220   14.351
 3767.00    0.68437   0.59600   14.612
 3768.00    0.68612   0.60390   14.575
 3769.00    0.70424   0.61683   14.200
 3770.00    0.73050   0.63428   13.689
 3771.00    0.75149   0.65440   13.307
 3772.00    0.75806   0.67462   13.192
 3773.00    0.74842   0.69267   13.361
 3774.00    0.72927   0.70761   13.712
 3775.00    0.71111   0.72023   14.062
 3776.00    0.69943   0.73243   14.297
 3777.00    0.69805   0.74594   14.326
 3778.00    0.71708   0.76119   13.945
 3779.00    0.76506   0.77688   13.071
 3780.00    0.83621   0.79036   11.959
 3781.00    0.91068   0.79828   10.981
 3782.00    0.95855   0.79747   10.432
 3783.00    0.95765   0.78573   10.442
 3784.00    0.91134   0.76277   10.973
 3785.00    0.83755   0.73109   11.940
 3786.00    0.75641   0.69576   13.220
 3787.00    0.68709   0.66290   14.554
 3788.00    0.64538   0.63732   15.495
 3789.00    0.63840   0.62056   15.664
 3790.00    0.66022   0.61056   15.147
 3791.00    0.68719   0.60309   14.552
 3792.00    0.68281   0.59398   14.645
 3793.00    0.63760   0.58113   15.684
 3794.00    0.58272   0.56521   17.161
 3795.00    0.55055   0.54931   18.164
 3796.00    0.55410   0.53787   18.047
 3797.00    0.58231   0.53548   17.173
 3798.00    0.60766   0.54547   16.457
 3799.00    0.61802   0.56851   16.181
 3800.00    0.62200   0.60178   16.077
 3801.00    0.62977   0.63943   15.879
 3802.00    0.64531   0.67441   15.496
 3803.00    0.66230   0.70107   15.099
 3804.00    0.67090   0.71711   14.905
 3805.00    0.67503   0.72418   14.814
 3806.00    0.68453   0.72654   14.609
 3807.00    0.69224   0.72825   14.446
 3808.00    0.68456   0.73057   14.608
 3809.00    0.66694   0.73104   14.994
 3810.00    0.65318   0.72511   15.310
 3811.00    0.64324   0.70933   15.546
 3812.00    0.63235   0.68390   15.814
 3813.00    0.62635   0.65303   15.966
 3814.00    0.63014   0.62281   15.869
 3815.00    0.63333   0.59803   15.790
 3816.00    0.62203   0.58016   16.076
 3817.00    0.59264   0.56740   16.874
 3818.00    0.55526   0.55690   18.009
 3819.00    0.53225   0.54671   18.788
 3820.00    0.53114   0.53635   18.827
 3821.00    0.52925   0.52568   18.895
 3822.00    0.50806   0.51399   19.683
 3823.00    0.47456   0.50046   21.072
 3824.00    0.44716   0.48537   22.363
 3825.00    0.44358   0.47063   22.544
 3826.00    0.46485   0.45880   21.512
 3827.00    0.49216   0.45110   20.318
 3828.00    0.50700   0.44648   19.724
 3829.00    0.50156   0.44228   19.938
 3830.00    0.48355   0.43605   20.680
 3831.00    0.47129   0.42722   21.219
 3832.00    0.47288   0.41737   21.147
 3833.00    0.48069   0.40919   20.803
 3834.00    0.47582   0.40476   21.016
 3835.00    0.44236   0.40472   22.606
 3836.00    0.39767   0.40864   25.146
 3837.00    0.37964   0.41642   26.341
 3838.00    0.40477   0.42912   24.706
 3839.00    0.46253   0.44846   21.620
 3840.00    0.52297   0.47529   19.122
 3841.00    0.55788   0.50819   17.925
 3842.00    0.57084   0.54343   17.518
 3843.00    0.57719   0.57631   17.325
 3844.00    0.57150   0.60293   17.498
 3845.00    0.54786   0.62137   18.253
 3846.00    0.52712   0.63178   18.971
 3847.00    0.52716   0.63575    0.000
 3848.00    0.53154   0.63562    0.000
 3849.00    0.52335   0.63374    0.000
 3850.00    0.51614   0.63166    0.000
 3851.00    0.52845   0.62948    0.000
 3852.00    0.56106   0.62592    0.000
 3853.00    0.59537   0.61918    0.000
 3854.00    0.60013   0.60821    0.000
 3855.00    0.57156   0.59349    0.000
 3856.00    0.54641   0.57716    0.000
 3857.00    0.54191   0.56267    0.000
 3858.00    0.53612   0.55409    0.000
 3859.00    0.52563   0.55482    0.000
 3860.00    0.53953   0.56607    0.000
 3861.00    0.58724   0.58569    0.000
 3862.00    0.64519   0.60861    0.000
 3863.00    0.68458   0.62886    0.000
 3864.00    0.68836   0.64192    0.000
 3865.00    0.67088   0.64603    0.000
 3866.00    0.66453   0.64181    0.000
 3867.00    0.67166   0.63118    0.000
 3868.00    0.67173   0.61660    0.000
 3869.00    0.66445   0.60111    0.000
 3870.00    0.66525   0.58840    0.000
 3871.00    0.67766   0.58200    0.000
 3872.00    0.69236   0.58370    0.000
 3873.00    0.69543   0.59215    0.000
 3874.00    0.67854   0.60300    0.000
 3875.00    0.65098   0.61099    0.000
 3876.00    0.62637   0.61269    0.000
 3877.00    0.60461   0.60806    0.000
 3878.00    0.58425   0.59996    0.000
 3879.00    0.57661   0.59185    0.000
 3880.00    0.58447   0.58586    0.000
 3881.00    0.58373   0.58200   17.131
 3882.00    0.55710   0.57870   17.950
 3883.00    0.52121   0.57403   19.186
 3884.00    0.50515   0.56706   19.796
 3885.00    0.52925   0.55887   18.895
 3886.00    0.58135   0.55273   17.201
 3887.00    0.61352   0.55300   16.299
 3888.00    0.60394   0.56312   16.558
 3889.00    0.58253   0.58369   17.166
 3890.00    0.58529   0.61192   17.085
 3891.00    0.62627   0.64260   15.967
 3892.00    0.67876   0.67040   14.733
 3893.00    0.69017   0.69185   14.489
 3894.00    0.66102   0.70629   15.128
 3895.00    0.64546   0.71521   15.493
 3896.00    0.66262   0.72088   15.092
 3897.00    0.68892   0.72503   14.516
 3898.00    0.71435   0.72839   13.999
 3899.00    0.74501   0.73073   13.423
 3900.00    0.77188   0.73124   12.955
 3901.00    0.77402   0.72916   12.920
 3902.00    0.74054   0.72458   13.504
 3903.00    0.68077   0.71914   14.689
 3904.00    0.63251   0.71606   15.810
 3905.00    0.63248   0.71899   15.811
 3906.00    0.67068   0.73027   14.910
 3907.00    0.71753   0.74954   13.937
 3908.00    0.76796   0.77364   13.021
 3909.00    0.82120   0.79792   12.177
 3910.00    0.85322   0.81790   11.720
 3911.00    0.84937   0.83062   11.773
 3912.00    0.83628   0.83501   11.958
 3913.00    0.83694   0.83142   11.948
 3914.00    0.83346   0.82097   11.998
 3915.00    0.81155   0.80495   12.322
 3916.00    0.79169   0.78460   12.631
 3917.00    0.78801   0.76120   12.690
 3918.00    0.78345   0.73639   12.764
 3919.00    0.75818   0.71221   13.190
 3920.00    0.70756   0.69057   14.133
 3921.00    0.64227   0.67232   15.570
 3922.00    0.58319   0.65628   17.147
 3923.00    0.54105   0.63916   18.483
 3924.00    0.51097   0.61670   19.571
 3925.00    0.48654   0.58539   20.553
 3926.00    0.46304   0.54401   21.596
 3927.00    0.42975   0.49406   23.269
 3928.00    0.37601   0.43928   26.595
 3929.00    0.31551   0.38448   31.694
 3930.00    0.27682   0.33452   33.691
 3931.00    0.26313   0.29390   33.691
 3932.00    0.25660   0.26640   33.691
 3933.00    0.24968   0.25486   33.691
 3934.00    0.24934   0.26070   33.691
 3935.00    0.27103   0.28345   33.691
 3936.00    0.32137   0.32031   31.117
 3937.00    0.37407   0.36656   26.733
 3938.00    0.40137   0.41637   24.915
 3939.00    0.42147   0.46431   23.726
 3940.00    0.46291   0.50672   21.602
 3941.00    0.51450   0.54265   19.437
 3942.00    0.55170   0.57366   18.126
 3943.00    0.57106   0.60262   17.511
 3944.00    0.58547   0.63196   17.080
 3945.00    0.61374   0.66246   16.294
 3946.00    0.65660   0.69309   15.230
 3947.00    0.68413   0.72197   14.617
 3948.00    0.68317   0.74744   14.638
 3949.00    0.68408   0.76862   14.618
 3950.00    0.71014   0.78527   14.082
 3951.00    0.74889   0.79745   13.353
 3952.00    0.77458   0.80520   12.910
 3953.00    0.76571   0.80852   13.060
 3954.00    0.72425   0.80736   13.807
 3955.00    0.67646   0.80135   14.783
 3956.00    0.64093   0.78976   15.602
 3957.00    0.61983   0.77135   16.133
 3958.00    0.61534   0.74475   16.251
 3959.00    0.62800   0.70887   15.923
 3960.00    0.63468   0.66386    0.000
 3961.00    0.60028   0.61151    0.000
 3962.00    0.52559   0.55492    0.000
 3963.00    0.44430   0.49734    0.000
 3964.00    0.38678   0.44155    0.000
 3965.00    0.36693   0.39023    0.000
 3966.00    0.37428   0.34683    0.000
 3967.00    0.38739   0.31574    0.000
 3968.00    0.39921   0.30135    0.000
 3969.00    0.41126   0.30646    0.000
 3970.00    0.41915   0.33123    0.000
 3971.00    0.42400   0.37303    0.000
 3972.00    0.44801   0.42740    0.000
 3973.00    0.50715   0.48935    0.000
 3974.00    0.58066   0.55446    0.000
 3975.00    0.64145   0.61923    0.000
 3976.00    0.68789   0.68089    0.000
 3977.00    0.72773   0.73697    0.000
 3978.00    0.76184   0.78520    0.000
 3979.00    0.78597   0.82384    0.000
 3980.00    0.79423   0.85233    0.000
 3981.00    0.78627   0.87186   12.718
 3982.00    0.77128   0.88527   12.965
 3983.00    0.76325   0.89609   13.102
 3984.00    0.77506   0.90715   12.902
 3985.00    0.80361   0.91978   12.444
 3986.00    0.82869   0.93367   12.067
 3987.00    0.83923   0.94766   11.916
 3988.00    0.84108   0.96050   11.890
 3989.00    0.84290   0.97134   11.864
 3990.00    0.84927   0.97971   11.775
 3991.00    0.85650   0.98521   11.675
 3992.00    0.85743   0.98740   11.663
 3993.00    0.85781   0.98605   11.658
 3994.00    0.87233   0.98199   11.464
 3995.00    0.90423   0.97763   11.059
 3996.00    0.94274   0.97627   10.607
 3997.00    0.96887   0.98060   10.321
 3998.00    0.96891   0.99118   10.321
 3999.00    0.95527   1.00561   10.468
 4000.00    0.94771   1.01912   10.552
 4001.00    0.93906   1.02667   10.649
 4002.00    0.91678   1.02537   10.908
 4003.00    0.89821   1.01608   11.133
 4004.00    0.90655   1.00319   11.031
 4005.00    0.93767   0.99289   10.665
 4006.00    0.97466   0.99051   10.260
 4007.00    1.00690   0.99801    9.931
 4008.00    1.02786   1.01348    9.729
 4009.00    1.03263   1.03275    9.684
 4010.00    1.02740   1.05171    9.733
 4011.00    1.03350   1.06767    9.676
 4012.00    1.06063   1.07976    9.428
 4013.00    1.09162   1.08853    9.161
 4014.00    1.10480   1.09505    9.051
 4015.00    1.08937   1.10014    9.180
 4016.00    1.05090   1.10424    9.516
 4017.00    1.01046   1.10751    9.896
 4018.00    0.98922   1.10978   10.109
 4019.00    0.99793   1.11063   10.021
 4020.00    1.02477   1.10962    9.758
 4021.00    1.04193   1.10695    9.598
 4022.00    1.04328   1.10389    9.585
 4023.00    1.04564   1.10198    9.563
 4024.00    1.05429   1.10182    9.485
 4025.00    1.05991   1.10234    9.435
 4026.00    1.05758   1.10039    9.456
 4027.00    1.04621   1.09164    9.558
 4028.00    1.01687   1.07311    9.834
 4029.00    0.96354   1.04557   10.378
 4030.00    0.90779   1.01408   11.016
 4031.00    0.88037   0.98653   11.359
 4032.00    0.88352   0.97105   11.318
 4033.00    0.90265   0.97272   11.079
 4034.00    0.93193   0.99161   10.730
 4035.00    0.96802   1.02309   10.330
 4036.00    0.99818   1.05912   10.018
 4037.00    1.00941   1.09087    9.907
 4038.00    1.00000   1.11155   10.000
 4039.00    0.97811   1.11733   10.224
 4040.00    0.95753   1.10748   10.444
 4041.00    0.94285   1.08407   10.606
 4042.00    0.92068   1.05155   10.861
 4043.00    0.88513   1.01656   11.298
 4044.00    0.85360   0.98721   11.715
 4045.00    0.84436   0.97116   11.843
 4046.00    0.86244   0.97288   11.595
 4047.00    0.90564   0.99125   11.042
 4048.00    0.96702   1.01987   10.341
 4049.00    1.02884   1.04963    9.720
 4050.00    1.06478   1.07189    9.392
 4051.00    1.06056   1.08139    9.429
 4052.00    1.02131   1.07755    9.791
 4053.00    0.96556   1.06428   10.357
 4054.00    0.91907   1.04715   10.881
 4055.00    0.90274   1.03082   11.077
 4056.00    0.92545   1.01834   10.806
 4057.00    0.97557   1.01057   10.250
 4058.00    1.02575   1.00598    9.749
 4059.00    1.04955   1.00165    9.528
 4060.00    1.03494   0.99481    9.662
 4061.00    1.00202   0.98453    9.980
 4062.00    0.98274   0.97298   10.176
 4063.00    0.97968   0.96437   10.207
 4064.00    0.97749   0.96272   10.230
 4065.00    0.97149   0.96986   10.293
 4066.00    0.96658   0.98431   10.346
 4067.00    0.96950   1.00180   10.315
 4068.00    0.98097   1.01709   10.194
 4069.00    0.98915   1.02612   10.110
 4070.00    0.98349   1.02784   10.168
 4071.00    0.96851   1.02392   10.325
 4072.00    0.95195   1.01632   10.505
 4073.00    0.93420   1.00609   10.704
 4074.00    0.91655   0.99455   10.911
 4075.00    0.90696   0.98430   11.026
 4076.00    0.91105   0.97876   10.976
 4077.00    0.92655   0.98105   10.793
 4078.00    0.94826   0.99321   10.546
 4079.00    0.97050   1.01459   10.304
 4080.00    0.98377   1.04095   10.165
 4081.00    0.97708   1.06643   10.235
 4082.00    0.95542   1.08660   10.467
 4083.00    0.94109   1.10083   10.626
 4084.00    0.94930   1.11197   10.534
 4085.00    0.97968   1.12381   10.207
 4086.00    1.02047   1.13833    9.799
 4087.00    1.05618   1.15454    9.468
 4088.00    1.08471   1.16886    9.219
 4089.00    1.11142   1.17721    8.997
 4090.00    1.12320   1.17705    8.903
 4091.00    1.10000   1.16775    9.091
 4092.00    1.05241   1.15027    0.000
 4093.00    1.00929   1.12632    0.000
 4094.00    0.97983   1.09754    0.000
 4095.00    0.95717   1.06499    0.000
 4096.00    0.93589   1.02983    0.000
 4097.00    0.91354   0.99358    0.000
 4098.00    0.88892   0.95847    0.000
 4099.00    0.86362   0.92827    0.000
 4100.00    0.84388   0.90726    0.000
 4101.00    0.83763   0.89893    0.000
 4102.00    0.85051   0.90526    0.000
 4103.00    0.87906   0.92552    0.000
 4104.00    0.90715   0.95567    0.000
 4105.00    0.92553   0.98951    0.000
 4106.00    0.94519   1.02011    0.000
 4107.00    0.97639   1.04264    0.000
 4108.00    1.01352   1.05665    0.000
 4109.00    1.03908   1.06493    0.000
 4110.00    1.03178   1.07131    0.000
 4111.00    0.99330   1.07917    0.000
 4112.00    0.95508   1.08981    0.000
 4113.00    0.94317   1.10198   10.603
 4114.00    0.96167   1.11277   10.399
 4115.00    0.99403   1.11906   10.060
 4116.00    1.01334   1.11911    9.868
 4117.00    1.01370   1.11329    9.865
 4118.00    1.01068   1.10405    9.894
 4119.00    1.00900   1.09483    9.911
 4120.00    0.99954   1.08828   10.005
 4121.00    0.97782   1.08554   10.227
 4122.00    0.95496   1.08641   10.472
 4123.00    0.96919   1.08890   10.318
 4124.00    1.04887   1.08978    9.534
 4125.00    1.13842   1.08692    8.784
 4126.00    1.15810   1.07966    8.635
 4127.00    1.12727   1.06805    8.871
 4128.00    1.11347   1.05282    8.981
 4129.00    1.12685   1.03605    8.874
 4130.00    1.14060   1.02121    8.767
 4131.00    1.13827   1.01177    8.785
 4132.00    1.12143   1.01043    8.917
 4133.00    1.10977   1.01850    9.011
 4134.00    1.12215   1.03536    8.912
 4135.00    1.15821   1.05827    8.634
 4136.00    1.20248   1.08253    8.315
 4137.00    1.23202   1.10185    8.117
 4138.00    1.23702   1.11089    8.086
 4139.00    1.23171   1.10710    8.118
 4140.00    1.22599   1.09146    8.152
 4141.00    1.21089   1.06907    8.262
 4142.00    1.18433   1.04625    8.457
 4143.00    1.16225   1.02881    8.590
 4144.00    1.15779   1.02081    8.599
 4145.00    1.17060   1.02260    8.588
 4146.00    1.18737   1.03135    8.519
 4147.00    1.18868   1.04233    8.273
 4148.00    1.17182   1.04999    8.272
 4149.00    1.15234   1.05111    9.334
 4150.00    1.14161   1.04673   11.553
 4151.00    1.13989   1.03969   12.714
 4152.00    1.13809   1.03253   11.875
 4153.00    1.12579   1.02759   11.380
 4154.00    1.10822   1.02652   11.725
 4155.00    1.10081   1.03020   12.098
 4156.00    1.10937   1.03937   12.208
 4157.00    1.13185   1.05390   12.315
 4158.00    1.16855   1.07247   12.272
 4159.00    1.21544   1.09234   11.851
 4160.00    1.25163   1.11065   11.475
 4161.00    1.25636   1.12493   11.588
 4162.00    1.23374   1.13314   12.015
 4163.00    1.19796   1.13477   12.357
 4164.00    1.15301   1.13069   12.629
 4165.00    1.10609   1.12215   12.990
 4166.00    1.08092   1.10988   13.292
 4167.00    1.08710   1.09484   13.331
 4168.00    1.09625   1.07799   13.196
 4169.00    1.08562   1.05922   13.082
 4170.00    1.06928   1.03878   13.102
 4171.00    1.06244   1.01828   13.231
 4172.00    1.05847   0.99976   13.310
 4173.00    1.04897   0.98558   13.295
 4174.00    1.03625   0.97831   13.365
 4175.00    1.03002   0.97907   13.555
 4176.00    1.04297   0.98662   13.644
 4177.00    1.08017   0.99763   13.502
 4178.00    1.13344   1.00906   13.243
 4179.00    1.17829   1.01967   13.043
 4180.00    1.18468   1.02949   12.998
 4181.00    1.15590   1.03872   12.938
 4182.00    1.12693   1.04682   12.577
 4183.00    1.12102   1.05280   12.081
 4184.00    1.13930   1.05658   11.862
 4185.00    1.16853   1.05931   11.984
 4186.00    1.19053   1.06190   12.248
 4187.00    1.19789   1.06507   12.501
 4188.00    1.19383   1.06963   12.696
 4189.00    1.18492   1.07626   12.882
 4190.00    1.17638   1.08489   13.110
 4191.00    1.16684   1.09309   13.274
 4192.00    1.15131   1.09610   13.261
 4193.00    1.12671   1.09070   13.231
 4194.00    1.09433   1.07716   13.369
 4195.00    1.06146   1.05762   13.550
 4196.00    1.03675   1.03461   13.561
 4197.00    1.02476   1.01205   13.421
 4198.00    1.02378   0.99485   13.297
 4199.00    1.02569   0.98628   13.352
 4200.00    1.02702   0.98651   13.595
 4201.00    1.03650   0.99465   13.785
 4202.00    1.06189   1.00957   13.745
 4203.00    1.10041   1.02915   13.606
 4204.00    1.14270   1.05151   13.506
 4205.00    1.17707   1.07535   13.430
 4206.00    1.19740   1.09813   13.358
 4207.00    1.20579   1.11691   13.325
 4208.00    1.20503   1.13021   13.315
 4209.00    1.19559   1.13744   13.254
 4210.00    1.17898   1.13846   13.178
 4211.00    1.15922   1.13416   13.213
 4212.00    1.14316   1.12669   13.264
 4213.00    1.13816   1.11931   13.091
 4214.00    1.14505   1.11498   12.879
 4215.00    1.15843   1.11562   13.066
 4216.00    1.17353   1.12234   13.597
 4217.00    1.18726   1.13423   13.961
 4218.00    1.19655   1.14747   -2.000
 4219.00    1.19880   1.15509   -2.000
 4220.00    1.19364   1.14875   -2.000
 4221.00    1.17972   1.12404   -2.000
 4222.00    1.14905   1.08328   -2.000
 4223.00    1.09854   1.03342   -2.000
 4224.00    1.04778   0.98398   -2.000
 4225.00    1.02043   0.94582   -2.000
 4226.00    1.01685   0.92788   -2.000
 4227.00    1.02487   0.93352   -2.000
 4228.00    1.03642   0.95979   -2.000
 4229.00    1.04759   0.99899   -2.000
 4230.00    1.05668   1.04031   -2.000
 4231.00    1.06214   1.07226   -2.000
 4232.00    1.06150   1.08850   -2.000
 4233.00    1.05593   1.09099   13.719
 4234.00    1.05268   1.08557   14.033
 4235.00    1.05740   1.07878   13.927
 4236.00    1.07009   1.07639   13.685
 4237.00    1.09270   1.08065   13.534
 4238.00    1.13039   1.09158   13.413
 4239.00    1.17519   1.10900   13.328
 4240.00    1.20404   1.13051   13.435
 4241.00    1.20651   1.15214   13.683
 4242.00    1.19385   1.17063   13.750
 4243.00    1.18585   1.18267   13.519
 4244.00    1.19830   1.18486   13.207
 4245.00    1.22051   1.17661   13.048
 4246.00    1.22275   1.16027   13.148
 4247.00    1.19777   1.13828   13.339
 4248.00    1.16263   1.11413   13.418
 4249.00    1.13346   1.09317   13.916
 4250.00    1.11873   1.07948   15.366
 4251.00    1.11882   1.07357   15.263
 4252.00    1.12747   1.07367   11.727
 4253.00    1.13461   1.07821    9.054
 4254.00    1.13125   1.08430    8.448
 4255.00    1.11628   1.08798    8.911
 4256.00    1.09723   1.08851    9.261
 4257.00    1.08894   1.08839    9.191
 4258.00    1.09996   1.08974    9.057
 4259.00    1.11776   1.09349    8.946
 4260.00    1.12645   1.10156    8.843
 4261.00    1.12667   1.11705    8.883
 4262.00    1.12700   1.14044    9.018
 4263.00    1.13368   1.16741    8.773
 4264.00    1.14667   1.18985    8.327
 4265.00    1.15807   1.19859    8.875
 4266.00    1.15956   1.18886   11.390
 4267.00    1.14815   1.16216   14.681
 4268.00    1.12936   1.12304   14.867
 4269.00    1.11550   1.07774   13.810
 4270.00    1.10825   1.03496   13.869
 4271.00    1.09462   1.00287   14.463
 4272.00    1.07178   0.98636   14.692
 4273.00    1.05329   0.98755   14.412
 4274.00    1.04702   1.00611   14.001
 4275.00    1.05035   1.03692   13.888
 4276.00    1.06511   1.07074   13.990
 4277.00    1.09647   1.10126   13.853
 4278.00    1.13414   1.12523   13.538
 4279.00    1.15657   1.13910   13.506
 4280.00    1.15649   1.14207   13.793
 4281.00    1.14205   1.13679   14.054
 4282.00    1.12388   1.12685   14.091
 4283.00    1.10979   1.11490   13.923
 4284.00    1.10078   1.10040   13.565
 4285.00    1.09466   1.08227   13.216
 4286.00    1.09327   1.06148   13.547
 4287.00    1.09847   1.04026   14.727
 4288.00    1.10486   1.02254   14.264
 4289.00    1.10542   1.01159   11.222
 4290.00    1.09988   1.00761    9.119
 4291.00    1.09144   1.00947    8.765
 4292.00    1.08161   1.01581    9.263
 4293.00    1.06871   1.02198    9.596
 4294.00    1.04765   1.02064    9.505
 4295.00    1.01794   1.00666    9.475
 4296.00    0.98842   0.98010   10.291
 4297.00    0.96104   0.94628   12.505
 4298.00    0.92270   0.91061   15.017
 4299.00    0.87373   0.87687   15.456
 4300.00    0.83972   0.84913   14.806
 4301.00    0.83199   0.82977   14.650
 4302.00    0.83197   0.81922   14.883
 4303.00    0.82763   0.81473   15.123
 4304.00    0.82676   0.81128   15.258
 4305.00    0.83483   0.80753   15.177
 4306.00    0.84583   0.80549   14.786
 4307.00    0.84568   0.80726   14.448
 4308.00    0.82324   0.81650   14.699
 4309.00    0.79980   0.83712   15.221
 4310.00    0.81652   0.87188   15.001
 4311.00    0.87514   0.92166   14.303
 4312.00    0.94562   0.98315   14.168
 4313.00    1.02319   1.05074   14.491
 4314.00    1.12156   1.11902   14.441
 4315.00    1.23074   1.18282   14.009
 4316.00    1.32232   1.23675   13.767
 4317.00    1.37524   1.27613   13.868
 4318.00    1.38005   1.29584   14.159
 4319.00    1.33856   1.29114   14.472
 4320.00    1.26853   1.26396   14.665
 4321.00    1.20795   1.22258   14.658
 4322.00    1.18341   1.17628   14.503
 4323.00    1.17529   1.13419   14.421
 4324.00    1.15632   1.10465   14.560
 4325.00    1.13340   1.09230   14.790
 4326.00    1.12708   1.10000   14.862
 4327.00    1.14844   1.12742   14.616
 4328.00    1.19157   1.16892   14.199
 4329.00    1.23281   1.21478   14.029
 4330.00    1.25594   1.25317    0.000
 4331.00    1.26652   1.27619    0.000
 4332.00    1.27302   1.28265    0.000
 4333.00    1.27546   1.27467    0.000
 4334.00    1.26847   1.25247    0.000
 4335.00    1.24444   1.21536    0.000
 4336.00    1.19857   1.16755    0.000
 4337.00    1.13398   1.11636    0.000
 4338.00    1.07222   1.06874    0.000
 4339.00    1.04599   1.03349    0.000
 4340.00    1.06236   1.01998    0.000
 4341.00    1.10039   1.02990    0.000
 4342.00    1.14102   1.05818    0.000
 4343.00    1.17545   1.10018    0.000
 4344.00    1.20293   1.14757    0.000
 4345.00    1.22700   1.18880    0.000
 4346.00    1.24871   1.21850    0.000
 4347.00    1.26567   1.23651    0.000
 4348.00    1.27339   1.24182    0.000
 4349.00    1.26877   1.23598    0.000
 4350.00    1.25501   1.22473    0.000
 4351.00    1.23715   1.21279   14.652
 4352.00    1.21489   1.20292   14.921
 4353.00    1.19078   1.19965   15.256
 4354.00    1.18015   1.20823   15.436
 4355.00    1.19398   1.22708   15.349
 4356.00    1.22039   1.24813   15.212
 4357.00    1.24139   1.26678   15.246
 4358.00    1.25064   1.28395   15.386
 4359.00    1.25313   1.30023   15.454
 4360.00    1.26162   1.31526   15.340
 4361.00    1.28100   1.33042   15.122
 4362.00    1.29966   1.34584   15.052
 4363.00    1.30628   1.35715   15.156
 4364.00    1.30034   1.35982   15.094
 4365.00    1.28916   1.35395   14.768
 4366.00    1.28349   1.34259   14.501
 4367.00    1.28575   1.32661   14.408
 4368.00    1.28801   1.30605   14.284
 4369.00    1.28617   1.28389   14.142
 4370.00    1.28345   1.26418   14.250
 4371.00    1.28119   1.24788   14.558
 4372.00    1.27742   1.23399   14.668
 4373.00    1.27255   1.22347   14.524
 4374.00    1.26900   1.21728   14.430
 4375.00    1.26509   1.21493   14.442
 4376.00    1.25683   1.21588   14.379
 4377.00    1.24547   1.21767   14.223
 4378.00    1.23512   1.21358   14.105
 4379.00    1.22443   1.19674   14.117
 4380.00    1.20801   1.16576   14.294
 4381.00    1.18204   1.12614   14.637
 4382.00    1.14806   1.08677   15.075
 4383.00    1.11673   1.05585   15.402
 4384.00    1.09925   1.03804   15.485
 4385.00    1.09583   1.03698   15.573
 4386.00    1.10108   1.05512   15.896
 4387.00    1.11220   1.08700   16.149
 4388.00    1.13080   1.12028   15.994
 4389.00    1.16286   1.14629   15.664
 4390.00    1.20912   1.16551   15.476
 4391.00    1.25797   1.18232   15.417
 4392.00    1.29699   1.19908   15.366
 4393.00    1.32174   1.21637   15.264
 4394.00    1.33321   1.23291   15.187
 4395.00    1.33495   1.24554   15.318
 4396.00    1.32859   1.25379   15.628
 4397.00    1.31321   1.25964   15.769
 4398.00    1.29426   1.26139   15.638
 4399.00    1.28365   1.25328   15.573
 4400.00    1.28080   1.23446   15.713
 4401.00    1.27081   1.21089   15.838
 4402.00    1.24930   1.18803   15.796
 4403.00    1.22684   1.16966   15.641
 4404.00    1.21216   1.15754   15.510
 4405.00    1.20731   1.15114   15.540
 4406.00    1.21006   1.15430   15.806
 4407.00    1.21586   1.17291   16.285
 4408.00    1.22064   1.20277   16.774
 4409.00    1.22276   1.23210   17.001
 4410.00    1.22553   1.25545   17.024
 4411.00    1.23401   1.27350   17.093
 4412.00    1.24828   1.28371   17.193
 4413.00    1.26461   1.28446   17.171
 4414.00    1.27958   1.28016   17.093
 4415.00    1.29293   1.27555   17.092
 4416.00    1.31016   1.27376   17.083
 4417.00    1.33313   1.27887   16.945
 4418.00    1.34951   1.29136   16.769
 4419.00    1.34738   1.30498   16.719
 4420.00    1.33121   1.31430   16.876
 4421.00    1.31417   1.31769   17.160
 4422.00    1.30846   1.31502   17.281
 4423.00    1.31667   1.30916   17.115
 4424.00    1.32747   1.30461   16.951
 4425.00    1.33108   1.30317   17.009
 4426.00    1.32907   1.30337   17.162
 4427.00    1.32614   1.30261   17.248
 4428.00    1.32458   1.29987   17.247
 4429.00    1.32389   1.29478   17.179
 4430.00    1.32123   1.28672   17.050
 4431.00    1.31408   1.27622   16.915
 4432.00    1.30213   1.26719   16.873
 4433.00    1.28944   1.26462   16.954
 4434.00    1.28339   1.26822   17.089
 4435.00    1.28816   1.27528   17.159
 4436.00    1.30229   1.28576   17.083
 4437.00    1.31857   1.29958   17.001
 4438.00    1.32783   1.31382   17.145
 4439.00    1.32839   1.32369   17.423
 4440.00    1.32600   1.32677   17.512
 4441.00    1.32777   1.32481   17.379
 4442.00    1.33764   1.32134   17.248
 4443.00    1.35049   1.32178   17.234
 4444.00    1.35862   1.32994   17.331
 4445.00    1.36404   1.34472   17.485
 4446.00    1.37327   1.36177   17.660
 4447.00    1.38659   1.37510   17.900
 4448.00    1.39808   1.37924   18.176
 4449.00    1.39829   1.37337   18.185
 4450.00    1.38217   1.35943   17.798
 4451.00    1.35654   1.33812   17.510
 4452.00    1.33015   1.31184   17.664
 4453.00    1.30377   1.28445   17.889
 4454.00    1.27631   1.25700   17.846
 4455.00    1.25044   1.23059   17.874
 4456.00    1.22992   1.20851   18.189
 4457.00    1.21730   1.19443   18.365
 4458.00    1.21448   1.18998   18.185
 4459.00    1.22271   1.19256   18.112
 4460.00    1.24077   1.19950   18.361
 4461.00    1.26441   1.21099    0.000
 4462.00    1.28905   1.22654    0.000
 4463.00    1.31110   1.24411    0.000
 4464.00    1.32739   1.26270    0.000
 4465.00    1.33542   1.27993    0.000
 4466.00    1.33469   1.29239    0.000
 4467.00    1.32774   1.30171    0.000
 4468.00    1.32161   1.31234    0.000
 4469.00    1.32577   1.32606    0.000
 4470.00    1.34542   1.34284    0.000
 4471.00    1.37941   1.36326    0.000
 4472.00    1.41992   1.38774    0.000
 4473.00    1.45501   1.41302    0.000
 4474.00    1.47416   1.43366    0.000
 4475.00    1.47203   1.44517    0.000
 4476.00    1.45305   1.44544    0.000
 4477.00    1.42862   1.43629    0.000
 4478.00    1.41138   1.42246    0.000
 4479.00    1.40851   1.40732    0.000
 4480.00    1.41471   1.39267    0.000
 4481.00    1.42081   1.38250    0.000
 4482.00    1.42480   1.38122   17.278
 4483.00    1.42909   1.38894   17.665
 4484.00    1.43600   1.40117   17.904
 4485.00    1.44490   1.41173   17.757
 4486.00    1.45056   1.41585   17.561
 4487.00    1.44891   1.41275   17.597
 4488.00    1.44146   1.40380   17.686
 4489.00    1.43428   1.39041   17.678
 4490.00    1.43514   1.37578   17.739
 4491.00    1.44303   1.36496   17.929
 4492.00    1.44565   1.36057   18.019
 4493.00    1.43860   1.36138   17.939
 4494.00    1.43206   1.36471   17.916
 4495.00    1.43553   1.36947   17.958
 4496.00    1.45093   1.37765   17.764
 4497.00    1.47329   1.39190   17.305
 4498.00    1.49364   1.41241   16.909
 4499.00    1.50731   1.43687   16.882
 4500.00    1.51519   1.46153   17.368
 4501.00    1.51945   1.48337   18.111
 4502.00    1.52250   1.50184   18.506
 4503.00    1.52786   1.51846   18.405
 4504.00    1.53823   1.53418   18.190
 4505.00    1.55104   1.54587   18.139
 4506.00    1.56110   1.54994   18.280
 4507.00    1.56732   1.54705   18.378
 4508.00    1.57192   1.53967   18.180
 4509.00    1.57699   1.52979   17.845
 4510.00    1.58274   1.51873   17.665
 4511.00    1.58613   1.50705   17.656
 4512.00    1.58324   1.49422   17.700
 4513.00    1.57252   1.47979   17.755
 4514.00    1.55480   1.46616   17.803
 4515.00    1.53289   1.45714   17.776
 4516.00    1.51057   1.45386   17.692
 4517.00    1.49165   1.45465   17.740
 4518.00    1.47982   1.45533   18.011
 4519.00    1.47772   1.45346   18.281
 4520.00    1.48136   1.44950   18.331
 4521.00    1.47836   1.44138   18.211
 4522.00    1.46145   1.42545   18.150
 4523.00    1.43552   1.40061   18.399
 4524.00    1.40820   1.36974   18.853
 4525.00    1.38411   1.33870   18.966
 4526.00    1.36327   1.31090   18.687
 4527.00    1.34212   1.28736   18.640
 4528.00    1.32023   1.27077   18.862
 4529.00    1.30262   1.26196   18.701
 4530.00    1.29767   1.26010   18.216
 4531.00    1.31194   1.26513   18.133
 4532.00    1.33704   1.27717   18.450
 4533.00    1.35449   1.29536   18.533
 4534.00    1.35887   1.31583   18.378
 4535.00    1.35941   1.33546   18.516
 4536.00    1.36900   1.35538   18.905
 4537.00    1.39537   1.37732   19.054
 4538.00    1.42947   1.39965   18.868
 4539.00    1.45325   1.41578   18.610
 4540.00    1.45717   1.42073   18.432
 4541.00    1.44401   1.41790   18.362
 4542.00    1.42902   1.41349   18.390
 4543.00    1.42522   1.40983   18.465
 4544.00    1.42536   1.40496   18.488
 4545.00    1.41619   1.39598   18.447
 4546.00    1.39722   1.38545   18.550
 4547.00    1.37845   1.37810   18.856
 4548.00    1.37452   1.37314   18.932
 4549.00    1.39009   1.36782   18.562
 4550.00    1.41007   1.36215    0.000
 4551.00    1.41989   1.35979    0.000
 4552.00    1.42009   1.36419    0.000
 4553.00    1.41712   1.37338    0.000
 4554.00    1.41660   1.38475    0.000
 4555.00    1.42414   1.39922    0.000
 4556.00    1.44412   1.41746    0.000
 4557.00    1.46995   1.43867    0.000
 4558.00    1.48477   1.45925    0.000
 4559.00    1.48455   1.47259    0.000
 4560.00    1.48244   1.47599    0.000
 4561.00    1.48677   1.47235    0.000
 4562.00    1.49491   1.46628    0.000
 4563.00    1.50110   1.46097    0.000
 4564.00    1.50044   1.45625    0.000
 4565.00    1.49231   1.45319    0.000
 4566.00    1.48035   1.45437    0.000
 4567.00    1.47013   1.45923    0.000
 4568.00    1.46680   1.46657    0.000
 4569.00    1.47141   1.47425    0.000
 4570.00    1.48164   1.47846    0.000
 4571.00    1.49433   1.47902    0.000
 4572.00    1.50593   1.47821    0.000
 4573.00    1.51235   1.47857    0.000
 4574.00    1.51188   1.48054    0.000
 4575.00    1.50881   1.47823    0.000
 4576.00    1.50876   1.46766    0.000
 4577.00    1.51244   1.45267    0.000
 4578.00    1.51524   1.43707    0.000
 4579.00    1.50848   1.42078    0.000
 4580.00    1.48842   1.40452    0.000
 4581.00    1.46330   1.39160    0.000
 4582.00    1.44350   1.38567    0.000
 4583.00    1.43319   1.38832    0.000
 4584.00    1.43001   1.39688    0.000
 4585.00    1.42680   1.40787    0.000
 4586.00    1.42007   1.41940    0.000
 4587.00    1.41407   1.42958    0.000
 4588.00    1.41471   1.43754    0.000
 4589.00    1.42486   1.44263    0.000
 4590.00    1.43887   1.44236    0.000
 4591.00    1.44383   1.43556    0.000
 4592.00    1.43423   1.42484    0.000
 4593.00    1.41654   1.41435    0.000
 4594.00    1.40401   1.40739    0.000
 4595.00    1.40969   1.40413    0.000
 4596.00    1.43155   1.40170    0.000
 4597.00    1.45413   1.40076    0.000
 4598.00    1.46403   1.40299    0.000
 4599.00    1.45647   1.40694    0.000
 4600.00    1.44011   1.41133    0.000
 4601.00    1.42920   1.41491    0.000
 4602.00    1.42685   1.42002    0.000
 4603.00    1.42903   1.43032    0.000
 4604.00    1.43680   1.44519    0.000
 4605.00    1.45361   1.46210    0.000
 4606.00    1.47840   1.47882    0.000
 4607.00    1.50508   1.49483    0.000
 4608.00    1.52394   1.51005    0.000
 4609.00    1.53029   1.52210    0.000
 4610.00    1.53257   1.52909    0.000
 4611.00    1.53817   1.53059    0.000
 4612.00    1.54027   1.52767    0.000
 4613.00    1.53161   1.52474    0.000
 4614.00    1.51612   1.52341    0.000
 4615.00    1.50228   1.52289    0.000
 4616.00    1.49677   1.52422    0.000
 4617.00    1.50011   1.52657    0.000
 4618.00    1.50620   1.52860    0.000
 4619.00    1.51384   1.53041    0.000
 4620.00    1.52952   1.53149    0.000
 4621.00    1.54963   1.53246    0.000
 4622.00    1.55820   1.53396    0.000
 4623.00    1.55367   1.53425    0.000
 4624.00    1.55217   1.53241    0.000
 4625.00    1.55774   1.52894    0.000
 4626.00    1.55871   1.52488    0.000
 4627.00    1.55085   1.52223    0.000
 4628.00    1.54055   1.52052    0.000
 4629.00    1.53307   1.51672    0.000
 4630.00    1.52989   1.51031    0.000
 4631.00    1.53024   1.50382    0.000
 4632.00    1.53148   1.49776    0.000
 4633.00    1.52892   1.48828    0.000
 4634.00    1.51733   1.47446    0.000
 4635.00    1.49349   1.46076    0.000
 4636.00    1.45960   1.44993    0.000
 4637.00    1.42715   1.44215    0.000
 4638.00    1.41008   1.43615    0.000
 4639.00    1.41452   1.43088    0.000
 4640.00    1.43380   1.42648    0.000
 4641.00    1.44587   1.42176    0.000
 4642.00    1.43218   1.41496    0.000
 4643.00    1.39651   1.40519    0.000
 4644.00    1.35828   1.39278    0.000
 4645.00    1.34200   1.38099    0.000
 4646.00    1.35430   1.37326    0.000
 4647.00    1.37187   1.37041    0.000
 4648.00    1.37816   1.37426    0.000
 4649.00    1.38417   1.38557    0.000
 4650.00    1.39910   1.40017    0.000
 4651.00    1.41494   1.41376    0.000
 4652.00    1.42106   1.42460    0.000
 4653.00    1.41356   1.43360    0.000
 4654.00    1.40083   1.44309    0.000
 4655.00    1.40015   1.45307    0.000
 4656.00    1.41628   1.46369    0.000
 4657.00    1.43818   1.47523    0.000
 4658.00    1.45565   1.48577    0.000
 4659.00    1.46424   1.49263    0.000
 4660.00    1.46249   1.49258    0.000
 4661.00    1.45143   1.48232    0.000
 4662.00    1.43554   1.46009    0.000
 4663.00    1.42053   1.42842    0.000
 4664.00    1.40855   1.39517    0.000
 4665.00    1.39815   1.36819    0.000
 4666.00    1.38673   1.34978    0.000
 4667.00    1.37484   1.33860    0.000
 4668.00    1.37191   1.33578    0.000
 4669.00    1.38722   1.34468    0.000
 4670.00    1.41614   1.36431    0.000
 4671.00    1.44541   1.38840    0.000
 4672.00    1.46268   1.41136    0.000
 4673.00    1.46469   1.42925    0.000
 4674.00    1.46321   1.43994    0.000
 4675.00    1.46851   1.44476    0.000
 4676.00    1.47456   1.44577    0.000
 4677.00    1.47154   1.44347    0.000
 4678.00    1.45733   1.43748    0.000
 4679.00    1.43756   1.42975    0.000
 4680.00    1.42310   1.42415    0.000
 4681.00    1.41731   1.42247    0.000
 4682.00    1.41186   1.42422    0.000
 4683.00    1.40661   1.42853    0.000
 4684.00    1.41478   1.43435    0.000
 4685.00    1.43604   1.43955    0.000
 4686.00    1.45096   1.44218    0.000
 4687.00    1.45061   1.44227    0.000
 4688.00    1.44391   1.44102    0.000
 4689.00    1.44001   1.44018    0.000
 4690.00    1.44203   1.44111    0.000
 4691.00    1.44808   1.44355    0.000
 4692.00    1.45341   1.44669    0.000
 4693.00    1.45492   1.44968    0.000
 4694.00    1.45257   1.45012    0.000
 4695.00    1.44967   1.44666    0.000
 4696.00    1.44932   1.44058    0.000
 4697.00    1.44759   1.43168    0.000
 4698.00    1.43950   1.41792    0.000
 4699.00    1.43111   1.40074    0.000
 4700.00    1.43052   1.38669    0.000
 4701.00    1.43199   1.37980    0.000
 4702.00    1.42493   1.37647    0.000
 4703.00    1.40864   1.37298    0.000
 4704.00    1.39067   1.37078    0.000
 4705.00    1.38206   1.37283    0.000
 4706.00    1.38852   1.37815    0.000
 4707.00    1.40328   1.38398    0.000
 4708.00    1.41741   1.38951    0.000
 4709.00    1.42887   1.39562    0.000
 4710.00    1.43875   1.40280    0.000
 4711.00    1.44762   1.41202    0.000
 4712.00    1.45344   1.42448    0.000
 4713.00    1.45187   1.43784    0.000
 4714.00    1.44464   1.44995    0.000
 4715.00    1.44202   1.46275    0.000
 4716.00    1.45091   1.47958    0.000
 4717.00    1.47027   1.49971    0.000
 4718.00    1.49756   1.51730    0.000
 4719.00    1.52995   1.52946    0.000
 4720.00    1.55859   1.53826    0.000
 4721.00    1.57013   1.54368    0.000
 4722.00    1.55877   1.54234    0.000
 4723.00    1.52893   1.53196    0.000
 4724.00    1.49163   1.51489    0.000
 4725.00    1.46039   1.49563    0.000
 4726.00    1.44435   1.47519    0.000
 4727.00    1.44491   1.45298    0.000
 4728.00    1.45294   1.43150    0.000
 4729.00    1.45642   1.41677    0.000
 4730.00    1.45483   1.41214    0.000
 4731.00    1.45430   1.41549    0.000
 4732.00    1.45574   1.42273    0.000
 4733.00    1.45560   1.43177    0.000
 4734.00    1.44980   1.44287    0.000
 4735.00    1.43756   1.45535    0.000
 4736.00    1.42486   1.46598    0.000
 4737.00    1.41697   1.47211    0.000
 4738.00    1.41115   1.47754    0.000
 4739.00    1.40498   1.48684    0.000
 4740.00    1.40372   1.49611    0.000
 4741.00    1.41181   1.50102    0.000
 4742.00    1.42651   1.50494    0.000
 4743.00    1.44477   1.51206    0.000
 4744.00    1.46735   1.52021    0.000
 4745.00    1.49340   1.52527    0.000
 4746.00    1.51771   1.52791    0.000
 4747.00    1.53463   1.53059    0.000
 4748.00    1.54063   1.53111    0.000
 4749.00    1.53562   1.52666    0.000
 4750.00    1.52355   1.51901    0.000
 4751.00    1.51246   1.51042    0.000
 4752.00    1.51139   1.50098    0.000
 4753.00    1.52026   1.49083    0.000
 4754.00    1.52996   1.48221    0.000
 4755.00    1.53282   1.47656    0.000
 4756.00    1.52636   1.47358    0.000
 4757.00    1.51443   1.47086    0.000
 4758.00    1.50314   1.46570    0.000
 4759.00    1.49131   1.45803    0.000
 4760.00    1.47356   1.44891    0.000
 4761.00    1.44997   1.43750   21.961
 4762.00    1.42544   1.42276   22.144
 4763.00    1.40527   1.40854   22.018
 4764.00    1.39407   1.40104   21.834
 4765.00    1.39499   1.40119   21.753
 4766.00    1.40770   1.40671   21.811
 4767.00    1.42620   1.41634   21.946
 4768.00    1.44219   1.42973   22.095
 4769.00    1.44954   1.44624   22.285
 4770.00    1.44923   1.46464   22.509
 4771.00    1.45221   1.48186   22.598
 4772.00    1.46654   1.49449   22.413
 4773.00    1.48720   1.50490   22.027
 4774.00    1.50274   1.51687   21.637
 4775.00    1.50266   1.52791   21.451
 4776.00    1.48962   1.53311   21.488
 4777.00    1.48255   1.53282   21.519
 4778.00    1.49232   1.53033   21.377
 4779.00    1.51049   1.52409   21.120
 4780.00    1.52209   1.51297   20.906
 4781.00    1.51509   1.50102   20.901
 4782.00    1.49276   1.48973   21.180
 4783.00    1.47272   1.47714   21.666
 4784.00    1.46588   1.46568   22.015
 4785.00    1.47070   1.45953   21.790
 4786.00    1.48000   1.45731   21.245
 4787.00    1.48649   1.45676   21.038
 4788.00    1.49103   1.46095   21.173
 4789.00    1.49942   1.47126   21.183
 4790.00    1.50992   1.48502   21.063
 4791.00    1.51627   1.50110   21.118
 4792.00    1.51989   1.51748   21.217
 4793.00    1.52544   1.53125   21.045
 4794.00    1.52916   1.54128   20.821
 4795.00    1.52418   1.54624   20.878
 4796.00    1.51174   1.54502   20.920
 4797.00    1.49884   1.53944   20.567
 4798.00    1.49245   1.53335   20.175
 4799.00    1.49364   1.52830   20.195
 4800.00    1.49283   1.52365   20.481
 4801.00    1.48257   1.51982   20.699
 4802.00    1.46980   1.51795   20.798
 4803.00    1.46454   1.51695   20.862
 4804.00    1.46932   1.51296   20.911
 4805.00    1.48404   1.50579   20.895
 4806.00    1.50937   1.49967   20.718
 4807.00    1.53920   1.49731   20.411
 4808.00    1.55782   1.49675   20.186
 4809.00    1.55438   1.49769   20.224
 4810.00    1.53134   1.50247   20.540
 4811.00    1.50358   1.51056   20.819
 4812.00    1.49200   1.51958   20.508
 4813.00    1.49968   1.52889   19.820
 4814.00    1.50883   1.53858   19.625
 4815.00    1.50958   1.54796   20.041
 4816.00    1.50654   1.55579   20.384
 4817.00    1.50299   1.56076   20.366
 4818.00    1.49802   1.56178   20.319
 4819.00    1.49380   1.55725   20.299
 4820.00    1.49457   1.54717   20.085
 4821.00    1.49885   1.53516   19.816
 4822.00    1.49987   1.52479   19.830
 4823.00    1.49080   1.51481   20.089
 4824.00    1.46932   1.50356   20.275
 4825.00    1.44343   1.49577   20.222
 4826.00    1.42483   1.49492   20.009
 4827.00    1.41672   1.49620   19.920
 4828.00    1.41734   1.49372   20.191
 4829.00    1.42739   1.48913   20.710
 4830.00    1.44558   1.48804   21.094
 4831.00    1.46241   1.49002   20.913
 4832.00    1.46753   1.48976   20.222
 4833.00    1.45866   1.48791   19.801
 4834.00    1.44500   1.48917   20.094
 4835.00    1.44673   1.49066   20.568
 4836.00    1.47103   1.48751   20.589
 4837.00    1.49640   1.48185   20.296
 4838.00    1.50158   1.47809   20.120
 4839.00    1.48588   1.47401   20.327
 4840.00    1.46047   1.46782   20.869
 4841.00    1.44050   1.46497   21.332
 4842.00    1.43568   1.46845   21.473
 4843.00    1.44623   1.47289   21.503
 4844.00    1.46711   1.47378   21.561
 4845.00    1.49070   1.47405   21.536
 4846.00    1.50912   1.47659   21.467
 4847.00    1.51672   1.47805   21.585
 4848.00    1.51538   1.47372    0.000
 4849.00    1.51190   1.46486    0.000
 4850.00    1.50491   1.45589    0.000
 4851.00    1.48599   1.44479    0.000
 4852.00    1.45302   1.42645    0.000
 4853.00    1.41134   1.40387    0.000
 4854.00    1.36809   1.38061    0.000
 4855.00    1.32987   1.35219    0.000
 4856.00    1.30080   1.31679    0.000
 4857.00    1.28228   1.28049    0.000
 4858.00    1.27321   1.24909    0.000
 4859.00    1.27123   1.22504    0.000
 4860.00    1.27439   1.20835    0.000
 4861.00    1.28250   1.19868    0.000
 4862.00    1.29804   1.20153    0.000
 4863.00    1.32119   1.22127    0.000
 4864.00    1.34462   1.25011    0.000
 4865.00    1.36000   1.27698    0.000
 4866.00    1.36465   1.30078    0.000
 4867.00    1.35990   1.31910    0.000
 4868.00    1.34908   1.32790    0.000
 4869.00    1.33747   1.33201    0.000
 4870.00    1.33172   1.33743    0.000
 4871.00    1.33559   1.34104    0.000
 4872.00    1.34779   1.34279    0.000
 4873.00    1.36584   1.35214    0.000
 4874.00    1.38787   1.37096    0.000
 4875.00    1.41059   1.39115   23.424
 4876.00    1.42925   1.41016   23.198
 4877.00    1.44207   1.42742   23.248
 4878.00    1.45079   1.43918   23.344
 4879.00    1.45581   1.44595   23.387
 4880.00    1.45496   1.45054   23.499
 4881.00    1.44593   1.44760   23.598
 4882.00    1.42908   1.43416   23.454
 4883.00    1.41245   1.41890   23.238
 4884.00    1.40727   1.40746   23.334
 4885.00    1.41412   1.39594   23.615
 4886.00    1.42424   1.38261   23.630
 4887.00    1.42959   1.37158   23.428
 4888.00    1.42597   1.36777   23.339
 4889.00    1.41470   1.37514   23.285
 4890.00    1.40215   1.39122   23.094
 4891.00    1.39795   1.41115   23.136
 4892.00    1.40993   1.43548   23.715
 4893.00    1.43753   1.46743   24.155
 4894.00    1.47411   1.50139   23.710
 4895.00    1.51087   1.52789   23.007
 4896.00    1.53898   1.54333   22.761
 4897.00    1.55170   1.55005   22.666
 4898.00    1.54832   1.55242   22.331
 4899.00    1.53654   1.54951   22.036
 4900.00    1.52456   1.53957   22.046
 4901.00    1.51500   1.52957   22.144
 4902.00    1.50801   1.52640   22.056
 4903.00    1.50369   1.52495   21.768
 4904.00    1.50186   1.51914   21.477
 4905.00    1.50200   1.51260   21.455
 4906.00    1.50343   1.50775   21.665
 4907.00    1.50516   1.50076   21.712
 4908.00    1.50445   1.49105   21.541
 4909.00    1.49792   1.48263   21.551
 4910.00    1.48861   1.47649   21.756
 4911.00    1.48525   1.47220   21.714
 4912.00    1.49061   1.47173   21.469
 4913.00    1.49875   1.47223   21.518
 4914.00    1.49892   1.46658   21.837
 4915.00    1.48129   1.45218   21.952
 4916.00    1.44811   1.43179   21.869
 4917.00    1.41092   1.40782   22.008
 4918.00    1.37839   1.38367   22.468
 4919.00    1.35540   1.36402   22.992
 4920.00    1.34648   1.35095   23.219
 4921.00    1.35382   1.34735   22.970
 4922.00    1.37303   1.35869   22.590
 4923.00    1.39610   1.38374   22.501
 4924.00    1.41658   1.41146   22.627
 4925.00    1.43158   1.43753   22.686
 4926.00    1.44294   1.46579   22.624
 4927.00    1.45379   1.49342   22.531
 4928.00    1.46459   1.51319   22.478
 4929.00    1.47281   1.52275   22.449
 4930.00    1.47365   1.52226   22.329
 4931.00    1.46525   1.51440   22.090
 4932.00    1.45201   1.50443   21.916
 4933.00    1.43721   1.49038   22.005
 4934.00    1.41880   1.46916   22.424
 4935.00    1.39757   1.44884   22.985
 4936.00    1.38115   1.43907   23.223
 4937.00    1.37563   1.43787   23.060
 4938.00    1.38175   1.43943   23.014
 4939.00    1.39932   1.44443   23.238
 4940.00    1.42861   1.45915    0.000
 4941.00    1.46680   1.48278    0.000
 4942.00    1.50703   1.50498    0.000
 4943.00    1.54092   1.52152    0.000
 4944.00    1.56036   1.53817    0.000
 4945.00    1.56037   1.55386    0.000
 4946.00    1.54263   1.56252    0.000
 4947.00    1.52193   1.56699    0.000
 4948.00    1.51786   1.57240    0.000
 4949.00    1.53192   1.57380    0.000
 4950.00    1.54940   1.56664    0.000
 4951.00    1.55448   1.55546    0.000
 4952.00    1.53841   1.54313    0.000
 4953.00    1.50774   1.52350    0.000
 4954.00    1.47633   1.49469    0.000
 4955.00    1.45110   1.47095    0.000
 4956.00    1.43498   1.46102    0.000
 4957.00    1.43331   1.45467    0.000
 4958.00    1.44833   1.44655    0.000
 4959.00    1.47254   1.44937    0.000
 4960.00    1.49420   1.46671    0.000
 4961.00    1.50405   1.48107    0.000
 4962.00    1.49868   1.48351    0.000
 4963.00    1.48222   1.48265    0.000
 4964.00    1.46047   1.48369    0.000
 4965.00    1.43675   1.48066    0.000
 4966.00    1.41546   1.47321    0.000
 4967.00    1.40364   1.46900    0.000
 4968.00    1.40513   1.47162    0.000
 4969.00    1.41785   1.47806    0.000
 4970.00    1.43755   1.48591    0.000
 4971.00    1.45948   1.49500    0.000
 4972.00    1.47636   1.50369    0.000
 4973.00    1.47957   1.50935    0.000
 4974.00    1.46673   1.50897    0.000
 4975.00    1.44326   1.50069    0.000
 4976.00    1.41786   1.48589    0.000
 4977.00    1.39909   1.46723    0.000
 4978.00    1.39035   1.44353    0.000
 4979.00    1.38886   1.41406    0.000
 4980.00    1.38709   1.38718    0.000
 4981.00    1.37727   1.36938    0.000
 4982.00    1.35993   1.35703    0.000
 4983.00    1.34282   1.34946    0.000
 4984.00    1.33524   1.35352    0.000
 4985.00    1.34326   1.36820    0.000
 4986.00    1.36418   1.38496    0.000
 4987.00    1.39020   1.40107    0.000
 4988.00    1.41490   1.41807    0.000
 4989.00    1.43529   1.43362    0.000
 4990.00    1.45276   1.44288    0.000
 4991.00    1.46791   1.44675    0.000
 4992.00    1.47556   1.45052    0.000
 4993.00    1.47105   1.45413    0.000
 4994.00    1.45637   1.45305    0.000
 4995.00    1.43835   1.44754    0.000
 4996.00    1.42551   1.44039    0.000
 4997.00    1.41967   1.43020    0.000
 4998.00    1.41231   1.41636    0.000
 4999.00    1.39851   1.40040    0.000
 5000.00    1.38415   1.38408    0.000
 5001.00    1.37771   1.36924    0.000
 5002.00    1.38413   1.35564    0.000
 5003.00    1.39866   1.34380    0.000
 5004.00    1.40868   1.33847    0.000
 5005.00    1.41194   1.33927    0.000
 5006.00    1.41885   1.33931    0.000
 5007.00    1.43456   1.33805    0.000
 5008.00    1.45399   1.34047    0.000
 5009.00    1.46629   1.34255    0.000
 5010.00    1.46051   1.33739    0.000
 5011.00    1.43625   1.32711    0.000
 5012.00    1.40279   1.31869    0.000
 5013.00    1.37078   1.31193    0.000
 5014.00    1.34752   1.30419    0.000
 5015.00    1.33195   1.29861    0.000
 5016.00    1.31923   1.30167    0.000
 5017.00    1.31015   1.31055    0.000
 5018.00    1.30980   1.31708    0.000
 5019.00    1.32299   1.32238    0.000
 5020.00    1.34765   1.33335    0.000
 5021.00    1.36840   1.34751    0.000
 5022.00    1.37141   1.35793    0.000
 5023.00    1.36099   1.36551    0.000
 5024.00    1.34825   1.37415    0.000
 5025.00    1.33847   1.38515    0.000
 5026.00    1.33424   1.39746    0.000
 5027.00    1.33869   1.40847    0.000
 5028.00    1.35367   1.41699    0.000
 5029.00    1.37781   1.42798   24.764
 5030.00    1.40456   1.44211   24.565
 5031.00    1.42263   1.45028   24.672
 5032.00    1.42525   1.44770   24.856
 5033.00    1.41436   1.43978   24.951
 5034.00    1.39497   1.43031   24.910
 5035.00    1.37169   1.41392   24.806
 5036.00    1.34644   1.38825   24.723
 5037.00    1.31870   1.36171   24.711
 5038.00    1.28942   1.34280   24.764
 5039.00    1.26282   1.33325   24.830
 5040.00    1.24716   1.33152   24.864
 5041.00    1.25108   1.33601   24.855
 5042.00    1.27324   1.34896   24.860
 5043.00    1.30473   1.37294   24.930
 5044.00    1.34143   1.39785   24.927
 5045.00    1.38203   1.41205   24.694
 5046.00    1.41783   1.41970   24.492
 5047.00    1.43759   1.42602   24.676
 5048.00    1.43974   1.42593   25.036
 5049.00    1.43150   1.41894   25.138
 5050.00    1.42353   1.41588   25.089
 5051.00    1.42404   1.42134   25.133
 5052.00    1.43213   1.43013   24.952
 5053.00    1.44194   1.44028   24.346
 5054.00    1.44892   1.45542   23.981
 5055.00    1.45202   1.47378   24.306
 5056.00    1.45483   1.48913   24.641
 5057.00    1.46101   1.49928   24.301
 5058.00    1.47013   1.50672   23.747
 5059.00    1.47875   1.51117   23.545
 5060.00    1.48178   1.50862   23.665
 5061.00    1.47461   1.49750   23.880
 5062.00    1.45517   1.48288   24.029
 5063.00    1.42819   1.46983   24.013
 5064.00    1.40539   1.45502   23.820
 5065.00    1.39355   1.43564   23.646
 5066.00    1.38954   1.42120   23.827
 5067.00    1.38669   1.41840   24.328
 5068.00    1.37964   1.41623   24.666
 5069.00    1.37137   1.40932   24.680
 5070.00    1.37151   1.40827   24.683
 5071.00    1.38170   1.41384   24.666
 5072.00    1.39341   1.41226   24.316
 5073.00    1.39644   1.40354   23.816
 5074.00    1.38461   1.39955   23.680
 5075.00    1.36298   1.39556   23.949
 5076.00    1.34383   1.38023   24.261
 5077.00    1.33398   1.36223   24.369
 5078.00    1.33291   1.35331   24.273
 5079.00    1.33483   1.34668   24.194
 5080.00    1.33374   1.33574   24.312
 5081.00    1.33069   1.33252   24.386
 5082.00    1.33080   1.34364   24.146
 5083.00    1.33715   1.35843   23.921
 5084.00    1.34974   1.37043   24.105
 5085.00    1.36557   1.38608   24.484
 5086.00    1.38145   1.40659   24.671
 5087.00    1.39695   1.42394   24.694
 5088.00    1.41334   1.43564   24.707
 5089.00    1.43186   1.44662   24.656
 5090.00    1.44961   1.45713   24.524
 5091.00    1.45763   1.46168   24.517
 5092.00    1.45055   1.45913   24.734
 5093.00    1.43288   1.45332   24.964
 5094.00    1.41320   1.44454   24.953
 5095.00    1.39903   1.43000   24.640
 5096.00    1.39072   1.41192   24.271
 5097.00    1.38108   1.39771   24.278
 5098.00    1.36940   1.38930   24.741
 5099.00    1.36473   1.38294   25.270
 5100.00    1.37185   1.37858   25.581
 5101.00    1.38639   1.38050   25.739
 5102.00    1.39883   1.38585   25.874
 5103.00    1.39892   1.38766   26.067
 5104.00    1.38414   1.38445   26.355
 5105.00    1.36072   1.38121   26.729
 5106.00    1.33907   1.37964   27.087
 5107.00    1.32920   1.37666   27.269
 5108.00    1.33320   1.37456   27.202
 5109.00    1.34567   1.37900   26.922
 5110.00    1.35820   1.38782   26.517
 5111.00    1.36467   1.39765   26.111
 5112.00    1.36832   1.41141   25.860
 5113.00    1.37666   1.42727   25.784
 5114.00    1.39193   1.44061   25.545
 5115.00    1.41069   1.45109   24.956
 5116.00    1.42561   1.45692   24.559
 5117.00    1.43023   1.45623   24.769
 5118.00    1.42402   1.45027   25.067
 5119.00    1.41096   1.43874   24.938
 5120.00    1.39679   1.42038   24.882
 5121.00    1.38300   1.39839   25.335
 5122.00    1.36318   1.37797   25.766
 5123.00    1.33469   1.36008   25.678
 5124.00    1.30653   1.34342   25.450
 5125.00    1.28991   1.33177   25.406
 5126.00    1.29079   1.32768   25.291
 5127.00    1.30534   1.32843   24.985
 5128.00    1.32033   1.33293   24.793
 5129.00    1.32691   1.34108   24.841
 5130.00    1.32655   1.35012   24.891
 5131.00    1.32619   1.35983   24.768
 5132.00    1.33375   1.37094   24.535
 5133.00    1.35002   1.37813   24.369
 5134.00    1.36823   1.37926   24.411
 5135.00    1.38254   1.37799   24.463
 5136.00    1.38979   1.37433   24.178
 5137.00    1.38609   1.36717   23.864
 5138.00    1.36934   1.35961   24.153
 5139.00    1.34742   1.35034   24.851
 5140.00    1.33354   1.34014   25.148
 5141.00    1.33212   1.33773   24.950
 5142.00    1.33829   1.33771   24.716
 5143.00    1.34269   1.33086   24.407
 5144.00    1.33726   1.32670   23.897
 5145.00    1.32274   1.32966   23.758
 5146.00    1.30566   1.33035   24.490
 5147.00    1.29243   1.32738   25.400
 5148.00    1.28732   1.32581   25.479
 5149.00    1.29098   1.32729   25.166
 5150.00    1.30032   1.33072   25.263
 5151.00    1.30920   1.33380   25.598
 5152.00    1.31394   1.33860   25.769
 5153.00    1.31793   1.34857   25.906
 5154.00    1.32680   1.36166   26.056
 5155.00    1.34364   1.37449   25.737
 5156.00    1.36554   1.38666   24.992
 5157.00    1.38283   1.39755   24.757
 5158.00    1.38864   1.40361   25.334
 5159.00    1.38361   1.39920   25.856
 5160.00    1.36933   1.38447   25.834
 5161.00    1.34533   1.36300   25.908
 5162.00    1.31219   1.33156   26.393
 5163.00    1.27262   1.28900   26.800
 5164.00    1.23000   1.24347   26.831
 5165.00    1.18764   1.19892   26.708
 5166.00    1.14851   1.15666   26.550
 5167.00    1.11494   1.12259   26.286
 5168.00    1.08784   1.09743   26.097
 5169.00    1.06721   1.08065   26.272
 5170.00    1.05395   1.07896   26.575
 5171.00    1.05001   1.09501   26.499
 5172.00    1.05765   1.11690   26.272
 5173.00    1.07846   1.13812   26.439
 5174.00    1.11187   1.16854   26.658
 5175.00    1.15344   1.20761   26.283
 5176.00    1.19282   1.23697   25.761
 5177.00    1.21953   1.24938   25.773
 5178.00    1.23151   1.25387   25.905
 5179.00    1.23107   1.25083   25.511
 5180.00    1.21833   1.23382   24.982
 5181.00    1.19491   1.21191   24.852
 5182.00    1.16877   1.19970   24.853
 5183.00    1.15111   1.19605   24.589
 5184.00    1.15218   1.19607   24.199
 5185.00    1.17488   1.20702   23.856
 5186.00    1.21050   1.23284   23.398
 5187.00    1.24559   1.26214   22.835
 5188.00    1.26829   1.28261   22.558
 5189.00    1.27468   1.29296   22.647
 5190.00    1.27147   1.30392    0.000
 5191.00    1.26985   1.31579    0.000
 5192.00    1.28006   1.31633    0.000
 5193.00    1.30298   1.31376    0.000
 5194.00    1.32951   1.32324    0.000
 5195.00    1.35431   1.33646    0.000
 5196.00    1.37877   1.34453    0.000
 5197.00    1.39962   1.35494    0.000
 5198.00    1.40861   1.36601    0.000
 5199.00    1.40467   1.36939    0.000
 5200.00    1.39426   1.36727    0.000
 5201.00    1.38163   1.35957    0.000
 5202.00    1.36630   1.34215    0.000
 5203.00    1.34413   1.32139    0.000
 5204.00    1.31188   1.30454    0.000
 5205.00    1.27596   1.28690    0.000
 5206.00    1.24830   1.27138    0.000
 5207.00    1.23579   1.26985    0.000
 5208.00    1.23824   1.27909    0.000
 5209.00    1.24870   1.29017    0.000
 5210.00    1.26199   1.30820    0.000
 5211.00    1.28507   1.33257   25.485
 5212.00    1.32458   1.35373   25.382
 5213.00    1.37123   1.37143   24.775
 5214.00    1.40957   1.38791   23.911
 5215.00    1.43017   1.40129   23.449
 5216.00    1.43323   1.41008   23.687
 5217.00    1.42943   1.41671   24.126
 5218.00    1.42831   1.42250   24.287
 5219.00    1.42981   1.42505   24.394
 5220.00    1.42895   1.42077   24.734
 5221.00    1.42026   1.40937   25.177
 5222.00    1.40241   1.39476   25.428
 5223.00    1.37988   1.37630   25.278
 5224.00    1.35810   1.35479   24.881
 5225.00    1.34094   1.33945   24.708
 5226.00    1.33078   1.33258   24.967
 5227.00    1.32900   1.32872   25.464
 5228.00    1.33716   1.33219   25.866
 5229.00    1.35604   1.34683   25.885
 5230.00    1.38087   1.36154   25.580
 5231.00    1.40253   1.37324   25.288
 5232.00    1.41522   1.38837   25.180
 5233.00    1.41916   1.40223   25.195
 5234.00    1.42111   1.41368   25.152
 5235.00    1.42933   1.42831   24.921
 5236.00    1.44252   1.44305   24.717
 5237.00    1.45317   1.45627   24.826
 5238.00    1.45831   1.46967   25.047
 5239.00    1.45992   1.48012   25.004
 5240.00    1.46216   1.48429   24.861
 5241.00    1.46738   1.48537   24.914
 5242.00    1.47147   1.48608   24.892
 5243.00    1.46870   1.48003   24.554
 5244.00    1.45840   1.46618   24.442
 5245.00    1.44374   1.45455   24.901
 5246.00    1.42928   1.44512   25.091
 5247.00    1.41732   1.42931   24.445
 5248.00    1.40522   1.41318   24.033
 5249.00    1.39070   1.40775   24.565
 5250.00    1.37605   1.40736   25.183
 5251.00    1.36627   1.40531   25.072
 5252.00    1.36694   1.40835   24.778
 5253.00    1.38108   1.41912   24.752
 5254.00    1.40695   1.43124   24.598
 5255.00    1.43654   1.43954   24.186
 5256.00    1.45741   1.44378   24.025
 5257.00    1.46436   1.44599   24.304
 5258.00    1.46192   1.44085   24.651
 5259.00    1.45201   1.42304   24.837
 5260.00    1.43119   1.39614   25.005
 5261.00    1.39980   1.36534   25.268
 5262.00    1.36319   1.33016   25.581
 5263.00    1.32582   1.29070   25.867
 5264.00    1.29007   1.25756   26.077
 5265.00    1.25830   1.23640   26.228
 5266.00    1.23343   1.21789   26.399
 5267.00    1.21890   1.20375   26.653
 5268.00    1.21799   1.20862   26.946
 5269.00    1.23240   1.22323   26.977
 5270.00    1.26026   1.23363   26.533
 5271.00    1.29344   1.25349   26.076
 5272.00    1.32221   1.28705   26.106
 5273.00    1.34282   1.31716   26.283
 5274.00    1.35681   1.34331   26.055
 5275.00    1.36826   1.37259   25.638
 5276.00    1.38025   1.39648   25.508
 5277.00    1.39144   1.41290   25.754
 5278.00    1.39926   1.42754   26.115
 5279.00    1.40342   1.43797   26.080
 5280.00    1.40596   1.44276   25.528
 5281.00    1.41053   1.44542   25.102
 5282.00    1.42012   1.45107   25.148
 5283.00    1.43527   1.46199   25.179
 5284.00    1.45429   1.47477   24.895
 5285.00    1.47394   1.48883   24.726
 5286.00    1.49203   1.50745   24.909
 5287.00    1.50851   1.52592   -2.000
 5288.00    1.52334   1.53822   -2.000
 5289.00    1.53502   1.54468   -2.000
 5290.00    1.53901   1.54574   -2.000
 5291.00    1.52918   1.54029   -2.000
 5292.00    1.50527   1.52860   -2.000
 5293.00    1.47442   1.51203   -2.000
 5294.00    1.44676   1.49132   -2.000
 5295.00    1.43107   1.46982   -2.000
 5296.00    1.42724   1.45284   -2.000
 5297.00    1.42814   1.44126   -2.000
 5298.00    1.42930   1.43336   -2.000
 5299.00    1.43081   1.43313   -2.000
 5300.00    1.43598   1.44471   -2.000
 5301.00    1.44880   1.46117   -2.000
 5302.00    1.46990   1.47748   24.554
 5303.00    1.49616   1.49658   24.422
 5304.00    1.52154   1.51649   24.320
 5305.00    1.54082   1.53297   24.596
 5306.00    1.55425   1.54617   24.826
 5307.00    1.56215   1.55565   24.578
 5308.00    1.55845   1.56075   24.456
 5309.00    1.54088   1.56350   24.971
 5310.00    1.52114   1.56344   25.395
 5311.00    1.51180   1.55953   25.062
 5312.00    1.51393   1.55403   24.722
 5313.00    1.52192   1.54671   24.983
 5314.00    1.52879   1.53694   25.280
 5315.00    1.53026   1.52847   25.089
 5316.00    1.52706   1.52101   24.786
 5317.00    1.52311   1.51072   24.782
 5318.00    1.52297   1.50005   25.059
 5319.00    1.52535   1.49101   25.476
 5320.00    1.52172   1.47896   25.937
 5321.00    1.50518   1.46098   26.445
 5322.00    1.47468   1.43990   27.060
 5323.00    1.43438   1.42038   27.554
 5324.00    1.39222   1.39951   27.486
 5325.00    1.35601   1.37470   27.093
 5326.00    1.33226   1.35715   27.102
 5327.00    1.32648   1.35254   27.441
 5328.00    1.34140   1.35207   27.373
 5329.00    1.37192   1.35567   26.838
 5330.00    1.40702   1.37245   26.407
 5331.00    1.43665   1.39751   26.383
 5332.00    1.45513   1.42063   26.686
 5333.00    1.46426   1.43964   26.911
 5334.00    1.46923   1.45448   26.683
 5335.00    1.47086   1.46607   26.320
 5336.00    1.46710   1.47207   26.311
 5337.00    1.45713   1.46928   26.532
 5338.00    1.44331   1.46337   26.585
 5339.00    1.43251   1.46085   26.359
 5340.00    1.43191   1.45776   25.980
 5341.00    1.44400   1.45287   25.631
 5342.00    1.46473   1.45290   25.431
 5343.00    1.48304   1.45644   25.367
 5344.00    1.48902   1.45910   25.365
 5345.00    1.48081   1.46320   25.359
 5346.00    1.46428   1.46698   25.347
 5347.00    1.45118   1.47120   25.394
 5348.00    1.45085   1.48126   25.412
 5349.00    1.46498   1.49293   25.128
 5350.00    1.48764   1.50414   24.682
 5351.00    1.50776   1.52049   24.680
 5352.00    1.51948   1.54051   25.144
 5353.00    1.52571   1.55744   25.304
 5354.00    1.53184   1.57097   24.938
 5355.00    1.54215   1.58359   24.680
 5356.00    1.55739   1.59182   24.747
 5357.00    1.57428   1.59318   24.798
 5358.00    1.58721   1.58971   24.765
 5359.00    1.59026   1.58124   24.895
 5360.00    1.58138   1.56876   25.134
 5361.00    1.56277   1.55395   25.204
 5362.00    1.53904   1.53575   25.240
 5363.00    1.51599   1.51635   25.581
 5364.00    1.49909   1.49867   26.039
 5365.00    1.49034   1.48012   26.168
 5366.00    1.48395   1.46218   26.146
 5367.00    1.47222   1.44848   26.358
 5368.00    1.45559   1.43647   26.506
 5369.00    1.43972   1.42934   26.219
 5370.00    1.42937   1.43080   26.021
 5371.00    1.42748   1.43645   26.431
 5372.00    1.43512   1.44667   26.928
 5373.00    1.45099   1.46446   26.821
 5374.00    1.47134   1.48344   26.397
 5375.00    1.49232   1.49871   26.169
 5376.00    1.51189   1.51294   26.164
 5377.00    1.52707   1.52257   26.212
 5378.00    1.53260   1.52581   26.183
 5379.00    1.52707   1.52801   26.095
 5380.00    1.51613   1.52756   26.125
 5381.00    1.50611   1.52316   26.360
 5382.00    1.49997   1.52065   26.670
 5383.00    1.49711   1.51872   26.782
 5384.00    1.49435   1.51330   26.459
 5385.00    1.49037   1.50867   25.988
 5386.00    1.48677   1.50428   26.009
 5387.00    1.48427   1.49502   26.412
 5388.00    1.48141   1.48404   26.372
 5389.00    1.47478   1.47378   25.944
 5390.00    1.46202   1.46099   25.950
 5391.00    1.44937   1.44655   26.155
 5392.00    1.44729   1.43516   25.640
 5393.00    1.45437   1.42614   24.966
 5394.00    1.45900   1.41565   25.117
 5395.00    1.45186   1.40776   24.789
 5396.00    1.43174   1.40704   -2.000
 5397.00    1.41062   1.40521   -2.000
 5398.00    1.40244   1.40041   -2.000
 5399.00    1.40376   1.40130   -2.000
 5400.00    1.39679   1.40185   -2.000
 5401.00    1.36035   1.39432   -2.000
 5402.00    1.29897   1.38606   -2.000
 5403.00    1.27117   1.37961   -2.000
 5404.00    1.31807   1.37091   -2.000
 5405.00    1.39027   1.36410   -2.000
 5406.00    1.42552   1.36270   -2.000
 5407.00    1.42532   1.36545   -2.000
 5408.00    1.42173   1.37455   -2.000
 5409.00    1.44132   1.38950   -2.000
 5410.00    1.48169   1.40557   -2.000
 5411.00    1.50542   1.42308   -2.000
 5412.00    1.49638   1.44320   -2.000
 5413.00    1.48515   1.46207   -2.000
 5414.00    1.49290   1.47739   -2.000
 5415.00    1.50697   1.48925   -2.000
 5416.00    1.51450   1.49824   -2.000
 5417.00    1.51683   1.50436   -2.000
 5418.00    1.52013   1.50548   -2.000
 5419.00    1.52911   1.50396   15.865
 5420.00    1.53980   1.50244    7.644
 5421.00    1.54143   1.49772    5.953
 5422.00    1.52964   1.49234    6.258
 5423.00    1.50910   1.48967    6.977
 5424.00    1.48920   1.48464    6.939
 5425.00    1.47887   1.47808    6.300
 5426.00    1.47782   1.47227    6.395
 5427.00    1.47843   1.46311    9.183
 5428.00    1.47350   1.45438   21.131
 5429.00    1.45940   1.44668   33.691
 5430.00    1.43862   1.43465   28.400
 5431.00    1.41784   1.42738   23.886
 5432.00    1.40439   1.42820   26.008
 5433.00    1.40248   1.42887   27.200
 5434.00    1.40954   1.43408   26.044
 5435.00    1.42210   1.44771   25.438
 5436.00    1.44238   1.46428   25.633
 5437.00    1.47110   1.48162   25.802
 5438.00    1.50049   1.49899   25.746
 5439.00    1.52164   1.51376   25.594
 5440.00    1.53117   1.52261   25.393
 5441.00    1.52838   1.52426   25.214
 5442.00    1.51318   1.51987   25.222
 5443.00    1.48874   1.51041   25.432
 5444.00    1.46278   1.49699   25.619
 5445.00    1.44354   1.48406   25.653
 5446.00    1.43647   1.47468   25.640
 5447.00    1.43986   1.46659   25.474
 5448.00    1.44498   1.46195   24.894
 5449.00    1.44592   1.46228   24.581
 5450.00    1.44322   1.46179   25.683
 5451.00    1.44091   1.46041   26.620
 5452.00    1.44341   1.45909   24.286
 5453.00    1.44965   1.45572   23.586
 5454.00    1.45401   1.45392   32.560
 5455.00    1.45427   1.45442   33.691
 5456.00    1.45261   1.45393   14.216
 5457.00    1.45245   1.45579    7.549
 5458.00    1.45681   1.46082    6.316
 5459.00    1.46667   1.46425    6.693
 5460.00    1.48005   1.46494    6.914
 5461.00    1.49126   1.46520    6.714
 5462.00    1.49411   1.46725    6.779
 5463.00    1.48724   1.46782    6.767
 5464.00    1.47359   1.46585    6.358
 5465.00    1.45859   1.46790    6.779
 5466.00    1.44758   1.47121   10.329
 5467.00    1.44318   1.46893   23.112
 5468.00    1.44431   1.46580   33.691
 5469.00    1.44601   1.46418   26.785
 5470.00    1.44315   1.45699   24.883
 5471.00    1.43396   1.44447   26.965
 5472.00    1.41949   1.43509   27.365
 5473.00    1.40307   1.42613   26.702
 5474.00    1.39037   1.41217   27.010
 5475.00    1.38818   1.40319   27.342
 5476.00    1.39645   1.40193   26.838
 5477.00    1.40604   1.39888   26.419
 5478.00    1.41153   1.39829   26.549
 5479.00    1.41658   1.40605   26.527
 5480.00    1.42679   1.41537   26.100
 5481.00    1.44485   1.42240   25.885
 5482.00    1.46528   1.43130   26.117
 5483.00    1.47692   1.44290   26.419
 5484.00    1.47769   1.45077   26.518
 5485.00    1.47562   1.45499   26.433
 5486.00    1.47672   1.46134   26.217
 5487.00    1.48138   1.46562   25.890
 5488.00    1.48516   1.46504   25.490
 5489.00    1.48321   1.46720   25.117
 5490.00    1.47922   1.47047   24.981
 5491.00    1.48000   1.46888   25.224
 5492.00    1.48163   1.46910   25.581
 5493.00    1.47580   1.47252   25.637
 5494.00    1.46458   1.47160   25.468
 5495.00    1.45633   1.46935   25.367
 5496.00    1.45595   1.47081   25.310
 5497.00    1.46345   1.47045   25.193
 5498.00    1.47418   1.46576   25.197
 5499.00    1.48315   1.46286   25.505
 5500.00    1.48948   1.46099   25.962
 5501.00    1.49224   1.45513   26.246
 5502.00    1.48698   1.44950   26.149
 5503.00    1.47230   1.44608   25.843
 5504.00    1.45471   1.44105   25.916
 5505.00    1.44038   1.43753   26.482
 5506.00    1.42949   1.43581   26.674
 5507.00    1.42098   1.43159   25.962
 5508.00    1.41570   1.42951   24.969
 5509.00    1.41572   1.42934   24.277
 5510.00    1.42309   1.42598   23.946
 5511.00    1.43579   1.42506   23.732
 5512.00    1.44756   1.42806   23.308
 5513.00    1.45469   1.43130   22.818
 5514.00    1.45869   1.43752   22.768
 5515.00    1.46481   1.44742   23.130
 5516.00    1.47901   1.45873   23.335
 5517.00    1.50036   1.46988   23.231
 5518.00    1.52145   1.47983   23.190
 5519.00    1.53618   1.48833   23.354
 5520.00    1.54155   1.49280   23.598
 5521.00    1.53671   1.49274   23.891
 5522.00    1.52338   1.48962   24.307
 5523.00    1.50683   1.48297   24.822
 5524.00    1.49295   1.47474   25.253
 5525.00    1.48276   1.46591   25.266
 5526.00    1.47352   1.45669   24.794
 5527.00    1.46207   1.45137   24.541
 5528.00    1.44778   1.44922   25.094
 5529.00    1.43536   1.44714   25.876
 5530.00    1.42998   1.44900   25.995
 5531.00    1.43133   1.45438   25.716
 5532.00    1.43653   1.45763   25.670
 5533.00    1.44378   1.46096   25.847
 5534.00    1.45365   1.46741   25.957
 5535.00    1.46929   1.47234   25.830
 5536.00    1.49204   1.47557   25.595
 5537.00    1.51797   1.48146   25.664
 5538.00    1.53823   1.48702   26.098
 5539.00    1.54143   1.49058   26.319
 5540.00    1.52560   1.49444   26.101
 5541.00    1.50279   1.49726   26.028
 5542.00    1.48703   1.49966   26.364
 5543.00    1.48669   1.50196   26.683
 5544.00    1.49906   1.50314   26.670
 5545.00    1.51188   1.50650   26.477
 5546.00    1.51729   1.51117   26.419
 5547.00    1.51624   1.51369   26.735
 5548.00    1.51472   1.51692   27.238
 5549.00    1.51912   1.52050   27.389
 5550.00    1.52721   1.52074   27.033
 5551.00    1.53048   1.51914   26.507
 5552.00    1.52636   1.51677   26.218
 5553.00    1.51830   1.51308   26.390
 5554.00    1.50938   1.50860   26.774
 5555.00    1.50075   1.50344   26.900
 5556.00    1.49136   1.49910   26.743
 5557.00    1.47975   1.49517   26.574
 5558.00    1.46679   1.48985   26.451
 5559.00    1.45634   1.48511   26.298
 5560.00    1.45490   1.48013   26.118
 5561.00    1.46581   1.47350   25.947
 5562.00    1.48244   1.46822   25.764
 5563.00    1.49391   1.46255   25.586
 5564.00    1.49243   1.45570   25.547
 5565.00    1.47774   1.45241   25.742
 5566.00    1.45950   1.45010   26.076
 5567.00    1.44829   1.44560   26.296
 5568.00    1.44822   1.44534   26.103
 5569.00    1.45869   1.44862   25.612
 5570.00    1.47614   1.44763   25.443
 5571.00    1.49555   1.44916   25.763
 5572.00    1.51163   1.45704   25.953
 5573.00    1.52092   1.45965   25.736
 5574.00    1.52237   1.46169   25.641
 5575.00    1.51467   1.47054   25.944
 5576.00    1.49652   1.47414   26.329
 5577.00    1.47272   1.47399   26.472
 5578.00    1.45365   1.47795   26.341
 5579.00    1.44537   1.47641   26.219
 5580.00    1.44729   1.46942   26.463
 5581.00    1.45622   1.46330   26.861
 5582.00    1.46731   1.45219   26.795
 5583.00    1.47314   1.43703   26.374
 5584.00    1.46712   1.42249   26.234
 5585.00    1.45144   1.40696   26.486
 5586.00    1.43369   1.39278   26.785
 5587.00    1.41686   1.38228   26.830
 5588.00    1.39979   1.37590   26.546
 5589.00    1.38160   1.37430   26.160
 5590.00    1.36277   1.37688   25.921
 5591.00    1.34570   1.38359   25.738
 5592.00    1.33460   1.39122   25.455
 5593.00    1.33485   1.39907   25.203
 5594.00    1.34810   1.40821   25.160
 5595.00    1.36743   1.41299   25.271
 5596.00    1.38512   1.41460   25.371
 5597.00    1.40035   1.41770   25.338
 5598.00    1.41523   1.41749   25.222
 5599.00    1.43065   1.41585   25.281
 5600.00    1.44466   1.41893   25.601
 5601.00    1.45262   1.42420   25.872
 5602.00    1.45341   1.43198   25.791
 5603.00    1.45263   1.44420   25.402
 5604.00    1.45734   1.45854   25.035
 5605.00    1.47200   1.47373   25.102
 5606.00    1.49425   1.48764   25.508
 5607.00    1.51502   1.49821   25.569
 5608.00    1.52715   1.50526   25.087
 5609.00    1.52879   1.50681   24.585
 5610.00    1.52159   1.50231   24.249
 5611.00    1.50919   1.49487   23.871
 5612.00    1.49445   1.48375   23.590
 5613.00    1.47931   1.46878   23.802
 5614.00    1.46665   1.45664   24.405
 5615.00    1.45968   1.44697   24.840
 5616.00    1.45905   1.43671   24.896
 5617.00    1.46224   1.43203   24.828
 5618.00    1.46382   1.43180   25.000
 5619.00    1.45938   1.43014   25.629
 5620.00    1.45209   1.43071   26.469
 5621.00    1.44832   1.43311   26.982
 5622.00    1.44900   1.43285   26.935
 5623.00    1.45108   1.43403   26.526
 5624.00    1.45144   1.43810   26.213
 5625.00    1.44980   1.44118   26.306
 5626.00    1.45103   1.44659   26.623
 5627.00    1.46049   1.45583   26.759
 5628.00    1.47867   1.46348   26.453
 5629.00    1.49968   1.46989   25.863
 5630.00    1.51170   1.47650   25.587
 5631.00    1.50850   1.47932   25.917
 5632.00    1.49706   1.47795   26.426
 5633.00    1.48699   1.47502   26.519
 5634.00    1.48267   1.46996   26.000
 5635.00    1.48313   1.46246   25.328
 5636.00    1.48336   1.45533   25.313
 5637.00    1.48066   1.45004   25.810
 5638.00    1.47687   1.44486   25.527
 5639.00    1.47416   1.44091   24.540
 5640.00    1.47308   1.44087   24.450
 5641.00    1.47329   1.44174   25.473
 5642.00    1.47491   1.44287   26.137
 5643.00    1.48180   1.44717   25.782
 5644.00    1.49872   1.45172   25.255
 5645.00    1.52020   1.45548   24.928
 5646.00    1.53334   1.46020   24.557
 5647.00    1.53314   1.46374   24.223
 5648.00    1.52397   1.46600   24.237
 5649.00    1.51369   1.46709   24.544
 5650.00    1.50855   1.46561   24.844
 5651.00    1.50616   1.46309   25.082
 5652.00    1.49908   1.45778   25.358
 5653.00    1.48301   1.44870   25.582
 5654.00    1.45941   1.44088   25.686
 5655.00    1.43674   1.43170   26.002
 5656.00    1.42416   1.41924   26.707
 5657.00    1.42339   1.41187   27.027
 5658.00    1.42983   1.40812   26.420
 5659.00    1.43552   1.40295   25.967
 5660.00    1.43646   1.40300   26.482
 5661.00    1.43832   1.40853   27.094
 5662.00    1.44780   1.41311   26.866
 5663.00    1.46529   1.41906   26.400
 5664.00    1.48740   1.42765   26.302
 5665.00    1.50944   1.43502   26.210
 5666.00    1.52672   1.44176   25.817
 5667.00    1.53565   1.44952   25.402
 5668.00    1.53566   1.45708   25.213
 5669.00    1.52989   1.46454   25.194
 5670.00    1.52303   1.47273   25.201
 5671.00    1.51926   1.48128   25.140
 5672.00    1.51786   1.48889   25.114
 5673.00    1.51431   1.49477   25.326
 5674.00    1.51027   1.49963   25.506
 5675.00    1.51323   1.50243   25.059
 5676.00    1.52415   1.50134   24.243
 5677.00    1.53625   1.49784   23.860
 5678.00    1.54218   1.49338   23.943
 5679.00    1.53798   1.48631   23.989
 5680.00    1.52700   1.47717   23.978
 5681.00    1.51678   1.46926   24.203
 5682.00    1.51075   1.46207   24.447
 5683.00    1.50786   1.45485   24.216
 5684.00    1.50501   1.45029   23.555
 5685.00    1.50010   1.44855   22.891
 5686.00    1.49573   1.44837   22.573
 5687.00    1.49559   1.45113   22.662
 5688.00    1.49903   1.45636   22.767
 5689.00    1.50315   1.46208   22.598
 5690.00    1.50603   1.46911   22.623
 5691.00    1.50707   1.47624   23.266
 5692.00    1.50690   1.48082   24.103
 5693.00    1.50686   1.48333   24.540
 5694.00    1.50845   1.48427   24.685
 5695.00    1.51219   1.48170   24.834
 5696.00    1.51673   1.47533   24.964
 5697.00    1.51735   1.46863   25.048
 5698.00    1.50695   1.46081   25.252
 5699.00    1.48690   1.45046   25.584
 5700.00    1.46985   1.44135   25.750
 5701.00    1.46183   1.43291   25.649
 5702.00    1.45568   1.42398   25.544
 5703.00    1.44284   1.41529   25.595
 5704.00    1.41969   1.40640   -2.000
 5705.00    1.39072   1.39943   -2.000
 5706.00    1.36605   1.39220   -2.000
 5707.00    1.34988   1.38510   -2.000
 5708.00    1.34087   1.38436   -2.000
 5709.00    1.34417   1.38522   -2.000
 5710.00    1.36767   1.38773   -2.000
 5711.00    1.40451   1.39887   -2.000
 5712.00    1.43792   1.41117   -2.000
 5713.00    1.46073   1.42350   -2.000
 5714.00    1.47593   1.44137   -2.000
 5715.00    1.48954   1.45726   -2.000
 5716.00    1.50658   1.47057   -2.000
 5717.00    1.52689   1.48575   -2.000
 5718.00    1.54657   1.49737   -2.000
 5719.00    1.56107   1.50576   -2.000
 5720.00    1.56707   1.51443   -2.000
 5721.00    1.56407   1.51964   -2.000
 5722.00    1.55407   1.52138   -2.000
 5723.00    1.54073   1.52292   23.910
 5724.00    1.52799   1.52225   23.934
 5725.00    1.51875   1.51865   24.273
 5726.00    1.51298   1.51543   24.656
 5727.00    1.50722   1.51273   24.950
 5728.00    1.50063   1.50932   25.210
 5729.00    1.49836   1.50662   25.621
 5730.00    1.50495   1.50614   26.055
 5731.00    1.52003   1.50661   25.907
 5732.00    1.53787   1.50691   25.044
 5733.00    1.54923   1.50872   24.103
 5734.00    1.54990   1.51087   23.585
 5735.00    1.54319   1.51185   23.601
 5736.00    1.53390   1.51311   23.895
 5737.00    1.52539   1.51363   23.981
 5738.00    1.51843   1.51309   23.835
 5739.00    1.51225   1.51290   23.871
 5740.00    1.50847   1.51219    0.000
 5741.00    1.50985   1.51120    0.000
 5742.00    1.51406   1.51046    0.000
 5743.00    1.51586   1.50907    0.000
 5744.00    1.51546   1.50781    0.000
 5745.00    1.51624   1.50591    0.000
 5746.00    1.51681   1.50244    0.000
 5747.00    1.51318   1.49920    0.000
 5748.00    1.50515   1.49516    0.000
 5749.00    1.49624   1.48978    0.000
 5750.00    1.49188   1.48576    0.000
 5751.00    1.49575   1.48228    0.000
 5752.00    1.50581   1.47875    0.000
 5753.00    1.51690   1.47790    0.000
 5754.00    1.52454   1.47818    0.000
 5755.00    1.52689   1.47817    0.000
 5756.00    1.52583   1.47996    0.000
 5757.00    1.52319   1.48109    0.000
 5758.00    1.51785   1.48070    0.000
 5759.00    1.51017   1.48184    0.000
 5760.00    1.50452   1.48225    0.000
 5761.00    1.50325   1.48236    0.000
 5762.00    1.50352   1.48621    0.000
 5763.00    1.50268   1.49075    0.000
 5764.00    1.50103   1.49526    0.000
 5765.00    1.49983   1.50253    0.000
 5766.00    1.50054   1.50876    0.000
 5767.00    1.50589   1.51240    0.000
 5768.00    1.51907   1.51605    0.000
 5769.00    1.53916   1.51707    0.000
 5770.00    1.56023   1.51496    0.000
 5771.00    1.57413   1.51315    0.000
 5772.00    1.57402   1.50936    0.000
 5773.00    1.56137   1.50344    0.000
 5774.00    1.54466   1.49832    0.000
 5775.00    1.53148   1.49089    0.000
 5776.00    1.52568   1.48088    0.000
 5777.00    1.52540   1.47107    0.000
 5778.00    1.52543   1.45934    0.000
 5779.00    1.52194   1.44569    0.000
 5780.00    1.51374   1.43343    0.000
 5781.00    1.50268   1.42367    0.000
 5782.00    1.49073   1.41582    0.000
 5783.00    1.47636   1.41068    0.000
 5784.00    1.45827   1.41161    0.000
 5785.00    1.44011   1.41599    0.000
 5786.00    1.42786   1.42112    0.000
 5787.00    1.42607   1.43120    0.000
 5788.00    1.43503   1.44180    0.000
 5789.00    1.44904   1.45026    0.000
 5790.00    1.46153   1.46142    0.000
 5791.00    1.46927   1.47082    0.000
 5792.00    1.47239   1.47727    0.000
 5793.00    1.47381   1.48506    0.000
 5794.00    1.47743   1.49182    0.000
 5795.00    1.48638   1.49628    0.000
 5796.00    1.50060   1.50080    0.000
 5797.00    1.51633   1.50618    0.000
 5798.00    1.52962   1.51003    0.000
 5799.00    1.53815   1.51220    0.000
 5800.00    1.54144   1.51524    0.000
 5801.00    1.54051   1.51661    0.000
 5802.00    1.53647   1.51544    0.000
 5803.00    1.53049   1.51477    0.000
 5804.00    1.52509   1.51321    0.000
 5805.00    1.52250   1.51100    0.000
 5806.00    1.51973   1.51001    0.000
 5807.00    1.51158   1.50901    0.000
 5808.00    1.49972   1.50884    0.000
 5809.00    1.49151   1.50951    0.000
 5810.00    1.49379   1.50939    0.000
 5811.00    1.50872   1.50939    0.000
 5812.00    1.52927   1.50972    0.000
 5813.00    1.54528   1.50966    0.000
 5814.00    1.55293   1.50955    0.000
 5815.00    1.55268   1.51088    0.000
 5816.00    1.54511   1.51375    0.000
 5817.00    1.53267   1.51666    0.000
 5818.00    1.52167   1.52056    0.000
 5819.00    1.51712   1.52554    0.000
 5820.00    1.51809   1.52968    0.000
 5821.00    1.52065   1.53323    0.000
 5822.00    1.52120   1.53638    0.000
 5823.00    1.52010   1.53864    0.000
 5824.00    1.52299   1.54012    0.000
 5825.00    1.53372   1.54098    0.000
 5826.00    1.55015   1.54127    0.000
 5827.00    1.56687   1.54140    0.000
 5828.00    1.57754   1.54114    0.000
 5829.00    1.57846   1.53968    0.000
 5830.00    1.57018   1.53815    0.000
 5831.00    1.55690   1.53694    0.000
 5832.00    1.54455   1.53450    0.000
 5833.00    1.53510   1.53193    0.000
 5834.00    1.52665   1.53119    0.000
 5835.00    1.51988   1.53053    0.000
 5836.00    1.51809   1.52955    0.000
 5837.00    1.52178   1.53056    0.000
 5838.00    1.52762   1.53237    0.000
 5839.00    1.52970   1.53327    0.000
 5840.00    1.52421   1.53432    0.000
 5841.00    1.51774   1.53479    0.000
 5842.00    1.51935   1.53334    0.000
 5843.00    1.52435   1.53072    0.000
 5844.00    1.52207   1.52667    0.000
 5845.00    1.51168   1.52074    0.000
 5846.00    1.49852   1.51410    0.000
 5847.00    1.48597   1.50677    0.000
 5848.00    1.47538   1.49830    0.000
 5849.00    1.46711   1.48990    0.000
 5850.00    1.46079   1.48137    0.000
 5851.00    1.45571   1.47178    0.000
 5852.00    1.45231   1.46289    0.000
 5853.00    1.45296   1.45545    0.000
 5854.00    1.45758   1.44817    0.000
 5855.00    1.46118   1.44151    0.000
 5856.00    1.46031   1.43796    0.000
 5857.00    1.45684   1.43693    0.000
 5858.00    1.45378   1.43708    0.000
 5859.00    1.45265   1.44023    0.000
 5860.00    1.45321   1.44447    0.000
 5861.00    1.45411   1.44909    0.000
 5862.00    1.45571   1.45564    0.000
 5863.00    1.46009   1.46183    0.000
 5864.00    1.46654   1.46688    0.000
 5865.00    1.47171   1.47234    0.000
 5866.00    1.47588   1.47814    0.000
 5867.00    1.48274   1.48297    0.000
 5868.00    1.49318   1.48711    0.000
 5869.00    1.50493   1.49124    0.000
 5870.00    1.51622   1.49417    0.000
 5871.00    1.52464   1.49542    0.000
 5872.00    1.52319   1.49606    0.000
 5873.00    1.50575   1.49529    0.000
 5874.00    1.47848   1.49233    0.000
 5875.00    1.45398   1.48824    0.000
 5876.00    1.43854   1.48329    0.000
 5877.00    1.43194   1.47717    0.000
 5878.00    1.43031   1.46933    0.000
 5879.00    1.42988   1.46084    0.000
 5880.00    1.43077   1.45184    0.000
 5881.00    1.43322   1.43944    0.000
 5882.00    1.43355   1.42366    0.000
 5883.00    1.42731   1.40561    0.000
 5884.00    1.41269   1.38223    0.000
 5885.00    1.39046   1.35391    0.000
 5886.00    1.36315   1.32501    0.000
 5887.00    1.33114   1.29193    0.000
 5888.00    1.29168   1.25805    0.000
 5889.00    1.24975   1.23487    0.000
 5890.00    1.22128   1.21481    0.000
 5891.00    1.21495   1.19783    0.000
 5892.00    1.22464   1.19557    0.000
 5893.00    1.24085   1.19685    0.000
 5894.00    1.25713   1.20142    0.000
 5895.00    1.27333   1.22076    0.000
 5896.00    1.29435   1.24263    0.000
 5897.00    1.32149   1.26429    0.000
 5898.00    1.35072   1.29344    0.000
 5899.00    1.37653   1.32243    0.000
 5900.00    1.39475   1.34858    0.000
 5901.00    1.40626   1.37428   27.164
 5902.00    1.41511   1.39615   27.213
 5903.00    1.42215   1.41341   27.384
 5904.00    1.42654   1.42731   27.326
 5905.00    1.43130   1.43772   26.953
 5906.00    1.44016   1.44508   26.495
 5907.00    1.45071   1.44980   26.367
 5908.00    1.45739   1.45208   26.732
 5909.00    1.45761   1.45293   26.939
 5910.00    1.45099   1.45280   26.435
 5911.00    1.43742   1.45053   26.041
 5912.00    1.41961   1.44744   26.496
 5913.00    1.40549   1.44576   27.028
 5914.00    1.40155   1.44380   26.760
 5915.00    1.40635   1.44321   26.349
 5916.00    1.41398   1.44450   26.528
 5917.00    1.41813   1.44592   26.964
 5918.00    1.41788   1.44965   27.079
 5919.00    1.42001   1.45355   26.766
 5920.00    1.42785   1.45624   26.382
 5921.00    1.43546   1.46012   26.487
 5922.00    1.43655   1.46277   27.079
 5923.00    1.42980   1.46369   27.374
 5924.00    1.41899   1.46469   27.070
 5925.00    1.41128   1.46386   26.793
 5926.00    1.41056   1.46236   26.777
 5927.00    1.41543   1.46089   26.624
 5928.00    1.42229   1.45798   26.299
 5929.00    1.42789   1.45666   26.204
 5930.00    1.43342   1.45627   26.330
 5931.00    1.44294   1.45533   26.310
 5932.00    1.45573   1.45518   26.239
 5933.00    1.46662   1.45572   26.507
 5934.00    1.47183   1.45796   26.872
 5935.00    1.47018   1.45962   26.754
 5936.00    1.46255   1.46030   26.423
 5937.00    1.45306   1.46271   26.489
 5938.00    1.45076   1.46383   26.648
 5939.00    1.46216   1.46344   26.306
 5940.00    1.47968   1.46431   25.850
 5941.00    1.49024   1.46455   25.906
 5942.00    1.48933   1.46406   26.290
 5943.00    1.48114   1.46394   26.504
 5944.00    1.47554   1.46317   26.492
 5945.00    1.47752   1.46212   26.370
 5946.00    1.47806   1.46028   26.074
 5947.00    1.46866   1.45731   25.731
 5948.00    1.45402   1.45544   25.877
 5949.00    1.44330   1.45395   26.621
 5950.00    1.44189   1.45088   27.063
 5951.00    1.44862   1.44830   26.651
 5952.00    1.45569   1.44836   26.154
 5953.00    1.45745   1.44876   26.171
 5954.00    1.45462   1.44865   26.504
 5955.00    1.44893   1.45027   26.815
 5956.00    1.44064   1.45348   26.955
 5957.00    1.43071   1.45727   26.931
 5958.00    1.42156   1.46151   26.869
 5959.00    1.41615   1.46620   26.935
 5960.00    1.41714   1.47098   27.218
 5961.00    1.42521   1.47519   27.406
 5962.00    1.43832   1.47934   27.008
 5963.00    1.45099   1.48236   26.363
 5964.00    1.45750   1.48449   26.248
 5965.00    1.46014   1.48748   26.594
 5966.00    1.46527   1.48944   26.722
 5967.00    1.47057   1.49057   26.486
 5968.00    1.46879   1.49206   26.207
 5969.00    1.45993   1.49238   25.991
 5970.00    1.45002   1.49147   25.817
 5971.00    1.44515   1.48955   25.859
 5972.00    1.44878   1.48628   26.174
 5973.00    1.45944   1.48165   26.225
 5974.00    1.47146   1.47611   25.628
 5975.00    1.47680   1.47081   25.100
 5976.00    1.47040   1.46551   25.360
 5977.00    1.45538   1.46052   26.192
 5978.00    1.43984   1.45677   26.944
 5979.00    1.43252   1.45303   27.130
 5980.00    1.43728   1.44991   26.766
 5981.00    1.44954   1.44732   26.405
 5982.00    1.46199   1.44401   26.372
 5983.00    1.46931   1.44290   26.407
 5984.00    1.46981   1.44341   26.344
 5985.00    1.46569   1.44329   26.435
 5986.00    1.45927   1.44520   26.778
 5987.00    1.45173   1.44875   27.091
 5988.00    1.44719   1.45255   27.219
 5989.00    1.45239   1.45618   27.314
 5990.00    1.46789   1.45942   27.390
 5991.00    1.48657   1.46323   27.253
 5992.00    1.50138   1.46556   26.964
 5993.00    1.50816   1.46604   26.806
 5994.00    1.50537   1.46603   26.773
 5995.00    1.49387   1.46427   26.635
 5996.00    1.47653   1.46201   26.489
 5997.00    1.45768   1.45970   26.627
 5998.00    1.44203   1.45632   26.921
 5999.00    1.43369   1.45385   26.964
 6000.00    1.43481   1.45079   26.685
 6001.00    1.44435   1.44676   26.318
 6002.00    1.45670   1.44484   26.088
 6003.00    1.46570   1.44189   26.087
 6004.00    1.47094   1.43840   26.196
 6005.00    1.47399   1.43639   26.277
 6006.00    1.47254   1.43307   26.435
 6007.00    1.46394   1.43178   26.797
 6008.00    1.44976   1.43212   27.213
 6009.00    1.43359   1.43073   27.425
 6010.00    1.41828   1.43042   27.305
 6011.00    1.40672   1.42998   26.945
 6012.00    1.40242   1.42944   26.630
 6013.00    1.40715   1.42963   26.551
 6014.00    1.41904   1.42747   26.654
 6015.00    1.43224   1.42547   26.815
 6016.00    1.43833   1.42547   26.960
 6017.00    1.43497   1.42399   27.117
 6018.00    1.42910   1.42262   27.399
 6019.00    1.42732   1.42316   27.777
 6020.00    1.43119   1.42449   28.003
 6021.00    1.43827   1.42745   27.889
 6022.00    1.44382   1.43082   27.491
 6023.00    1.44528   1.43591   27.182
 6024.00    1.44369   1.44270   27.389
 6025.00    1.44255   1.44854   27.828
 6026.00    1.44607   1.45585   27.665
 6027.00    1.45510   1.46354   26.930
 6028.00    1.46731   1.46996   26.333
 6029.00    1.48045   1.47637   25.959
 6030.00    1.49234   1.48212   25.500
 6031.00    1.49945   1.48714   25.103
 6032.00    1.49999   1.49104   25.112
 6033.00    1.49990   1.49377   25.438
 6034.00    1.50735   1.49594   25.776
 6035.00    1.52252   1.49712   26.142
 6036.00    1.53894   1.49782   26.656
 6037.00    1.54795   1.49761   27.093
 6038.00    1.54423   1.49717   27.187
 6039.00    1.53139   1.49754   27.119
 6040.00    1.51750   1.49727   27.010
 6041.00    1.50950   1.49801   26.415
 6042.00    1.51043   1.49966   25.208
 6043.00    1.51768   1.50076   24.116
 6044.00    1.52559   1.50263   23.628
 6045.00    1.52835   1.50442   23.572
 6046.00    1.52454   1.50525   23.686
 6047.00    1.51908   1.50552   23.921
 6048.00    1.51604   1.50499   24.343
 6049.00    1.51464   1.50332   25.017
 6050.00    1.51225   1.50062   25.735
 6051.00    1.50683   1.49686   25.968
 6052.00    1.50027   1.49294   25.752
 6053.00    1.49786   1.48924   25.793
 6054.00    1.50054   1.48508   26.167
 6055.00    1.50351   1.48179   26.209
 6056.00    1.50244   1.47951   25.972
 6057.00    1.49605   1.47764   26.227
 6058.00    1.48693   1.47594   26.921
 6059.00    1.47979   1.47450   27.205
 6060.00    1.47624   1.47323   26.951
 6061.00    1.47487   1.47195   26.700
 6062.00    1.47448   1.47159   26.401
 6063.00    1.47504   1.47079   25.685
 6064.00    1.47823   1.47210   24.799
 6065.00    1.48607   1.47648   24.161
 6066.00    1.49864   1.48049   23.634
 6067.00    1.51259   1.48599   23.069
 6068.00    1.52018   1.49245   22.990
 6069.00    1.51707   1.49814   23.855
 6070.00    1.51144   1.50344   25.097
 6071.00    1.51307   1.50618   25.711
 6072.00    1.52033   1.50680   25.631
 6073.00    1.52641   1.50603   25.369
 6074.00    1.52669   1.50225   25.200
 6075.00    1.51900   1.49669   25.212
 6076.00    1.50339   1.48959   25.425
 6077.00    1.48320   1.48164   25.841
 6078.00    1.46500   1.47495   26.463
 6079.00    1.45340   1.46770   27.157
 6080.00    1.44785   1.46060   27.574
 6081.00    1.44402   1.45624   27.461
 6082.00    1.43591   1.45274   26.897
 6083.00    1.42180   1.44946   26.227
 6084.00    1.40566   1.44774   25.885
 6085.00    1.39066   1.44666   26.115
 6086.00    1.37796   1.44639   26.881
 6087.00    1.37228   1.44629   27.662
 6088.00    1.38022   1.44546   27.635
 6089.00    1.39870   1.44610   27.024
 6090.00    1.41621   1.44739   26.793
 6091.00    1.42612   1.44804   26.864
 6092.00    1.42893   1.44965   26.429
 6093.00    1.42861   1.45203   25.567
 6094.00    1.43033   1.45356   24.943
 6095.00    1.43776   1.45353   24.661
 6096.00    1.45033   1.45298   24.545
 6097.00    1.45979   1.45178   24.777
 6098.00    1.45676   1.44886   25.575
 6099.00    1.44132   1.44507   26.493
 6100.00    1.42014   1.43941   26.920
 6101.00    1.40007   1.43445   27.205
 6102.00    1.38453   1.43403   27.497
 6103.00    1.37132   1.43332   -2.000
 6104.00    1.36308   1.43353   -2.000
 6105.00    1.37643   1.43727   -2.000
 6106.00    1.42453   1.44131   -2.000
 6107.00    1.50047   1.44763   -2.000
 6108.00    1.57706   1.45361   -2.000
 6109.00    1.61328   1.45681   -2.000
 6110.00    1.59218   1.46133   -2.000
 6111.00    1.54058   1.46512   -2.000
 6112.00    1.49268   1.46612   -2.000
 6113.00    1.46712   1.46611   -2.000
 6114.00    1.46449   1.46339   22.937
 6115.00    1.47027   1.45946   23.193
 6116.00    1.47102   1.45587   23.396
 6117.00    1.46125   1.44942   24.244
 6118.00    1.44181   1.44217   25.877
 6119.00    1.41867   1.43630   27.540
 6120.00    1.40158   1.42956   28.328
 6121.00    1.39861   1.42581   28.014
 6122.00    1.40283   1.42483   27.416
 6123.00    1.39862   1.42324   27.548
 6124.00    1.38703   1.42468   28.184
 6125.00    1.38282   1.42742   28.275
 6126.00    1.39441   1.42982   27.789
 6127.00    1.41954   1.43293   27.401
 6128.00    1.44613   1.43451   27.039
 6129.00    1.46064   1.43418   26.446
 6130.00    1.46105   1.43173   26.249
 6131.00    1.45341   1.42763   26.915
 6132.00    1.44389   1.42140   27.207
 6133.00    1.43680   1.41318   25.961
 6134.00    1.43370   1.40415   24.650
 6135.00    1.43376   1.39502   24.553
 6136.00    1.43434   1.39057   24.916
 6137.00    1.43127   1.38985   24.821
 6138.00    1.42004   1.39033   24.866
 6139.00    1.40359   1.39412   25.721
 6140.00    1.39624   1.40069   26.925
 6141.00    1.40529   1.41024   27.716
 6142.00    1.42034   1.41987   27.973
 6143.00    1.43095   1.42694   27.993
 6144.00    1.43676   1.43353   28.114
 6145.00    1.43928   1.43863   28.319
 6146.00    1.43777   1.44137   28.209
 6147.00    1.43222   1.44192   27.782
 6148.00    1.42465   1.44060   27.555
 6149.00    1.41819   1.43920   27.625
 6150.00    1.41591   1.43684   27.587
 6151.00    1.41829   1.43354   27.414
 6152.00    1.42306   1.42924   27.461
 6153.00    1.42728   1.42338   27.544
 6154.00    1.42813   1.41670   27.150
 6155.00    1.42304   1.40770   26.711
 6156.00    1.41089   1.39676   27.097
 6157.00    1.39469   1.38495   28.023
 6158.00    1.37919   1.37155   28.341
 6159.00    1.36518   1.35689   27.785
 6160.00    1.35086   1.34383   26.990
 6161.00    1.33628   1.33378   26.454
 6162.00    1.32281   1.32585   26.394
 6163.00    1.31137   1.32138   26.795
 6164.00    1.30303   1.31996   27.230
 6165.00    1.30019   1.32179   26.652
 6166.00    1.30551   1.32616   24.765
 6167.00    1.32053   1.33009   22.904
 6168.00    1.34473   1.33560   21.879
 6169.00    1.37473   1.34338   21.247
 6170.00    1.40375   1.35071   20.769
 6171.00    1.42220   1.35765   21.103
 6172.00    1.42509   1.36522   22.721
 6173.00    1.41677   1.37293   25.047
 6174.00    1.40451   1.38083   26.951
 6175.00    1.39388   1.38807   27.845
 6176.00    1.38825   1.39451   27.968
 6177.00    1.38880   1.40082   28.002
 6178.00    1.39494   1.40552   28.155
 6179.00    1.40424   1.40917   28.011
 6180.00    1.41082   1.41185   27.678
 6181.00    1.40724   1.41230   27.840
 6182.00    1.39403   1.41136   28.259
 6183.00    1.37999   1.40859   27.850
 6184.00    1.37158   1.40288   26.959
 6185.00    1.36973   1.39672   26.935
 6186.00    1.37081   1.39031   27.631
 6187.00    1.36892   1.38289   27.714
 6188.00    1.36062   1.37695   27.106
 6189.00    1.34741   1.37126   26.758
 6190.00    1.33816   1.36835   26.737
 6191.00    1.34245   1.36993   26.567
 6192.00    1.35785   1.37131   26.334
 6193.00    1.37398   1.37472   26.441
 6194.00    1.38281   1.38025   26.957
 6195.00    1.38208   1.38572   27.655
 6196.00    1.37733   1.39170   28.153
 6197.00    1.37525   1.39582   28.178
 6198.00    1.37572   1.39927   27.891
 6199.00    1.37557   1.40379   27.637
 6200.00    1.37349   1.40749   27.631
 6201.00    1.37067   1.41045   27.893
 6202.00    1.37047   1.41335   28.229
 6203.00    1.37526   1.41578   28.393
 6204.00    1.38414   1.41803   28.278
 6205.00    1.39547   1.41888   28.031
 6206.00    1.40829   1.41717   28.007
 6207.00    1.42029   1.41390   28.215
 6208.00    1.42708   1.40853   28.160
 6209.00    1.42563   1.40096   27.824
 6210.00    1.41628   1.39243   27.876
 6211.00    1.40321   1.38198   28.377
 6212.00    1.39262   1.37117   28.523
 6213.00    1.38491   1.36198   28.115
 6214.00    1.37443   1.35348   27.821
 6215.00    1.35902   1.34741   27.855
 6216.00    1.34206   1.34331   27.864
 6217.00    1.32849   1.33993   27.770
 6218.00    1.32218   1.33967   27.828
 6219.00    1.32278   1.34105   28.126
 6220.00    1.32715   1.34289   28.498
 6221.00    1.33438   1.34560   28.631
 6222.00    1.34455   1.34697   28.270
 6223.00    1.35427   1.34807   27.563
 6224.00    1.35905   1.34896   26.927
 6225.00    1.35864   1.34797   26.747
 6226.00    1.35554   1.34599   27.166
 6227.00    1.35144   1.34324   27.792
 6228.00    1.34646   1.33980   28.074
 6229.00    1.33906   1.33736   27.989
 6230.00    1.32955   1.33682   27.842
 6231.00    1.32352   1.33651   27.864
 6232.00    1.32603   1.33808   28.088
 6233.00    1.33591   1.34043   28.306
 6234.00    1.34746   1.34229   28.378
 6235.00    1.35299   1.34449   28.478
 6236.00    1.34824   1.34421   28.716
 6237.00    1.33558   1.34308   28.889
 6238.00    1.31966   1.34032   28.842
 6239.00    1.30424   1.33613   28.691
 6240.00    1.29101   1.33240   28.623
 6241.00    1.27973   1.32748   28.747
 6242.00    1.27142   1.32452   29.002
 6243.00    1.26926   1.32323   29.173
 6244.00    1.27592   1.32214   29.207
 6245.00    1.29158   1.32305   29.248
 6246.00    1.31179   1.32434   29.217
 6247.00    1.32822   1.32514   28.859
 6248.00    1.33386   1.32564   28.361
 6249.00    1.32618   1.32433   28.202
 6250.00    1.31091   1.32092   28.432
 6251.00    1.29794   1.31705   28.714
 6252.00    1.28966   1.31204   28.793
 6253.00    1.28298   1.30689   28.627
 6254.00    1.27888   1.30217   28.385
 6255.00    1.28064   1.29862   28.291
 6256.00    1.28729   1.29806   28.408
 6257.00    1.29560   1.29967   28.637
 6258.00    1.30471   1.30451   28.763
 6259.00    1.31467   1.31068   28.617
 6260.00    1.32355   1.31838   28.289
 6261.00    1.32942   1.32765   27.964
 6262.00    1.33308   1.33597   27.712
 6263.00    1.33782   1.34399   27.442
 6264.00    1.34828   1.35111   26.926
 6265.00    1.36575   1.35721   26.106
 6266.00    1.38469   1.36192   25.266
 6267.00    1.39913   1.36523   24.672
 6268.00    1.40731   1.36811   24.384
 6269.00    1.40798   1.37077   24.380
 6270.00    1.39872   1.37330   24.619
 6271.00    1.38216   1.37520   25.052
 6272.00    1.36827   1.37630   25.599
 6273.00    1.36716   1.37708   26.051
 6274.00    1.38314   1.37767   26.134
 6275.00    1.40614   1.37746   26.098
 6276.00    1.41463   1.37656   26.626
 6277.00    1.40065   1.37573   27.541
 6278.00    1.37499   1.37436   27.705
 6279.00    1.35200   1.37423   27.147
 6280.00    1.34134   1.37542    0.000
 6281.00    1.34034   1.37667    0.000
 6282.00    1.33868   1.37991    0.000
 6283.00    1.33540   1.38304    0.000
 6284.00    1.33755   1.38685    0.000
 6285.00    1.34833   1.39166    0.000
 6286.00    1.36492   1.39463    0.000
 6287.00    1.37964   1.39719    0.000
 6288.00    1.38537   1.39783    0.000
 6289.00    1.38350   1.39654    0.000
 6290.00    1.37947   1.39485    0.000
 6291.00    1.37466   1.39122    0.000
 6292.00    1.36830   1.38660    0.000
 6293.00    1.36110   1.38127    0.000
 6294.00    1.35464   1.37478    0.000
 6295.00    1.35016   1.36914    0.000
 6296.00    1.34790   1.36424    0.000
 6297.00    1.34690   1.35987    0.000
 6298.00    1.34714   1.35659    0.000
 6299.00    1.35072   1.35411    0.000
 6300.00    1.35767   1.35369    0.000
 6301.00    1.36358   1.35547    0.000
 6302.00    1.36462   1.35851    0.000
 6303.00    1.36058   1.36227    0.000
 6304.00    1.35404   1.36644    0.000
 6305.00    1.34931   1.37119    0.000
 6306.00    1.34989   1.37534    0.000
 6307.00    1.35704   1.37806    0.000
 6308.00    1.36845   1.37873    0.000
 6309.00    1.37917   1.37775    0.000
 6310.00    1.38622   1.37537    0.000
 6311.00    1.38910   1.37115    0.000
 6312.00    1.38648   1.36607    0.000
 6313.00    1.37717   1.35995    0.000
 6314.00    1.36535   1.35470    0.000
 6315.00    1.35839   1.35083    0.000
 6316.00    1.35889   1.34752    0.000
 6317.00    1.36447   1.34699    0.000
 6318.00    1.37117   1.34824    0.000
 6319.00    1.37539   1.35146    0.000
 6320.00    1.37607   1.35679    0.000
 6321.00    1.37367   1.36255   27.984
 6322.00    1.36828   1.36999   27.364
 6323.00    1.36185   1.37712   27.006
 6324.00    1.36087   1.38373   26.958
 6325.00    1.36931   1.38941   27.164
 6326.00    1.38108   1.39326   27.633
 6327.00    1.38899   1.39672   28.266
 6328.00    1.39393   1.39752   28.652
 6329.00    1.39983   1.39718   28.297
 6330.00    1.40836   1.39571   27.034
 6331.00    1.41655   1.39232   25.429
 6332.00    1.41677   1.38853   24.473
 6333.00    1.40596   1.38349   24.452
 6334.00    1.39063   1.37889   24.792
 6335.00    1.38011   1.37530   25.123
 6336.00    1.38111   1.37242   25.746
 6337.00    1.39096   1.37000   26.718
 6338.00    1.39798   1.36855   27.449
 6339.00    1.39660   1.36842   27.609
 6340.00    1.39140   1.36872   27.537
 6341.00    1.38788   1.37020   27.491
 6342.00    1.38833   1.37135   27.399
 6343.00    1.39050   1.37326   27.091
 6344.00    1.38994   1.37605   26.546
 6345.00    1.38757   1.37811   26.246
 6346.00    1.38838   1.38079   26.763
 6347.00    1.39326   1.38325   27.696
 6348.00    1.39870   1.38523   27.894
 6349.00    1.40061   1.38659   27.087
 6350.00    1.39767   1.38588   25.915
 6351.00    1.39543   1.38338   24.877
 6352.00    1.39937   1.37947   24.125
 6353.00    1.40336   1.37367   23.520
 6354.00    1.39873   1.36676   23.083
 6355.00    1.38865   1.35891   23.433
 6356.00    1.37979   1.35023   25.041
 6357.00    1.37065   1.34207   27.055
 6358.00    1.35874   1.33512   27.767
 6359.00    1.34890   1.32996   26.778
 6360.00    1.34711   1.32684   25.174
 6361.00    1.35411   1.32600   24.209
 6362.00    1.36478   1.32781   24.250
 6363.00    1.36959   1.33256   24.655
 6364.00    1.36407   1.33954   25.008
 6365.00    1.35420   1.34767   25.836
 6366.00    1.34862   1.35711   27.227
 6367.00    1.35339   1.36677   27.929
 6368.00    1.36985   1.37632   27.436
 6369.00    1.39382   1.38520   27.023
 6370.00    1.41638   1.39280   27.287
 6371.00    1.42734   1.39927   27.559
 6372.00    1.42690   1.40387   27.266
 6373.00    1.42559   1.40709   26.477
 6374.00    1.42842   1.40882   25.506
 6375.00    1.43137   1.40955   24.677
 6376.00    1.42756   1.40913   24.265
 6377.00    1.41289   1.40762   24.443
 6378.00    1.39527   1.40632   25.121
 6379.00    1.38846   1.40476   25.968
 6380.00    1.39397   1.40374   26.609
 6381.00    1.40300   1.40301   26.837
 6382.00    1.40823   1.40242   26.897
 6383.00    1.40680   1.40270   27.147
 6384.00    1.40127   1.40277   27.423
 6385.00    1.39590   1.40278   27.398
 6386.00    1.39138   1.40222   27.299
 6387.00    1.38770   1.40070   27.474
 6388.00    1.38831   1.39858   27.766
 6389.00    1.39427   1.39536   27.896
 6390.00    1.39835   1.39172   27.956
 6391.00    1.39553   1.38760   28.048
 6392.00    1.39236   1.38411   27.908
 6393.00    1.39449   1.38177   27.408
 6394.00    1.39678   1.37953   26.915
 6395.00    1.39258   1.37784   26.776
 6396.00    1.38108   1.37606   27.024
 6397.00    1.36676   1.37624   27.529
 6398.00    1.35758   1.37743   28.044
 6399.00    1.35930   1.37941   28.183
 6400.00    1.37225   1.38205   27.583
 6401.00    1.39104   1.38343   26.559
 6402.00    1.40670   1.38534   25.925
 6403.00    1.41517   1.38626   25.917
 6404.00    1.41889   1.38738   26.171
 6405.00    1.41934   1.38878   26.502
 6406.00    1.41568   1.38788   27.004
 6407.00    1.40910   1.38650   27.451
 6408.00    1.40208   1.38487   27.419
 6409.00    1.39298   1.38279   27.280
 6410.00    1.37964   1.38136   27.750
 6411.00    1.37096   1.38015   28.288
 6412.00    1.37916   1.37959   27.855
 6413.00    1.39903   1.37948   27.487
 6414.00    1.41375   1.37898   28.345
 6415.00    1.41275   1.37844   27.891
 6416.00    1.39661   1.37844   25.244
 6417.00    1.37876   1.37855   27.540
 6418.00    1.37306   1.37899   33.691
 6419.00    1.37762   1.38077   29.341
 6420.00    1.38314   1.38293   11.548
 6421.00    1.38521   1.38585    7.178
 6422.00    1.38529   1.38889    6.679
 6423.00    1.38957   1.39186    7.242
 6424.00    1.40290   1.39508    7.316
 6425.00    1.42341   1.39758    7.003
 6426.00    1.44334   1.39884    6.893
 6427.00    1.45122   1.39803    6.888
 6428.00    1.44138   1.39639    6.885
 6429.00    1.41892   1.39428    7.099
 6430.00    1.39249   1.39272    7.397
 6431.00    1.36979   1.39146    7.095
 6432.00    1.35768   1.39022    6.778
 6433.00    1.36062   1.38972    8.366
 6434.00    1.37352   1.38939   16.176
 6435.00    1.38302   1.39056   33.691
 6436.00    1.38416   1.39284   33.433
 6437.00    1.38306   1.39517   25.726
 6438.00    1.38446   1.39844   27.157
 6439.00    1.38851   1.40184   29.316
 6440.00    1.39379   1.40457   28.055
 6441.00    1.39848   1.40701   27.318
 6442.00    1.40107   1.40845   28.075
 6443.00    1.40162   1.40941   28.392
 6444.00    1.40374   1.40881   27.958
 6445.00    1.41027   1.40469   27.924
 6446.00    1.41484   1.39878   28.337
 6447.00    1.40846   1.39261   28.461
 6448.00    1.39251   1.38644   28.045
 6449.00    1.37515   1.38216   27.412
 6450.00    1.36323   1.37858   27.126
 6451.00    1.35854   1.37596   27.443
 6452.00    1.35536   1.37506   27.829
 6453.00    1.34938   1.37553   27.721
 6454.00    1.34641   1.37897   27.464
 6455.00    1.35229   1.38319   27.451
 6456.00    1.36337   1.38644   27.357
 6457.00    1.37354   1.38884   26.932
 6458.00    1.38039   1.38925   26.576
 6459.00    1.38331   1.38939   26.606
 6460.00    1.38230   1.39015   26.849
 6461.00    1.38068   1.39044   26.996
 6462.00    1.38493   1.39126   26.877
 6463.00    1.39480   1.39156   26.729
 6464.00    1.40072   1.39245   27.113
 6465.00    1.39659   1.39313   28.053
 6466.00    1.38493   1.39441   28.781
 6467.00    1.37256   1.39687   28.810
 6468.00    1.36762   1.39861   28.432
 6469.00    1.37580   1.40003   28.011
 6470.00    1.39625   1.40039   27.705
 6471.00    1.41398   1.40078   27.525
 6472.00    1.40954   1.40041   27.406
 6473.00    1.38947   1.40004   27.315
 6474.00    1.37864   1.39937   27.242
 6475.00    1.38516   1.39838   27.126
 6476.00    1.39959   1.39746   26.945
 6477.00    1.40978   1.39524   26.900
 6478.00    1.40822   1.39216   27.178
 6479.00    1.39890   1.38922   27.498
 6480.00    1.39168   1.38674   27.470
 6481.00    1.39216   1.38424   27.282
 6482.00    1.40038   1.38181   27.279
 6483.00    1.41155   1.37950   27.316
 6484.00    1.42043   1.37679   27.122
 6485.00    1.42570   1.37288   26.786
 6486.00    1.42578   1.36826   26.629
 6487.00    1.41507   1.36215   27.017
 6488.00    1.39140   1.35360   27.951
 6489.00    1.36166   1.34256   28.699
 6490.00    1.33326   1.32869   28.655
 6491.00    1.30805   1.31446   28.200
 6492.00    1.28609   1.30027   27.906
 6493.00    1.26841   1.28760   27.980
 6494.00    1.25654   1.27875   28.350
 6495.00    1.25170   1.27272   28.729
 6496.00    1.25219   1.27190   28.820
 6497.00    1.25399   1.27449   28.475
 6498.00    1.25817   1.28157   27.791
 6499.00    1.27107   1.29330   27.061
 6500.00    1.29314   1.30611   26.624
 6501.00    1.31758   1.32065   26.673
 6502.00    1.33910   1.33403   26.820
 6503.00    1.35615   1.34654   26.402
 6504.00    1.36899   1.35775   25.804
 6505.00    1.37846   1.36651   25.973
 6506.00    1.38446   1.37354   26.827
 6507.00    1.38716   1.37847   27.465
 6508.00    1.39019   1.38167   27.499
 6509.00    1.39749   1.38343   27.229
 6510.00    1.40678   1.38369   27.032
 6511.00    1.41161   1.38264   27.062
 6512.00    1.40670   1.38088   27.056
 6513.00    1.39200   1.37907   26.838
 6514.00    1.37648   1.37686   26.985
 6515.00    1.36921   1.37472   27.919
 6516.00    1.36876   1.37357   28.743
 6517.00    1.36986   1.37287   28.489
 6518.00    1.37120   1.37310   27.925
 6519.00    1.37275   1.37377   27.830
 6520.00    1.37306   1.37540   27.610
 6521.00    1.37422   1.37728   26.839
 6522.00    1.38418   1.37853   26.223
 6523.00    1.40562   1.38005   26.101
 6524.00    1.42950   1.38099   25.850
 6525.00    1.44401   1.38118   25.356
 6526.00    1.44179   1.38114   25.482
 6527.00    1.42779   1.38062   26.383
 6528.00    1.41836   1.38005    0.000
 6529.00    1.41991   1.37922    0.000
 6530.00    1.42372   1.37868    0.000
 6531.00    1.42376   1.37934    0.000
 6532.00    1.42157   1.38037    0.000
 6533.00    1.41832   1.38142    0.000
 6534.00    1.41372   1.38238    0.000
 6535.00    1.41071   1.38334    0.000
 6536.00    1.41428   1.38422    0.000
 6537.00    1.42496   1.38455    0.000
 6538.00    1.43700   1.38422    0.000
 6539.00    1.43881   1.38245    0.000
 6540.00    1.42166   1.37934    0.000
 6541.00    1.39559   1.37526    0.000
 6542.00    1.37869   1.37012    0.000
 6543.00    1.37477   1.36511    0.000
 6544.00    1.37789   1.35949    0.000
 6545.00    1.38422   1.35391    0.000
 6546.00    1.39195   1.34869    0.000
 6547.00    1.39906   1.34322    0.000
 6548.00    1.40300   1.33817    0.000
 6549.00    1.40085   1.33209    0.000
 6550.00    1.39269   1.32581    0.000
 6551.00    1.38397   1.31865    0.000
 6552.00    1.37866   1.30951    0.000
 6553.00    1.37400   1.29880    0.000
 6554.00    1.36544   1.28567    0.000
 6555.00    1.35098   1.27088    0.000
 6556.00    1.33313   1.25415    0.000
 6557.00    1.31866   1.23571    0.000
 6558.00    1.31057   1.21517    0.000
 6559.00    1.30551   1.19578    0.000
 6560.00    1.30259   1.18215    0.000
 6561.00    1.30600   1.17237    0.000
 6562.00    1.31809   1.16815    0.000
 6563.00    1.33811   1.16958    0.000
 6564.00    1.36849   1.17606    0.000
 6565.00    1.41233   1.18624    0.000
 6566.00    1.45903   1.19999    0.000
 6567.00    1.48819   1.21939    0.000
 6568.00    1.49163   1.23840    0.000
 6569.00    1.47500   1.25424    0.000
 6570.00    1.44723   1.26808    0.000
 6571.00    1.41615   1.27937    0.000
 6572.00    1.38493   1.28921    0.000
 6573.00    1.35651   1.29787    0.000
 6574.00    1.34177   1.30603    0.000
 6575.00    1.34951   1.31304    0.000
 6576.00    1.36977   1.31889    0.000
 6577.00    1.38494   1.32449    0.000
 6578.00    1.38781   1.32985    0.000
 6579.00    1.38136   1.33515    0.000
 6580.00    1.37526   1.33966    0.000
 6581.00    1.37857   1.34313    0.000
 6582.00    1.39304   1.34530    0.000
 6583.00    1.41376   1.34697    0.000
 6584.00    1.43166   1.34789    0.000
 6585.00    1.44313   1.34817    0.000
 6586.00    1.45520   1.34779    0.000
 6587.00    1.47115   1.34576    0.000
 6588.00    1.48211   1.34247    0.000
 6589.00    1.47661   1.33775    0.000
 6590.00    1.44834   1.33379    0.000
 6591.00    1.40554   1.33072    0.000
 6592.00    1.36978   1.32778    0.000
 6593.00    1.35099   1.32599    0.000
 6594.00    1.34218   1.32504    0.000
 6595.00    1.34116   1.32549    0.000
 6596.00    1.35375   1.32728    0.000
 6597.00    1.37658   1.33080    0.000
 6598.00    1.39648   1.33504    0.000
 6599.00    1.40479   1.33846    0.000
 6600.00    1.40019   1.34078    0.000
 6601.00    1.38502   1.34192    0.000
 6602.00    1.36447   1.34223    0.000
 6603.00    1.34666   1.34174    0.000
 6604.00    1.33877   1.34057    0.000
 6605.00    1.34028   1.33852    0.000
 6606.00    1.34516   1.33716    0.000
 6607.00    1.34769   1.33672    0.000
 6608.00    1.34531   1.33687    0.000
 6609.00    1.34093   1.33829   27.757
 6610.00    1.33918   1.34053   27.152
 6611.00    1.34159   1.34430   26.466
 6612.00    1.34685   1.34812   26.716
 6613.00    1.35204   1.35243   27.248
 6614.00    1.35482   1.35694   26.989
 6615.00    1.35506   1.36055   25.895
 6616.00    1.35334   1.36328   24.327
 6617.00    1.35004   1.36488   22.448
 6618.00    1.34927   1.36579   20.719
 6619.00    1.35965   1.36529   19.792
 6620.00    1.38199   1.36338   19.648
 6621.00    1.40378   1.36063   19.552
 6622.00    1.41133   1.35792   19.192
 6623.00    1.39804   1.35442   19.037
 6624.00    1.37139   1.35069   19.314
 6625.00    1.34991   1.34682   19.757
 6626.00    1.33926   1.34273   20.305
 6627.00    1.32981   1.33883   21.258
 6628.00    1.32153   1.33484   22.575
 6629.00    1.32544   1.33151   23.641
 6630.00    1.34157   1.32826   24.083
 6631.00    1.35753   1.32608   24.124
 6632.00    1.36276   1.32457   24.106
 6633.00    1.35363   1.32377   24.263
 6634.00    1.33610   1.32373   24.688
 6635.00    1.32096   1.32412   25.317
 6636.00    1.31369   1.32505   25.893
 6637.00    1.31397   1.32658   26.134
 6638.00    1.31844   1.32853   26.113
 6639.00    1.32307   1.32959   26.064
 6640.00    1.32591   1.33051   25.976
 6641.00    1.32743   1.33156   25.771
 6642.00    1.33014   1.33208   25.573
 6643.00    1.33548   1.33239   25.496
 6644.00    1.34063   1.33301   25.423
 6645.00    1.34111   1.33399   25.307
 6646.00    1.33396   1.33460   25.431
 6647.00    1.31929   1.33543   25.894
 6648.00    1.30133   1.33672   26.175
 6649.00    1.28691   1.33777   25.551
 6650.00    1.28424   1.33839   23.758
 6651.00    1.30236   1.33881   21.381
 6652.00    1.34698   1.33879   19.328
 6653.00    1.39907   1.33817   18.057
 6654.00    1.41478   1.33709   17.658
 6655.00    1.38334   1.33533   17.969
 6656.00    1.34171   1.33300   18.586
 6657.00    1.31564   1.32994   19.137
 6658.00    1.30202   1.32667   19.441
 6659.00    1.29867   1.32251   19.465
 6660.00    1.31126   1.31878   19.317
 6661.00    1.33897   1.31581   19.269
 6662.00    1.37166   1.31301   19.603
 6663.00    1.39527   1.31125   20.231
 6664.00    1.39881   1.31036   20.748
 6665.00    1.38672   1.31108   21.029
 6666.00    1.37286   1.31241   21.255
 6667.00    1.36243   1.31472   21.467
 6668.00    1.35289   1.31759   21.637
 6669.00    1.34272   1.32005   21.981
 6670.00    1.33376   1.32205   22.669
 6671.00    1.33177   1.32307   23.217
 6672.00    1.33751   1.32307   23.125
 6673.00    1.33609   1.32161   23.038
 6674.00    1.31876   1.31892   23.582
 6675.00    1.30739   1.31657   23.920
 6676.00    1.32233   1.31446   23.091
 6677.00    1.34898   1.31236   21.768
 6678.00    1.36443   1.31140   20.887
 6679.00    1.36379   1.31129   20.700
 6680.00    1.35541   1.31238   21.106
 6681.00    1.35305   1.31404   21.777
 6682.00    1.36039   1.31709   22.400
 6683.00    1.36424   1.32061   22.879
 6684.00    1.35649   1.32351   23.110
 6685.00    1.34547   1.32642   22.879
 6686.00    1.34543   1.32840   22.187
 6687.00    1.36630   1.32978   21.329
 6688.00    1.39555   1.33018   20.597
 6689.00    1.40211   1.32985   20.176
 6690.00    1.38232   1.32878   20.180
 6691.00    1.36338   1.32692   20.670
 6692.00    1.35472   1.32454   21.536
 6693.00    1.34370   1.32209   22.486
 6694.00    1.33156   1.31987   23.311
 6695.00    1.33232   1.31765   23.913
 6696.00    1.34349   1.31616    0.000
 6697.00    1.35056   1.31482    0.000
 6698.00    1.35280   1.31398    0.000
 6699.00    1.35798   1.31328    0.000
 6700.00    1.36177   1.31298    0.000
 6701.00    1.35448   1.31328    0.000
 6702.00    1.33809   1.31343    0.000
 6703.00    1.32008   1.31376    0.000
 6704.00    1.30114   1.31337    0.000
 6705.00    1.28354   1.31279    0.000
 6706.00    1.28202   1.31143    0.000
 6707.00    1.30215   1.30963    0.000
 6708.00    1.31916   1.30749    0.000
 6709.00    1.31780   1.30446    0.000
 6710.00    1.32640   1.30109    0.000
 6711.00    1.36612   1.29691    0.000
 6712.00    1.41180   1.29272    0.000
 6713.00    1.43363   1.28838    0.000
 6714.00    1.42777   1.28475    0.000
 6715.00    1.40461   1.28259    0.000
 6716.00    1.37870   1.28101    0.000
 6717.00    1.36167   1.28091    0.000
 6718.00    1.35795   1.28173    0.000
 6719.00    1.36282   1.28393    0.000
 6720.00    1.36549   1.28685    0.000
 6721.00    1.36527   1.29012    0.000
 6722.00    1.37222   1.29390    0.000
 6723.00    1.38642   1.29743    0.000
 6724.00    1.39602   1.30079    0.000
 6725.00    1.39455   1.30346    0.000
 6726.00    1.38536   1.30590    0.000
 6727.00    1.37833   1.30773    0.000
 6728.00    1.38260   1.30909    0.000
 6729.00    1.39242   1.30985    0.000
 6730.00    1.39424   1.31034    0.000
 6731.00    1.38717   1.31042    0.000
 6732.00    1.37928   1.30995    0.000
 6733.00    1.37415   1.30899    0.000
 6734.00    1.37060   1.30732    0.000
 6735.00    1.36631   1.30546    0.000
 6736.00    1.36256   1.30324    0.000
 6737.00    1.36852   1.30114    0.000
 6738.00    1.38412   1.29879    0.000
 6739.00    1.38303   1.29654    0.000
 6740.00    1.34903   1.29451    0.000
 6741.00    1.31006   1.29256    0.000
 6742.00    1.29684   1.29073    0.000
 6743.00    1.30606   1.28915    0.000
 6744.00    1.31737   1.28773    0.000
 6745.00    1.31143   1.28650    0.000
 6746.00    1.28852   1.28530    0.000
 6747.00    1.27389   1.28464    0.000
 6748.00    1.28131   1.28453    0.000
 6749.00    1.29609   1.28450    0.000
 6750.00    1.29832   1.28576    0.000
 6751.00    1.27855   1.28733    0.000
 6752.00    1.25175   1.28989    0.000
 6753.00    1.25000   1.29302   23.561
 6754.00    1.27428   1.29671   22.711
 6755.00    1.29318   1.30078   22.249
 6756.00    1.29793   1.30442   22.288
 6757.00    1.30515   1.30818   22.314
 6758.00    1.31314   1.31089   22.258
 6759.00    1.30463   1.31298   22.441
 6760.00    1.28396   1.31404   22.697
 6761.00    1.27088   1.31389   22.508
 6762.00    1.26854   1.31282   21.842
 6763.00    1.26823   1.31087   21.106
 6764.00    1.27046   1.30857   20.682
 6765.00    1.28025   1.30611   20.748
 6766.00    1.29376   1.30396   21.134
 6767.00    1.30216   1.30218   21.600
 6768.00    1.30021   1.30141   22.273
 6769.00    1.28801   1.30156   23.251
 6770.00    1.27146   1.30275   23.903
 6771.00    1.25981   1.30473   23.727
 6772.00    1.26200   1.30750   23.494
 6773.00    1.27664   1.31049   23.764
 6774.00    1.28603   1.31323   23.683
 6775.00    1.28156   1.31572   22.598
 6776.00    1.27999   1.31703   21.270
 6777.00    1.29063   1.31739   20.368
 6778.00    1.29687   1.31631   19.904
 6779.00    1.29095   1.31418   19.873
 6780.00    1.28969   1.31101   20.454
 6781.00    1.30118   1.30745   21.540
 6782.00    1.31202   1.30393   22.445
 6783.00    1.31244   1.30050   22.675
 6784.00    1.30575   1.29790   22.479
 6785.00    1.29768   1.29582   22.269
 6786.00    1.29193   1.29463   22.255
 6787.00    1.29032   1.29414   22.346
 6788.00    1.29258   1.29434   22.286
 6789.00    1.29560   1.29489   22.183
 6790.00    1.29410   1.29555   22.391
 6791.00    1.28320   1.29653   22.864
 6792.00    1.26314   1.29707   23.163
 6793.00    1.24774   1.29781   22.945
 6794.00    1.25327   1.29841   22.248
 6795.00    1.27398   1.29910   21.558
 6796.00    1.29312   1.29998   21.322
 6797.00    1.30880   1.30088   21.432
 6798.00    1.32568   1.30200   21.559
 6799.00    1.33682   1.30296   21.664
 6800.00    1.33340   1.30393   21.864
 6801.00    1.31963   1.30465   22.147
 6802.00    1.30506   1.30515   22.456
 6803.00    1.29430   1.30523   22.814
 6804.00    1.29198   1.30511   23.111
 6805.00    1.30686   1.30475   22.943
 6806.00    1.33541   1.30415   22.326
 6807.00    1.35166   1.30353   22.056
 6808.00    1.33797   1.30290   22.498
 6809.00    1.30600   1.30227   23.012
 6810.00    1.27923   1.30185   23.057
 6811.00    1.27704   1.30168   22.979
 6812.00    1.29421   1.30178   23.091
 6813.00    1.30001   1.30209   23.216
 6814.00    1.28680   1.30268   23.212
 6815.00    1.28168   1.30347   23.174
 6816.00    1.29478   1.30450   23.125
 6817.00    1.30824   1.30584   22.956
 6818.00    1.31711   1.30720   22.727
 6819.00    1.33268   1.30863   22.658
 6820.00    1.34504   1.31001   22.805
 6821.00    1.33023   1.31107   22.977
 6822.00    1.30132   1.31188   22.765
 6823.00    1.29427   1.31217   21.932
 6824.00    1.30243   1.31220   21.099
 6825.00    1.29397   1.31203   20.994
 6826.00    1.27861   1.31164   21.340
 6827.00    1.28563   1.31114   21.378
 6828.00    1.30191   1.31039   21.158
 6829.00    1.29919   1.30961   21.093
 6830.00    1.29151   1.30859   20.921
 6831.00    1.30287   1.30737   20.307
 6832.00    1.31450   1.30573   19.720
 6833.00    1.30092   1.30352   19.679
 6834.00    1.27763   1.30077   20.066
 6835.00    1.26891   1.29733   20.561
 6836.00    1.27108   1.29345   21.097
 6837.00    1.27073   1.28935   21.646
 6838.00    1.26421   1.28551   21.976
 6839.00    1.25767   1.28240   21.970
 6840.00    1.26339   1.28014   21.873
 6841.00    1.28305   1.27911   21.858
 6842.00    1.30030   1.27917   21.782
 6843.00    1.30357   1.28046   21.551
 6844.00    1.29728   1.28258   21.289
 6845.00    1.28776   1.28522   21.059
 6846.00    1.27705   1.28799   20.789
 6847.00    1.26931   1.29041   20.519
 6848.00    1.27114   1.29208   20.425
 6849.00    1.28139   1.29262   20.589
 6850.00    1.29090   1.29219   20.907
 6851.00    1.29485   1.29067   21.047
 6852.00    1.29542   1.28841   20.690
 6853.00    1.29711   1.28581   20.255
 6854.00    1.30375   1.28292   20.446
 6855.00    1.31489   1.28010   21.016
 6856.00    1.32546   1.27772   21.065
 6857.00    1.32732   1.27597   20.647
 6858.00    1.31571   1.27494   20.510
 6859.00    1.30007   1.27456   20.884
 6860.00    1.29435   1.27469   21.519
 6861.00    1.29833   1.27519   21.920
 6862.00    1.30471   1.27599   21.706
 6863.00    1.31318   1.27677   21.130
 6864.00    1.32440   1.27743   20.638
 6865.00    1.33064   1.27794   20.317
 6866.00    1.32339   1.27801   20.158
 6867.00    1.30268   1.27814   20.299
 6868.00    1.27565   1.27824   20.709
 6869.00    1.25407   1.27832   20.889
 6870.00    1.25141   1.27847   20.492
 6871.00    1.27775   1.27880   19.870
 6872.00    1.31755   1.27960   19.446
 6873.00    1.32469   1.28049   19.339
 6874.00    1.28959   1.28179   19.547
 6875.00    1.26496   1.28293   20.025
 6876.00    1.27533   1.28393   20.584
 6877.00    1.28348   1.28462   20.890
 6878.00    1.26995   1.28543   20.874
 6879.00    1.25856   1.28616   20.842
 6880.00    1.26183   1.28668   20.919
 6881.00    1.26718   1.28758   20.945
 6882.00    1.26946   1.28867   20.946
 6883.00    1.27612   1.29038   21.122
 6884.00    1.28672   1.29231   21.308
 6885.00    1.29340   1.29488   21.080
 6886.00    1.29898   1.29760   20.567
 6887.00    1.31306   1.30052   20.229
 6888.00    1.33232   1.30349   20.042
 6889.00    1.33984   1.30610   19.807
 6890.00    1.31461   1.30838   19.930
 6891.00    1.26665   1.30991   20.588
 6892.00    1.28621   1.31111   20.039
 6893.00    1.40329   1.31181   17.981
 6894.00    1.38617   1.31203   18.661
 6895.00    1.07066   1.31213   -1.000
 6896.00    0.79138   1.31225   -1.000
 6897.00    0.88987   1.31239   -1.000
 6898.00    1.13316   1.31257    8.806
 6899.00    1.18360   1.31308    8.275
 6900.00    1.10047   1.31371    9.105
 6901.00    1.05795   1.31457    9.527
 6902.00    1.07069   1.31544    9.329
 6903.00    1.08709   1.31633    9.175
 6904.00    1.07893   1.31692    9.274
 6905.00    1.05606   1.31711    9.478
 6906.00    1.06037   1.31697    9.428
 6907.00    1.09714   1.31636    9.112
 6908.00    1.11364   1.31508    8.980
 6909.00    1.08931   1.31334    9.181
 6910.00    1.06466   1.31143    9.392
 6911.00    1.06754   1.30910    9.367
 6912.00    1.08778   1.30713    9.193
 6913.00    1.10643   1.30516    9.038
 6914.00    1.10834   1.30374    9.022
 6915.00    1.08476   1.30271    9.219
 6916.00    1.03975   1.30214    9.618
 6917.00    1.00459   1.30191   -1.000
 6918.00    1.01631   1.30169    9.840
 6919.00    1.05794   1.30160    9.452
 6920.00    1.08117   1.30132    9.249
 6921.00    1.08327   1.30124    9.231
 6922.00    1.09082   1.30059    9.167
 6923.00    1.10102   1.29993    9.083
 6924.00    1.09669   1.29927    9.118
 6925.00    1.08607   1.29858    9.208
 6926.00    1.08338   1.29824    9.230
 6927.00    1.07558   1.29788    9.297
 6928.00    1.05069   1.29812    9.518
 6929.00    1.03377   1.29852    9.673
 6930.00    1.04480   1.29921    9.571
 6931.00    1.05561   1.30016    9.473
 6932.00    1.04616   1.30121    9.559
 6933.00    1.05145   1.30241    9.511
 6934.00    1.08928   1.30335    9.180
 6935.00    1.11110   1.30432    9.000
 6936.00    1.08795   1.30489    9.192
 6937.00    1.06120   1.30518    9.423
 6938.00    1.06814   1.30500    9.362
 6939.00    1.09936   1.30433    9.096
 6940.00    1.12499   1.30355    8.889
 6941.00    1.11647   1.30231    8.957
 6942.00    1.07522   1.30077    9.300
 6943.00    1.03573   1.29922    9.655
 6944.00    1.02728   1.29770   -2.000
 6945.00    1.05518   1.29632   -2.000
 6946.00    1.09142   1.29523   -2.000
 6947.00    1.09506   1.29443   -2.000
 6948.00    1.07894   1.29393   -2.000
 6949.00    1.09211   1.29380   -2.000
 6950.00    1.12533   1.29401   -2.000
 6951.00    1.13155   1.29467   -2.000
 6952.00    1.12412   1.29569   -2.000
 6953.00    1.14683   1.29704   -2.000
 6954.00    1.17566   1.29865   -2.000
 6955.00    1.15887   1.30073   -2.000
 6956.00    1.11368   1.30291   -2.000
 6957.00    1.09210   1.30534   -2.000
 6958.00    1.10787   1.30792   -2.000
 6959.00    1.13934   1.31025   -2.000
 6960.00    1.14950   1.31248   -2.000
 6961.00    1.12064   1.31443   -2.000
 6962.00    1.08579   1.31615   -2.000
 6963.00    1.08413   1.31730   -2.000
 6964.00    1.11617   1.31814   -2.000
 6965.00    1.15867   1.31846   -2.000
 6966.00    1.18425   1.31836   -2.000
 6967.00    1.18833   1.31773   -2.000
 6968.00    1.19905   1.31626   -2.000
 6969.00    1.21950   1.31402   -2.000
 6970.00    1.20588   1.31076   -2.000
 6971.00    1.15556   1.30670   -2.000
 6972.00    1.13232   1.30190   -2.000
 6973.00    1.14685   1.29675   -2.000
 6974.00    1.13149   1.29173   -2.000
 6975.00    1.08001   1.28708   -2.000
 6976.00    1.06763   1.28344   -2.000
 6977.00    1.10799   1.28110   -2.000
 6978.00    1.13638   1.28059   -2.000
 6979.00    1.12326   1.28164   -2.000
 6980.00    1.09412   1.28428   -2.000
 6981.00    1.08282   1.28818   -2.000
 6982.00    1.10783   1.29283   -2.000
 6983.00    1.14912   1.29777   -2.000
 6984.00    1.16635   1.30256   -2.000
 6985.00    1.14646   1.30702   -2.000
 6986.00    1.10967   1.31066   -2.000
 6987.00    1.10025   1.31334   -2.000
 6988.00    1.14290   1.31518   -2.000
 6989.00    1.18325   1.31621   -2.000
 6990.00    1.16078   1.31664   -2.000
 6991.00    1.11267   1.31645   -2.000
 6992.00    1.09942   1.31579   -2.000
 6993.00    1.10677   1.31459   -2.000
 6994.00    1.10124   1.31299   -2.000
 6995.00    1.09433   1.31101   -2.000
 6996.00    1.10592   1.30872   -2.000
 6997.00    1.12791   1.30614   -2.000
 6998.00    1.13886   1.30338   -2.000
 6999.00    1.12061   1.30071   -2.000
 7000.00    1.07824   1.29821   -2.000
 7001.00    1.04595   1.29619   -2.000
 7002.00    1.04623   1.29449   -2.000
 7003.00    1.06967   1.29336   -2.000
 7004.00    1.09810   1.29256   -2.000
 7005.00    1.11731   1.29218   -2.000
 7006.00    1.11820   1.29207   -2.000
 7007.00    1.09982   1.29201   -2.000
 7008.00    1.07917   1.29173   -2.000
 7009.00    1.08222   1.29117   -2.000
 7010.00    1.10275   1.29032   -2.000
 7011.00    1.10897   1.28925   -2.000
 7012.00    1.10125   1.28812   -2.000
 7013.00    1.10973   1.28695   -2.000
 7014.00    1.14653   1.28595   -2.000
 7015.00    1.19432   1.28516   -2.000
 7016.00    1.21001   1.28484   -2.000
 7017.00    1.16260   1.28490   -2.000
 7018.00    1.09855   1.28548   -2.000
 7019.00    1.08828   1.28626   -2.000
 7020.00    1.12184   1.28730   -2.000
 7021.00    1.14429   1.28828   -2.000
 7022.00    1.12997   1.28935   -2.000
 7023.00    1.08874   1.29054   -2.000
 7024.00    1.05757   1.29173   -2.000
 7025.00    1.06198   1.29312   -2.000
 7026.00    1.07993   1.29453   -2.000
 7027.00    1.08693   1.29607   -2.000
 7028.00    1.09702   1.29769   -2.000
 7029.00    1.12198   1.29934   -2.000
 7030.00    1.13983   1.30084   -2.000
 7031.00    1.13191   1.30232   -2.000
 7032.00    1.10836   1.30380   -2.000
 7033.00    1.09052   1.30526   -2.000
 7034.00    1.09474   1.30693   -2.000
 7035.00    1.11139   1.30882   -2.000
 7036.00    1.10691   1.31122   -2.000
 7037.00    1.08413   1.31406   -2.000
 7038.00    1.08853   1.31756   -2.000
 7039.00    1.11949   1.32149   -2.000
 7040.00    1.12315   1.32572   -2.000
 7041.00    1.09475   1.32991   -2.000
 7042.00    1.08556   1.33372   -2.000
 7043.00    1.11249   1.33682   -2.000
 7044.00    1.14918   1.33879   -2.000
 7045.00    1.17666   1.33948   -2.000
 7046.00    1.18815   1.33864   -2.000
 7047.00    1.16890   1.33634   -2.000
 7048.00    1.11569   1.33240   -2.000
 7049.00    1.08132   1.32701   -2.000
 7050.00    1.11389   1.32043   -2.000
 7051.00    1.14401   1.31296   -2.000
 7052.00    1.08865   1.30506   -2.000
 7053.00    1.02591   1.29718   -2.000
 7054.00    1.06131   1.28966   -2.000
 7055.00    1.13100   1.28266   -2.000
 7056.00    1.13702   1.27645   -2.000
 7057.00    1.11814   1.27109   -2.000
 7058.00    1.13094   1.26645   -2.000
 7059.00    1.12687   1.26265   -2.000
 7060.00    1.07617   1.25936   -2.000
 7061.00    1.06401   1.25680   -2.000
 7062.00    1.12581   1.25472   -2.000
 7063.00    1.14774   1.25315   -2.000
 7064.00    1.07186   1.25197   -2.000
 7065.00    1.00312   1.25139   -2.000
 7066.00    1.01903   1.25143   -2.000
 7067.00    1.07602   1.25222   -2.000
 7068.00    1.10849   1.25384   -2.000
 7069.00    1.08696   1.25615   -2.000
 7070.00    1.04122   1.25909   -2.000
 7071.00    1.04013   1.26227   -2.000
 7072.00    1.08552   1.26567   -2.000
 7073.00    1.10867   1.26870   -2.000
 7074.00    1.08614   1.27120   -2.000
 7075.00    1.05286   1.27278   -2.000
 7076.00    1.03222   1.27320   -2.000
 7077.00    1.02459   1.27234   -2.000
 7078.00    1.02889   1.27003   -2.000
 7079.00    1.04625   1.26616   -2.000
 7080.00    1.07602   1.26088   -2.000
 7081.00    1.10630   1.25452   -2.000
 7082.00    1.10060   1.24723   -2.000
 7083.00    1.03979   1.23951   -2.000
 7084.00    0.98637   1.23173   -2.000
 7085.00    1.00004   1.22421   -2.000
 7086.00    1.01692   1.21739   -2.000
 7087.00    0.96864   1.21140   -2.000
 7088.00    0.93169   1.20656   -2.000
 7089.00    0.97846   1.20287   -2.000
 7090.00    1.02035   1.20029   -2.000
 7091.00    0.97240   1.19904   -2.000
 7092.00    0.90185   1.19861   -2.000
 7093.00    0.89334   1.19951   -2.000
 7094.00    0.93973   1.20076   -2.000
 7095.00    1.00184   1.20298   -2.000
 7096.00    1.05371   1.20530   -2.000
 7097.00    1.07216   1.20820   -2.000
 7098.00    1.03780   1.21089   -2.000
 7099.00    0.98101   1.21360   -2.000
 7100.00    0.97732   1.21601   -2.000
 7101.00    1.01981   1.21786   -2.000
 7102.00    1.00820   1.21945   -2.000
 7103.00    0.93415   1.22013   -2.000
 7104.00    0.90010   1.22067   -2.000
 7105.00    0.93234   1.22036   -2.000
 7106.00    0.96165   1.22006   -2.000
 7107.00    0.95815   1.21920   -2.000
 7108.00    0.94899   1.21850   -2.000
 7109.00    0.95807   1.21770   -2.000
 7110.00    0.98826   1.21723   -2.000
 7111.00    1.01821   1.21701   -2.000
 7112.00    1.01577   1.21705   -2.000
 7113.00    0.96506   1.21739   -2.000
 7114.00    0.87978   1.21772   -2.000
 7115.00    0.81394   1.21822   -2.000
 7116.00    0.81763   1.21840   -2.000
 7117.00    0.87373   1.21840   -2.000
 7118.00    0.94021   1.21784   -2.000
 7119.00    1.01244   1.21690   -2.000
 7120.00    1.09114   1.21543   -2.000
 7121.00    1.14215   1.21343   -2.000
 7122.00    1.13217   1.21108   -2.000
 7123.00    1.06673   1.20827   -2.000
 7124.00    0.98501   1.20548   -2.000
 7125.00    0.94449   1.20248   -2.000
 7126.00    0.96125   1.19987   -2.000
 7127.00    0.98098   1.19752   -2.000
 7128.00    0.97044   1.19588   -2.000
 7129.00    0.96169   1.19492   -2.000
 7130.00    0.96394   1.19484   -2.000
 7131.00    0.93540   1.19570   -2.000
 7132.00    0.88949   1.19724   -2.000
 7133.00    0.90815   1.19948   -2.000
 7134.00    0.98251   1.20204   -2.000
 7135.00    1.00194   1.20480   -2.000
 7136.00    0.95467   1.20740   -2.000
 7137.00    0.93982   1.20964   -2.000
 7138.00    0.97641   1.21134   -2.000
 7139.00    0.99499   1.21247   -2.000
 7140.00    0.97874   1.21299   -2.000
 7141.00    0.96402   1.21287   -2.000
 7142.00    0.95093   1.21231   -2.000
 7143.00    0.91457   1.21138   -2.000
 7144.00    0.87027   1.21036   -2.000
 7145.00    0.86063   1.20940   -2.000
 7146.00    0.90837   1.20879   -2.000
 7147.00    0.99768   1.20873   -2.000
 7148.00    1.06261   1.20929   -2.000
 7149.00    1.04972   1.21054   -2.000
 7150.00    0.99847   1.21232   -2.000
 7151.00    0.97249   1.21461   -2.000
 7152.00    0.97161   1.21701   -2.000
 7153.00    0.97483   1.21941   -2.000
 7154.00    0.98987   1.22134   -2.000
 7155.00    1.01299   1.22274   -2.000
 7156.00    0.99927   1.22343   -2.000
 7157.00    0.94252   1.22335   -2.000
 7158.00    0.92007   1.22260   -2.000
 7159.00    0.96197   1.22122   -2.000
 7160.00    0.98620   1.21964   -2.000
 7161.00    0.95079   1.21792   -2.000
 7162.00    0.92006   1.21667   -2.000
 7163.00    0.93364   1.21589   -2.000
 7164.00    0.95532   1.21603   -2.000
 7165.00    0.95260   1.21700   -2.000
 7166.00    0.92932   1.21884   -2.000
 7167.00    0.90906   1.22138   -2.000
 7168.00    0.91882   1.22426   -2.000
 7169.00    0.95906   1.22728   -2.000
 7170.00    1.00391   1.22993   -2.000
 7171.00    1.02999   1.23207   -2.000
 7172.00    1.02765   1.23333   -2.000
 7173.00    1.00683   1.23375   -2.000
 7174.00    0.98389   1.23321   -2.000
 7175.00    0.95190   1.23189   -2.000
 7176.00    0.90127   1.22991   -2.000
 7177.00    0.86801   1.22742   -2.000
 7178.00    0.89841   1.22467   -2.000
 7179.00    0.97888   1.22181   -2.000
 7180.00    1.05370   1.21899   -2.000
 7181.00    1.06866   1.21626   -2.000
 7182.00    1.01174   1.21365   -2.000
 7183.00    0.94848   1.21117   -2.000
 7184.00    0.93929   1.20883   -2.000
 7185.00    0.95405   1.20677   -2.000
 7186.00    0.94927   1.20495   -2.000
 7187.00    0.94178   1.20363   -2.000
 7188.00    0.95166   1.20271   -2.000
 7189.00    0.95720   1.20243   -2.000
 7190.00    0.94402   1.20273   -2.000
 7191.00    0.93456   1.20367   -2.000
 7192.00    0.93854   1.20515   -2.000
 7193.00    0.93189   1.20698   -2.000
 7194.00    0.91451   1.20907   -2.000
 7195.00    0.92430   1.21115   -2.000
 7196.00    0.95481   1.21319   -2.000
 7197.00    0.94589   1.21494   -2.000
 7198.00    0.90171   1.21637   -2.000
 7199.00    0.89780   1.21728   -2.000
 7200.00    0.93821   1.21769   -2.000
 7201.00    0.95053   1.21752   -2.000
 7202.00    0.92332   1.21693   -2.000
 7203.00    0.90927   1.21596   -2.000
 7204.00    0.92303   1.21485   -2.000
 7205.00    0.94001   1.21377   -2.000
 7206.00    0.95533   1.21290   -2.000
 7207.00    0.97833   1.21252   -2.000
 7208.00    0.99555   1.21264   -2.000
 7209.00    0.98372   1.21340   -2.000
 7210.00    0.94413   1.21467   -2.000
 7211.00    0.90006   1.21642   -2.000
 7212.00    0.88285   1.21852   -2.000
 7213.00    0.91152   1.22076   -2.000
 7214.00    0.97043   1.22310   -2.000
 7215.00    1.02523   1.22528   -2.000
 7216.00    1.04575   1.22740   -2.000
 7217.00    1.02368   1.22936   -2.000
 7218.00    0.98460   1.23123   -2.000
