###################################################################
## OUTPUT of StarlightChains_v04.for    [Cid@UFSC - 01/Apr/2007] ##
###################################################################

## Some input info
2006am.txt                               [arq_obs]
Base.CB07.vall.4m                        [arq_base]
Masks.EmLines.NEW.gm                     [arq_masks]
StCv04.C11.config                        [arq_config]
   66                                    [N_base]
    0                                    [N_YAV_components = # of components with extra extinction!]
    0                                    [i_FitPowerLaw (1/0 = Yes/No)]
-9.99                                    [alpha_PowerLaw]
CCM                                      [red_law_option]
 1.458241                                [q_norm = A(l_norm)/A(V)]

## (Re)Sampling Parameters
 3741.00                                 [l_ini (A)]
 7218.00                                 [l_fin (A)]
    1.00                                 [dl    (A)]     (OBS: dl_cushion =    50.00 A)

## Normalization info
 4020.00                                 [l_norm (A) - for base]
 4010.00                                 [llow_norm (A) - window for f_obs]
 4060.00                                 [lupp_norm (A) - window for f_obs]
4.301119E-16                             [fobs_norm (in input units)]

## S/N
 3691.00                                 [llow_SN (A) - window for S/N]
 7268.00                                 [lupp_SN (A) - window for S/N]
   5.261                                 [S/N in S/N window]
   7.092                                 [S/N in norm. window]
  20.949                                 [S/N_err in S/N window]
  28.240                                 [S/N_err in norm. window]
  1.0000                                 [fscale_chi2]

## etc...
    -2007311                             [idum_orig]
  2384                                   [NOl_eff]
  2372                                   [Nl_eff]
    12    NSIGMA                         [Ntot_cliped & clip_method]
  1465100                                [Nglobal_steps]
   7                                     [N_chains]
  20                                     [NEX0s_base = N_base in EX0s-fits]
 0   0   1        2   2.0   4.527E+01    [Clip-Bug, RC-Crash & Burn-In warning-flags, n_censored_weights, wei_nsig_threshold & wei_limit]
    14     13.483     12.988      0.495  [idt_all, wdt_TotTime, wdt_UsrTime & wdt_SysTime (sec)]

## Synthesis Results - Best model ##

 2.54012E-01                             [chi2/Nl_eff]
     1.77793                             [adev (%)]

   104.62364                             [sum-of-x (%)]
 7.19238E-16                             [Flux_tot (units of input spectrum!)]
 1.59919E-12                             [Mini_tot (???)]
 9.51948E-13                             [Mcor_tot (???)]

  -9.74                                  [v0_min  (km/s)]
 319.68                                  [vd_min  (km/s)]
 0.3492                                  [AV_min  (mag)]
 0.0000                                  [YAV_min (mag)]

# j     x_j(%)      Mini_j(%)     Mcor_j(%)     age_j(yr)     Z_j      (L/M)_j    YAV?  Mstars   component_j        a/Fe...       SSP_chi2r SSP_adev(%)   SSP_AV   SSP_x(%)
  1      2.1607     8.4901E-02    1.4263E-01    1.000000E+06  0.00400  1.094E-02    0   1.0000   age020_m42            0.0000     1.0020E+00     3.6669   2.1322    94.0526
  2      0.1476     1.5837E-03    2.6603E-03    3.160000E+06  0.00400  4.007E-02    0   0.9999   age045_m42            0.0000     7.2259E-01     3.1220   1.4471    98.6364
  3      0.0000     0.0000E+00    0.0000E+00    5.010000E+06  0.00400  2.539E-02    0   0.9488   age055_m42            0.0000     7.5815E-01     3.1188   1.7489    97.0511
  4      0.0000     0.0000E+00    0.0000E+00    6.610000E+06  0.00400  2.620E-02    0   0.9220   age061_m42            0.0000     6.7792E-01     2.9986   1.3753    98.7992
  5      0.0000     0.0000E+00    0.0000E+00    1.000000E+07  0.00400  1.322E-02    0   0.8862   age070_m42            0.0000     4.9416E-01     2.3361   1.0911   101.1248
  6      0.0000     0.0000E+00    0.0000E+00    1.445000E+07  0.00400  7.883E-03    0   0.8571   age078_m42            0.0000     5.2516E-01     2.3444   1.4087    99.0034
  7      0.0000     0.0000E+00    0.0000E+00    2.512000E+07  0.00400  5.251E-03    0   0.8174   age090_m42            0.0000     5.1561E-01     2.4118   0.9637   101.5661
  8      0.0000     0.0000E+00    0.0000E+00    4.000000E+07  0.00400  3.649E-03    0   0.7851   age104_m42            0.0000     4.9756E-01     2.4461   0.7413   102.1500
  9      0.0000     0.0000E+00    0.0000E+00    5.500000E+07  0.00400  3.098E-03    0   0.7629   age110_m42            0.0000     6.1006E-01     2.6754   0.9042   101.6740
 10      0.0000     0.0000E+00    0.0000E+00    1.015200E+08  0.00400  2.228E-03    0   0.7207   age116_m42            0.0000     7.4744E-01     2.9270   0.9313   101.5236
 11      0.0000     0.0000E+00    0.0000E+00    2.861200E+08  0.00400  1.093E-03    0   0.6648   age125_m42            0.0000     8.2530E-01     3.1958   0.3723   104.2071
 12      0.0000     0.0000E+00    0.0000E+00    5.088000E+08  0.00400  6.597E-04    0   0.6365   age130_m42            0.0000     1.0214E+00     3.3206   0.3695   104.6593
 13      0.0118     2.3782E-02    2.3164E-02    1.434000E+09  0.00400  2.132E-04    0   0.5798   age139_m42            0.0000     1.1348E+00     3.5081  -0.5987   106.3962
 14      0.0000     0.0000E+00    0.0000E+00    4.250000E+09  0.00400  5.895E-05    0   0.5377   age158_m42            0.0000     1.5047E+00     3.9949  -1.0000   101.1447
 15      0.0000     0.0000E+00    0.0000E+00    7.500000E+09  0.00400  3.510E-05    0   0.5212   age171_m42            0.0000     3.1695E+00     5.9797  -1.0000    93.9907
 16      0.0000     0.0000E+00    0.0000E+00    1.300000E+10  0.00400  2.005E-05    0   0.5034   age193_m42            0.0000     5.8508E+00     8.5175  -1.0000    87.8802
 17      0.0000     0.0000E+00    0.0000E+00    1.800000E+10  0.00400  1.525E-05    0   0.4967   age213_m42            0.0000     6.1768E+00     8.8111  -1.0000    86.7124
 18      1.8086     6.2800E-02    1.0550E-01    1.000000E+06  0.00800  1.238E-02    0   1.0000   age020_m52            0.0000     1.0075E+00     3.6773   2.1286    94.2379
 19      4.9935     6.9830E-02    1.1691E-01    3.160000E+06  0.00800  3.074E-02    0   0.9966   age045_m52            0.0000     9.8048E-01     3.6206   2.0540    94.9690
 20      0.0022     3.5884E-05    5.6924E-05    5.010000E+06  0.00800  2.668E-02    0   0.9443   age055_m52            0.0000     7.7184E-01     3.1320   1.8257    96.4431
 21     38.2322     7.6943E-01    1.1862E+00    6.610000E+06  0.00800  2.136E-02    0   0.9177   age061_m52            0.0000     3.0207E-01     1.9082   0.5792   102.7764
 22      0.0008     2.9826E-05    4.4227E-05    1.000000E+07  0.00800  1.215E-02    0   0.8827   age070_m52            0.0000     5.1042E-01     2.3508   1.2652   101.1929
 23      0.0000     0.0000E+00    0.0000E+00    1.445000E+07  0.00800  8.717E-03    0   0.8552   age078_m52            0.0000     4.9089E-01     2.2684   1.3771   100.2245
 24      0.0000     0.0000E+00    0.0000E+00    2.512000E+07  0.00800  5.592E-03    0   0.8162   age090_m52            0.0000     5.1939E-01     2.4734   1.0313   102.5971
 25      0.0027     2.9875E-04    3.9353E-04    4.000000E+07  0.00800  3.896E-03    0   0.7841   age104_m52            0.0000     5.3465E-01     2.5669   0.9524   102.9621
 26      0.0000     0.0000E+00    0.0000E+00    1.015200E+08  0.00800  2.148E-03    0   0.7226   age116_m52            0.0000     5.9977E-01     2.6637   0.8971   102.4583
 27      0.0000     0.0000E+00    0.0000E+00    2.861200E+08  0.00800  9.925E-04    0   0.6683   age125_m52            0.0000     1.0169E+00     3.2452   0.4363   105.5210
 28      0.0000     0.0000E+00    0.0000E+00    9.047900E+08  0.00800  3.141E-04    0   0.6138   age135_m52            0.0000     1.5988E+00     4.0573  -0.3457   108.9358
 29      0.0000     0.0000E+00    0.0000E+00    1.434000E+09  0.00800  1.719E-04    0   0.5853   age139_m52            0.0000     1.4501E+00     4.0079  -0.9412   107.4946
 30      0.0000     0.0000E+00    0.0000E+00    2.500000E+09  0.00800  7.872E-05    0   0.5600   age150_m52            0.0000     3.0982E+00     5.8731  -1.0000    97.2267
 31      2.9407     2.9154E+01    2.6575E+01    4.250000E+09  0.00800  4.336E-05    0   0.5426   age158_m52            0.0000     3.3895E+00     6.0867  -1.0000    95.8125
 32      0.0000     0.0000E+00    0.0000E+00    6.250000E+09  0.00800  3.159E-05    0   0.5319   age166_m52            0.0000     6.7998E+00     9.1152  -1.0000    88.7491
 33      0.0000     0.0000E+00    0.0000E+00    1.300000E+10  0.00800  1.361E-05    0   0.5073   age193_m52            0.0000     1.9068E+01    15.7015  -1.0000    72.6442
 34      0.0000     0.0000E+00    0.0000E+00    1.800000E+10  0.00800  9.886E-06    0   0.4990   age213_m52            0.0000     2.2997E+01    17.1106  -1.0000    68.9521
 35      5.3982     1.5029E-01    2.5248E-01    1.000000E+06  0.02000  1.544E-02    0   1.0000   age020_m62            0.0000     1.0230E+00     3.7125   2.1226    94.5375
 36      7.9226     9.0529E-02    1.4992E-01    3.160000E+06  0.02000  3.762E-02    0   0.9858   age045_m62            0.0000     1.0222E+00     3.7032   2.0628    95.3431
 37      0.0000     0.0000E+00    0.0000E+00    5.010000E+06  0.02000  3.296E-02    0   0.9342   age055_m62            0.0000     7.6917E-01     3.1961   1.7156    97.9430
 38      1.4492     5.3984E-02    8.0359E-02    8.710000E+06  0.02000  1.154E-02    0   0.8861   age067_m62            0.0000     1.5763E+00     5.0480   0.7001   105.0515
 39      0.0000     0.0000E+00    0.0000E+00    1.445000E+07  0.02000  7.663E-03    0   0.8472   age078_m62            0.0000     6.1791E-01     2.8493   0.9118   103.6109
 40      0.0000     0.0000E+00    0.0000E+00    2.512000E+07  0.02000  4.532E-03    0   0.8099   age090_m62            0.0000     7.5174E-01     3.1805   0.9084   103.1504
 41      0.0000     0.0000E+00    0.0000E+00    5.500000E+07  0.02000  2.733E-03    0   0.7595   age110_m62            0.0000     5.0070E-01     2.4582   0.9294   102.5012
 42      0.0000     0.0000E+00    0.0000E+00    1.609000E+08  0.02000  1.369E-03    0   0.6985   age120_m62            0.0000     8.2663E-01     2.9630   0.7882   104.2884
 43      0.0000     0.0000E+00    0.0000E+00    2.861200E+08  0.02000  9.013E-04    0   0.6714   age125_m62            0.0000     1.2080E+00     3.4233   0.5499   106.5990
 44      0.0000     0.0000E+00    0.0000E+00    5.088000E+08  0.02000  5.028E-04    0   0.6449   age130_m62            0.0000     1.7099E+00     4.1588   0.1867   108.6193
 45      0.0000     0.0000E+00    0.0000E+00    9.047900E+08  0.02000  2.428E-04    0   0.6179   age135_m62            0.0000     1.7345E+00     4.2974  -0.4073   108.3368
 46      2.6599     9.0534E+00    8.9854E+00    1.434000E+09  0.02000  1.263E-04    0   0.5908   age139_m62            0.0000     1.9861E+00     4.5904  -0.8622   107.2453
 47      0.0000     0.0000E+00    0.0000E+00    2.500000E+09  0.02000  5.985E-05    0   0.5673   age150_m62            0.0000     3.9795E+00     6.5063  -1.0000    97.6609
 48      0.0000     0.0000E+00    0.0000E+00    4.250000E+09  0.02000  3.271E-05    0   0.5468   age158_m62            0.0000     9.6666E+00    10.8105  -1.0000    86.1134
 49      0.0000     0.0000E+00    0.0000E+00    1.000000E+10  0.02000  1.360E-05    0   0.5167   age181_m62            0.0000     1.9582E+01    15.5544  -1.0000    74.1750
 50      0.0000     0.0000E+00    0.0000E+00    1.800000E+10  0.02000  7.124E-06    0   0.5013   age213_m62            0.0000     2.6957E+01    18.1992  -1.0000    67.1188
 51      8.9113     1.4779E-01    2.4823E-01    1.000000E+06  0.05000  2.592E-02    0   0.9998   age020_m72            0.0000     1.0673E+00     3.7966   2.1108    94.7166
 52      1.3918     1.2349E-02    1.9868E-02    3.160000E+06  0.05000  4.845E-02    0   0.9577   age045_m72            0.0000     9.4417E-01     3.5300   1.9572    96.0922
 53      0.0000     0.0000E+00    0.0000E+00    5.010000E+06  0.05000  3.072E-02    0   0.9147   age055_m72            0.0000     5.9447E-01     2.6919   1.4936   100.0025
 54      0.0000     0.0000E+00    0.0000E+00    6.610000E+06  0.05000  1.455E-02    0   0.8877   age061_m72            0.0000     3.1862E+00     7.5577   0.7633   106.0046
 55      0.0000     0.0000E+00    0.0000E+00    1.000000E+07  0.05000  9.074E-03    0   0.8524   age070_m72            0.0000     8.9809E-01     3.5275   1.6946    99.3655
 56      0.0000     0.0000E+00    0.0000E+00    2.512000E+07  0.05000  4.250E-03    0   0.7902   age090_m72            0.0000     7.4123E-01     3.1700   1.3991   100.6513
 57      0.0000     0.0000E+00    0.0000E+00    4.000000E+07  0.05000  3.087E-03    0   0.7618   age104_m72            0.0000     8.3932E-01     3.4651   1.1766   102.0240
 58      0.0000     0.0000E+00    0.0000E+00    1.015200E+08  0.05000  1.700E-03    0   0.7096   age116_m72            0.0000     8.0849E-01     3.0827   0.9294   103.9926
 59      0.0000     0.0000E+00    0.0000E+00    2.861200E+08  0.05000  7.384E-04    0   0.6633   age125_m72            0.0000     1.4379E+00     3.7186   0.4255   107.5963
 60      6.5792     7.4057E+00    7.9274E+00    5.088000E+08  0.05000  3.819E-04    0   0.6372   age130_m72            0.0000     1.6870E+00     4.3363  -0.0672   109.2259
 61     19.3172     4.9546E+01    5.0856E+01    9.047900E+08  0.05000  1.676E-04    0   0.6110   age135_m72            0.0000     2.5773E+00     5.5270  -0.7759   107.9025
 62      0.6934     3.3730E+00    3.3284E+00    1.434000E+09  0.05000  8.837E-05    0   0.5874   age139_m72            0.0000     4.2832E+00     6.7325  -1.0000    99.0097
 63      0.0000     0.0000E+00    0.0000E+00    2.500000E+09  0.05000  4.233E-05    0   0.5598   age150_m72            0.0000     1.0081E+01    10.9393  -1.0000    86.8117
 64      0.0000     0.0000E+00    0.0000E+00    6.250000E+09  0.05000  1.435E-05    0   0.5249   age166_m72            0.0000     2.2787E+01    16.8212  -1.0000    70.8185
 65      0.0000     0.0000E+00    0.0000E+00    1.300000E+10  0.05000  6.513E-06    0   0.5036   age193_m72            0.0000     3.3221E+01    20.2341  -1.0000    63.0516
 66      0.0000     0.0000E+00    0.0000E+00    1.800000E+10  0.05000  4.527E-06    0   0.4945   age213_m72            0.0000     3.9701E+01    22.0839  -1.0000    58.4094


## Synthesis Results - Average & Chains ##

# j      x_j: min, <> & last-chain-values for 1 ...  7 chains
  1      2.1607      0.7075      0.8154      0.2447      1.0014      0.6546      1.2427      1.3208      0.8517
  2      0.1476      0.2509      0.4978      0.7056      0.0000      0.2630      0.8309      0.1535      0.0000
  3      0.0000      0.1663      0.0000      0.0000      0.0000      0.0000      0.0594      0.2802      0.0000
  4      0.0000      0.3095      0.0000      0.0000      0.2909      0.0000      0.3393      0.9721      0.0082
  5      0.0000      0.4590      0.0000      0.0000      0.0000      0.0000      0.0000      0.0000      1.9353
  6      0.0000      0.2175      0.0000      0.1714      0.0000      0.0000      0.0000      0.0000      0.0000
  7      0.0000      0.3467      0.2089      0.0000      0.0244      0.0000      0.2238      0.1905      0.3729
  8      0.0000      0.4349      0.0000      0.0000      0.0000      0.0000      0.0000      0.0000      0.0000
  9      0.0000      0.2913      0.9421      0.0000      0.0000      0.4694      0.0000      0.0000      0.0000
 10      0.0000      0.4025      0.0685      0.0000      0.2752      0.0000      0.0000      0.0000      0.0000
 11      0.0000      0.3495      0.0774      0.0000      0.0000      0.0000      0.0000      0.0000      0.0000
 12      0.0000      0.2678      0.6997      0.0000      0.2230      0.0000      0.0000      0.0000      0.0000
 13      0.0118      0.2386      0.0000      0.2389      1.2363      1.1973      1.0060      0.0008      0.0000
 14      0.0000      0.1671      0.0000      0.4226      0.0000      0.0000      0.0000      0.1327      0.0000
 15      0.0000      0.0898      0.0000      0.1678      0.0000      0.0000      0.0000      0.0000      0.0000
 16      0.0000      0.0547      0.3829      0.0000      0.3210      0.0000      0.0000      0.0000      0.0000
 17      0.0000      0.0309      0.1152      0.0000      0.0000      0.0000      0.2886      0.0000      0.0000
 18      1.8086      0.3466      0.3493      0.2204      0.9265      0.0000      2.0380      0.7027      0.0000
 19      4.9935      2.7486      3.5019      4.2559      2.3273      5.1010      3.5064      1.4537      2.9191
 20      0.0022      1.2488      2.0031      0.7406      2.0252      0.0000      1.4285      0.2080      0.0000
 21     38.2322     51.8464     53.5610     53.2619     49.8922     52.4917     47.8522     53.5103     53.0928
 22      0.0008      0.5737      0.1319      0.0000      0.0887      0.3131      1.3654      0.5289      1.3830
 23      0.0000      0.2417      0.0000      0.0000      0.0000      0.0000      0.2012      0.0000      0.1754
 24      0.0000      0.3774      0.3652      0.2343      0.0000      0.0000      0.0641      0.0158      0.0000
 25      0.0027      0.2611      0.2618      0.0000      0.0379      0.6458      0.8098      0.0000      0.1288
 26      0.0000      0.2907      0.0000      0.0135      0.0000      0.0000      0.0000      0.3882      0.0000
 27      0.0000      0.3158      0.0000      0.0000      0.0000      0.0000      0.0000      0.0000      0.0000
 28      0.0000      0.6161      0.0000      0.9181      0.0000      0.0000      0.0000      2.7472      1.9777
 29      0.0000      0.0920      0.5546      0.3988      0.0000      0.0000      0.0000      0.0000      0.0000
 30      0.0000      0.0456      0.2542      0.0000      0.2347      0.2010      0.0000      0.0000      0.0000
 31      2.9407      2.3052      2.3031      2.8392      1.9951      2.0190      2.4129      2.3954      2.3320
 32      0.0000      0.0459      0.0000      0.0000      0.0000      0.0000      0.0000      0.3541      0.0000
 33      0.0000      0.0124      0.0000      0.0000      0.0000      0.0000      0.0000      0.0000      0.0000
 34      0.0000      0.0112      0.0000      0.0000      0.0000      0.0000      0.0000      0.0000      0.0000
 35      5.3982      4.0296      4.2025      4.8935      4.1944      5.2421      3.7380      5.0871      4.6213
 36      7.9226      1.4719      1.8004      2.0370      2.2107      2.1556      1.9171      2.6740      0.4295
 37      0.0000      0.1488      0.0000      0.6165      0.5723      0.0000      0.0000      0.0000      0.0000
 38      1.4492      0.9490      0.9365      0.3816      2.5923      2.7011      2.3308      2.0408      0.1733
 39      0.0000      0.7132      0.0000      1.0527      0.0000      0.0000      0.0000      0.4866      1.1028
 40      0.0000      0.4642      0.0000      0.0000      0.0000      0.0000      0.0000      0.0000      0.0000
 41      0.0000      0.2638      0.0000      0.1252      0.0348      0.0000      0.0000      0.0000      0.0000
 42      0.0000      0.2081      0.0000      0.0000      0.0000      0.0000      0.0000      0.0000      0.1718
 43      0.0000      0.2612      0.0000      0.0000      0.0000      0.0000      0.0000      0.0000      0.0000
 44      0.0000      0.3512      0.0000      0.0742      0.0000      0.4067      0.0000      0.0000      0.0000
 45      0.0000      0.3845      0.0000      0.0000      1.6109      0.0098      0.0000      0.4818      0.4611
 46      2.6599      2.7493      3.2332      2.6734      2.8676      2.8416      3.0817      2.4223      3.1416
 47      0.0000      0.4485      0.0000      0.9237      0.0000      0.3822      0.0000      0.0000      0.2833
 48      0.0000      0.0171      0.0000      0.0000      0.0000      0.0000      0.0000      0.0000      0.0000
 49      0.0000      0.0550      0.0000      0.0000      0.0000      0.0000      0.0000      0.0000      0.0000
 50      0.0000      0.0044      0.0000      0.0000      0.0000      0.0000      0.0000      0.0000      0.0000
 51      8.9113      7.1467      8.1436      8.1661      7.4780      7.1563      6.8995      6.8676      7.8600
 52      1.3918      0.3557      0.6722      0.0000      1.3035      1.1710      1.5558      0.9544      0.9848
 53      0.0000      0.6048      0.0000      0.7586      0.7539      0.0000      0.3430      0.0000      2.8167
 54      0.0000      0.5674      0.1407      0.0000      0.0000      0.0000      0.0000      1.2622      0.0000
 55      0.0000      0.2211      0.4242      0.9297      0.6233      0.7623      0.6508      0.0000      0.9170
 56      0.0000      0.1710      0.0000      0.0000      0.0000      0.0000      0.1065      0.0000      0.0000
 57      0.0000      0.1544      0.0000      0.0000      0.7252      0.2179      0.0000      0.1227      0.0000
 58      0.0000      0.1961      0.0000      0.0000      0.0000      0.3328      0.0000      0.0000      0.0000
 59      0.0000      0.3295      0.0000      0.4427      0.8830      0.1040      0.0000      0.0000      0.0000
 60      6.5792      2.0345      3.6527      3.9730      2.6661      2.0043      4.6673      2.5897      0.0000
 61     19.3172     13.7034     13.6487     12.5765     14.1765     15.3010     14.8568     14.1309     15.3071
 62      0.6934      0.1541      0.4810      0.0000      0.4621      0.4437      0.5629      0.0000      0.0000
 63      0.0000      0.0715      0.0000      0.0000      0.2283      0.0000      0.0667      0.0000      0.9402
 64      0.0000      0.0327      0.0000      0.0000      0.2032      0.0000      0.0000      0.0000      0.0000
 65      0.0000      0.0162      0.0000      0.0000      0.0000      0.0000      0.0628      0.0000      0.0000
 66      0.0000      0.0124      0.0000      0.0000      0.0683      0.0000      0.0000      0.0000      0.0000

# j      m_j: min, <> & last-chain-values for 1 ...  7 chains
  1  1.4263E-01  5.2038E-02  5.9841E-02  1.8119E-02  6.6621E-02  5.2714E-02  8.6125E-02  1.0526E-01  6.2961E-02
  2  2.6603E-03  5.0380E-03  9.9743E-03  1.4261E-02  0.0000E+00  5.7813E-03  1.5722E-02  3.3406E-03  0.0000E+00
  3  0.0000E+00  4.9996E-03  0.0000E+00  0.0000E+00  0.0000E+00  0.0000E+00  1.6821E-03  9.1306E-03  0.0000E+00
  4  0.0000E+00  8.7648E-03  0.0000E+00  0.0000E+00  7.4506E-03  0.0000E+00  9.0532E-03  2.9825E-02  2.3224E-04
  5  0.0000E+00  2.4760E-02  0.0000E+00  0.0000E+00  0.0000E+00  0.0000E+00  0.0000E+00  0.0000E+00  1.0492E-01
  6  0.0000E+00  1.9026E-02  0.0000E+00  1.5090E-02  0.0000E+00  0.0000E+00  0.0000E+00  0.0000E+00  0.0000E+00
  7  0.0000E+00  4.3431E-02  2.6113E-02  0.0000E+00  2.7604E-03  0.0000E+00  2.6418E-02  2.5862E-02  4.6947E-02
  8  0.0000E+00  7.5302E-02  0.0000E+00  0.0000E+00  0.0000E+00  0.0000E+00  0.0000E+00  0.0000E+00  0.0000E+00
  9  0.0000E+00  5.7725E-02  1.8628E-01  0.0000E+00  0.0000E+00  1.0184E-01  0.0000E+00  0.0000E+00  0.0000E+00
 10  0.0000E+00  1.0476E-01  1.7784E-02  0.0000E+00  6.4791E-02  0.0000E+00  0.0000E+00  0.0000E+00  0.0000E+00
 11  0.0000E+00  1.7105E-01  3.7812E-02  0.0000E+00  0.0000E+00  0.0000E+00  0.0000E+00  0.0000E+00  0.0000E+00
 12  0.0000E+00  2.0793E-01  5.4203E-01  0.0000E+00  1.5661E-01  0.0000E+00  0.0000E+00  0.0000E+00  0.0000E+00
 13  2.3164E-02  5.2216E-01  0.0000E+00  5.2623E-01  2.4470E+00  2.8688E+00  2.0743E+00  1.9483E-03  0.0000E+00
 14  0.0000E+00  1.2264E+00  0.0000E+00  3.1219E+00  0.0000E+00  0.0000E+00  0.0000E+00  1.0553E+00  0.0000E+00
 15  0.0000E+00  1.0730E+00  0.0000E+00  2.0175E+00  0.0000E+00  0.0000E+00  0.0000E+00  0.0000E+00  0.0000E+00
 16  0.0000E+00  1.1054E+00  7.7188E+00  0.0000E+00  5.8652E+00  0.0000E+00  0.0000E+00  0.0000E+00  0.0000E+00
 17  0.0000E+00  8.1107E-01  3.0134E+00  0.0000E+00  0.0000E+00  0.0000E+00  7.1269E+00  0.0000E+00  0.0000E+00
 18  1.0550E-01  2.2531E-02  2.2651E-02  1.4417E-02  5.4472E-02  0.0000E+00  1.2482E-01  4.9490E-02  0.0000E+00
 19  1.1691E-01  7.1707E-02  9.1154E-02  1.1175E-01  5.4916E-02  1.4570E-01  8.6193E-02  4.1091E-02  7.6536E-02
 20  5.6924E-05  3.5569E-02  5.6923E-02  2.1231E-02  5.2171E-02  0.0000E+00  3.8336E-02  6.4182E-03  0.0000E+00
 21  1.1862E+00  1.7925E+00  1.8476E+00  1.8533E+00  1.5602E+00  1.9869E+00  1.5588E+00  2.0045E+00  1.8448E+00
 22  4.4227E-05  3.3542E-02  7.6910E-03  0.0000E+00  4.6925E-03  2.0042E-02  7.5210E-02  3.3504E-02  8.1259E-02
 23  0.0000E+00  1.9083E-02  0.0000E+00  0.0000E+00  0.0000E+00  0.0000E+00  1.4966E-02  0.0000E+00  1.3915E-02
 24  0.0000E+00  4.4329E-02  4.2798E-02  2.7693E-02  0.0000E+00  0.0000E+00  7.0955E-03  2.0108E-03  0.0000E+00
 25  3.9353E-04  4.2287E-02  4.2311E-02  0.0000E+00  5.5473E-03  1.1450E-01  1.2357E-01  0.0000E+00  2.0961E-02
 26  0.0000E+00  7.8698E-02  0.0000E+00  3.6727E-03  0.0000E+00  0.0000E+00  0.0000E+00  1.1386E-01  0.0000E+00
 27  0.0000E+00  1.7113E-01  0.0000E+00  0.0000E+00  0.0000E+00  0.0000E+00  0.0000E+00  0.0000E+00  0.0000E+00
 28  0.0000E+00  9.6889E-01  0.0000E+00  1.4531E+00  0.0000E+00  0.0000E+00  0.0000E+00  4.6807E+00  3.1255E+00
 29  0.0000E+00  2.5197E-01  1.5162E+00  1.0998E+00  0.0000E+00  0.0000E+00  0.0000E+00  0.0000E+00  0.0000E+00
 30  0.0000E+00  2.6087E-01  1.4521E+00  0.0000E+00  1.2151E+00  1.2598E+00  0.0000E+00  0.0000E+00  0.0000E+00
 31  2.6575E+01  2.3213E+01  2.3140E+01  2.8776E+01  1.8171E+01  2.2260E+01  2.2893E+01  2.6136E+01  2.3601E+01
 32  0.0000E+00  6.2131E-01  0.0000E+00  0.0000E+00  0.0000E+00  0.0000E+00  0.0000E+00  5.1977E+00  0.0000E+00
 33  0.0000E+00  3.7072E-01  0.0000E+00  0.0000E+00  0.0000E+00  0.0000E+00  0.0000E+00  0.0000E+00  0.0000E+00
 34  0.0000E+00  4.5387E-01  0.0000E+00  0.0000E+00  0.0000E+00  0.0000E+00  0.0000E+00  0.0000E+00  0.0000E+00
 35  2.5248E-01  2.1001E-01  2.1853E-01  2.5669E-01  1.9772E-01  2.9912E-01  1.8356E-01  2.8727E-01  2.4206E-01
 36  1.4992E-01  3.1037E-02  3.7878E-02  4.3231E-02  4.2163E-02  4.9766E-02  3.8089E-02  6.1093E-02  9.1022E-03
 37  0.0000E+00  3.3928E-03  0.0000E+00  1.4153E-02  1.1806E-02  0.0000E+00  0.0000E+00  0.0000E+00  0.0000E+00
 38  8.0359E-02  5.8639E-02  5.7738E-02  2.3732E-02  1.4488E-01  1.8273E-01  1.3570E-01  1.3663E-01  1.0762E-02
 39  0.0000E+00  6.3455E-02  0.0000E+00  9.4259E-02  0.0000E+00  0.0000E+00  0.0000E+00  4.6909E-02  9.8601E-02
 40  0.0000E+00  6.6751E-02  0.0000E+00  0.0000E+00  0.0000E+00  0.0000E+00  0.0000E+00  0.0000E+00  0.0000E+00
 41  0.0000E+00  5.9000E-02  0.0000E+00  2.8173E-02  7.0411E-03  0.0000E+00  0.0000E+00  0.0000E+00  0.0000E+00
 42  0.0000E+00  8.5423E-02  0.0000E+00  0.0000E+00  0.0000E+00  0.0000E+00  0.0000E+00  0.0000E+00  7.0901E-02
 43  0.0000E+00  1.5659E-01  0.0000E+00  0.0000E+00  0.0000E+00  0.0000E+00  0.0000E+00  0.0000E+00  0.0000E+00
 44  0.0000E+00  3.6253E-01  0.0000E+00  7.7080E-02  0.0000E+00  4.5956E-01  0.0000E+00  0.0000E+00  0.0000E+00
 45  0.0000E+00  7.8749E-01  0.0000E+00  0.0000E+00  2.9839E+00  2.1901E-02  0.0000E+00  1.0691E+00  9.4894E-01
 46  8.9854E+00  1.0349E+01  1.2143E+01  1.0129E+01  9.7631E+00  1.1711E+01  1.0930E+01  9.8793E+00  1.1885E+01
 47  0.0000E+00  3.4209E+00  0.0000E+00  7.0915E+00  0.0000E+00  3.1916E+00  0.0000E+00  0.0000E+00  2.1718E+00
 48  0.0000E+00  2.2993E-01  0.0000E+00  0.0000E+00  0.0000E+00  0.0000E+00  0.0000E+00  0.0000E+00  0.0000E+00
 49  0.0000E+00  1.6806E+00  0.0000E+00  0.0000E+00  0.0000E+00  0.0000E+00  0.0000E+00  0.0000E+00  0.0000E+00
 50  0.0000E+00  2.5176E-01  0.0000E+00  0.0000E+00  0.0000E+00  0.0000E+00  0.0000E+00  0.0000E+00  0.0000E+00
 51  2.4823E-01  2.2183E-01  2.5220E-01  2.5511E-01  2.0994E-01  2.4320E-01  2.0178E-01  2.3096E-01  2.4519E-01
 52  1.9868E-02  5.6577E-03  1.0668E-02  0.0000E+00  1.8753E-02  2.0394E-02  2.3317E-02  1.6448E-02  1.5744E-02
 53  0.0000E+00  1.4490E-02  0.0000E+00  1.8294E-02  1.6338E-02  0.0000E+00  7.7427E-03  0.0000E+00  6.7828E-02
 54  0.0000E+00  2.7857E-02  6.8940E-03  0.0000E+00  0.0000E+00  0.0000E+00  0.0000E+00  6.7143E-02  0.0000E+00
 55  0.0000E+00  1.6715E-02  3.1995E-02  7.0731E-02  4.2616E-02  6.3087E-02  4.6356E-02  0.0000E+00  6.9667E-02
 56  0.0000E+00  2.5581E-02  0.0000E+00  0.0000E+00  0.0000E+00  0.0000E+00  1.5011E-02  0.0000E+00  0.0000E+00
 57  0.0000E+00  3.0667E-02  0.0000E+00  0.0000E+00  1.3026E-01  4.7384E-02  0.0000E+00  2.6404E-02  0.0000E+00
 58  0.0000E+00  6.5867E-02  0.0000E+00  0.0000E+00  0.0000E+00  1.2241E-01  0.0000E+00  0.0000E+00  0.0000E+00
 59  0.0000E+00  2.3817E-01  0.0000E+00  3.2210E-01  5.7729E-01  8.2297E-02  0.0000E+00  0.0000E+00  0.0000E+00
 60  7.9274E+00  2.7316E+00  4.8933E+00  5.3689E+00  3.2377E+00  2.9463E+00  5.9045E+00  3.7674E+00  0.0000E+00
 61  5.0856E+01  4.0200E+01  3.9950E+01  3.7133E+01  3.7616E+01  4.9145E+01  4.1066E+01  4.4916E+01  4.5130E+01
 62  3.3284E+00  8.2413E-01  2.5669E+00  0.0000E+00  2.2355E+00  2.5982E+00  2.8369E+00  0.0000E+00  0.0000E+00
 63  0.0000E+00  7.6100E-01  0.0000E+00  0.0000E+00  2.1972E+00  0.0000E+00  6.6899E-01  0.0000E+00  1.0055E+01
 64  0.0000E+00  9.6238E-01  0.0000E+00  0.0000E+00  5.4099E+00  0.0000E+00  0.0000E+00  0.0000E+00  0.0000E+00
 65  0.0000E+00  1.0061E+00  0.0000E+00  0.0000E+00  0.0000E+00  0.0000E+00  3.6794E+00  0.0000E+00  0.0000E+00
 66  0.0000E+00  1.0865E+00  0.0000E+00  0.0000E+00  5.4294E+00  0.0000E+00  0.0000E+00  0.0000E+00  0.0000E+00

# AV, chi2 & Mass for <> & i_chain = 1 ...  7 solutions
AV       0.3492      0.3475      0.3479      0.3518      0.3309      0.3502      0.3481      0.3486      0.3303
chi2 2.5401E-01  2.6274E-01  2.5982E-01  2.5988E-01  2.6004E-01  2.6013E-01  2.5902E-01  2.5969E-01  2.6008E-01
Mass 9.5195E-13  8.5237E-13  8.5480E-13  8.5183E-13  9.2166E-13  7.8134E-13  9.0538E-13  7.8784E-13  8.2875E-13
  -9.74                                  [v0_min (km/s) before EX0s...]
 319.68                                  [vd_min (km/s) before EX0s...]


## Synthetic spectrum (Best Model) ##l_obs f_obs f_syn wei
 3478    [Nl_obs]
 3741.00    0.95303   0.84550    0.000
 3742.00    0.93078   0.84633    0.000
 3743.00    0.89303   0.84168    0.000
 3744.00    0.84492   0.83286    0.000
 3745.00    0.79477   0.82103   10.769
 3746.00    0.75599   0.80787   10.651
 3747.00    0.73726   0.79636   10.743
 3748.00    0.73647   0.78730   11.049
 3749.00    0.74792   0.78204   11.330
 3750.00    0.76732   0.78300   11.249
 3751.00    0.79213   0.78936   10.901
 3752.00    0.82115   0.79924   10.886
 3753.00    0.85197   0.81244   11.362
 3754.00    0.87992   0.82725   11.646
 3755.00    0.90114   0.84173   11.336
 3756.00    0.91451   0.85496   11.042
 3757.00    0.92182   0.86486   11.157
 3758.00    0.92716   0.87240   11.442
 3759.00    0.93314   0.87776   11.562
 3760.00    0.93929   0.87968   11.436
 3761.00    0.94406   0.87893   11.291
 3762.00    0.94531   0.87522   11.504
 3763.00    0.93693   0.86882   12.027
 3764.00    0.91010   0.85973   12.192
 3765.00    0.86735   0.84801   11.872
 3766.00    0.82548   0.83513   11.841
 3767.00    0.79833   0.82267   12.325
 3768.00    0.78928   0.81217   12.648
 3769.00    0.79484   0.80469   12.452
 3770.00    0.80771   0.80155   12.257
 3771.00    0.82233   0.80454   12.427
 3772.00    0.83665   0.81388   12.863
 3773.00    0.84961   0.82742   13.210
 3774.00    0.86082   0.84484   13.062
 3775.00    0.87322   0.86586   12.652
 3776.00    0.89216   0.88731   12.664
 3777.00    0.91833   0.90798   13.119
 3778.00    0.94661   0.92701   13.277
 3779.00    0.97151   0.94335   12.872
 3780.00    0.98938   0.95652   12.439
 3781.00    0.99885   0.96519   12.356
 3782.00    1.00079   0.97005   12.656
 3783.00    0.99789   0.97131   13.075
 3784.00    0.99402   0.96857   13.160
 3785.00    0.99292   0.96240   12.993
 3786.00    0.99624   0.95278   13.116
 3787.00    0.99896   0.94104   13.586
 3788.00    0.99163   0.92692   13.922
 3789.00    0.97076   0.90977   13.914
 3790.00    0.93932   0.89120   13.838
 3791.00    0.89985   0.87106   13.952
 3792.00    0.85462   0.84941   14.327
 3793.00    0.81130   0.82781   14.717
 3794.00    0.78099   0.80790   14.677
 3795.00    0.76908   0.79121   14.206
 3796.00    0.77424   0.77897   13.717
 3797.00    0.79155   0.77242   13.524
 3798.00    0.81481   0.77308   13.720
 3799.00    0.83983   0.78145   14.059
 3800.00    0.86455   0.79581   14.127
 3801.00    0.88762   0.81439   14.044
 3802.00    0.90829   0.83644   14.236
 3803.00    0.92676   0.86021   14.555
 3804.00    0.94350   0.88300   14.494
 3805.00    0.95742   0.90364   14.197
 3806.00    0.96755   0.92160   14.170
 3807.00    0.97674   0.93647   14.364
 3808.00    0.98922   0.94815   14.391
 3809.00    1.00453   0.95624   14.261
 3810.00    1.01774   0.96101   14.274
 3811.00    1.02230   0.96287   14.538
 3812.00    1.01383   0.96232   14.964
 3813.00    0.99563   0.95898   15.349
 3814.00    0.97554   0.95322   15.508
 3815.00    0.95898   0.94687   15.522
 3816.00    0.94848   0.94038   15.591
 3817.00    0.94486   0.93391   15.697
 3818.00    0.94682   0.92756   15.711
 3819.00    0.95006   0.92071   15.662
 3820.00    0.94971   0.91500   15.685
 3821.00    0.94413   0.91052   15.875
 3822.00    0.93435   0.90482   16.235
 3823.00    0.92234   0.89815   16.627
 3824.00    0.90987   0.89006   16.862
 3825.00    0.89735   0.88012   16.910
 3826.00    0.88388   0.86800   16.863
 3827.00    0.86778   0.85217   16.814
 3828.00    0.84751   0.83389   16.839
 3829.00    0.82303   0.81367   17.003
 3830.00    0.79736   0.79179   17.322
 3831.00    0.77807   0.77059   17.710
 3832.00    0.77094   0.75073   17.981
 3833.00    0.77264   0.73400   17.910
 3834.00    0.77501   0.72303   17.543
 3835.00    0.77112   0.71795   17.406
 3836.00    0.75865   0.72046   17.857
 3837.00    0.74259   0.73073   18.475
 3838.00    0.73224   0.74615   18.642
 3839.00    0.73735   0.76701   18.463
 3840.00    0.76295   0.79132   18.304
 3841.00    0.80467   0.81643   18.160
 3842.00    0.85223   0.84211   17.982
 3843.00    0.89374   0.86567   17.994
 3844.00    0.92195   0.88650   18.320
 3845.00    0.93904   0.90491   18.646
 3846.00    0.95051   0.92009   18.658
 3847.00    0.95919   0.93269    0.000
 3848.00    0.96570   0.94233    0.000
 3849.00    0.96951   0.94951    0.000
 3850.00    0.97036   0.95506    0.000
 3851.00    0.96924   0.95902    0.000
 3852.00    0.96757   0.96209    0.000
 3853.00    0.96642   0.96338    0.000
 3854.00    0.96650   0.96374    0.000
 3855.00    0.96822   0.96429    0.000
 3856.00    0.97166   0.96415    0.000
 3857.00    0.97656   0.96444    0.000
 3858.00    0.98277   0.96481    0.000
 3859.00    0.99039   0.96510    0.000
 3860.00    0.99918   0.96649    0.000
 3861.00    1.00864   0.96806    0.000
 3862.00    1.02103   0.96926    0.000
 3863.00    1.04271   0.97026    0.000
 3864.00    1.07971   0.97081    0.000
 3865.00    1.13395   0.97029    0.000
 3866.00    1.19772   0.96893    0.000
 3867.00    1.25213   0.96636    0.000
 3868.00    1.27757   0.96318    0.000
 3869.00    1.26128   0.95987    0.000
 3870.00    1.20522   0.95533    0.000
 3871.00    1.12775   0.95062    0.000
 3872.00    1.04951   0.94584    0.000
 3873.00    0.98504   0.94083    0.000
 3874.00    0.93992   0.93609    0.000
 3875.00    0.91078   0.93034    0.000
 3876.00    0.89138   0.92303    0.000
 3877.00    0.87621   0.91476    0.000
 3878.00    0.86216   0.90455    0.000
 3879.00    0.84892   0.89234    0.000
 3880.00    0.83674   0.87783    0.000
 3881.00    0.82577   0.85998   20.449
 3882.00    0.81733   0.84033   20.384
 3883.00    0.81502   0.81931   20.242
 3884.00    0.82682   0.79764   20.417
 3885.00    0.86223   0.77743   21.046
 3886.00    0.91730   0.75936   21.559
 3887.00    0.97219   0.74587   -1.000
 3888.00    1.00527   0.73834   -1.000
 3889.00    1.00148   0.73703   -1.000
 3890.00    0.96130   0.74349   -1.000
 3891.00    0.90107   0.75594   22.052
 3892.00    0.84209   0.77296   22.506
 3893.00    0.80305   0.79332   22.274
 3894.00    0.78838   0.81519   21.928
 3895.00    0.78881   0.83748   21.796
 3896.00    0.79627   0.85861   21.943
 3897.00    0.80782   0.87773   22.223
 3898.00    0.82221   0.89390   22.382
 3899.00    0.83850   0.90811   22.220
 3900.00    0.85570   0.92012   21.972
 3901.00    0.87270   0.93004   22.087
 3902.00    0.88857   0.93886   22.420
 3903.00    0.90301   0.94568   22.322
 3904.00    0.91727   0.95226   21.680
 3905.00    0.93341   0.95841   20.991
 3906.00    0.95168   0.96374   20.687
 3907.00    0.97022   0.96947   20.921
 3908.00    0.98620   0.97433   21.328
 3909.00    0.99703   0.97837   21.266
 3910.00    1.00254   0.98175   20.869
 3911.00    1.00429   0.98344   20.809
 3912.00    1.00274   0.98396   21.210
 3913.00    0.99740   0.98306   21.695
 3914.00    0.98890   0.98026   21.939
 3915.00    0.97906   0.97677   21.877
 3916.00    0.97010   0.97194   21.766
 3917.00    0.96364   0.96646   21.933
 3918.00    0.95908   0.96061   22.299
 3919.00    0.95471   0.95404   22.493
 3920.00    0.95040   0.94760   22.370
 3921.00    0.94704   0.94034   22.100
 3922.00    0.94431   0.93278   22.056
 3923.00    0.94090   0.92393   22.495
 3924.00    0.93576   0.91360   23.036
 3925.00    0.92752   0.90220   23.087
 3926.00    0.91343   0.88877   23.017
 3927.00    0.89126   0.87478   23.441
 3928.00    0.86300   0.86000   23.613
 3929.00    0.83211   0.84529   22.379
 3930.00    0.79837   0.83219   20.398
 3931.00    0.76250   0.82085   19.009
 3932.00    0.73441   0.81311   18.975
 3933.00    0.72618   0.80930   20.627
 3934.00    0.73969   0.80986   23.168
 3935.00    0.76869   0.81516   24.509
 3936.00    0.80463   0.82386   24.229
 3937.00    0.83965   0.83560   23.691
 3938.00    0.86965   0.84921   23.436
 3939.00    0.89335   0.86357   23.348
 3940.00    0.91061   0.87807   23.291
 3941.00    0.92241   0.89137   23.194
 3942.00    0.93102   0.90312   23.063
 3943.00    0.93841   0.91345   22.957
 3944.00    0.94428   0.92228   22.960
 3945.00    0.94737   0.92960   23.104
 3946.00    0.94738   0.93570   23.293
 3947.00    0.94514   0.94017   23.386
 3948.00    0.94254   0.94341   23.323
 3949.00    0.94095   0.94586   23.149
 3950.00    0.93963   0.94702   22.999
 3951.00    0.93674   0.94701   22.930
 3952.00    0.93075   0.94554   22.777
 3953.00    0.92100   0.94239   22.392
 3954.00    0.90819   0.93770   21.879
 3955.00    0.89392   0.93095   21.516
 3956.00    0.88015   0.92151   21.644
 3957.00    0.86684   0.90945   22.360
 3958.00    0.85044   0.89468   23.206
 3959.00    0.82925   0.87623   23.686
 3960.00    0.80771   0.85437    0.000
 3961.00    0.79044   0.82893    0.000
 3962.00    0.77720   0.80071    0.000
 3963.00    0.76825   0.77140    0.000
 3964.00    0.76851   0.74121    0.000
 3965.00    0.78253   0.71190    0.000
 3966.00    0.81003   0.68561    0.000
 3967.00    0.84497   0.66388    0.000
 3968.00    0.87570   0.64907    0.000
 3969.00    0.89010   0.64234    0.000
 3970.00    0.88031   0.64425    0.000
 3971.00    0.84884   0.65521    0.000
 3972.00    0.81116   0.67376    0.000
 3973.00    0.78347   0.69824    0.000
 3974.00    0.77409   0.72687    0.000
 3975.00    0.78263   0.75782    0.000
 3976.00    0.80096   0.78930    0.000
 3977.00    0.82059   0.81935    0.000
 3978.00    0.83717   0.84695    0.000
 3979.00    0.84937   0.87107    0.000
 3980.00    0.85793   0.89185    0.000
 3981.00    0.86518   0.90944   25.041
 3982.00    0.87434   0.92383   24.723
 3983.00    0.88732   0.93631   24.093
 3984.00    0.90366   0.94690   23.719
 3985.00    0.92158   0.95589   23.831
 3986.00    0.93884   0.96381   24.195
 3987.00    0.95384   0.97017   24.479
 3988.00    0.96615   0.97599   24.477
 3989.00    0.97645   0.98093   24.278
 3990.00    0.98581   0.98460   24.214
 3991.00    0.99296   0.98773   24.365
 3992.00    0.99412   0.98983   24.441
 3993.00    0.98838   0.99138   24.321
 3994.00    0.97912   0.99230   24.215
 3995.00    0.96906   0.99260   24.255
 3996.00    0.95875   0.99323   24.377
 3997.00    0.94962   0.99396   24.567
 3998.00    0.94478   0.99450   24.889
 3999.00    0.94664   0.99515   25.117
 4000.00    0.95569   0.99561   24.783
 4001.00    0.96945   0.99569   24.042
 4002.00    0.98290   0.99536   23.588
 4003.00    0.99153   0.99464   23.567
 4004.00    0.99293   0.99428   23.540
 4005.00    0.98807   0.99393   23.328
 4006.00    0.98066   0.99408   23.166
 4007.00    0.97338   0.99510   23.216
 4008.00    0.96725   0.99696   23.240
 4009.00    0.96402   0.99942   22.114
 4010.00    0.96607   1.00199   19.303
 4011.00    0.97356   1.00554   17.080
 4012.00    0.98405   1.00929   17.469
 4013.00    0.99411   1.01267   20.448
 4014.00    1.00074   1.01532   23.369
 4015.00    1.00392   1.01700   23.812
 4016.00    1.00612   1.01814   23.590
 4017.00    1.00891   1.01769   24.008
 4018.00    1.01236   1.01582   24.523
 4019.00    1.01605   1.01298   24.265
 4020.00    1.01919   1.00900   23.261
 4021.00    1.02014   1.00402   23.639
 4022.00    1.01729   0.99813   27.547
 4023.00    1.01161   0.99190   27.821
 4024.00    1.00606   0.98629   17.616
 4025.00    1.00287   0.98176   11.062
 4026.00    1.00212   0.97811    8.991
 4027.00    1.00010   0.97628    9.382
 4028.00    0.99215   0.97532   12.336
 4029.00    0.97941   0.97531   20.019
 4030.00    0.96724   0.97661   31.539
 4031.00    0.95871   0.97886   28.196
 4032.00    0.95463   0.98319   17.011
 4033.00    0.95608   0.98779   11.274
 4034.00    0.96349   0.99287    9.307
 4035.00    0.97409   0.99816    9.701
 4036.00    0.98364   1.00288   13.186
 4037.00    0.99083   1.00716   22.130
 4038.00    0.99622   1.00962   29.232
 4039.00    0.99938   1.01072   24.808
 4040.00    1.00017   1.01093   21.731
 4041.00    1.00174   1.00960   21.792
 4042.00    1.00686   1.00755   22.697
 4043.00    1.01139   1.00484   23.412
 4044.00    1.00952   1.00196   24.004
 4045.00    1.00344   1.00015   24.615
 4046.00    0.99953   0.99890   25.205
 4047.00    1.00050   0.99904   25.499
 4048.00    1.00516   0.99945   25.308
 4049.00    1.00986   0.99937   25.011
 4050.00    1.01085   0.99917   25.068
 4051.00    1.00709   0.99865   25.400
 4052.00    1.00000   0.99797   25.741
 4053.00    0.99253   0.99660   26.217
 4054.00    0.98687   0.99462   26.711
 4055.00    0.98186   0.99235   26.000
 4056.00    0.97646   0.98994   24.350
 4057.00    0.97395   0.98764   25.263
 4058.00    0.97654   0.98543   30.097
 4059.00    0.97882   0.98334   26.707
 4060.00    0.97475   0.98100   15.727
 4061.00    0.96614   0.97846   10.451
 4062.00    0.95910   0.97599    9.133
 4063.00    0.95894   0.97356   10.379
 4064.00    0.96854   0.97135   15.414
 4065.00    0.98717   0.96937   26.137
 4066.00    1.01029   0.96749   30.220
 4067.00    1.02983   0.96527   25.058
 4068.00    1.03863   0.96292   23.155
 4069.00    1.03468   0.96062   23.873
 4070.00    1.02130   0.95826   24.509
 4071.00    1.00630   0.95606   24.486
 4072.00    0.99561   0.95356   24.448
 4073.00    0.98805   0.95149   24.783
 4074.00    0.98038   0.94960   25.511
 4075.00    0.97192   0.94767   26.270
 4076.00    0.96322   0.94662   26.596
 4077.00    0.95466   0.94666   26.326
 4078.00    0.94676   0.94802   25.684
 4079.00    0.94035   0.95007   25.148
 4080.00    0.93556   0.95211   25.082
 4081.00    0.93123   0.95391   25.562
 4082.00    0.92646   0.95532   26.335
 4083.00    0.92168   0.95623   26.755
 4084.00    0.91728   0.95668   26.546
 4085.00    0.91272   0.95638   26.326
 4086.00    0.90765   0.95493   26.534
 4087.00    0.90251   0.95214   26.850
 4088.00    0.89703   0.94779   26.903
 4089.00    0.88967   0.94153   26.771
 4090.00    0.87984   0.93320   26.697
 4091.00    0.86898   0.92250   26.847
 4092.00    0.85796   0.90893    0.000
 4093.00    0.84596   0.89217    0.000
 4094.00    0.83369   0.87275    0.000
 4095.00    0.82573   0.85114    0.000
 4096.00    0.83234   0.82866    0.000
 4097.00    0.86788   0.80623    0.000
 4098.00    0.93715   0.78535    0.000
 4099.00    1.02794   0.76730    0.000
 4100.00    1.11176   0.75386    0.000
 4101.00    1.15037   0.74663    0.000
 4102.00    1.12539   0.74601    0.000
 4103.00    1.05018   0.75231    0.000
 4104.00    0.95572   0.76399    0.000
 4105.00    0.87826   0.77966    0.000
 4106.00    0.83643   0.79810    0.000
 4107.00    0.82469   0.81785    0.000
 4108.00    0.83105   0.83803    0.000
 4109.00    0.84556   0.85713    0.000
 4110.00    0.86174   0.87458    0.000
 4111.00    0.87671   0.88979    0.000
 4112.00    0.88974   0.90251    0.000
 4113.00    0.90123   0.91281   28.564
 4114.00    0.91135   0.92076   28.391
 4115.00    0.91949   0.92698   28.155
 4116.00    0.92427   0.93114   27.815
 4117.00    0.92430   0.93420   27.331
 4118.00    0.92045   0.93635   26.941
 4119.00    0.91590   0.93769   27.029
 4120.00    0.91349   0.93919   27.519
 4121.00    0.91464   0.94029   27.844
 4122.00    0.91899   0.94164   27.690
 4123.00    0.92468   0.94271   27.243
 4124.00    0.92931   0.94341   26.884
 4125.00    0.93085   0.94396   26.920
 4126.00    0.92913   0.94379   27.172
 4127.00    0.92585   0.94383   27.124
 4128.00    0.92309   0.94350   26.756
 4129.00    0.92259   0.94365   26.509
 4130.00    0.92515   0.94392   26.504
 4131.00    0.93068   0.94496   26.526
 4132.00    0.93890   0.94671   26.464
 4133.00    0.94938   0.94915   26.388
 4134.00    0.96137   0.95233   26.423
 4135.00    0.97358   0.95512   26.647
 4136.00    0.98385   0.95802   26.902
 4137.00    0.98959   0.95984   26.928
 4138.00    0.98905   0.96069   26.799
 4139.00    0.98194   0.96046   26.824
 4140.00    0.96992   0.95883   27.084
 4141.00    0.95602   0.95626   27.440
 4142.00    0.94295   0.95347   27.779
 4143.00    0.93293   0.95130   28.031
 4144.00    0.92798   0.94957   28.106
 4145.00    0.92933   0.94882   27.984
 4146.00    0.93603   0.94855   27.895
 4147.00    0.94544   0.94838   28.080
 4148.00    0.95448   0.94846   28.296
 4149.00    0.96071   0.94887   28.115
 4150.00    0.96379   0.94910   27.715
 4151.00    0.96439   0.94955   27.561
 4152.00    0.96196   0.94973   27.689
 4153.00    0.95598   0.95014   27.868
 4154.00    0.94880   0.95059   28.021
 4155.00    0.94387   0.95144   28.195
 4156.00    0.94215   0.95325   28.372
 4157.00    0.94229   0.95508   28.501
 4158.00    0.94204   0.95772   28.613
 4159.00    0.94025   0.95996   28.770
 4160.00    0.93940   0.96244   28.965
 4161.00    0.94267   0.96442   29.123
 4162.00    0.94941   0.96566   29.129
 4163.00    0.95644   0.96639   28.939
 4164.00    0.96097   0.96575   28.713
 4165.00    0.96134   0.96427   28.659
 4166.00    0.95765   0.96165   28.829
 4167.00    0.95121   0.95828   29.055
 4168.00    0.94379   0.95401   28.915
 4169.00    0.93655   0.94925   28.322
 4170.00    0.92908   0.94408   28.101
 4171.00    0.92193   0.93910   28.839
 4172.00    0.91934   0.93471   29.664
 4173.00    0.92454   0.93129   29.455
 4174.00    0.93427   0.92894   28.834
 4175.00    0.94302   0.92746   28.806
 4176.00    0.94829   0.92706   29.240
 4177.00    0.95028   0.92747   29.471
 4178.00    0.95072   0.92872   29.095
 4179.00    0.95094   0.93041   28.366
 4180.00    0.95015   0.93232   28.222
 4181.00    0.94688   0.93455   29.125
 4182.00    0.94049   0.93639   30.107
 4183.00    0.93177   0.93832   30.049
 4184.00    0.92311   0.93999   29.464
 4185.00    0.91689   0.94110   29.208
 4186.00    0.91412   0.94259   29.257
 4187.00    0.91561   0.94380   29.388
 4188.00    0.92276   0.94500   29.723
 4189.00    0.93509   0.94576   30.205
 4190.00    0.94846   0.94610   30.181
 4191.00    0.95815   0.94615   29.447
 4192.00    0.96150   0.94501   28.899
 4193.00    0.95805   0.94304   29.125
 4194.00    0.94949   0.93986   29.665
 4195.00    0.93872   0.93632   29.926
 4196.00    0.92893   0.93236   29.925
 4197.00    0.92207   0.92857   29.896
 4198.00    0.91799   0.92562   29.940
 4199.00    0.91602   0.92336   30.028
 4200.00    0.91606   0.92254   30.053
 4201.00    0.91814   0.92305   29.973
 4202.00    0.92208   0.92468   29.893
 4203.00    0.92746   0.92740   29.902
 4204.00    0.93368   0.93128   29.987
 4205.00    0.94004   0.93533   30.109
 4206.00    0.94591   0.93965   30.228
 4207.00    0.95138   0.94361   30.166
 4208.00    0.95715   0.94703   29.643
 4209.00    0.96252   0.94980   28.882
 4210.00    0.96470   0.95194   28.620
 4211.00    0.96160   0.95344   29.062
 4212.00    0.95325   0.95430   29.599
 4213.00    0.94145   0.95446   29.789
 4214.00    0.92949   0.95444   29.864
 4215.00    0.92183   0.95452   30.040
 4216.00    0.92302   0.95421   30.193
 4217.00    0.93316   0.95369   30.163
 4218.00    0.94690   0.95240   29.935
 4219.00    0.95825   0.95056   29.678
 4220.00    0.96294   0.94746   29.655
 4221.00    0.95880   0.94367   29.828
 4222.00    0.94609   0.93919   29.848
 4223.00    0.92787   0.93436   29.737
 4224.00    0.90958   0.93008   29.958
 4225.00    0.89639   0.92641   30.543
 4226.00    0.89171   0.92470   30.905
 4227.00    0.89586   0.92419   30.713
 4228.00    0.90592   0.92495   30.224
 4229.00    0.91718   0.92663   29.816
 4230.00    0.92470   0.92839   29.745
 4231.00    0.92672   0.93009   30.002
 4232.00    0.92518   0.93187   30.347
 4233.00    0.92325   0.93335   30.574
 4234.00    0.92377   0.93432   30.619
 4235.00    0.92726   0.93562   30.542
 4236.00    0.93194   0.93656   30.466
 4237.00    0.93601   0.93765   30.435
 4238.00    0.93864   0.93894   30.408
 4239.00    0.94063   0.94051   30.384
 4240.00    0.94378   0.94197   30.406
 4241.00    0.94833   0.94332   30.465
 4242.00    0.95247   0.94461   30.487
 4243.00    0.95290   0.94494   30.374
 4244.00    0.94648   0.94466   30.066
 4245.00    0.93419   0.94355   29.650
 4246.00    0.92048   0.94197   29.334
 4247.00    0.90925   0.94018   29.353
 4248.00    0.90267   0.93800   29.829
 4249.00    0.90101   0.93614   30.417
 4250.00    0.90294   0.93472   30.532
 4251.00    0.90621   0.93349   30.294
 4252.00    0.90853   0.93266   30.289
 4253.00    0.90911   0.93226   30.476
 4254.00    0.90853   0.93235   30.403
 4255.00    0.90793   0.93284   30.187
 4256.00    0.90807   0.93321   30.307
 4257.00    0.90813   0.93388   30.766
 4258.00    0.90691   0.93452   31.197
 4259.00    0.90572   0.93553   31.437
 4260.00    0.90715   0.93695   31.541
 4261.00    0.91163   0.93834   31.520
 4262.00    0.91796   0.93953   31.370
 4263.00    0.92546   0.94006   31.244
 4264.00    0.93360   0.93985   31.323
 4265.00    0.94071   0.93819   31.569
 4266.00    0.94459   0.93583   31.778
 4267.00    0.94397   0.93237   31.752
 4268.00    0.93878   0.92828   31.443
 4269.00    0.93020   0.92375   31.089
 4270.00    0.92067   0.91952   30.981
 4271.00    0.91392   0.91641   31.128
 4272.00    0.91301   0.91399   31.341
 4273.00    0.91744   0.91292   31.420
 4274.00    0.92434   0.91318   31.243
 4275.00    0.93076   0.91450   30.860
 4276.00    0.93435   0.91638   30.418
 4277.00    0.93377   0.91846   30.050
 4278.00    0.92911   0.91998   29.895
 4279.00    0.92228   0.92115   30.136
 4280.00    0.91582   0.92136   30.750
 4281.00    0.91145   0.92056   31.157
 4282.00    0.90985   0.91911   30.933
 4283.00    0.91081   0.91638   30.791
 4284.00    0.91320   0.91328   31.415
 4285.00    0.91507   0.90963   32.104
 4286.00    0.91417   0.90582   31.934
 4287.00    0.90860   0.90185   31.524
 4288.00    0.89851   0.89802   31.767
 4289.00    0.88754   0.89513   32.412
 4290.00    0.87996   0.89244   32.804
 4291.00    0.87742   0.89023   32.855
 4292.00    0.87901   0.88727   32.746
 4293.00    0.88171   0.88433   32.455
 4294.00    0.88226   0.88078   32.000
 4295.00    0.87891   0.87638   31.652
 4296.00    0.87153   0.87155   31.655
 4297.00    0.86149   0.86562   31.994
 4298.00    0.85153   0.85974   32.505
 4299.00    0.84524   0.85413   32.974
 4300.00    0.84434   0.84896   33.216
 4301.00    0.84673   0.84440   33.156
 4302.00    0.84950   0.84116   32.835
 4303.00    0.85161   0.83873   32.392
 4304.00    0.85274   0.83751   31.973
 4305.00    0.85237   0.83754   31.688
 4306.00    0.85065   0.83842   31.627
 4307.00    0.84897   0.84092   31.849
 4308.00    0.84916   0.84457   32.157
 4309.00    0.85273   0.84965   32.012
 4310.00    0.85971   0.85555   31.392
 4311.00    0.86824   0.86229   31.152
 4312.00    0.87655   0.86957   -2.000
 4313.00    0.88426   0.87718   -2.000
 4314.00    0.89110   0.88520   -2.000
 4315.00    0.89621   0.89207   -2.000
 4316.00    0.89884   0.89800   -2.000
 4317.00    0.89876   0.90207   -2.000
 4318.00    0.89606   0.90449   -2.000
 4319.00    0.89112   0.90476   -2.000
 4320.00    0.88503   0.90357   -2.000
 4321.00    0.87962   0.90055   -2.000
 4322.00    0.87569   0.89624   -2.000
 4323.00    0.87248   0.89127   -2.000
 4324.00    0.87018   0.88611   -2.000
 4325.00    0.87077   0.88187   -2.000
 4326.00    0.87512   0.87751   -2.000
 4327.00    0.88166   0.87325   -2.000
 4328.00    0.88788   0.86807   31.629
 4329.00    0.89103   0.86201   31.111
 4330.00    0.88838   0.85449    0.000
 4331.00    0.87814   0.84467    0.000
 4332.00    0.86320   0.83243    0.000
 4333.00    0.85322   0.81766    0.000
 4334.00    0.86628   0.80063    0.000
 4335.00    0.92626   0.78180    0.000
 4336.00    1.04940   0.76284    0.000
 4337.00    1.23324   0.74528    0.000
 4338.00    1.43611   0.73009    0.000
 4339.00    1.58269   0.71961    0.000
 4340.00    1.61584   0.71491    0.000
 4341.00    1.52044   0.71544    0.000
 4342.00    1.33398   0.72109    0.000
 4343.00    1.13314   0.73145    0.000
 4344.00    0.97465   0.74539    0.000
 4345.00    0.87725   0.76125    0.000
 4346.00    0.83436   0.77829    0.000
 4347.00    0.82430   0.79508    0.000
 4348.00    0.82774   0.81081    0.000
 4349.00    0.83335   0.82468    0.000
 4350.00    0.83699   0.83716    0.000
 4351.00    0.83991   0.84886   34.598
 4352.00    0.84467   0.85926   35.008
 4353.00    0.85324   0.86865   34.616
 4354.00    0.86551   0.87749   33.775
 4355.00    0.87946   0.88577   33.142
 4356.00    0.89281   0.89342   32.947
 4357.00    0.90413   0.90044   33.020
 4358.00    0.91427   0.90731   33.149
 4359.00    0.92561   0.91352   33.198
 4360.00    0.93885   0.91897   33.202
 4361.00    0.95246   0.92327   33.250
 4362.00    0.96310   0.92675   33.138
 4363.00    0.96716   0.92905   32.602
 4364.00    0.96380   0.93013   32.018
 4365.00    0.95484   0.92985   31.955
 4366.00    0.94279   0.92875   32.107
 4367.00    0.93023   0.92709   31.709
 4368.00    0.91944   0.92478   30.965
 4369.00    0.91186   0.92230   30.683
 4370.00    0.90717   0.91965   31.147
 4371.00    0.90432   0.91717   32.100
 4372.00    0.90393   0.91457   32.843
 4373.00    0.90702   0.91246   32.695
 4374.00    0.91171   0.91082   32.064
 4375.00    0.91472   0.90944   31.825
 4376.00    0.91530   0.90765   32.027
 4377.00    0.91447   0.90528   32.238
 4378.00    0.91240   0.90217   32.408
 4379.00    0.90847   0.89838   32.698
 4380.00    0.90225   0.89377   32.896
 4381.00    0.89394   0.88830   32.746
 4382.00    0.88505   0.88305   32.648
 4383.00    0.87790   0.87851   33.070
 4384.00    0.87477   0.87519   33.515
 4385.00    0.87687   0.87280   33.224
 4386.00    0.88313   0.87179   32.620
 4387.00    0.89148   0.87262   32.561
 4388.00    0.90088   0.87472   33.140
 4389.00    0.91022   0.87783   33.794
 4390.00    0.91658   0.88188   33.586
 4391.00    0.91792   0.88613   32.273
 4392.00    0.91682   0.89026   31.236
 4393.00    0.91695   0.89405   31.632
 4394.00    0.91807   0.89754   32.884
 4395.00    0.91837   0.90062   33.736
 4396.00    0.91808   0.90248   34.046
 4397.00    0.91836   0.90377   34.202
 4398.00    0.91955   0.90410   33.854
 4399.00    0.92091   0.90419   32.877
 4400.00    0.92090   0.90397   32.359
 4401.00    0.91851   0.90346   33.108
 4402.00    0.91484   0.90259   34.348
 4403.00    0.91175   0.90201   34.754
 4404.00    0.91041   0.90206   34.190
 4405.00    0.91121   0.90232   33.391
 4406.00    0.91394   0.90284   33.070
 4407.00    0.91787   0.90377   33.472
 4408.00    0.92189   0.90507   34.108
 4409.00    0.92472   0.90623   34.308
 4410.00    0.92520   0.90720   33.910
 4411.00    0.92251   0.90789   33.372
 4412.00    0.91655   0.90807   33.569
 4413.00    0.90845   0.90796   34.705
 4414.00    0.90087   0.90807   35.426
 4415.00    0.89629   0.90841   34.702
 4416.00    0.89563   0.90888   33.711
 4417.00    0.89872   0.90996   33.580
 4418.00    0.90484   0.91111   34.039
 4419.00    0.91234   0.91259   34.482
 4420.00    0.91858   0.91397   34.731
 4421.00    0.92164   0.91548   34.832
 4422.00    0.92140   0.91687   34.837
 4423.00    0.91846   0.91785   34.846
 4424.00    0.91337   0.91838   35.011
 4425.00    0.90729   0.91848   35.272
 4426.00    0.90220   0.91803   35.251
 4427.00    0.89940   0.91736   34.836
 4428.00    0.89855   0.91612   34.467
 4429.00    0.89900   0.91485   34.461
 4430.00    0.90044   0.91359   34.691
 4431.00    0.90214   0.91225   34.948
 4432.00    0.90290   0.91122   35.139
 4433.00    0.90331   0.91042   35.158
 4434.00    0.90633   0.91024   34.860
 4435.00    0.91303   0.91038   34.375
 4436.00    0.92081   0.91074   34.133
 4437.00    0.92621   0.91114   34.271
 4438.00    0.92677   0.91143   34.480
 4439.00    0.92212   0.91158   34.619
 4440.00    0.91420   0.91168   34.944
 4441.00    0.90597   0.91183   35.481
 4442.00    0.90042   0.91211   35.801
 4443.00    0.89921   0.91249   35.630
 4444.00    0.90214   0.91300   35.142
 4445.00    0.90783   0.91329   34.639
 4446.00    0.91414   0.91356   34.358
 4447.00    0.91930   0.91353   34.386
 4448.00    0.92221   0.91296   34.653
 4449.00    0.92215   0.91179   34.950
 4450.00    0.91876   0.90994   35.017
 4451.00    0.91237   0.90730   34.930
 4452.00    0.90411   0.90416   35.061
 4453.00    0.89549   0.90056   35.381
 4454.00    0.88822   0.89702   35.397
 4455.00    0.88410   0.89353   35.018
 4456.00    0.88433   0.89041   34.678
 4457.00    0.88716   0.88772   34.573
 4458.00    0.88871   0.88564   34.553
 4459.00    0.88817   0.88432   34.520
 4460.00    0.88813   0.88336   34.512
 4461.00    0.88977   0.88310    0.000
 4462.00    0.89189   0.88291    0.000
 4463.00    0.89272   0.88293    0.000
 4464.00    0.89151   0.88293    0.000
 4465.00    0.89093   0.88293    0.000
 4466.00    0.89576   0.88312    0.000
 4467.00    0.90684   0.88338    0.000
 4468.00    0.92112   0.88436    0.000
 4469.00    0.93628   0.88591    0.000
 4470.00    0.95087   0.88832    0.000
 4471.00    0.96115   0.89143    0.000
 4472.00    0.96260   0.89500    0.000
 4473.00    0.95590   0.89892    0.000
 4474.00    0.94586   0.90257    0.000
 4475.00    0.93507   0.90598    0.000
 4476.00    0.92370   0.90840    0.000
 4477.00    0.91262   0.91020    0.000
 4478.00    0.90346   0.91106    0.000
 4479.00    0.89707   0.91174    0.000
 4480.00    0.89363   0.91182    0.000
 4481.00    0.89353   0.91218    0.000
 4482.00    0.89698   0.91225   32.208
 4483.00    0.90284   0.91271   32.773
 4484.00    0.90925   0.91296   33.502
 4485.00    0.91544   0.91343   34.041
 4486.00    0.92144   0.91368   34.046
 4487.00    0.92666   0.91398   33.699
 4488.00    0.93042   0.91406   33.400
 4489.00    0.93315   0.91416   33.074
 4490.00    0.93524   0.91401   32.515
 4491.00    0.93464   0.91416   32.108
 4492.00    0.92946   0.91447   32.377
 4493.00    0.92289   0.91528   33.197
 4494.00    0.92011   0.91665   33.897
 4495.00    0.92211   0.91847   33.743
 4496.00    0.92723   0.92090   32.619
 4497.00    0.93508   0.92357   31.578
 4498.00    0.94545   0.92688   31.527
 4499.00    0.95591   0.93041   31.922
 4500.00    0.96370   0.93409   31.806
 4501.00    0.96897   0.93764   31.548
 4502.00    0.97248   0.94087   31.972
 4503.00    0.97223   0.94366   32.904
 4504.00    0.96652   0.94575   33.599
 4505.00    0.95849   0.94726   33.710
 4506.00    0.95238   0.94791   33.442
 4507.00    0.94815   0.94783   33.344
 4508.00    0.94397   0.94682   33.750
 4509.00    0.94007   0.94523   34.213
 4510.00    0.93750   0.94295   34.170
 4511.00    0.93612   0.94033   33.892
 4512.00    0.93519   0.93745   33.879
 4513.00    0.93424   0.93453   34.089
 4514.00    0.93285   0.93141   34.273
 4515.00    0.93040   0.92861   34.407
 4516.00    0.92673   0.92563   34.543
 4517.00    0.92277   0.92296   34.611
 4518.00    0.91942   0.91992   34.560
 4519.00    0.91658   0.91687   34.517
 4520.00    0.91403   0.91357   34.608
 4521.00    0.91233   0.90991   34.778
 4522.00    0.91147   0.90596   34.864
 4523.00    0.90972   0.90166   34.708
 4524.00    0.90570   0.89735   34.338
 4525.00    0.90013   0.89291   34.071
 4526.00    0.89472   0.88905   34.163
 4527.00    0.89095   0.88542   34.541
 4528.00    0.88979   0.88277   34.921
 4529.00    0.89147   0.88069   34.938
 4530.00    0.89520   0.87964   34.547
 4531.00    0.89913   0.87955   34.228
 4532.00    0.90151   0.88035   34.296
 4533.00    0.90166   0.88206   34.494
 4534.00    0.90057   0.88406   34.557
 4535.00    0.90092   0.88650   34.607
 4536.00    0.90462   0.88881   34.724
 4537.00    0.91108   0.89117   34.667
 4538.00    0.91834   0.89304   34.239
 4539.00    0.92405   0.89462   33.544
 4540.00    0.92701   0.89548   32.868
 4541.00    0.92784   0.89588   32.516
 4542.00    0.92719   0.89567   32.424
 4543.00    0.92481   0.89503   32.100
 4544.00    0.92051   0.89392   31.616
 4545.00    0.91485   0.89258   31.857
 4546.00    0.90914   0.89096   32.981
 4547.00    0.90523   0.88953   33.728
 4548.00    0.90380   0.88791   33.490
 4549.00    0.90382   0.88684   33.442
 4550.00    0.90413   0.88591    0.000
 4551.00    0.90431   0.88589    0.000
 4552.00    0.90395   0.88621    0.000
 4553.00    0.90273   0.88754    0.000
 4554.00    0.90183   0.88924    0.000
 4555.00    0.90404   0.89170    0.000
 4556.00    0.91046   0.89437    0.000
 4557.00    0.91926   0.89726    0.000
 4558.00    0.92744   0.90002    0.000
 4559.00    0.93253   0.90252    0.000
 4560.00    0.93628   0.90467    0.000
 4561.00    0.94334   0.90634    0.000
 4562.00    0.94941   0.90761    0.000
 4563.00    0.94190   0.90846    0.000
 4564.00    0.92262   0.90909    0.000
 4565.00    0.90976   0.90945    0.000
 4566.00    0.91060   0.90977    0.000
 4567.00    0.91557   0.91014    0.000
 4568.00    0.91618   0.91043    0.000
 4569.00    0.91082   0.91068    0.000
 4570.00    0.90110   0.91079    0.000
 4571.00    0.89084   0.91075    0.000
 4572.00    0.88745   0.91041    0.000
 4573.00    0.89763   0.90969    0.000
 4574.00    0.91217   0.90860    0.000
 4575.00    0.91106   0.90703    0.000
 4576.00    0.89411   0.90515    0.000
 4577.00    0.88093   0.90285    0.000
 4578.00    0.88182   0.90045    0.000
 4579.00    0.89163   0.89796    0.000
 4580.00    0.89835   0.89567    0.000
 4581.00    0.89178   0.89369    0.000
 4582.00    0.87942   0.89213    0.000
 4583.00    0.87994   0.89116    0.000
 4584.00    0.89482   0.89058    0.000
 4585.00    0.90914   0.89059    0.000
 4586.00    0.91321   0.89077    0.000
 4587.00    0.90796   0.89128    0.000
 4588.00    0.90390   0.89170    0.000
 4589.00    0.91186   0.89218    0.000
 4590.00    0.92292   0.89244    0.000
 4591.00    0.91943   0.89262    0.000
 4592.00    0.90944   0.89264    0.000
 4593.00    0.91414   0.89262    0.000
 4594.00    0.92503   0.89264    0.000
 4595.00    0.91726   0.89269    0.000
 4596.00    0.89586   0.89297    0.000
 4597.00    0.88512   0.89332    0.000
 4598.00    0.88888   0.89405    0.000
 4599.00    0.89506   0.89486    0.000
 4600.00    0.89939   0.89616    0.000
 4601.00    0.90454   0.89750    0.000
 4602.00    0.91008   0.89935    0.000
 4603.00    0.91340   0.90118    0.000
 4604.00    0.91438   0.90343    0.000
 4605.00    0.91593   0.90553    0.000
 4606.00    0.92300   0.90779    0.000
 4607.00    0.93612   0.90975    0.000
 4608.00    0.94188   0.91153    0.000
 4609.00    0.92951   0.91291    0.000
 4610.00    0.91724   0.91385    0.000
 4611.00    0.92751   0.91444    0.000
 4612.00    0.94524   0.91451    0.000
 4613.00    0.94379   0.91444    0.000
 4614.00    0.92976   0.91396    0.000
 4615.00    0.92403   0.91361    0.000
 4616.00    0.92739   0.91302    0.000
 4617.00    0.92973   0.91277    0.000
 4618.00    0.92814   0.91240    0.000
 4619.00    0.92404   0.91242    0.000
 4620.00    0.91671   0.91232    0.000
 4621.00    0.90643   0.91247    0.000
 4622.00    0.89879   0.91239    0.000
 4623.00    0.89876   0.91235    0.000
 4624.00    0.90351   0.91197    0.000
 4625.00    0.90814   0.91145    0.000
 4626.00    0.91287   0.91057    0.000
 4627.00    0.91904   0.90949    0.000
 4628.00    0.92428   0.90813    0.000
 4629.00    0.92741   0.90658    0.000
 4630.00    0.93317   0.90489    0.000
 4631.00    0.94191   0.90308    0.000
 4632.00    0.94070   0.90123    0.000
 4633.00    0.92468   0.89935    0.000
 4634.00    0.91519   0.89747    0.000
 4635.00    0.92487   0.89561    0.000
 4636.00    0.92830   0.89375    0.000
 4637.00    0.90747   0.89190    0.000
 4638.00    0.88965   0.88996    0.000
 4639.00    0.89887   0.88798    0.000
 4640.00    0.91564   0.88579    0.000
 4641.00    0.91548   0.88353    0.000
 4642.00    0.90160   0.88107    0.000
 4643.00    0.88783   0.87862    0.000
 4644.00    0.88266   0.87615    0.000
 4645.00    0.88670   0.87398    0.000
 4646.00    0.89264   0.87211    0.000
 4647.00    0.89393   0.87089    0.000
 4648.00    0.89095   0.87025    0.000
 4649.00    0.88902   0.87045    0.000
 4650.00    0.89527   0.87129    0.000
 4651.00    0.90882   0.87288    0.000
 4652.00    0.91683   0.87492    0.000
 4653.00    0.91228   0.87734    0.000
 4654.00    0.90362   0.87988    0.000
 4655.00    0.90072   0.88227    0.000
 4656.00    0.90609   0.88439    0.000
 4657.00    0.91800   0.88584    0.000
 4658.00    0.93253   0.88668    0.000
 4659.00    0.94275   0.88649    0.000
 4660.00    0.94017   0.88552    0.000
 4661.00    0.92580   0.88354    0.000
 4662.00    0.91230   0.88098    0.000
 4663.00    0.90305   0.87783    0.000
 4664.00    0.88659   0.87465    0.000
 4665.00    0.86636   0.87159    0.000
 4666.00    0.86699   0.86913    0.000
 4667.00    0.88957   0.86740    0.000
 4668.00    0.90115   0.86663    0.000
 4669.00    0.89104   0.86676    0.000
 4670.00    0.88661   0.86777    0.000
 4671.00    0.90129   0.86935    0.000
 4672.00    0.91839   0.87135    0.000
 4673.00    0.92569   0.87334    0.000
 4674.00    0.92719   0.87521    0.000
 4675.00    0.92625   0.87661    0.000
 4676.00    0.92039   0.87758    0.000
 4677.00    0.90998   0.87794    0.000
 4678.00    0.90038   0.87786    0.000
 4679.00    0.89635   0.87733    0.000
 4680.00    0.89922   0.87660    0.000
 4681.00    0.90488   0.87573    0.000
 4682.00    0.90632   0.87497    0.000
 4683.00    0.90473   0.87433    0.000
 4684.00    0.90860   0.87402    0.000
 4685.00    0.91710   0.87395    0.000
 4686.00    0.91912   0.87427    0.000
 4687.00    0.90874   0.87478    0.000
 4688.00    0.89001   0.87558    0.000
 4689.00    0.87546   0.87639    0.000
 4690.00    0.87894   0.87724    0.000
 4691.00    0.89663   0.87789    0.000
 4692.00    0.90994   0.87826    0.000
 4693.00    0.90995   0.87826    0.000
 4694.00    0.90072   0.87772    0.000
 4695.00    0.88852   0.87678    0.000
 4696.00    0.87824   0.87523    0.000
 4697.00    0.87256   0.87342    0.000
 4698.00    0.87195   0.87114    0.000
 4699.00    0.87519   0.86890    0.000
 4700.00    0.88000   0.86647    0.000
 4701.00    0.88404   0.86438    0.000
 4702.00    0.88550   0.86237    0.000
 4703.00    0.88381   0.86093    0.000
 4704.00    0.87922   0.85966    0.000
 4705.00    0.87160   0.85914    0.000
 4706.00    0.86136   0.85872    0.000
 4707.00    0.85206   0.85914    0.000
 4708.00    0.84800   0.85956    0.000
 4709.00    0.84845   0.86090    0.000
 4710.00    0.85023   0.86214    0.000
 4711.00    0.85504   0.86439    0.000
 4712.00    0.86563   0.86644    0.000
 4713.00    0.87622   0.86950    0.000
 4714.00    0.87912   0.87223    0.000
 4715.00    0.87991   0.87578    0.000
 4716.00    0.88829   0.87879    0.000
 4717.00    0.89789   0.88223    0.000
 4718.00    0.89626   0.88484    0.000
 4719.00    0.88703   0.88740    0.000
 4720.00    0.88195   0.88887    0.000
 4721.00    0.88221   0.88988    0.000
 4722.00    0.88101   0.88977    0.000
 4723.00    0.87268   0.88903    0.000
 4724.00    0.85864   0.88738    0.000
 4725.00    0.85326   0.88527    0.000
 4726.00    0.86740   0.88272    0.000
 4727.00    0.88502   0.88010    0.000
 4728.00    0.88338   0.87755    0.000
 4729.00    0.86489   0.87536    0.000
 4730.00    0.84741   0.87363    0.000
 4731.00    0.84511   0.87253    0.000
 4732.00    0.86074   0.87201    0.000
 4733.00    0.88004   0.87213    0.000
 4734.00    0.88754   0.87272    0.000
 4735.00    0.88601   0.87376    0.000
 4736.00    0.88413   0.87509    0.000
 4737.00    0.88017   0.87661    0.000
 4738.00    0.87070   0.87826    0.000
 4739.00    0.86186   0.87988    0.000
 4740.00    0.86021   0.88152    0.000
 4741.00    0.86215   0.88296    0.000
 4742.00    0.86244   0.88435    0.000
 4743.00    0.86368   0.88542    0.000
 4744.00    0.86915   0.88633    0.000
 4745.00    0.87524   0.88684    0.000
 4746.00    0.87726   0.88709    0.000
 4747.00    0.87562   0.88692    0.000
 4748.00    0.87381   0.88640    0.000
 4749.00    0.87583   0.88554    0.000
 4750.00    0.88422   0.88432    0.000
 4751.00    0.89826   0.88289    0.000
 4752.00    0.91239   0.88116    0.000
 4753.00    0.91632   0.87940    0.000
 4754.00    0.90743   0.87738    0.000
 4755.00    0.89868   0.87547    0.000
 4756.00    0.89832   0.87333    0.000
 4757.00    0.89555   0.87134    0.000
 4758.00    0.87967   0.86916    0.000
 4759.00    0.85462   0.86718    0.000
 4760.00    0.83217   0.86513    0.000
 4761.00    0.82453   0.86341   23.163
 4762.00    0.83255   0.86183   22.823
 4763.00    0.84095   0.86082   22.715
 4764.00    0.84002   0.86020   23.009
 4765.00    0.83809   0.86029   23.282
 4766.00    0.84353   0.86092   23.217
 4767.00    0.85388   0.86222   23.064
 4768.00    0.86518   0.86401   23.072
 4769.00    0.87736   0.86620   23.158
 4770.00    0.88854   0.86865   23.139
 4771.00    0.89280   0.87112   22.900
 4772.00    0.88831   0.87355   22.532
 4773.00    0.88109   0.87567   22.303
 4774.00    0.87891   0.87748   22.260
 4775.00    0.88618   0.87876   22.144
 4776.00    0.89592   0.87956   21.926
 4777.00    0.89120   0.87975   21.950
 4778.00    0.87356   0.87945   22.253
 4779.00    0.86906   0.87862   22.361
 4780.00    0.88609   0.87744   22.080
 4781.00    0.90254   0.87596   21.785
 4782.00    0.90542   0.87440   21.735
 4783.00    0.90420   0.87282   21.850
 4784.00    0.90407   0.87147   22.008
 4785.00    0.89732   0.87040   22.164
 4786.00    0.88039   0.86979   22.301
 4787.00    0.86002   0.86960   22.409
 4788.00    0.84621   0.86995   22.459
 4789.00    0.84694   0.87070   22.412
 4790.00    0.85922   0.87182   22.278
 4791.00    0.87038   0.87311   22.129
 4792.00    0.87612   0.87445   22.079
 4793.00    0.88236   0.87571   22.231
 4794.00    0.88644   0.87666   22.512
 4795.00    0.87727   0.87734   22.690
 4796.00    0.86055   0.87754   22.684
 4797.00    0.85715   0.87743   22.625
 4798.00    0.86746   0.87686   22.588
 4799.00    0.87097   0.87607   22.537
 4800.00    0.86424   0.87504   22.447
 4801.00    0.86306   0.87389   22.338
 4802.00    0.87033   0.87275   22.269
 4803.00    0.87315   0.87158   22.306
 4804.00    0.86518   0.87063   22.453
 4805.00    0.85176   0.86975   22.644
 4806.00    0.84470   0.86923   22.769
 4807.00    0.85377   0.86888   22.744
 4808.00    0.86845   0.86889   22.655
 4809.00    0.86737   0.86912   22.677
 4810.00    0.85553   0.86960   22.767
 4811.00    0.85696   0.87031   22.733
 4812.00    0.87157   0.87109   22.636
 4813.00    0.87855   0.87198   22.717
 4814.00    0.87157   0.87265   23.019
 4815.00    0.86044   0.87320   23.349
 4816.00    0.85473   0.87334   23.414
 4817.00    0.85835   0.87312   23.027
 4818.00    0.86682   0.87243   22.434
 4819.00    0.87049   0.87129   22.100
 4820.00    0.86287   0.86983   22.306
 4821.00    0.84492   0.86799   23.057
 4822.00    0.82957   0.86609   23.826
 4823.00    0.83268   0.86402   23.843
 4824.00    0.85359   0.86213   23.247
 4825.00    0.87742   0.86029   22.769
 4826.00    0.88723   0.85873   22.682
 4827.00    0.87434   0.85734   22.869
 4828.00    0.85206   0.85615   23.102
 4829.00    0.83975   0.85517   23.223
 4830.00    0.83166   0.85418   23.391
 4831.00    0.81492   0.85340   23.784
 4832.00    0.80726   0.85238   23.991
 4833.00    0.83059   0.85144   23.517
 4834.00    0.86000   0.85017   22.824
 4835.00    0.85817   0.84896   22.611
 4836.00    0.83933   0.84736   22.791
 4837.00    0.83766   0.84582   22.929
 4838.00    0.84690   0.84391   22.963
 4839.00    0.84265   0.84199   23.061
 4840.00    0.82614   0.83977   23.218
 4841.00    0.81329   0.83739   23.316
 4842.00    0.81084   0.83472   23.291
 4843.00    0.81559   0.83167   23.157
 4844.00    0.81816   0.82820   23.006
 4845.00    0.81071   0.82409   22.986
 4846.00    0.79583   0.81925   23.276
 4847.00    0.78253   0.81343   23.839
 4848.00    0.77936   0.80651    0.000
 4849.00    0.78634   0.79836    0.000
 4850.00    0.78802   0.78879    0.000
 4851.00    0.77350   0.77784    0.000
 4852.00    0.75830   0.76547    0.000
 4853.00    0.76518   0.75199    0.000
 4854.00    0.80296   0.73770    0.000
 4855.00    0.89583   0.72301    0.000
 4856.00    1.11044   0.70852    0.000
 4857.00    1.49164   0.69499    0.000
 4858.00    1.99673   0.68307    0.000
 4859.00    2.51369   0.67352    0.000
 4860.00    2.89105   0.66691    0.000
 4861.00    3.00289   0.66379    0.000
 4862.00    2.80833   0.66393    0.000
 4863.00    2.36380   0.66751    0.000
 4864.00    1.81992   0.67378    0.000
 4865.00    1.33399   0.68270    0.000
 4866.00    0.99421   0.69321    0.000
 4867.00    0.81753   0.70520    0.000
 4868.00    0.75792   0.71707    0.000
 4869.00    0.75058   0.72895    0.000
 4870.00    0.74868   0.74010    0.000
 4871.00    0.73733   0.75061    0.000
 4872.00    0.73665   0.76015    0.000
 4873.00    0.75760   0.76897    0.000
 4874.00    0.77535   0.77680    0.000
 4875.00    0.77365   0.78389   24.287
 4876.00    0.77193   0.79004   24.432
 4877.00    0.78579   0.79575   24.454
 4878.00    0.80284   0.80023   24.434
 4879.00    0.80882   0.80404   24.479
 4880.00    0.80470   0.80669   24.540
 4881.00    0.80024   0.80880   24.530
 4882.00    0.80688   0.80998   24.422
 4883.00    0.82347   0.81083   24.284
 4884.00    0.83207   0.81126   24.266
 4885.00    0.82239   0.81158   24.432
 4886.00    0.80396   0.81205   24.680
 4887.00    0.79366   0.81302   24.840
 4888.00    0.80508   0.81452   24.771
 4889.00    0.83182   0.81656   24.517
 4890.00    0.84625   0.81942   24.314
 4891.00    0.83763   0.82269   24.274
 4892.00    0.82473   0.82657   24.301
 4893.00    0.82042   0.83041   24.364
 4894.00    0.81856   0.83436   24.574
 4895.00    0.81653   0.83797   24.844
 4896.00    0.82194   0.84117   24.845
 4897.00    0.83297   0.84397   24.594
 4898.00    0.83507   0.84570   24.544
 4899.00    0.82553   0.84696   24.822
 4900.00    0.81871   0.84729   25.068
 4901.00    0.82249   0.84727   25.059
 4902.00    0.83148   0.84659   24.934
 4903.00    0.84000   0.84577   24.809
 4904.00    0.84632   0.84448   24.668
 4905.00    0.84787   0.84321   24.553
 4906.00    0.84160   0.84166   24.577
 4907.00    0.83188   0.84000   24.721
 4908.00    0.82835   0.83808   24.829
 4909.00    0.82848   0.83616   24.894
 4910.00    0.81987   0.83381   25.074
 4911.00    0.80848   0.83134   25.358
 4912.00    0.81608   0.82828   25.537
 4913.00    0.84132   0.82522   25.493
 4914.00    0.85924   0.82161   25.301
 4915.00    0.85933   0.81802   25.162
 4916.00    0.85053   0.81419   25.248
 4917.00    0.83977   0.81053   25.364
 4918.00    0.82784   0.80718   25.120
 4919.00    0.81663   0.80433   24.730
 4920.00    0.80940   0.80264   24.787
 4921.00    0.80582   0.80160   25.211
 4922.00    0.80314   0.80237   25.358
 4923.00    0.80306   0.80369   25.102
 4924.00    0.80985   0.80688   24.868
 4925.00    0.82127   0.81005   24.831
 4926.00    0.82969   0.81428   24.872
 4927.00    0.83046   0.81787   24.894
 4928.00    0.82510   0.82158   24.854
 4929.00    0.82346   0.82423   24.669
 4930.00    0.83514   0.82638   24.309
 4931.00    0.84991   0.82751   24.011
 4932.00    0.84774   0.82788   24.042
 4933.00    0.82910   0.82770   24.176
 4934.00    0.81003   0.82717   23.978
 4935.00    0.79859   0.82656   23.620
 4936.00    0.79438   0.82610   23.573
 4937.00    0.79728   0.82626   23.777
 4938.00    0.80656   0.82677   23.859
 4939.00    0.81615   0.82806   23.815
 4940.00    0.81907   0.82965    0.000
 4941.00    0.81690   0.83182    0.000
 4942.00    0.81548   0.83414    0.000
 4943.00    0.81459   0.83686    0.000
 4944.00    0.81151   0.83918    0.000
 4945.00    0.80987   0.84146    0.000
 4946.00    0.81613   0.84300    0.000
 4947.00    0.83152   0.84414    0.000
 4948.00    0.85086   0.84448    0.000
 4949.00    0.86337   0.84441    0.000
 4950.00    0.86415   0.84360    0.000
 4951.00    0.87026   0.84236    0.000
 4952.00    0.91010   0.84074    0.000
 4953.00    1.00485   0.83876    0.000
 4954.00    1.16856   0.83688    0.000
 4955.00    1.41044   0.83479    0.000
 4956.00    1.71130   0.83332    0.000
 4957.00    1.99467   0.83183    0.000
 4958.00    2.16655   0.83105    0.000
 4959.00    2.17130   0.83027    0.000
 4960.00    2.00518   0.83009    0.000
 4961.00    1.72234   0.83037    0.000
 4962.00    1.40669   0.83065    0.000
 4963.00    1.13616   0.83110    0.000
 4964.00    0.95741   0.83130    0.000
 4965.00    0.86413   0.83153    0.000
 4966.00    0.82549   0.83158    0.000
 4967.00    0.81937   0.83162    0.000
 4968.00    0.83035   0.83152    0.000
 4969.00    0.84421   0.83154    0.000
 4970.00    0.85029   0.83127    0.000
 4971.00    0.84441   0.83095    0.000
 4972.00    0.82893   0.83021    0.000
 4973.00    0.81195   0.82905    0.000
 4974.00    0.80247   0.82743    0.000
 4975.00    0.80542   0.82512    0.000
 4976.00    0.81729   0.82232    0.000
 4977.00    0.82427   0.81903    0.000
 4978.00    0.81722   0.81534    0.000
 4979.00    0.80339   0.81170    0.000
 4980.00    0.79448   0.80803    0.000
 4981.00    0.79579   0.80495    0.000
 4982.00    0.80472   0.80241    0.000
 4983.00    0.81174   0.80071    0.000
 4984.00    0.81284   0.79966    0.000
 4985.00    0.81680   0.79956    0.000
 4986.00    0.82777   0.80024    0.000
 4987.00    0.83463   0.80149    0.000
 4988.00    0.82964   0.80309    0.000
 4989.00    0.81987   0.80477    0.000
 4990.00    0.81179   0.80632    0.000
 4991.00    0.80233   0.80729    0.000
 4992.00    0.79285   0.80802    0.000
 4993.00    0.79509   0.80800    0.000
 4994.00    0.80881   0.80766    0.000
 4995.00    0.81294   0.80673    0.000
 4996.00    0.79846   0.80510    0.000
 4997.00    0.78391   0.80331    0.000
 4998.00    0.78738   0.80091    0.000
 4999.00    0.81905   0.79835    0.000
 5000.00    0.93166   0.79555    0.000
 5001.00    1.23232   0.79277    0.000
 5002.00    1.79389   0.78994    0.000
 5003.00    2.60194   0.78755    0.000
 5004.00    3.53165   0.78519    0.000
 5005.00    4.35588   0.78333    0.000
 5006.00    4.83594   0.78140    0.000
 5007.00    4.79382   0.77965    0.000
 5008.00    4.23307   0.77776    0.000
 5009.00    3.36075   0.77626    0.000
 5010.00    2.43244   0.77470    0.000
 5011.00    1.66398   0.77326    0.000
 5012.00    1.16636   0.77158    0.000
 5013.00    0.92879   0.77027    0.000
 5014.00    0.86389   0.76905    0.000
 5015.00    0.85088   0.76838    0.000
 5016.00    0.82568   0.76841    0.000
 5017.00    0.79923   0.76890    0.000
 5018.00    0.78908   0.77035    0.000
 5019.00    0.79408   0.77208    0.000
 5020.00    0.80164   0.77433    0.000
 5021.00    0.79692   0.77695    0.000
 5022.00    0.78354   0.78009    0.000
 5023.00    0.78068   0.78298    0.000
 5024.00    0.78908   0.78599    0.000
 5025.00    0.79033   0.78864    0.000
 5026.00    0.78171   0.79147    0.000
 5027.00    0.77839   0.79347    0.000
 5028.00    0.78479   0.79529    0.000
 5029.00    0.79187   0.79626   28.086
 5030.00    0.79630   0.79677   27.820
 5031.00    0.80205   0.79696   27.833
 5032.00    0.80820   0.79630   28.136
 5033.00    0.80903   0.79515   28.150
 5034.00    0.80389   0.79344   27.864
 5035.00    0.79793   0.79161   27.782
 5036.00    0.79638   0.78930   27.921
 5037.00    0.80065   0.78713   27.876
 5038.00    0.80262   0.78494   27.604
 5039.00    0.79199   0.78380   27.409
 5040.00    0.77679   0.78293   27.416
 5041.00    0.77556   0.78264   27.532
 5042.00    0.78817   0.78284   27.604
 5043.00    0.79941   0.78362   27.545
 5044.00    0.80223   0.78503   27.524
 5045.00    0.79952   0.78714   27.771
 5046.00    0.79627   0.78889   28.093
 5047.00    0.79582   0.79076   28.076
 5048.00    0.79591   0.79260   27.805
 5049.00    0.79259   0.79416   27.681
 5050.00    0.78910   0.79583   27.783
 5051.00    0.79147   0.79744   27.924
 5052.00    0.79706   0.79962   27.949
 5053.00    0.79951   0.80145   27.817
 5054.00    0.80153   0.80359   27.626
 5055.00    0.80947   0.80545   27.512
 5056.00    0.82016   0.80739   27.472
 5057.00    0.82559   0.80854   27.424
 5058.00    0.82435   0.80941   27.350
 5059.00    0.81916   0.80967   27.333
 5060.00    0.80986   0.80951   27.571
 5061.00    0.79626   0.80864   28.131
 5062.00    0.78404   0.80729   28.536
 5063.00    0.77935   0.80559   28.272
 5064.00    0.77991   0.80350   27.753
 5065.00    0.78024   0.80113   27.635
 5066.00    0.78094   0.79866   27.813
 5067.00    0.78522   0.79605   27.853
 5068.00    0.79260   0.79404   27.700
 5069.00    0.80026   0.79191   27.534
 5070.00    0.80601   0.78982   27.438
 5071.00    0.80876   0.78783   27.402
 5072.00    0.80835   0.78605   27.378
 5073.00    0.80392   0.78413   27.381
 5074.00    0.79238   0.78203   27.574
 5075.00    0.77573   0.78023   27.981
 5076.00    0.76852   0.77879   28.145
 5077.00    0.78011   0.77712   27.761
 5078.00    0.79543   0.77610   27.401
 5079.00    0.79539   0.77529   27.606
 5080.00    0.78055   0.77519   28.027
 5081.00    0.76364   0.77497   28.115
 5082.00    0.75820   0.77577   27.968
 5083.00    0.76738   0.77731   27.906
 5084.00    0.77588   0.77937   27.940
 5085.00    0.77146   0.78139   27.934
 5086.00    0.76447   0.78355   27.801
 5087.00    0.76735   0.78583   27.601
 5088.00    0.77546   0.78766   27.563
 5089.00    0.78212   0.78912   27.745
 5090.00    0.79182   0.79005   27.797
 5091.00    0.80599   0.79071   27.490
 5092.00    0.81205   0.79063   27.159
 5093.00    0.80343   0.79002   27.144
 5094.00    0.79396   0.78902   27.396
 5095.00    0.79413   0.78769   27.672
 5096.00    0.79404   0.78604   27.730
 5097.00    0.78481   0.78422   27.591
 5098.00    0.77385   0.78247   27.648
 5099.00    0.76928   0.78073   28.055
 5100.00    0.76872   0.77941   28.365
 5101.00    0.76645   0.77831   28.260
 5102.00    0.75954   0.77782   28.068
 5103.00    0.75182   0.77772   28.043
 5104.00    0.75390   0.77767   27.971
 5105.00    0.76680   0.77769   27.724
 5106.00    0.77503   0.77793   27.560
 5107.00    0.77046   0.77840   27.690
 5108.00    0.76406   0.77916   28.046
 5109.00    0.76501   0.78000   28.404
 5110.00    0.76959   0.78099   28.496
 5111.00    0.77311   0.78234   28.302
 5112.00    0.77622   0.78337   28.135
 5113.00    0.78019   0.78442   28.222
 5114.00    0.78432   0.78536   28.521
 5115.00    0.78785   0.78556   28.842
 5116.00    0.79093   0.78540   28.963
 5117.00    0.79387   0.78457   28.906
 5118.00    0.79639   0.78321   28.980
 5119.00    0.79614   0.78138   29.264
 5120.00    0.78925   0.77907   29.470
 5121.00    0.77695   0.77629   29.538
 5122.00    0.76663   0.77349   29.776
 5123.00    0.76324   0.77055   30.117
 5124.00    0.76580   0.76803   29.966
 5125.00    0.77003   0.76566   29.260
 5126.00    0.77077   0.76391   28.647
 5127.00    0.76700   0.76271   28.447
 5128.00    0.76272   0.76189   28.469
 5129.00    0.76235   0.76150   28.490
 5130.00    0.76801   0.76121   28.418
 5131.00    0.77684   0.76135   28.256
 5132.00    0.78199   0.76143   28.086
 5133.00    0.77992   0.76163   28.072
 5134.00    0.77229   0.76150   28.395
 5135.00    0.76299   0.76132   29.001
 5136.00    0.75601   0.76087   29.558
 5137.00    0.75208   0.76025   29.737
 5138.00    0.74897   0.75953   29.432
 5139.00    0.74602   0.75818   28.971
 5140.00    0.74461   0.75743   28.850
 5141.00    0.74513   0.75641   28.969
 5142.00    0.74640   0.75558   28.777
 5143.00    0.74722   0.75525   28.320
 5144.00    0.74705   0.75440   28.181
 5145.00    0.74687   0.75400   28.520
 5146.00    0.74830   0.75402   28.998
 5147.00    0.75071   0.75418   29.157
 5148.00    0.75179   0.75417   28.713
 5149.00    0.75108   0.75476   27.935
 5150.00    0.75035   0.75524   27.333
 5151.00    0.75245   0.75618   26.926
 5152.00    0.75924   0.75701   26.460
 5153.00    0.76781   0.75759   26.134
 5154.00    0.77311   0.75829   26.348
 5155.00    0.77609   0.75863   26.905
 5156.00    0.78156   0.75852   27.204
 5157.00    0.78954   0.75777   27.237
 5158.00    0.79524   0.75633   27.481
 5159.00    0.79342   0.75379   28.038
 5160.00    0.78250   0.75057   28.632
 5161.00    0.77067   0.74634   29.012
 5162.00    0.76779   0.74129   29.120
 5163.00    0.76768   0.73558   29.181
 5164.00    0.75654   0.72957   29.450
 5165.00    0.73489   0.72393   29.741
 5166.00    0.71369   0.71895   29.694
 5167.00    0.69953   0.71418   29.485
 5168.00    0.69247   0.71074   29.519
 5169.00    0.68729   0.70843   29.705
 5170.00    0.67969   0.70783   29.744
 5171.00    0.67567   0.70872   29.813
 5172.00    0.68447   0.71058   30.165
 5173.00    0.70492   0.71298   30.308
 5174.00    0.72756   0.71513   29.708
 5175.00    0.74174   0.71813   29.048
 5176.00    0.74219   0.72165   29.162
 5177.00    0.73649   0.72456   29.601
 5178.00    0.73451   0.72660   29.525
 5179.00    0.73259   0.72766   29.317
 5180.00    0.72348   0.72859   29.718
 5181.00    0.71240   0.72877   30.389
 5182.00    0.70756   0.72862   30.589
 5183.00    0.70550   0.72814   30.483
 5184.00    0.70212   0.72782   30.579
 5185.00    0.70788   0.72785   30.752
 5186.00    0.73031   0.72811   30.655
 5187.00    0.75225   0.72985   30.368
 5188.00    0.75427   0.73116   30.174
 5189.00    0.74276   0.73255   30.208
 5190.00    0.73425   0.73393    0.000
 5191.00    0.73440   0.73510    0.000
 5192.00    0.74098   0.73680    0.000
 5193.00    0.74973   0.73780    0.000
 5194.00    0.75840   0.73893    0.000
 5195.00    0.76981   0.73996    0.000
 5196.00    0.78603   0.74128    0.000
 5197.00    0.80270   0.74173    0.000
 5198.00    0.81340   0.74207    0.000
 5199.00    0.81450   0.74222    0.000
 5200.00    0.80665   0.74186    0.000
 5201.00    0.79511   0.74155    0.000
 5202.00    0.78404   0.74065    0.000
 5203.00    0.77178   0.74002    0.000
 5204.00    0.75529   0.73904    0.000
 5205.00    0.73463   0.73863    0.000
 5206.00    0.71579   0.73810    0.000
 5207.00    0.71104   0.73821    0.000
 5208.00    0.72380   0.73867    0.000
 5209.00    0.73934   0.74013    0.000
 5210.00    0.74565   0.74178    0.000
 5211.00    0.74785   0.74366   29.181
 5212.00    0.75320   0.74627   29.195
 5213.00    0.76007   0.74841   30.050
 5214.00    0.76386   0.75072   31.157
 5215.00    0.76205   0.75234   30.487
 5216.00    0.75672   0.75361   29.057
 5217.00    0.75480   0.75410   31.505
 5218.00    0.75903   0.75417   36.387
 5219.00    0.76355   0.75412   27.550
 5220.00    0.76264   0.75333   16.597
 5221.00    0.75607   0.75252   12.741
 5222.00    0.74711   0.75095   12.688
 5223.00    0.74027   0.74917   13.705
 5224.00    0.73639   0.74723   13.886
 5225.00    0.73145   0.74524   13.570
 5226.00    0.72543   0.74349   13.577
 5227.00    0.72508   0.74218   13.914
 5228.00    0.73192   0.74176   14.023
 5229.00    0.73823   0.74199   13.272
 5230.00    0.73956   0.74325   12.674
 5231.00    0.73938   0.74514   14.562
 5232.00    0.74022   0.74681   21.925
 5233.00    0.74032   0.74886   33.770
 5234.00    0.73959   0.75118   34.031
 5235.00    0.74115   0.75329   30.037
 5236.00    0.74557   0.75603   30.283
 5237.00    0.74970   0.75853   31.440
 5238.00    0.75292   0.76095   30.903
 5239.00    0.75810   0.76299   30.522
 5240.00    0.76397   0.76429   31.230
 5241.00    0.76438   0.76527   31.637
 5242.00    0.75803   0.76555   31.137
 5243.00    0.75016   0.76550   30.792
 5244.00    0.74398   0.76499   30.982
 5245.00    0.73906   0.76421   31.043
 5246.00    0.73727   0.76321   30.838
 5247.00    0.74267   0.76204   30.943
 5248.00    0.75316   0.76058   31.229
 5249.00    0.76119   0.75928   30.880
 5250.00    0.76538   0.75816   30.248
 5251.00    0.77099   0.75741   30.475
 5252.00    0.77837   0.75634   30.812
 5253.00    0.78157   0.75531   29.476
 5254.00    0.77596   0.75420   28.841
 5255.00    0.76178   0.75243   32.786
 5256.00    0.74708   0.75038   34.692
 5257.00    0.74301   0.74755   23.125
 5258.00    0.74821   0.74451   14.835
 5259.00    0.75127   0.74091   12.528
 5260.00    0.74945   0.73668   12.980
 5261.00    0.74844   0.73193   13.680
 5262.00    0.74822   0.72659   13.519
 5263.00    0.74341   0.72148   13.282
 5264.00    0.73371   0.71692   13.508
 5265.00    0.72355   0.71314   14.062
 5266.00    0.71481   0.71000   14.231
 5267.00    0.70683   0.70823   13.564
 5268.00    0.70046   0.70739   13.639
 5269.00    0.69805   0.70761   17.130
 5270.00    0.70106   0.70917   27.042
 5271.00    0.70878   0.71116   36.405
 5272.00    0.71667   0.71410   32.798
 5273.00    0.71952   0.71799   29.777
 5274.00    0.71844   0.72232   30.529
 5275.00    0.71913   0.72620   31.442
 5276.00    0.72577   0.73029   31.080
 5277.00    0.73847   0.73448   30.622
 5278.00    0.75110   0.73861   30.621
 5279.00    0.75663   0.74297   30.845
 5280.00    0.75720   0.74676   30.999
 5281.00    0.75934   0.74996   30.888
 5282.00    0.76279   0.75307   30.514
 5283.00    0.76419   0.75600   30.094
 5284.00    0.76633   0.75872   30.025
 5285.00    0.77307   0.76142   30.527
 5286.00    0.77921   0.76372   31.073
 5287.00    0.77766   0.76603   30.977
 5288.00    0.77242   0.76768   30.638
 5289.00    0.77168   0.76845   30.752
 5290.00    0.77494   0.76840   30.989
 5291.00    0.77697   0.76784   30.711
 5292.00    0.77613   0.76721   30.264
 5293.00    0.77331   0.76597   30.239
 5294.00    0.76882   0.76450   30.362
 5295.00    0.76220   0.76279   30.110
 5296.00    0.75254   0.76132   29.659
 5297.00    0.74084   0.76012   29.358
 5298.00    0.73262   0.75905   29.021
 5299.00    0.73325   0.75858   28.361
 5300.00    0.74218   0.75865   27.531
 5301.00    0.75485   0.75952   26.788
 5302.00    0.76613   0.76088   26.145
 5303.00    0.77311   0.76222   25.587
 5304.00    0.77755   0.76383   25.270
 5305.00    0.78129   0.76549   25.289
 5306.00    0.78147   0.76703   25.448
 5307.00    0.77654   0.76820   25.507
 5308.00    0.77226   0.76904   25.454
 5309.00    0.77369   0.76935   25.440
 5310.00    0.77725   0.76934   25.652
 5311.00    0.77746   0.76911   26.185
 5312.00    0.77401   0.76835   26.907
 5313.00    0.77077   0.76700   27.545
 5314.00    0.77331   0.76536   27.827
 5315.00    0.78112   0.76332   27.736
 5316.00    0.78256   0.76085   27.659
 5317.00    0.77147   0.75809   27.877
 5318.00    0.75975   0.75535   28.205
 5319.00    0.75876   0.75249   28.406
 5320.00    0.76456   0.74947   28.557
 5321.00    0.76808   0.74590   28.780
 5322.00    0.76428   0.74266   29.002
 5323.00    0.75276   0.73999   29.131
 5324.00    0.73764   0.73722   29.196
 5325.00    0.72522   0.73497   29.269
 5326.00    0.72141   0.73287   29.385
 5327.00    0.72536   0.73186   29.451
 5328.00    0.72721   0.73113   29.243
 5329.00    0.72345   0.73110   28.793
 5330.00    0.72460   0.73149   28.520
 5331.00    0.73671   0.73284   28.667
 5332.00    0.75142   0.73483   29.036
 5333.00    0.76080   0.73614   29.355
 5334.00    0.76585   0.73775   29.507
 5335.00    0.76867   0.73936   29.503
 5336.00    0.76796   0.74083   29.441
 5337.00    0.76200   0.74210   29.476
 5338.00    0.75090   0.74298   29.759
 5339.00    0.73912   0.74388   30.215
 5340.00    0.73489   0.74460   30.476
 5341.00    0.74006   0.74522   30.391
 5342.00    0.74687   0.74582   30.251
 5343.00    0.74889   0.74672   30.315
 5344.00    0.74613   0.74837   30.596
 5345.00    0.74210   0.74964   30.940
 5346.00    0.74101   0.75100   31.127
 5347.00    0.74223   0.75273   31.175
 5348.00    0.74006   0.75454   31.367
 5349.00    0.73448   0.75660   31.666
 5350.00    0.73318   0.75883   31.620
 5351.00    0.73954   0.76113   31.198
 5352.00    0.74914   0.76339   30.937
 5353.00    0.75729   0.76539   31.027
 5354.00    0.76247   0.76693   31.153
 5355.00    0.76681   0.76779   31.150
 5356.00    0.77438   0.76832   31.165
 5357.00    0.78452   0.76830   31.249
 5358.00    0.79151   0.76739   31.268
 5359.00    0.79243   0.76615   31.180
 5360.00    0.78855   0.76423   31.090
 5361.00    0.77990   0.76192   31.074
 5362.00    0.76523   0.75896   31.138
 5363.00    0.74837   0.75577   31.330
 5364.00    0.73646   0.75260   31.709
 5365.00    0.72763   0.74961   32.146
 5366.00    0.71316   0.74751   32.347
 5367.00    0.69626   0.74536   32.179
 5368.00    0.69078   0.74421   31.763
 5369.00    0.70015   0.74325   31.329
 5370.00    0.71571   0.74267   31.095
 5371.00    0.73016   0.74280   31.104
 5372.00    0.74131   0.74329   31.233
 5373.00    0.75138   0.74460   31.272
 5374.00    0.76342   0.74604   31.060
 5375.00    0.77270   0.74795   30.766
 5376.00    0.77061   0.74926   30.721
 5377.00    0.75975   0.75045   30.912
 5378.00    0.75064   0.75147   31.092
 5379.00    0.74487   0.75200   31.321
 5380.00    0.73771   0.75239   31.830
 5381.00    0.73340   0.75251   32.342
 5382.00    0.74018   0.75230   32.286
 5383.00    0.75158   0.75149   31.823
 5384.00    0.75320   0.75064   31.592
 5385.00    0.74552   0.74946   31.757
 5386.00    0.73941   0.74797   32.064
 5387.00    0.73702   0.74649   32.270
 5388.00    0.73368   0.74469   32.286
 5389.00    0.72931   0.74241   32.283
 5390.00    0.72717   0.73993   32.484
 5391.00    0.72735   0.73763   32.745
 5392.00    0.72770   0.73523   32.767
 5393.00    0.72770   0.73300   32.659
 5394.00    0.72775   0.73092   32.722
 5395.00    0.72694   0.72889   32.912
 5396.00    0.72427   0.72659   32.972
 5397.00    0.72135   0.72432   32.810
 5398.00    0.72029   0.72223   32.557
 5399.00    0.71979   0.72017   32.506
 5400.00    0.71748   0.71867   32.839
 5401.00    0.71430   0.71740   33.232
 5402.00    0.71267   0.71613   33.240
 5403.00    0.71294   0.71465   33.030
 5404.00    0.71423   0.71364   32.981
 5405.00    0.71642   0.71277   32.964
 5406.00    0.71910   0.71238   -2.000
 5407.00    0.71979   0.71287   -2.000
 5408.00    0.71532   0.71391   -2.000
 5409.00    0.70417   0.71538   -2.000
 5410.00    0.69063   0.71687   -2.000
 5411.00    0.68862   0.71888   -2.000
 5412.00    0.70686   0.72104   -2.000
 5413.00    0.73163   0.72345   -2.000
 5414.00    0.74464   0.72603   -2.000
 5415.00    0.74544   0.72840   -2.000
 5416.00    0.74258   0.73053   -2.000
 5417.00    0.74073   0.73218   -2.000
 5418.00    0.73955   0.73357   -2.000
 5419.00    0.73471   0.73457   -2.000
 5420.00    0.72630   0.73516   -2.000
 5421.00    0.72586   0.73550   31.050
 5422.00    0.73877   0.73518   31.047
 5423.00    0.74828   0.73463   30.957
 5424.00    0.73999   0.73374   31.298
 5425.00    0.72474   0.73287   31.838
 5426.00    0.71772   0.73218   32.165
 5427.00    0.71833   0.73123   32.312
 5428.00    0.71981   0.73067   32.446
 5429.00    0.71923   0.72966   32.520
 5430.00    0.71674   0.72914   32.450
 5431.00    0.71408   0.72923   32.293
 5432.00    0.71366   0.72937   32.147
 5433.00    0.71746   0.73057   32.057
 5434.00    0.72450   0.73135   32.044
 5435.00    0.72981   0.73252   32.120
 5436.00    0.73232   0.73384   32.241
 5437.00    0.73919   0.73514   32.298
 5438.00    0.75281   0.73680   32.318
 5439.00    0.76316   0.73769   32.553
 5440.00    0.76269   0.73866   33.055
 5441.00    0.75574   0.73901   33.421
 5442.00    0.74827   0.73904   33.398
 5443.00    0.74112   0.73913   33.288
 5444.00    0.73339   0.73873   33.431
 5445.00    0.72527   0.73819   33.867
 5446.00    0.71965   0.73719   34.324
 5447.00    0.72170   0.73609   34.322
 5448.00    0.73072   0.73522   33.927
 5449.00    0.73729   0.73446   33.938
 5450.00    0.73556   0.73406   34.538
 5451.00    0.72886   0.73375   34.797
 5452.00    0.72114   0.73349   34.311
 5453.00    0.71295   0.73312   33.927
 5454.00    0.70593   0.73272   34.129
 5455.00    0.70434   0.73214   34.464
 5456.00    0.71014   0.73186   34.496
 5457.00    0.72090   0.73188   34.273
 5458.00    0.73215   0.73188   33.966
 5459.00    0.73909   0.73227   33.689
 5460.00    0.73876   0.73233   33.597
 5461.00    0.73135   0.73208   33.853
 5462.00    0.72174   0.73160   34.253
 5463.00    0.71781   0.73110   34.225
 5464.00    0.72097   0.73083   33.774
 5465.00    0.72454   0.73037   33.592
 5466.00    0.72429   0.72978   33.909
 5467.00    0.72192   0.72923   34.252
 5468.00    0.72083   0.72802   34.190
 5469.00    0.72340   0.72645   33.706
 5470.00    0.72748   0.72506   33.213
 5471.00    0.72740   0.72335   33.245
 5472.00    0.72243   0.72188   33.656
 5473.00    0.71745   0.72051   33.677
 5474.00    0.71430   0.71931   33.277
 5475.00    0.71090   0.71822   33.219
 5476.00    0.70862   0.71674   33.650
 5477.00    0.71185   0.71633   33.981
 5478.00    0.71903   0.71633   33.971
 5479.00    0.72334   0.71672   33.922
 5480.00    0.72381   0.71764   33.996
 5481.00    0.72527   0.71834   34.103
 5482.00    0.72794   0.71926   34.218
 5483.00    0.72776   0.72006   34.395
 5484.00    0.72588   0.72146   34.538
 5485.00    0.72784   0.72295   34.466
 5486.00    0.73384   0.72411   34.300
 5487.00    0.73885   0.72505   34.337
 5488.00    0.73993   0.72553   34.484
 5489.00    0.73747   0.72601   34.400
 5490.00    0.73336   0.72634   34.230
 5491.00    0.73001   0.72681   34.388
 5492.00    0.72906   0.72694   34.633
 5493.00    0.73065   0.72670   34.322
 5494.00    0.73261   0.72653   33.585
 5495.00    0.73197   0.72599   33.111
 5496.00    0.72893   0.72534   33.237
 5497.00    0.72623   0.72455   33.863
 5498.00    0.72612   0.72391   34.469
 5499.00    0.72933   0.72322   34.483
 5500.00    0.73455   0.72222   34.224
 5501.00    0.73925   0.72116   34.413
 5502.00    0.74146   0.72009   34.893
 5503.00    0.74048   0.71930   35.016
 5504.00    0.73734   0.71836   34.902
 5505.00    0.73337   0.71774   35.087
 5506.00    0.72763   0.71719   35.427
 5507.00    0.71893   0.71657   35.395
 5508.00    0.71025   0.71640   35.009
 5509.00    0.70670   0.71630   34.689
 5510.00    0.71090   0.71688   34.717
 5511.00    0.72077   0.71743   34.768
 5512.00    0.72769   0.71790   33.444
 5513.00    0.72529   0.71883   31.051
 5514.00    0.72271   0.71963   31.810
 5515.00    0.73190   0.72072   37.974
 5516.00    0.74670   0.72168   34.521
 5517.00    0.75242   0.72251   -2.000
 5518.00    0.74459   0.72340   -2.000
 5519.00    0.74294   0.72369   -2.000
 5520.00    0.80211   0.72375   -2.000
 5521.00    0.93611   0.72349   -2.000
 5522.00    1.02666   0.72291   -2.000
 5523.00    0.95458   0.72210   -2.000
 5524.00    0.77315   0.72145   -2.000
 5525.00    0.61360   0.72084   -2.000
 5526.00    0.54531   0.71997   -2.000
 5527.00    0.57907   0.71900   -2.000
 5528.00    0.69025   0.71806   -2.000
 5529.00    0.82576   0.71770   -2.000
 5530.00    0.91282   0.71750   -2.000
 5531.00    0.90635   0.71783   -2.000
 5532.00    0.83551   0.71840   -2.000
 5533.00    0.76376   0.71876   -2.000
 5534.00    0.73978   0.71930   -2.000
 5535.00    0.76772   0.71984   -2.000
 5536.00    0.78959   0.72090   -2.000
 5537.00    0.76223   0.72193   -2.000
 5538.00    0.72510   0.72271   -2.000
 5539.00    0.72405   0.72369   -2.000
 5540.00    0.74073   0.72452   34.881
 5541.00    0.74431   0.72522   40.021
 5542.00    0.73971   0.72591   33.908
 5543.00    0.74036   0.72661   32.715
 5544.00    0.74324   0.72730   34.719
 5545.00    0.74218   0.72772   35.327
 5546.00    0.73949   0.72808   34.550
 5547.00    0.73873   0.72854   34.199
 5548.00    0.73882   0.72876   34.435
 5549.00    0.73760   0.72879   34.759
 5550.00    0.73474   0.72873   34.810
 5551.00    0.73081   0.72863   34.530
 5552.00    0.72650   0.72827   34.200
 5553.00    0.72289   0.72760   34.026
 5554.00    0.72158   0.72694   33.909
 5555.00    0.72323   0.72608   33.698
 5556.00    0.72676   0.72522   33.360
 5557.00    0.73062   0.72402   33.064
 5558.00    0.73373   0.72278   33.131
 5559.00    0.73663   0.72178   33.553
 5560.00    0.74137   0.72029   33.804
 5561.00    0.74671   0.71904   33.637
 5562.00    0.74680   0.71776   33.499
 5563.00    0.73947   0.71660   33.694
 5564.00    0.72972   0.71556   34.011
 5565.00    0.72188   0.71438   34.194
 5566.00    0.71574   0.71391   34.224
 5567.00    0.71003   0.71309   34.251
 5568.00    0.70443   0.71240   34.457
 5569.00    0.70049   0.71234   34.650
 5570.00    0.70113   0.71217   34.289
 5571.00    0.70689   0.71232   33.712
 5572.00    0.71487   0.71230   34.047
 5573.00    0.72253   0.71240   34.635
 5574.00    0.72912   0.71264   33.138
 5575.00    0.73413   0.71265   31.869
 5576.00    0.73671   0.71251   36.380
 5577.00    0.73664   0.71213   41.622
 5578.00    0.73459   0.71172   27.652
 5579.00    0.73155   0.71077   16.282
 5580.00    0.72830   0.70957   12.959
 5581.00    0.72450   0.70797   13.235
 5582.00    0.71910   0.70599   14.198
 5583.00    0.71362   0.70406   14.214
 5584.00    0.71158   0.70203   13.964
 5585.00    0.71248   0.70039   14.001
 5586.00    0.71164   0.69844   14.033
 5587.00    0.70765   0.69657   14.047
 5588.00    0.70345   0.69502   14.377
 5589.00    0.70145   0.69362   14.560
 5590.00    0.70160   0.69325   13.765
 5591.00    0.70096   0.69344   13.436
 5592.00    0.69610   0.69354   16.572
 5593.00    0.69027   0.69344   27.741
 5594.00    0.69118   0.69387   43.197
 5595.00    0.69767   0.69480   38.706
 5596.00    0.70120   0.69605   33.309
 5597.00    0.70069   0.69724   34.117
 5598.00    0.70247   0.69840   35.820
 5599.00    0.70822   0.70020   35.651
 5600.00    0.71442   0.70165   35.474
 5601.00    0.71934   0.70335   35.877
 5602.00    0.72354   0.70510   35.660
 5603.00    0.72633   0.70676   34.818
 5604.00    0.72628   0.70865   34.401
 5605.00    0.72470   0.70987   34.549
 5606.00    0.72444   0.71156   34.680
 5607.00    0.72547   0.71293   34.690
 5608.00    0.72535   0.71351   34.872
 5609.00    0.72264   0.71355   35.097
 5610.00    0.71728   0.71267   34.978
 5611.00    0.70988   0.71250   34.658
 5612.00    0.70200   0.71235   34.579
 5613.00    0.69700   0.71143   34.749
 5614.00    0.69730   0.71004   34.856
 5615.00    0.69903   0.70820   34.779
 5616.00    0.69612   0.70707   34.587
 5617.00    0.68976   0.70630   34.342
 5618.00    0.68602   0.70551   34.113
 5619.00    0.68817   0.70483   34.062
 5620.00    0.69560   0.70423   34.266
 5621.00    0.70434   0.70413   34.406
 5622.00    0.70973   0.70409   34.165
 5623.00    0.71057   0.70431   33.981
 5624.00    0.70885   0.70507   34.377
 5625.00    0.70803   0.70555   34.795
 5626.00    0.71078   0.70595   34.385
 5627.00    0.71601   0.70656   33.642
 5628.00    0.72058   0.70714   33.456
 5629.00    0.72259   0.70785   33.653
 5630.00    0.72211   0.70805   33.517
 5631.00    0.72149   0.70792   32.777
 5632.00    0.72314   0.70773   31.656
 5633.00    0.72663   0.70754   30.607
 5634.00    0.72934   0.70743   29.948
 5635.00    0.72796   0.70679   29.611
 5636.00    0.72169   0.70596   29.342
 5637.00    0.71550   0.70540   28.928
 5638.00    0.71431   0.70490   28.385
 5639.00    0.71582   0.70446   28.092
 5640.00    0.71574   0.70411   28.348
 5641.00    0.71459   0.70376   28.944
 5642.00    0.71482   0.70378   29.537
 5643.00    0.71674   0.70373   30.160
 5644.00    0.71887   0.70352   30.920
 5645.00    0.71887   0.70351   31.546
 5646.00    0.71535   0.70356   31.793
 5647.00    0.70957   0.70354   31.961
 5648.00    0.70433   0.70295   32.362
 5649.00    0.70252   0.70212   32.738
 5650.00    0.70430   0.70126   32.833
 5651.00    0.70525   0.70053   32.984
 5652.00    0.70280   0.69929   33.474
 5653.00    0.70139   0.69732   33.917
 5654.00    0.70375   0.69591   33.983
 5655.00    0.70383   0.69488   34.093
 5656.00    0.69774   0.69372   34.619
 5657.00    0.69213   0.69215   35.199
 5658.00    0.69266   0.69084   35.388
 5659.00    0.69508   0.69060   35.286
 5660.00    0.69446   0.69055   35.175
 5661.00    0.69230   0.69065   35.174
 5662.00    0.69221   0.69090   35.323
 5663.00    0.69616   0.69161   35.659
 5664.00    0.70370   0.69276   36.059
 5665.00    0.71195   0.69380   36.187
 5666.00    0.71781   0.69540   36.009
 5667.00    0.71958   0.69718   36.032
 5668.00    0.71730   0.69878   36.454
 5669.00    0.71257   0.70004   36.711
 5670.00    0.70653   0.70114   36.483
 5671.00    0.69893   0.70266   36.266
 5672.00    0.69099   0.70385   36.419
 5673.00    0.68648   0.70453   36.671
 5674.00    0.68775   0.70479   36.673
 5675.00    0.69358   0.70485   36.368
 5676.00    0.70108   0.70488   36.000
 5677.00    0.70718   0.70416   35.979
 5678.00    0.71001   0.70330   36.322
 5679.00    0.70944   0.70257   36.488
 5680.00    0.70591   0.70171   36.163
 5681.00    0.70008   0.70075   35.625
 5682.00    0.69381   0.69938   35.243
 5683.00    0.69021   0.69836   35.204
 5684.00    0.69121   0.69777   35.447
 5685.00    0.69630   0.69736   35.674
 5686.00    0.70242   0.69712   35.642
 5687.00    0.70501   0.69704   35.339
 5688.00    0.70274   0.69697   35.050
 5689.00    0.69865   0.69704   35.192
 5690.00    0.69615   0.69726   35.623
 5691.00    0.69715   0.69759   35.605
 5692.00    0.70195   0.69797   35.064
 5693.00    0.70900   0.69775   34.762
 5694.00    0.71430   0.69755   34.971
 5695.00    0.71272   0.69703   35.258
 5696.00    0.70344   0.69615   35.397
 5697.00    0.69099   0.69532   35.614
 5698.00    0.68099   0.69406   36.078
 5699.00    0.67759   0.69282   36.700
 5700.00    0.67999   0.69126   37.081
 5701.00    0.68319   0.68932   36.756
 5702.00    0.68423   0.68768   36.051
 5703.00    0.68361   0.68618   35.823
 5704.00    0.68279   0.68470   36.119
 5705.00    0.68295   0.68371   36.248
 5706.00    0.68341   0.68264   36.119
 5707.00    0.68253   0.68194   36.282
 5708.00    0.68139   0.68201   36.716
 5709.00    0.68284   0.68213   36.804
 5710.00    0.68595   0.68311   36.374
 5711.00    0.68733   0.68426   35.781
 5712.00    0.68904   0.68559   35.180
 5713.00    0.69676   0.68762   34.404
 5714.00    0.70983   0.68960   33.142
 5715.00    0.72133   0.69199   31.338
 5716.00    0.72510   0.69428   29.723
 5717.00    0.71926   0.69631   29.068
 5718.00    0.70991   0.69851   29.130
 5719.00    0.70587   0.70044   29.175
 5720.00    0.70495   0.70222   29.348
 5721.00    0.69881   0.70351   30.336
 5722.00    0.69054   0.70437   31.867
 5723.00    0.69003   0.70527   32.826
 5724.00    0.69636   0.70595   33.093
 5725.00    0.70137   0.70644   33.490
 5726.00    0.70446   0.70633   34.092
 5727.00    0.70975   0.70610   34.356
 5728.00    0.71483   0.70610   34.261
 5729.00    0.71395   0.70599   34.200
 5730.00    0.70795   0.70602   34.265
 5731.00    0.70187   0.70561   34.290
 5732.00    0.69726   0.70529   34.170
 5733.00    0.69326   0.70500   33.872
 5734.00    0.69070   0.70479   33.360
 5735.00    0.69044   0.70490   32.620
 5736.00    0.68952   0.70465   31.731
 5737.00    0.68451   0.70435   30.817
 5738.00    0.67770   0.70370   29.988
 5739.00    0.67442   0.70342   29.395
 5740.00    0.67745   0.70334    0.000
 5741.00    0.68636   0.70298    0.000
 5742.00    0.69802   0.70235    0.000
 5743.00    0.70886   0.70119    0.000
 5744.00    0.71800   0.70061    0.000
 5745.00    0.72513   0.70010    0.000
 5746.00    0.72737   0.69959    0.000
 5747.00    0.72249   0.69869    0.000
 5748.00    0.71356   0.69737    0.000
 5749.00    0.70601   0.69652    0.000
 5750.00    0.70334   0.69584    0.000
 5751.00    0.70561   0.69550    0.000
 5752.00    0.70881   0.69485    0.000
 5753.00    0.70959   0.69410    0.000
 5754.00    0.71048   0.69361    0.000
 5755.00    0.71473   0.69330    0.000
 5756.00    0.72017   0.69344    0.000
 5757.00    0.72292   0.69337    0.000
 5758.00    0.72203   0.69341    0.000
 5759.00    0.71869   0.69367    0.000
 5760.00    0.71472   0.69390    0.000
 5761.00    0.71130   0.69443    0.000
 5762.00    0.70786   0.69476    0.000
 5763.00    0.70356   0.69516    0.000
 5764.00    0.69875   0.69573    0.000
 5765.00    0.69471   0.69607    0.000
 5766.00    0.69310   0.69651    0.000
 5767.00    0.69412   0.69663    0.000
 5768.00    0.69540   0.69665    0.000
 5769.00    0.69572   0.69650    0.000
 5770.00    0.69773   0.69598    0.000
 5771.00    0.70323   0.69546    0.000
 5772.00    0.70949   0.69455    0.000
 5773.00    0.71312   0.69360    0.000
 5774.00    0.71328   0.69229    0.000
 5775.00    0.71180   0.69057    0.000
 5776.00    0.71243   0.68895    0.000
 5777.00    0.71573   0.68730    0.000
 5778.00    0.71639   0.68584    0.000
 5779.00    0.71109   0.68437    0.000
 5780.00    0.70308   0.68261    0.000
 5781.00    0.69597   0.68122    0.000
 5782.00    0.68969   0.68033    0.000
 5783.00    0.68389   0.67973    0.000
 5784.00    0.67985   0.67967    0.000
 5785.00    0.67862   0.67942    0.000
 5786.00    0.67995   0.67950    0.000
 5787.00    0.68301   0.68017    0.000
 5788.00    0.68683   0.68084    0.000
 5789.00    0.68961   0.68217    0.000
 5790.00    0.68892   0.68323    0.000
 5791.00    0.68457   0.68418    0.000
 5792.00    0.67978   0.68539    0.000
 5793.00    0.67882   0.68629    0.000
 5794.00    0.68492   0.68758    0.000
 5795.00    0.69683   0.68867    0.000
 5796.00    0.70844   0.68943    0.000
 5797.00    0.71562   0.69019    0.000
 5798.00    0.71866   0.69067    0.000
 5799.00    0.71814   0.69116    0.000
 5800.00    0.71363   0.69169    0.000
 5801.00    0.70691   0.69195    0.000
 5802.00    0.70230   0.69222    0.000
 5803.00    0.70206   0.69240    0.000
 5804.00    0.70488   0.69235    0.000
 5805.00    0.70804   0.69251    0.000
 5806.00    0.70922   0.69249    0.000
 5807.00    0.70979   0.69259    0.000
 5808.00    0.71406   0.69282    0.000
 5809.00    0.72184   0.69285    0.000
 5810.00    0.72793   0.69306    0.000
 5811.00    0.73053   0.69314    0.000
 5812.00    0.73255   0.69341    0.000
 5813.00    0.73533   0.69391    0.000
 5814.00    0.73749   0.69434    0.000
 5815.00    0.73849   0.69484    0.000
 5816.00    0.73892   0.69525    0.000
 5817.00    0.73737   0.69576    0.000
 5818.00    0.73099   0.69645    0.000
 5819.00    0.72021   0.69710    0.000
 5820.00    0.70946   0.69775    0.000
 5821.00    0.70484   0.69824    0.000
 5822.00    0.71023   0.69867    0.000
 5823.00    0.71890   0.69912    0.000
 5824.00    0.71847   0.69947    0.000
 5825.00    0.71050   0.69976    0.000
 5826.00    0.70763   0.69991    0.000
 5827.00    0.71272   0.69993    0.000
 5828.00    0.71870   0.69988    0.000
 5829.00    0.72209   0.69975    0.000
 5830.00    0.72397   0.69957    0.000
 5831.00    0.72420   0.69939    0.000
 5832.00    0.72104   0.69914   -2.000
 5833.00    0.71366   0.69883   -2.000
 5834.00    0.70242   0.69849   -2.000
 5835.00    0.68817   0.69814   -2.000
 5836.00    0.67366   0.69788   -2.000
 5837.00    0.66670   0.69755   -2.000
 5838.00    0.67468   0.69708   -2.000
 5839.00    0.69260   0.69656   -2.000
 5840.00    0.70781   0.69597   -2.000
 5841.00    0.71390   0.69538   -2.000
 5842.00    0.71193   0.69454   -2.000
 5843.00    0.70726   0.69350   -2.000
 5844.00    0.70515   0.69232   -2.000
 5845.00    0.70445   0.69108   -2.000
 5846.00    0.70087   0.68979   -2.000
 5847.00    0.69466   0.68812   -2.000
 5848.00    0.68866   0.68632   -2.000
 5849.00    0.68321   0.68455   -2.000
 5850.00    0.67698   0.68297   -2.000
 5851.00    0.66992   0.68152   -2.000
 5852.00    0.66330   0.67971    0.000
 5853.00    0.65916   0.67805    0.000
 5854.00    0.65874   0.67675    0.000
 5855.00    0.66053   0.67594    0.000
 5856.00    0.66237   0.67550    0.000
 5857.00    0.66487   0.67466    0.000
 5858.00    0.66922   0.67425    0.000
 5859.00    0.67387   0.67432    0.000
 5860.00    0.67593   0.67479    0.000
 5861.00    0.67369   0.67554    0.000
 5862.00    0.66745   0.67571    0.000
 5863.00    0.66000   0.67628    0.000
 5864.00    0.65507   0.67700    0.000
 5865.00    0.65523   0.67780    0.000
 5866.00    0.66047   0.67842    0.000
 5867.00    0.66711   0.67836    0.000
 5868.00    0.67257   0.67876    0.000
 5869.00    0.68076   0.67864    0.000
 5870.00    0.70075   0.67859    0.000
 5871.00    0.74376   0.67807    0.000
 5872.00    0.81042   0.67700    0.000
 5873.00    0.87962   0.67669    0.000
 5874.00    0.92693   0.67531    0.000
 5875.00    0.94345   0.67413    0.000
 5876.00    0.92955   0.67243    0.000
 5877.00    0.88789   0.67038    0.000
 5878.00    0.82781   0.66908    0.000
 5879.00    0.76860   0.66630    0.000
 5880.00    0.72604   0.66351    0.000
 5881.00    0.70104   0.66030    0.000
 5882.00    0.68703   0.65670    0.000
 5883.00    0.67746   0.65370    0.000
 5884.00    0.66951   0.64933    0.000
 5885.00    0.66575   0.64456    0.000
 5886.00    0.66685   0.64043    0.000
 5887.00    0.66664   0.63627    0.000
 5888.00    0.66013   0.63296    0.000
 5889.00    0.64900   0.62971    0.000
 5890.00    0.63683   0.62583    0.000
 5891.00    0.62548   0.62392    0.000
 5892.00    0.61679   0.62323    0.000
 5893.00    0.61359   0.62313    0.000
 5894.00    0.61777   0.62437    0.000
 5895.00    0.62874   0.62494    0.000
 5896.00    0.64218   0.62685    0.000
 5897.00    0.65063   0.63071    0.000
 5898.00    0.65184   0.63438    0.000
 5899.00    0.65209   0.63858    0.000
 5900.00    0.65582   0.64217    0.000
 5901.00    0.66049   0.64560   30.532
 5902.00    0.66373   0.65007   30.793
 5903.00    0.66669   0.65407   31.450
 5904.00    0.66910   0.65738   32.322
 5905.00    0.66774   0.66005   33.178
 5906.00    0.66350   0.66215   33.761
 5907.00    0.66289   0.66440   33.883
 5908.00    0.66702   0.66622   33.650
 5909.00    0.66843   0.66732   33.458
 5910.00    0.66307   0.66809   33.584
 5911.00    0.65471   0.66852   34.019
 5912.00    0.64758   0.66919   34.482
 5913.00    0.64309   0.66961   34.540
 5914.00    0.64057   0.66955   34.246
 5915.00    0.63859   0.66979   34.179
 5916.00    0.63837   0.66987   34.443
 5917.00    0.64368   0.67016   34.497
 5918.00    0.65431   0.67054   34.145
 5919.00    0.66496   0.67038   33.803
 5920.00    0.67110   0.67066   33.814
 5921.00    0.67139   0.67092   34.184
 5922.00    0.66732   0.67089   34.486
 5923.00    0.66225   0.67125   34.095
 5924.00    0.65827   0.67108   33.332
 5925.00    0.65577   0.67091   33.247
 5926.00    0.65548   0.67109   34.018
 5927.00    0.65820   0.67072   34.850
 5928.00    0.66110   0.67081   35.305
 5929.00    0.65900   0.67065   35.650
 5930.00    0.65209   0.67013   35.956
 5931.00    0.64605   0.67035   35.971
 5932.00    0.64494   0.67021   35.773
 5933.00    0.64927   0.67018   35.723
 5934.00    0.65711   0.67016   35.756
 5935.00    0.66500   0.66973   35.465
 5936.00    0.66964   0.66997   34.909
 5937.00    0.66923   0.67014   34.540
 5938.00    0.66570   0.66992   34.496
 5939.00    0.66322   0.66985   34.597
 5940.00    0.66275   0.66946   34.709
 5941.00    0.66239   0.66932   34.788
 5942.00    0.66163   0.66940   34.787
 5943.00    0.66127   0.66894   34.671
 5944.00    0.66054   0.66852   34.530
 5945.00    0.65798   0.66812   34.481
 5946.00    0.65491   0.66776   34.408
 5947.00    0.65399   0.66765   34.157
 5948.00    0.65451   0.66711   34.079
 5949.00    0.65388   0.66662   34.631
 5950.00    0.65290   0.66654   35.353
 5951.00    0.65441   0.66657   35.325
 5952.00    0.65826   0.66655   34.870
 5953.00    0.66203   0.66624   34.982
 5954.00    0.66457   0.66636   35.620
 5955.00    0.66589   0.66690   36.092
 5956.00    0.66593   0.66742   36.409
 5957.00    0.66474   0.66773   37.004
 5958.00    0.66330   0.66787   37.595
 5959.00    0.66261   0.66865   37.569
 5960.00    0.66194   0.66946   37.165
 5961.00    0.66002   0.67002   36.990
 5962.00    0.65746   0.67047   36.922
 5963.00    0.65633   0.67070   36.551
 5964.00    0.65873   0.67140   36.065
 5965.00    0.66497   0.67179   35.913
 5966.00    0.67138   0.67185   36.147
 5967.00    0.67393   0.67197   36.498
 5968.00    0.67389   0.67173   36.566
 5969.00    0.67437   0.67168   36.175
 5970.00    0.67444   0.67128   35.778
 5971.00    0.67172   0.67055   35.842
 5972.00    0.66683   0.67007   36.097
 5973.00    0.66266   0.66923   36.058
 5974.00    0.66249   0.66845   35.834
 5975.00    0.66750   0.66750   35.726
 5976.00    0.67431   0.66625   35.635
 5977.00    0.67857   0.66554   35.415
 5978.00    0.67956   0.66460   35.338
 5979.00    0.67880   0.66356   35.635
 5980.00    0.67766   0.66290   35.964
 5981.00    0.67636   0.66197   35.991
 5982.00    0.67340   0.66153   36.095
 5983.00    0.66851   0.66108   36.649
 5984.00    0.66545   0.66030   37.191
 5985.00    0.66722   0.66040   37.143
 5986.00    0.67122   0.66034   36.735
 5987.00    0.67349   0.66024   36.463
 5988.00    0.67322   0.66034   36.471
 5989.00    0.67145   0.65998   36.713
 5990.00    0.66945   0.66038   37.126
 5991.00    0.66826   0.66071   37.557
 5992.00    0.66834   0.66049   37.708
 5993.00    0.66887   0.66070   37.442
 5994.00    0.66744   0.66040   37.018
 5995.00    0.66292   0.66019   36.742
 5996.00    0.65745   0.66024   36.690
 5997.00    0.65382   0.65960   36.805
 5998.00    0.65299   0.65934   36.977
 5999.00    0.65415   0.65892   37.067
 6000.00    0.65502   0.65798   36.959
 6001.00    0.65379   0.65777   36.720
 6002.00    0.65056   0.65710   36.659
 6003.00    0.64678   0.65613   36.923
 6004.00    0.64461   0.65578   37.247
 6005.00    0.64484   0.65496   37.266
 6006.00    0.64575   0.65459   36.824
 6007.00    0.64491   0.65424   36.256
 6008.00    0.64086   0.65296   36.316
 6009.00    0.63559   0.65270   37.079
 6010.00    0.63503   0.65268   37.448
 6011.00    0.64222   0.65209   36.906
 6012.00    0.65378   0.65176   36.467
 6013.00    0.66403   0.65084   36.761
 6014.00    0.66824   0.65055   37.236
 6015.00    0.66649   0.65108   37.384
 6016.00    0.66441   0.65054   37.415
 6017.00    0.66604   0.65023   37.605
 6018.00    0.67036   0.65027   37.926
 6019.00    0.67439   0.65018   38.149
 6020.00    0.67530   0.65089   37.976
 6021.00    0.67229   0.65108   37.446
 6022.00    0.66712   0.65139   36.974
 6023.00    0.66197   0.65245   36.777
 6024.00    0.65832   0.65293   36.703
 6025.00    0.65642   0.65395   36.532
 6026.00    0.65538   0.65502   36.181
 6027.00    0.65423   0.65581   35.976
 6028.00    0.65256   0.65715   36.510
 6029.00    0.65078   0.65800   37.616
 6030.00    0.64998   0.65909   38.149
 6031.00    0.65062   0.66015   37.695
 6032.00    0.65227   0.66065   37.106
 6033.00    0.65424   0.66157   36.904
 6034.00    0.65583   0.66215   36.927
 6035.00    0.65642   0.66265   37.047
 6036.00    0.65559   0.66312   37.320
 6037.00    0.65375   0.66320   37.603
 6038.00    0.65207   0.66357   37.546
 6039.00    0.65179   0.66368   37.124
 6040.00    0.65352   0.66362   36.700
 6041.00    0.65603   0.66373   36.614
 6042.00    0.65696   0.66357   37.003
 6043.00    0.65635   0.66358   37.574
 6044.00    0.65650   0.66352   37.743
 6045.00    0.65818   0.66314   37.485
 6046.00    0.66011   0.66294   37.298
 6047.00    0.66103   0.66264   37.267
 6048.00    0.66038   0.66222   37.086
 6049.00    0.65840   0.66190   36.857
 6050.00    0.65613   0.66136   36.976
 6051.00    0.65537   0.66084   37.288
 6052.00    0.65752   0.66032   37.220
 6053.00    0.66097   0.65961   36.752
 6054.00    0.66197   0.65907   36.339
 6055.00    0.65848   0.65862   36.071
 6056.00    0.65110   0.65810   35.745
 6057.00    0.64275   0.65738   35.404
 6058.00    0.63735   0.65693   35.261
 6059.00    0.63711   0.65691   35.284
 6060.00    0.64177   0.65661   35.261
 6061.00    0.64851   0.65641   35.135
 6062.00    0.65382   0.65615   35.034
 6063.00    0.65742   0.65620   35.171
 6064.00    0.66113   0.65681   35.650
 6065.00    0.66507   0.65661   36.114
 6066.00    0.66771   0.65678   36.095
 6067.00    0.66748   0.65732   35.965
 6068.00    0.66386   0.65745   36.384
 6069.00    0.65860   0.65787   36.993
 6070.00    0.65439   0.65749   36.981
 6071.00    0.65209   0.65724   36.714
 6072.00    0.65107   0.65782   37.075
 6073.00    0.65069   0.65738   37.852
 6074.00    0.65050   0.65664   38.185
 6075.00    0.65004   0.65598   37.907
 6076.00    0.64966   0.65506   37.547
 6077.00    0.65158   0.65451   37.733
 6078.00    0.65718   0.65342   38.387
 6079.00    0.66291   0.65213   37.669
 6080.00    0.66399   0.65154   35.337
 6081.00    0.66054   0.65063   36.075
 6082.00    0.65551   0.64948   42.234
 6083.00    0.65037   0.64867   38.175
 6084.00    0.64577   0.64796   23.085
 6085.00    0.64299   0.64763   15.911
 6086.00    0.64324   0.64724   14.535
 6087.00    0.64635   0.64659   15.378
 6088.00    0.65065   0.64645   15.789
 6089.00    0.65322   0.64631   15.343
 6090.00    0.65222   0.64588   15.083
 6091.00    0.64936   0.64576   15.374
 6092.00    0.64736   0.64580   15.856
 6093.00    0.64664   0.64578   15.503
 6094.00    0.64658   0.64508   14.508
 6095.00    0.64732   0.64443   15.384
 6096.00    0.64914   0.64463   21.553
 6097.00    0.65158   0.64442   36.032
 6098.00    0.65337   0.64397   41.682
 6099.00    0.65249   0.64329   34.699
 6100.00    0.64784   0.64269   32.774
 6101.00    0.64081   0.64324   34.648
 6102.00    0.63398   0.64277   35.713
 6103.00    0.62973   0.64200   35.308
 6104.00    0.62986   0.64253   34.961
 6105.00    0.63523   0.64269   35.024
 6106.00    0.64436   0.64319   35.231
 6107.00    0.65272   0.64316   35.384
 6108.00    0.65667   0.64232   35.514
 6109.00    0.65641   0.64335   35.938
 6110.00    0.65336   0.64419   36.822
 6111.00    0.64807   0.64375   37.810
 6112.00    0.64269   0.64372   38.253
 6113.00    0.64214   0.64324   37.650
 6114.00    0.64784   0.64283   36.371
 6115.00    0.65383   0.64306   35.640
 6116.00    0.65433   0.64217   35.925
 6117.00    0.64896   0.64128   36.330
 6118.00    0.63999   0.64101   36.261
 6119.00    0.63000   0.63995   36.490
 6120.00    0.62109   0.63931   37.464
 6121.00    0.61456   0.63877   38.282
 6122.00    0.61194   0.63761   38.204
 6123.00    0.61512   0.63742   37.779
 6124.00    0.62309   0.63705   37.628
 6125.00    0.63096   0.63620   37.731
 6126.00    0.63573   0.63574   37.835
 6127.00    0.63900   0.63491   37.742
 6128.00    0.64222   0.63418   37.498
 6129.00    0.64426   0.63360   37.408
 6130.00    0.64357   0.63291   37.609
 6131.00    0.63960   0.63239   37.902
 6132.00    0.63398   0.63167   38.039
 6133.00    0.63023   0.63039   37.911
 6134.00    0.62934   0.62906   37.649
 6135.00    0.62855   0.62895   37.563
 6136.00    0.62631   0.62882   37.701
 6137.00    0.62397   0.62790   37.767
 6138.00    0.62237   0.62759   37.679
 6139.00    0.62064   0.62773   37.711
 6140.00    0.61814   0.62835   37.964
 6141.00    0.61522   0.62843   38.202
 6142.00    0.61277   0.62791   38.242
 6143.00    0.61175   0.62899   38.090
 6144.00    0.61198   0.63030   37.758
 6145.00    0.61227   0.63076   37.237
 6146.00    0.61243   0.63075   36.701
 6147.00    0.61361   0.63056   36.439
 6148.00    0.61630   0.63129   36.461
 6149.00    0.61986   0.63148   36.498
 6150.00    0.62378   0.63082   36.507
 6151.00    0.62764   0.63042   36.720
 6152.00    0.62945   0.62964   37.202
 6153.00    0.62669   0.62861   37.750
 6154.00    0.62133   0.62718   38.130
 6155.00    0.61889   0.62556   38.209
 6156.00    0.62006   0.62462   38.082
 6157.00    0.62067   0.62320   37.992
 6158.00    0.61952   0.62108   38.001
 6159.00    0.61874   0.61950   38.024
 6160.00    0.61744   0.61824   38.171
 6161.00    0.61243   0.61678   38.673
 6162.00    0.60531   0.61550   39.350
 6163.00    0.60181   0.61469   39.583
 6164.00    0.60457   0.61466   38.833
 6165.00    0.61202   0.61474   37.163
 6166.00    0.62037   0.61391   35.610
 6167.00    0.62584   0.61394   35.289
 6168.00    0.62844   0.61526   36.133
 6169.00    0.63081   0.61606   37.225
 6170.00    0.63328   0.61681   38.029
 6171.00    0.63406   0.61808   38.614
 6172.00    0.63250   0.61951   39.162
 6173.00    0.62946   0.62096   39.740
 6174.00    0.62660   0.62175   40.109
 6175.00    0.62534   0.62270   39.770
 6176.00    0.62522   0.62441   38.276
 6177.00    0.62453   0.62543   35.741
 6178.00    0.62241   0.62610   33.143
 6179.00    0.61923   0.62698   31.204
 6180.00    0.61644   0.62721   29.514
 6181.00    0.61616   0.62763   28.037
 6182.00    0.62038   0.62794   28.890
 6183.00    0.62894   0.62735   33.794
 6184.00    0.63647   0.62730   34.098
 6185.00    0.63685   0.62714   23.403
 6186.00    0.63164   0.62660   16.537
 6187.00    0.62683   0.62655   14.984
 6188.00    0.62529   0.62549   15.804
 6189.00    0.62670   0.62507   16.314
 6190.00    0.62948   0.62580   15.942
 6191.00    0.63217   0.62496   15.728
 6192.00    0.63468   0.62463   15.753
 6193.00    0.63661   0.62537   15.650
 6194.00    0.63461   0.62568   15.723
 6195.00    0.62650   0.62633   16.254
 6196.00    0.61722   0.62624   16.307
 6197.00    0.61313   0.62638   15.456
 6198.00    0.61339   0.62788   16.020
 6199.00    0.61349   0.62828   21.207
 6200.00    0.61136   0.62825   32.751
 6201.00    0.60769   0.62893   36.928
 6202.00    0.60534   0.62923   30.939
 6203.00    0.60718   0.62942   28.785
 6204.00    0.61367   0.62915   30.409
 6205.00    0.62282   0.62843   32.728
 6206.00    0.63065   0.62836   34.439
 6207.00    0.63413   0.62783   35.651
 6208.00    0.63423   0.62665   36.129
 6209.00    0.63315   0.62590   35.763
 6210.00    0.63127   0.62465   35.352
 6211.00    0.62769   0.62328   35.637
 6212.00    0.62138   0.62225   36.483
 6213.00    0.61273   0.62070   37.412
 6214.00    0.60476   0.61972   38.216
 6215.00    0.60047   0.61892   38.852
 6216.00    0.60032   0.61745   39.251
 6217.00    0.60291   0.61687   39.325
 6218.00    0.60583   0.61628   39.017
 6219.00    0.60600   0.61529   38.459
 6220.00    0.60039   0.61506   38.020
 6221.00    0.58985   0.61453   37.938
 6222.00    0.58150   0.61412   38.085
 6223.00    0.58076   0.61421   38.296
 6224.00    0.58543   0.61353   38.620
 6225.00    0.59071   0.61322   39.152
 6226.00    0.59366   0.61326   39.833
 6227.00    0.59346   0.61247   40.067
 6228.00    0.59143   0.61220   38.702
 6229.00    0.59034   0.61202   35.846
 6230.00    0.59354   0.61126   33.148
 6231.00    0.60173   0.61115   31.604
 6232.00    0.61134   0.61078   31.251
 6233.00    0.61791   0.61029   31.952
 6234.00    0.61880   0.61014   33.612
 6235.00    0.61514   0.60920   35.902
 6236.00    0.61200   0.60876   37.950
 6237.00    0.61212   0.60842   39.045
 6238.00    0.61241   0.60762   39.240
 6239.00    0.60693   0.60747   -2.000
 6240.00    0.58978   0.60659   -2.000
 6241.00    0.56119   0.60594   -2.000
 6242.00    0.53041   0.60582   -2.000
 6243.00    0.51239   0.60454   -2.000
 6244.00    0.52228   0.60400   -2.000
 6245.00    0.55694   0.60380   -2.000
 6246.00    0.59118   0.60294   -2.000
 6247.00    0.60708   0.60276   -2.000
 6248.00    0.60619   0.60224   -2.000
 6249.00    0.59569   0.60154   -2.000
 6250.00    0.58172   0.60141   -2.000
 6251.00    0.57069   0.60093   30.140
 6252.00    0.56872   0.60072   30.510
 6253.00    0.57576   0.60074   31.767
 6254.00    0.58499   0.60065   33.977
 6255.00    0.59090   0.60087   36.652
 6256.00    0.59246   0.60121   39.167
 6257.00    0.59148   0.60177   40.819
 6258.00    0.59111   0.60215   41.192
 6259.00    0.59295   0.60284   40.819
 6260.00    0.59641   0.60429   40.779
 6261.00    0.60060   0.60507   40.946
 6262.00    0.60491   0.60576   40.084
 6263.00    0.60827   0.60710   38.393
 6264.00    0.60939   0.60827   37.355
 6265.00    0.60841   0.60928   37.326
 6266.00    0.60695   0.61003   37.593
 6267.00    0.60624   0.61088   37.900
 6268.00    0.60631   0.61198   38.537
 6269.00    0.60560   0.61247   38.983
 6270.00    0.60203   0.61283   38.055
 6271.00    0.59659   0.61331   36.083
 6272.00    0.59295   0.61370   34.426
 6273.00    0.59317   0.61413   33.297
 6274.00    0.59664   0.61396   32.291
 6275.00    0.60085   0.61408   32.052
 6276.00    0.60261   0.61452   33.691
 6277.00    0.60087   0.61411   36.238
 6278.00    0.59705   0.61433   36.966
 6279.00    0.59384   0.61454   38.273
 6280.00    0.59393   0.61424    0.000
 6281.00    0.59775   0.61483    0.000
 6282.00    0.60386   0.61470    0.000
 6283.00    0.61123   0.61457    0.000
 6284.00    0.61881   0.61520    0.000
 6285.00    0.62355   0.61480    0.000
 6286.00    0.62215   0.61482    0.000
 6287.00    0.61599   0.61491    0.000
 6288.00    0.60975   0.61433    0.000
 6289.00    0.60625   0.61440    0.000
 6290.00    0.60578   0.61373    0.000
 6291.00    0.60704   0.61291    0.000
 6292.00    0.60934   0.61281    0.000
 6293.00    0.61650   0.61181    0.000
 6294.00    0.63526   0.61088    0.000
 6295.00    0.67102   0.61029    0.000
 6296.00    0.72518   0.60947    0.000
 6297.00    0.79181   0.60897    0.000
 6298.00    0.85860   0.60810    0.000
 6299.00    0.90976   0.60737    0.000
 6300.00    0.92962   0.60738    0.000
 6301.00    0.90819   0.60704    0.000
 6302.00    0.84643   0.60659    0.000
 6303.00    0.76260   0.60648    0.000
 6304.00    0.68233   0.60649    0.000
 6305.00    0.62225   0.60659    0.000
 6306.00    0.58977   0.60630    0.000
 6307.00    0.58647   0.60591    0.000
 6308.00    0.60629   0.60594    0.000
 6309.00    0.63298   0.60572    0.000
 6310.00    0.64946   0.60539    0.000
 6311.00    0.65072   0.60494    0.000
 6312.00    0.64112   0.60423    0.000
 6313.00    0.62851   0.60433    0.000
 6314.00    0.61928   0.60412    0.000
 6315.00    0.61345   0.60309    0.000
 6316.00    0.60818   0.60315    0.000
 6317.00    0.60266   0.60354    0.000
 6318.00    0.59807   0.60344    0.000
 6319.00    0.59651   0.60352    0.000
 6320.00    0.59858   0.60381    0.000
 6321.00    0.60103   0.60463   40.991
 6322.00    0.60052   0.60528   40.621
 6323.00    0.59773   0.60549   40.344
 6324.00    0.59521   0.60592   40.102
 6325.00    0.59477   0.60662   39.895
 6326.00    0.59727   0.60722   39.689
 6327.00    0.60251   0.60709   39.333
 6328.00    0.60848   0.60712   38.728
 6329.00    0.61116   0.60753   37.974
 6330.00    0.60943   0.60721   37.324
 6331.00    0.60871   0.60688   37.100
 6332.00    0.61236   0.60629   37.432
 6333.00    0.61496   0.60545   38.075
 6334.00    0.61108   0.60545   38.811
 6335.00    0.60278   0.60476   39.781
 6336.00    0.59495   0.60357   40.906
 6337.00    0.59098   0.60360   41.386
 6338.00    0.59131   0.60335   40.955
 6339.00    0.59302   0.60262   40.737
 6340.00    0.59355   0.60235   41.380
 6341.00    0.59328   0.60194   41.955
 6342.00    0.59373   0.60212   41.700
 6343.00    0.59606   0.60209   41.338
 6344.00    0.60065   0.60127   41.576
 6345.00    0.60684   0.60175   42.186
 6346.00    0.61297   0.60222   42.664
 6347.00    0.61673   0.60150   42.724
 6348.00    0.61714   0.60148   42.349
 6349.00    0.61555   0.60153   41.778
 6350.00    0.61365   0.60117   41.352
 6351.00    0.61234   0.60071   41.372
 6352.00    0.61163   0.59979   41.722
 6353.00    0.61077   0.59951   41.760
 6354.00    0.60904   0.59928   41.137
 6355.00    0.60615   0.59791   40.214
 6356.00    0.60279   0.59714   39.538
 6357.00    0.60097   0.59704   39.490
 6358.00    0.60444   0.59615   39.883
 6359.00    0.61790   0.59530   39.916
 6360.00    0.64170   0.59508   39.242
 6361.00    0.67010   0.59500   38.367
 6362.00    0.69578   0.59505   -1.000
 6363.00    0.71224   0.59503   -1.000
 6364.00    0.71482   0.59529   -1.000
 6365.00    0.70172   0.59627   -1.000
 6366.00    0.67664   0.59687   38.361
 6367.00    0.64872   0.59718   39.788
 6368.00    0.62704   0.59827   41.517
 6369.00    0.61730   0.59932   42.628
 6370.00    0.61784   0.60010   42.749
 6371.00    0.62049   0.60100   42.509
 6372.00    0.61990   0.60170   42.440
 6373.00    0.61638   0.60261   42.587
 6374.00    0.61273   0.60337   42.758
 6375.00    0.61190   0.60349   42.689
 6376.00    0.61359   0.60406   42.296
 6377.00    0.61447   0.60458   41.739
 6378.00    0.61314   0.60443   41.314
 6379.00    0.61092   0.60461   41.307
 6380.00    0.60881   0.60484   41.672
 6381.00    0.60682   0.60463   42.044
 6382.00    0.60514   0.60445   42.115
 6383.00    0.60428   0.60432   41.800
 6384.00    0.60440   0.60413   41.265
 6385.00    0.60523   0.60374   40.802
 6386.00    0.60654   0.60329   40.535
 6387.00    0.60815   0.60293   40.410
 6388.00    0.60967   0.60250   40.363
 6389.00    0.61048   0.60191   40.363
 6390.00    0.60994   0.60106   40.428
 6391.00    0.60765   0.60054   40.575
 6392.00    0.60399   0.60043   40.713
 6393.00    0.59986   0.59959   40.718
 6394.00    0.59576   0.59878   40.694
 6395.00    0.59160   0.59902   40.869
 6396.00    0.58682   0.59843   41.191
 6397.00    0.58105   0.59710   41.430
 6398.00    0.57569   0.59748   41.663
 6399.00    0.57323   0.59763   42.062
 6400.00    0.57509   0.59667   42.152
 6401.00    0.58086   0.59675   41.317
 6402.00    0.58801   0.59666   40.186
 6403.00    0.59309   0.59651   39.716
 6404.00    0.59451   0.59669   39.410
 6405.00    0.59335   0.59571   38.156
 6406.00    0.59360   0.59598   36.211
 6407.00    0.59882   0.59662   34.566
 6408.00    0.60592   0.59502   33.646
 6409.00    0.60859   0.59511   33.419
 6410.00    0.60521   0.59613   33.578
 6411.00    0.59824   0.59511   33.781
 6412.00    0.59072   0.59504   34.045
 6413.00    0.58555   0.59546   34.555
 6414.00    0.58505   0.59501   35.198
 6415.00    0.58935   0.59535   35.781
 6416.00    0.59419   0.59531   36.551
 6417.00    0.59464   0.59518   37.852
 6418.00    0.59122   0.59584   39.324
 6419.00    0.58790   0.59581   40.236
 6420.00    0.58775   0.59613   40.563
 6421.00    0.59158   0.59674   40.771
 6422.00    0.59701   0.59665   41.055
 6423.00    0.60024   0.59718   41.412
 6424.00    0.59858   0.59749   41.904
 6425.00    0.59198   0.59728   42.578
 6426.00    0.58412   0.59783   43.287
 6427.00    0.57917   0.59767   43.729
 6428.00    0.57758   0.59721   43.580
 6429.00    0.57784   0.59760   42.883
 6430.00    0.57920   0.59736   42.332
 6431.00    0.58182   0.59737   42.366
 6432.00    0.58654   0.59754   42.340
 6433.00    0.59281   0.59697   41.639
 6434.00    0.59690   0.59739   40.888
 6435.00    0.59577   0.59726   40.674
 6436.00    0.59124   0.59634   40.354
 6437.00    0.58667   0.59723   39.020
 6438.00    0.58332   0.59735   36.634
 6439.00    0.58162   0.59655   33.928
 6440.00    0.58265   0.59714   31.842
 6441.00    0.58670   0.59706   30.820
 6442.00    0.59203   0.59678   30.722
 6443.00    0.59652   0.59678   31.430
 6444.00    0.59926   0.59612   33.180
 6445.00    0.60017   0.59626   35.839
 6446.00    0.59953   0.59551   37.810
 6447.00    0.59750   0.59402   37.824
 6448.00    0.59394   0.59438   37.479
 6449.00    0.58986   0.59393   38.368
 6450.00    0.58825   0.59272   39.946
 6451.00    0.59076   0.59276   41.074
 6452.00    0.59546   0.59207   41.582
 6453.00    0.59905   0.59115   41.761
 6454.00    0.59890   0.59116   41.702
 6455.00    0.59482   0.59098   41.436
 6456.00    0.58973   0.59058   41.065
 6457.00    0.58615   0.59043   40.725
 6458.00    0.58389   0.59054   40.540
 6459.00    0.58149   0.59021   40.597
 6460.00    0.57761   0.59003   40.887
 6461.00    0.57355   0.59081   40.980
 6462.00    0.57375   0.59084   40.058
 6463.00    0.57962   0.59063   38.380
 6464.00    0.58672   0.59123   37.414
 6465.00    0.59126   0.59134   37.701
 6466.00    0.59345   0.59143   38.361
 6467.00    0.59420   0.59194   38.757
 6468.00    0.59345   0.59178   39.357
 6469.00    0.59165   0.59182   40.458
 6470.00    0.59003   0.59230   41.431
 6471.00    0.58769   0.59210   41.231
 6472.00    0.58136   0.59193   39.228
 6473.00    0.57187   0.59213   36.330
 6474.00    0.56571   0.59201   34.193
 6475.00    0.56679   0.59161   33.341
 6476.00    0.57320   0.59123   33.382
 6477.00    0.58091   0.59089   34.206
 6478.00    0.58616   0.59035   36.185
 6479.00    0.58833   0.58937   38.878
 6480.00    0.58991   0.58844   40.276
 6481.00    0.59141   0.58784   39.693
 6482.00    0.59043   0.58674   38.973
 6483.00    0.58656   0.58522   38.835
 6484.00    0.58253   0.58399   38.303
 6485.00    0.58017   0.58249   37.253
 6486.00    0.57932   0.58077   36.723
 6487.00    0.57927   0.57896   37.015
 6488.00    0.57920   0.57678   37.542
 6489.00    0.57763   0.57524   38.174
 6490.00    0.57268   0.57343   39.341
 6491.00    0.56374   0.57085   40.360
 6492.00    0.55221   0.56979   39.427
 6493.00    0.54175   0.56863   36.729
 6494.00    0.53712   0.56707   34.192
 6495.00    0.54024   0.56723   32.749
 6496.00    0.54944   0.56677   32.472
 6497.00    0.56100   0.56663   33.289
 6498.00    0.57071   0.56798   35.066
 6499.00    0.57681   0.56837   37.345
 6500.00    0.57999   0.56957   39.109
 6501.00    0.58126   0.57154   39.175
 6502.00    0.58129   0.57245   37.216
 6503.00    0.58057   0.57429   34.590
 6504.00    0.57984   0.57622   32.889
 6505.00    0.58111   0.57724   32.463
 6506.00    0.58621   0.57884   32.982
 6507.00    0.59287   0.58015   34.160
 6508.00    0.59617   0.58097   35.735
 6509.00    0.59438   0.58179   37.213
 6510.00    0.58917   0.58223   37.981
 6511.00    0.58304   0.58275   37.945
 6512.00    0.57804   0.58277   37.627
 6513.00    0.57454   0.58245   37.759
 6514.00    0.57201   0.58276   38.724
 6515.00    0.57125   0.58251   39.503
 6516.00    0.57360   0.58196   38.488
 6517.00    0.57836   0.58210   36.239
 6518.00    0.58348   0.58191   34.418
 6519.00    0.58775   0.58161   33.581
 6520.00    0.59063   0.58142   33.696
 6521.00    0.59104   0.58117   34.926
 6522.00    0.58803   0.58133   37.346
 6523.00    0.58230   0.58101   39.813
 6524.00    0.57604   0.58053   40.473
 6525.00    0.57207   0.58077   39.843
 6526.00    0.57248   0.58060   39.693
 6527.00    0.57659   0.58024   39.937
 6528.00    0.58198   0.58022    0.000
 6529.00    0.58661   0.57990    0.000
 6530.00    0.58927   0.57959    0.000
 6531.00    0.58982   0.57925    0.000
 6532.00    0.58893   0.57889    0.000
 6533.00    0.58761   0.57869    0.000
 6534.00    0.58656   0.57792    0.000
 6535.00    0.58546   0.57719    0.000
 6536.00    0.58390   0.57678    0.000
 6537.00    0.58275   0.57578    0.000
 6538.00    0.58292   0.57474    0.000
 6539.00    0.58376   0.57368    0.000
 6540.00    0.58616   0.57208    0.000
 6541.00    0.59651   0.57076    0.000
 6542.00    0.62368   0.56903    0.000
 6543.00    0.67451   0.56654    0.000
 6544.00    0.74857   0.56455    0.000
 6545.00    0.83314   0.56205    0.000
 6546.00    0.90834   0.55884    0.000
 6547.00    0.95392   0.55595    0.000
 6548.00    0.95577   0.55220    0.000
 6549.00    0.91208   0.54797    0.000
 6550.00    0.83409   0.54397    0.000
 6551.00    0.74515   0.53903    0.000
 6552.00    0.66956   0.53392    0.000
 6553.00    0.62270   0.52874    0.000
 6554.00    0.62308   0.52305    0.000
 6555.00    0.70855   0.51807    0.000
 6556.00    0.97640   0.51234    0.000
 6557.00    1.60467   0.50657    0.000
 6558.00    2.72211   0.50320    0.000
 6559.00    4.28769   0.49829    0.000
 6560.00    6.04646   0.49328    0.000
 6561.00    7.52826   0.49304    0.000
 6562.00    8.28378   0.49214    0.000
 6563.00    8.08458   0.49030    0.000
 6564.00    6.98729   0.49230    0.000
 6565.00    5.34737   0.49435    0.000
 6566.00    3.62330   0.49598    0.000
 6567.00    2.20995   0.50009    0.000
 6568.00    1.30403   0.50425    0.000
 6569.00    0.83785   0.50846    0.000
 6570.00    0.64512   0.51369    0.000
 6571.00    0.58359   0.51828    0.000
 6572.00    0.56395   0.52321    0.000
 6573.00    0.55876   0.52858    0.000
 6574.00    0.56451   0.53270    0.000
 6575.00    0.57823   0.53695    0.000
 6576.00    0.60576   0.54162    0.000
 6577.00    0.66604   0.54487    0.000
 6578.00    0.78245   0.54765    0.000
 6579.00    0.97278   0.55087    0.000
 6580.00    1.22386   0.55307    0.000
 6581.00    1.48211   0.55479    0.000
 6582.00    1.67991   0.55695    0.000
 6583.00    1.75614   0.55804    0.000
 6584.00    1.68507   0.55888    0.000
 6585.00    1.48864   0.56032    0.000
 6586.00    1.22354   0.56071    0.000
 6587.00    0.96547   0.56085    0.000
 6588.00    0.76804   0.56184    0.000
 6589.00    0.64578   0.56192    0.000
 6590.00    0.58718   0.56146    0.000
 6591.00    0.56579   0.56214    0.000
 6592.00    0.56003   0.56248    0.000
 6593.00    0.56049   0.56223    0.000
 6594.00    0.56352   0.56274    0.000
 6595.00    0.56772   0.56297    0.000
 6596.00    0.57149   0.56301    0.000
 6597.00    0.57298   0.56363    0.000
 6598.00    0.57351   0.56386    0.000
 6599.00    0.57717   0.56411    0.000
 6600.00    0.58456   0.56472    0.000
 6601.00    0.59173   0.56485    0.000
 6602.00    0.59469   0.56517    0.000
 6603.00    0.59146   0.56567    0.000
 6604.00    0.58326   0.56583    0.000
 6605.00    0.57380   0.56624    0.000
 6606.00    0.56594   0.56659    0.000
 6607.00    0.56097   0.56684    0.000
 6608.00    0.56020   0.56742    0.000
 6609.00    0.56427   0.56783   41.287
 6610.00    0.56996   0.56809   40.852
 6611.00    0.57200   0.56856   40.799
 6612.00    0.57103   0.56910   41.058
 6613.00    0.57235   0.56949   41.146
 6614.00    0.57580   0.56983   41.113
 6615.00    0.57643   0.57019   41.423
 6616.00    0.57363   0.57049   41.909
 6617.00    0.57116   0.57073   41.923
 6618.00    0.57094   0.57079   41.591
 6619.00    0.57203   0.57073   41.613
 6620.00    0.57237   0.57078   42.006
 6621.00    0.57044   0.57045   42.222
 6622.00    0.56807   0.56994   42.158
 6623.00    0.56860   0.56988   42.122
 6624.00    0.57134   0.56929   42.136
 6625.00    0.57268   0.56848   41.984
 6626.00    0.57096   0.56827   41.654
 6627.00    0.56703   0.56751   41.362
 6628.00    0.56299   0.56666   41.372
 6629.00    0.56102   0.56646   41.813
 6630.00    0.56168   0.56572   42.338
 6631.00    0.56409   0.56497   42.376
 6632.00    0.56696   0.56499   41.873
 6633.00    0.56912   0.56455   41.266
 6634.00    0.57004   0.56401   41.080
 6635.00    0.56977   0.56420   41.528
 6636.00    0.56880   0.56405   41.933
 6637.00    0.56778   0.56362   41.406
 6638.00    0.56725   0.56396   40.353
 6639.00    0.56767   0.56420   39.755
 6640.00    0.56954   0.56391   39.844
 6641.00    0.57262   0.56412   40.280
 6642.00    0.57496   0.56454   40.513
 6643.00    0.57457   0.56460   40.196
 6644.00    0.57224   0.56474   39.737
 6645.00    0.57009   0.56496   39.666
 6646.00    0.56897   0.56519   39.736
 6647.00    0.56865   0.56534   39.506
 6648.00    0.56866   0.56533   39.262
 6649.00    0.56867   0.56552   39.488
 6650.00    0.56880   0.56557   40.060
 6651.00    0.56922   0.56529   40.602
 6652.00    0.56968   0.56535   41.080
 6653.00    0.57031   0.56524   41.522
 6654.00    0.57244   0.56464   41.548
 6655.00    0.57645   0.56452   40.946
 6656.00    0.57930   0.56430   40.348
 6657.00    0.57792   0.56341   40.323
 6658.00    0.57328   0.56310   40.491
 6659.00    0.56817   0.56290   40.393
 6660.00    0.56432   0.56189   40.467
 6661.00    0.56271   0.56150   41.015
 6662.00    0.56406   0.56138   41.106
 6663.00    0.56729   0.56053   40.139
 6664.00    0.56831   0.56025   39.400
 6665.00    0.56472   0.56004   39.947
 6666.00    0.56003   0.55938   41.015
 6667.00    0.55850   0.55935   41.490
 6668.00    0.56027   0.55900   41.615
 6669.00    0.56385   0.55843   41.871
 6670.00    0.56877   0.55862   41.787
 6671.00    0.57522   0.55811   41.129
 6672.00    0.58339   0.55748   40.812
 6673.00    0.59323   0.55784   41.398
 6674.00    0.60423   0.55745   42.055
 6675.00    0.61570   0.55679   41.863
 6676.00    0.62678   0.55717   41.076
 6677.00    0.63500   0.55725   -1.000
 6678.00    0.63578   0.55694   -1.000
 6679.00    0.62728   0.55728   40.179
 6680.00    0.61337   0.55767   40.337
 6681.00    0.59906   0.55776   40.264
 6682.00    0.58699   0.55818   40.084
 6683.00    0.57719   0.55871   39.999
 6684.00    0.56774   0.55904   40.059
 6685.00    0.55890   0.55949   40.131
 6686.00    0.55485   0.55994   39.984
 6687.00    0.55747   0.56018   39.872
 6688.00    0.56295   0.56057   40.592
 6689.00    0.56606   0.56077   41.606
 6690.00    0.56347   0.56067   40.562
 6691.00    0.55659   0.56090   39.196
 6692.00    0.55181   0.56084   43.589
 6693.00    0.55271   0.56040   45.273
 6694.00    0.55677   0.56050   36.822
 6695.00    0.56155   0.56026   21.945
 6696.00    0.56731   0.55969    0.000
 6697.00    0.57289   0.55966    0.000
 6698.00    0.57446   0.55921    0.000
 6699.00    0.57074   0.55870    0.000
 6700.00    0.56474   0.55866    0.000
 6701.00    0.56002   0.55804    0.000
 6702.00    0.55845   0.55757    0.000
 6703.00    0.55933   0.55756    0.000
 6704.00    0.55976   0.55683    0.000
 6705.00    0.55838   0.55637    0.000
 6706.00    0.55661   0.55628    0.000
 6707.00    0.55732   0.55550    0.000
 6708.00    0.56600   0.55501    0.000
 6709.00    0.59798   0.55479    0.000
 6710.00    0.67965   0.55411    0.000
 6711.00    0.84179   0.55359    0.000
 6712.00    1.10638   0.55324    0.000
 6713.00    1.44920   0.55289    0.000
 6714.00    1.79550   0.55256    0.000
 6715.00    2.05496   0.55222    0.000
 6716.00    2.14750   0.55215    0.000
 6717.00    2.04541   0.55213    0.000
 6718.00    1.78248   0.55207    0.000
 6719.00    1.43567   0.55221    0.000
 6720.00    1.10168   0.55237    0.000
 6721.00    0.84520   0.55264    0.000
 6722.00    0.68736   0.55299    0.000
 6723.00    0.62157   0.55321    0.000
 6724.00    0.62892   0.55361    0.000
 6725.00    0.70678   0.55403    0.000
 6726.00    0.86450   0.55420    0.000
 6727.00    1.08848   0.55450    0.000
 6728.00    1.33575   0.55480    0.000
 6729.00    1.54433   0.55485    0.000
 6730.00    1.65015   0.55493    0.000
 6731.00    1.62211   0.55499    0.000
 6732.00    1.46960   0.55485    0.000
 6733.00    1.23756   0.55465    0.000
 6734.00    0.99168   0.55446    0.000
 6735.00    0.78710   0.55421    0.000
 6736.00    0.65517   0.55381    0.000
 6737.00    0.59171   0.55335    0.000
 6738.00    0.56826   0.55303    0.000
 6739.00    0.56190   0.55262    0.000
 6740.00    0.56055   0.55204    0.000
 6741.00    0.55967   0.55165    0.000
 6742.00    0.55894   0.55137    0.000
 6743.00    0.55708   0.55086    0.000
 6744.00    0.55232   0.55041    0.000
 6745.00    0.54526   0.55039    0.000
 6746.00    0.53857   0.55014    0.000
 6747.00    0.53531   0.54970    0.000
 6748.00    0.53692   0.54995    0.000
 6749.00    0.54024   0.54999    0.000
 6750.00    0.54058   0.54969    0.000
 6751.00    0.53766   0.55014    0.000
 6752.00    0.53461   0.55039    0.000
 6753.00    0.53477   0.55028   40.663
 6754.00    0.53935   0.55082   40.001
 6755.00    0.54494   0.55111   39.570
 6756.00    0.54714   0.55105   39.692
 6757.00    0.54660   0.55158   40.090
 6758.00    0.54660   0.55174   40.285
 6759.00    0.54830   0.55163   40.332
 6760.00    0.55098   0.55205   40.586
 6761.00    0.55337   0.55196   41.187
 6762.00    0.55355   0.55168   41.816
 6763.00    0.54877   0.55204   41.462
 6764.00    0.53717   0.55186   39.296
 6765.00    0.52016   0.55144   35.836
 6766.00    0.50298   0.55167   32.290
 6767.00    0.49455   0.55157   29.628
 6768.00    0.49960   0.55122   28.099
 6769.00    0.51008   0.55138   27.262
 6770.00    0.51513   0.55142   26.648
 6771.00    0.51339   0.55115   26.181
 6772.00    0.51075   0.55126   25.946
 6773.00    0.51579   0.55142   25.974
 6774.00    0.53250   0.55121   26.336
 6775.00    0.55382   0.55119   27.250
 6776.00    0.56902   0.55135   28.916
 6777.00    0.57220   0.55106   31.233
 6778.00    0.56414   0.55085   33.705
 6779.00    0.55265   0.55095   35.434
 6780.00    0.54520   0.55058   35.873
 6781.00    0.54240   0.55019   35.735
 6782.00    0.54248   0.55025   35.969
 6783.00    0.54560   0.54987   36.791
 6784.00    0.55097   0.54934   38.007
 6785.00    0.55459   0.54938   39.306
 6786.00    0.55380   0.54913   40.334
 6787.00    0.55084   0.54859   40.814
 6788.00    0.54872   0.54863   40.787
 6789.00    0.54791   0.54855   40.689
 6790.00    0.54774   0.54812   40.775
 6791.00    0.54766   0.54819   40.768
 6792.00    0.54725   0.54822   40.419
 6793.00    0.54618   0.54793   39.913
 6794.00    0.54428   0.54799   39.542
 6795.00    0.54158   0.54800   39.465
 6796.00    0.53849   0.54791   39.648
 6797.00    0.53555   0.54792   39.755
 6798.00    0.53080   0.54777   38.728
 6799.00    0.51947   0.54787   35.281
 6800.00    0.50337   0.54784   30.394
 6801.00    0.49444   0.54751   26.257
 6802.00    0.50043   0.54773   23.615
 6803.00    0.51711   0.54765   22.284
 6804.00    0.53530   0.54721   22.025
 6805.00    0.54642   0.54749   22.710
 6806.00    0.54876   0.54737   24.240
 6807.00    0.54911   0.54697   26.369
 6808.00    0.55376   0.54725   28.323
 6809.00    0.56348   0.54708   28.799
 6810.00    0.57433   0.54683   27.960
 6811.00    0.57972   0.54710   27.753
 6812.00    0.57814   0.54695   29.034
 6813.00    0.57536   0.54686   30.887
 6814.00    0.57676   0.54708   32.075
 6815.00    0.58322   0.54699   32.251
 6816.00    0.58994   0.54702   31.902
 6817.00    0.58874   0.54720   31.805
 6818.00    0.57990   0.54716   32.093
 6819.00    0.57364   0.54716   32.182
 6820.00    0.57431   0.54726   31.979
 6821.00    0.57603   0.54724   32.132
 6822.00    0.57256   0.54712   32.901
 6823.00    0.56205   0.54710   33.814
 6824.00    0.54903   0.54702   34.181
 6825.00    0.54224   0.54676   33.534
 6826.00    0.54420   0.54662   32.155
 6827.00    0.54954   0.54636   30.846
 6828.00    0.55365   0.54593   30.176
 6829.00    0.55548   0.54565   30.370
 6830.00    0.55664   0.54520   31.272
 6831.00    0.55968   0.54462   32.384
 6832.00    0.56388   0.54422   33.360
 6833.00    0.56539   0.54359   34.195
 6834.00    0.56196   0.54296   34.931
 6835.00    0.55466   0.54252   35.411
 6836.00    0.54835   0.54187   34.920
 6837.00    0.54857   0.54129   32.884
 6838.00    0.55268   0.54093   30.486
 6839.00    0.55269   0.54041   29.287
 6840.00    0.54982   0.53999   29.274
 6841.00    0.55224   0.53984   29.591
 6842.00    0.55833   0.53953   30.230
 6843.00    0.55891   0.53925   31.913
 6844.00    0.55438   0.53937   34.345
 6845.00    0.55273   0.53925   35.902
 6846.00    0.55377   0.53895   36.029
 6847.00    0.55074   0.53925   35.644
 6848.00    0.54306   0.53924   34.715
 6849.00    0.53592   0.53876   32.729
 6850.00    0.53243   0.53908   30.632
 6851.00    0.53276   0.53909   29.675
 6852.00    0.53615   0.53837   29.915
 6853.00    0.54080   0.53857   30.854
 6854.00    0.54259   0.53860   32.494
 6855.00    0.53769   0.53778   35.087
 6856.00    0.52797   0.53785   37.671
 6857.00    0.51881   0.53790   37.972
 6858.00    0.51281   0.53714   35.258
 6859.00    0.51075   0.53711   31.234
 6860.00    0.51534   0.53721   27.930
 6861.00    0.52799   0.53668   26.175
 6862.00    0.54206   0.53661   25.609
 6863.00    0.54834   0.53670   25.761
 6864.00    0.54615   0.53639   26.951
 6865.00    0.54117   0.53635   29.817
 6866.00    0.53874   0.53641   33.724
 6867.00    0.54147   0.53624   36.393
 6868.00    0.54753   0.53625   37.129
 6869.00    0.55276   0.53628   37.388
 6870.00    0.55433   0.53616   37.816
 6871.00    0.55109   0.53619   38.201
 6872.00    0.54325   0.53625   38.389
 6873.00    0.53269   0.53615   38.243
 6874.00    0.52324   0.53616   37.420
 6875.00    0.51876   0.53631   35.773
 6876.00    0.52059   0.53627   33.764
 6877.00    0.52717   0.53620   32.020
 6878.00    0.53431   0.53647   30.980
 6879.00    0.53808   0.53657   30.896
 6880.00    0.53826   0.53640   31.884
 6881.00    0.53715   0.53679   33.735
 6882.00    0.53758   0.53708   35.355
 6883.00    0.54028   0.53685   35.151
 6884.00    0.54162   0.53731   32.670
 6885.00    0.53860   0.53778   29.189
 6886.00    0.53422   0.53756   26.470
 6887.00    0.53394   0.53800   25.198
 6888.00    0.54105   0.53857   25.061
 6889.00    0.55420   0.53841   25.700
 6890.00    0.56599   0.53877   27.167
 6891.00    0.56971   0.53932   29.586
 6892.00    0.56578   0.53924   32.577
 6893.00    0.55845   0.53947   35.185
 6894.00    0.55176   0.53990   36.408
 6895.00    0.54758   0.53992   36.166
 6896.00    0.54430   0.54000   35.664
 6897.00    0.54005   0.54026   35.807
 6898.00    0.53527   0.54036   36.244
 6899.00    0.53025   0.54029   36.417
 6900.00    0.52346   0.54039   36.471
 6901.00    0.51637   0.54053   36.712
 6902.00    0.51607   0.54026   37.097
 6903.00    0.52492   0.54023   37.319
 6904.00    0.53400   0.54036   36.951
 6905.00    0.53594   0.53985   35.875
 6906.00    0.53367   0.53974   34.486
 6907.00    0.53269   0.53982   33.290
 6908.00    0.53506   0.53908   32.655
 6909.00    0.53930   0.53893   32.686
 6910.00    0.54131   0.53897   33.183
 6911.00    0.53913   0.53808   33.730
 6912.00    0.53546   0.53794   33.768
 6913.00    0.53339   0.53798   32.941
 6914.00    0.53368   0.53708   31.376
 6915.00    0.53564   0.53700   29.580
 6916.00    0.53790   0.53707   28.161
 6917.00    0.53974   0.53628   27.554
 6918.00    0.54144   0.53623   28.050
 6919.00    0.54211   0.53633   29.700
 6920.00    0.53926   0.53573   32.128
 6921.00    0.53337   0.53567   34.640
 6922.00    0.52886   0.53578   36.443
 6923.00    0.52682   0.53537   37.198
 6924.00    0.52273   0.53525   37.376
 6925.00    0.51484   0.53535   37.511
 6926.00    0.50713   0.53512   37.761
 6927.00    0.50346   0.53491   38.085
 6928.00    0.50471   0.53501   38.345
 6929.00    0.50890   0.53492   38.386
 6930.00    0.51230   0.53462   38.099
 6931.00    0.51397   0.53469   37.502
 6932.00    0.51646   0.53470   36.766
 6933.00    0.52077   0.53428   36.207
 6934.00    0.52505   0.53430   36.132
 6935.00    0.52829   0.53435   36.339
 6936.00    0.53118   0.53378   36.147
 6937.00    0.53322   0.53375   35.398
 6938.00    0.53244   0.53379   34.641
 6939.00    0.52848   0.53307   34.398
 6940.00    0.52444   0.53299   34.713
 6941.00    0.52909   0.53303   34.266
 6942.00    0.54809   0.53218   31.832
 6943.00    0.55275   0.53212   30.798
 6944.00    0.49917   0.53220   36.412
 6945.00    0.42317   0.53134   -1.000
 6946.00    0.42100   0.53135   -1.000
 6947.00    0.49294   0.53155   21.708
 6948.00    0.54515   0.53079   17.778
 6949.00    0.54467   0.53091   18.073
 6950.00    0.53447   0.53126   18.923
 6951.00    0.53848   0.53069   18.674
 6952.00    0.54625   0.53094   18.233
 6953.00    0.54936   0.53139   18.169
 6954.00    0.54856   0.53101   18.256
 6955.00    0.54496   0.53136   18.362
 6956.00    0.53844   0.53183   18.562
 6957.00    0.52996   0.53157   18.865
 6958.00    0.52156   0.53198   19.177
 6959.00    0.51484   0.53232   19.425
 6960.00    0.51044   0.53207   19.589
 6961.00    0.50766   0.53244   19.698
 6962.00    0.50564   0.53257   19.778
 6963.00    0.50600   0.53217   19.763
 6964.00    0.51105   0.53240   19.567
 6965.00    0.51866   0.53226   19.280
 6966.00    0.52435   0.53162   19.071
 6967.00    0.52770   0.53163   18.950
 6968.00    0.53136   0.53127   18.820
 6969.00    0.53633   0.53040   18.645
 6970.00    0.54153   0.53017   18.466
 6971.00    0.54480   0.52974   18.355
 6972.00    0.54416   0.52877   18.377
 6973.00    0.53964   0.52839   18.531
 6974.00    0.53272   0.52812   18.772
 6975.00    0.52465   0.52728   19.060
 6976.00    0.51695   0.52692   19.344
 6977.00    0.51260   0.52699   19.508
 6978.00    0.51419   0.52651   19.448
 6979.00    0.52067   0.52631   19.206
 6980.00    0.52861   0.52675   18.918
 6981.00    0.53518   0.52671   18.685
 6982.00    0.53890   0.52671   18.556
 6983.00    0.54010   0.52737   18.515
 6984.00    0.54020   0.52765   18.512
 6985.00    0.54042   0.52776   18.504
 6986.00    0.54102   0.52839   18.484
 6987.00    0.54047   0.52874   18.502
 6988.00    0.53745   0.52880   18.607
 6989.00    0.53345   0.52920   18.746
 6990.00    0.53125   0.52939   18.823
 6991.00    0.53247   0.52927   18.781
 6992.00    0.53620   0.52937   18.650
 6993.00    0.53825   0.52931   18.579
 6994.00    0.53528   0.52895   18.682
 6995.00    0.52981   0.52879   18.875
 6996.00    0.52652   0.52852   18.992
 6997.00    0.52756   0.52797   18.955
 6998.00    0.53212   0.52764   18.793
 6999.00    0.53689   0.52728   18.626
 7000.00    0.53853   0.52667   18.569
 7001.00    0.53627   0.52627   -2.000
 7002.00    0.53166   0.52594   -2.000
 7003.00    0.52785   0.52538   -2.000
 7004.00    0.52679   0.52495   -2.000
 7005.00    0.52693   0.52469   -2.000
 7006.00    0.52630   0.52428   -2.000
 7007.00    0.52549   0.52382   -2.000
 7008.00    0.52602   0.52361   -2.000
 7009.00    0.52866   0.52338   -2.000
 7010.00    0.53225   0.52287   -2.000
 7011.00    0.53335   0.52267   -2.000
 7012.00    0.53012   0.52264   -2.000
 7013.00    0.52516   0.52213   -2.000
 7014.00    0.52186   0.52192   -2.000
 7015.00    0.52141   0.52208   -2.000
 7016.00    0.52322   0.52168   -2.000
 7017.00    0.52571   0.52148   -2.000
 7018.00    0.52754   0.52180   -2.000
 7019.00    0.52831   0.52160   -2.000
 7020.00    0.52761   0.52145   -2.000
 7021.00    0.52446   0.52189   -2.000
 7022.00    0.51948   0.52192   -2.000
 7023.00    0.51586   0.52185   -2.000
 7024.00    0.51657   0.52236   -2.000
 7025.00    0.52236   0.52260   -2.000
 7026.00    0.53152   0.52257   -2.000
 7027.00    0.54012   0.52314   -2.000
 7028.00    0.54467   0.52356   -2.000
 7029.00    0.54369   0.52352   -2.000
 7030.00    0.53800   0.52416   -2.000
 7031.00    0.53056   0.52473   -2.000
 7032.00    0.52513   0.52464   -2.000
 7033.00    0.52489   0.52534   -2.000
 7034.00    0.52932   0.52608   -2.000
 7035.00    0.53369   0.52593   -2.000
 7036.00    0.53501   0.52664   -2.000
 7037.00    0.53446   0.52752   -2.000
 7038.00    0.53377   0.52735   -2.000
 7039.00    0.53342   0.52794   -2.000
 7040.00    0.53301   0.52883   -2.000
 7041.00    0.53187   0.52864   -2.000
 7042.00    0.53045   0.52899   -2.000
 7043.00    0.53041   0.52968   -2.000
 7044.00    0.53198   0.52940   -2.000
 7045.00    0.53349   0.52944   -2.000
 7046.00    0.53422   0.52975   -2.000
 7047.00    0.53511   0.52930   -2.000
 7048.00    0.53662   0.52901   -2.000
 7049.00    0.53791   0.52892   -2.000
 7050.00    0.53707   0.52826   -2.000
 7051.00    0.53210   0.52773   -2.000
 7052.00    0.52401   0.52739   -2.000
 7053.00    0.51678   0.52658   -2.000
 7054.00    0.51337   0.52590   -2.000
 7055.00    0.51416   0.52552   -2.000
 7056.00    0.51698   0.52470   -2.000
 7057.00    0.51869   0.52395   -2.000
 7058.00    0.51999   0.52372   -2.000
 7059.00    0.52478   0.52305   -2.000
 7060.00    0.53325   0.52228   -2.000
 7061.00    0.54178   0.52228   -2.000
 7062.00    0.54928   0.52184   -2.000
 7063.00    0.55702   0.52112   -2.000
 7064.00    0.56273   0.52132   -2.000
 7065.00    0.56150   0.52114   -2.000
 7066.00    0.55302   0.52049   -2.000
 7067.00    0.54155   0.52080   -2.000
 7068.00    0.53021   0.52080   -2.000
 7069.00    0.52014   0.52020   -2.000
 7070.00    0.51214   0.52048   -2.000
 7071.00    0.50744   0.52054   -2.000
 7072.00    0.50838   0.51990   -2.000
 7073.00    0.51584   0.51997   -2.000
 7074.00    0.52326   0.51993   -2.000
 7075.00    0.52189   0.51911   -2.000
 7076.00    0.51531   0.51881   -2.000
 7077.00    0.51405   0.51856   -2.000
 7078.00    0.51682   0.51747   -2.000
 7079.00    0.51464   0.51676   -2.000
 7080.00    0.50760   0.51631   -2.000
 7081.00    0.50292   0.51498   -2.000
 7082.00    0.50395   0.51398   -2.000
 7083.00    0.50909   0.51347   -2.000
 7084.00    0.51400   0.51204   -2.000
 7085.00    0.51441   0.51097   -2.000
 7086.00    0.51018   0.51061   -2.000
 7087.00    0.50392   0.50935   -2.000
 7088.00    0.49719   0.50845   -2.000
 7089.00    0.49218   0.50839   -2.000
 7090.00    0.49523   0.50749   -2.000
 7091.00    0.50944   0.50690   -2.000
 7092.00    0.52237   0.50717   -2.000
 7093.00    0.51941   0.50673   -2.000
 7094.00    0.50691   0.50646   -2.000
 7095.00    0.50032   0.50692   -2.000
 7096.00    0.50122   0.50689   -2.000
 7097.00    0.50235   0.50684   -2.000
 7098.00    0.49983   0.50729   -2.000
 7099.00    0.49414   0.50748   -2.000
 7100.00    0.48886   0.50751   -2.000
 7101.00    0.48649   0.50779   -2.000
 7102.00    0.48358   0.50800   -2.000
 7103.00    0.47714   0.50800   -2.000
 7104.00    0.47304   0.50804   -2.000
 7105.00    0.47725   0.50812   -2.000
 7106.00    0.48438   0.50806   -2.000
 7107.00    0.48613   0.50791   -2.000
 7108.00    0.48274   0.50783   -2.000
 7109.00    0.47980   0.50772   -2.000
 7110.00    0.48285   0.50748   -2.000
 7111.00    0.49318   0.50731   -2.000
 7112.00    0.50453   0.50718   -2.000
 7113.00    0.50986   0.50692   -2.000
 7114.00    0.50860   0.50675   -2.000
 7115.00    0.50358   0.50664   -2.000
 7116.00    0.49717   0.50638   -2.000
 7117.00    0.49150   0.50626   -2.000
 7118.00    0.48867   0.50621   -2.000
 7119.00    0.48928   0.50594   -2.000
 7120.00    0.49124   0.50588   -2.000
 7121.00    0.49267   0.50590   -2.000
 7122.00    0.49441   0.50565   -2.000
 7123.00    0.49704   0.50566   -2.000
 7124.00    0.49866   0.50571   -2.000
 7125.00    0.49782   0.50557   -2.000
 7126.00    0.49591   0.50568   -2.000
 7127.00    0.49402   0.50574   -2.000
 7128.00    0.49114   0.50577   -2.000
 7129.00    0.49068   0.50602   -2.000
 7130.00    0.50375   0.50602   -2.000
 7131.00    0.53510   0.50625   -2.000
 7132.00    0.57429   0.50664   -2.000
 7133.00    0.60939   0.50651   -2.000
 7134.00    0.63619   0.50687   -2.000
 7135.00    0.65186   0.50735   -2.000
 7136.00    0.65102   0.50701   -2.000
 7137.00    0.63152   0.50738   -2.000
 7138.00    0.59795   0.50787   -2.000
 7139.00    0.55884   0.50727   -2.000
 7140.00    0.52389   0.50761   -2.000
 7141.00    0.49946   0.50809   -2.000
 7142.00    0.48633   0.50725   -2.000
 7143.00    0.48286   0.50752   -2.000
 7144.00    0.48684   0.50807   -2.000
 7145.00    0.49469   0.50710   -2.000
 7146.00    0.50173   0.50732   -2.000
 7147.00    0.50558   0.50802   -2.000
 7148.00    0.50731   0.50710   -2.000
 7149.00    0.50729   0.50721   -2.000
 7150.00    0.50399   0.50807   -2.000
 7151.00    0.49797   0.50736   -2.000
 7152.00    0.49325   0.50728   -2.000
 7153.00    0.49361   0.50817   -2.000
 7154.00    0.50042   0.50778   -2.000
 7155.00    0.51102   0.50745   -2.000
 7156.00    0.51917   0.50818   -2.000
 7157.00    0.52005   0.50812   -2.000
 7158.00    0.51290   0.50759   -2.000
 7159.00    0.50269   0.50805   -2.000
 7160.00    0.49783   0.50827   -2.000
 7161.00    0.49895   0.50767   -2.000
 7162.00    0.49824   0.50789   -2.000
 7163.00    0.49440   0.50835   -2.000
 7164.00    0.49469   0.50782   -2.000
 7165.00    0.50106   0.50789   -2.000
 7166.00    0.50717   0.50847   -2.000
 7167.00    0.50673   0.50806   -2.000
 7168.00    0.49766   0.50804   -2.000
 7169.00    0.48550   0.50859   -2.000
 7170.00    0.48073   0.50823   -2.000
 7171.00    0.48657   0.50810   -2.000
 7172.00    0.49729   0.50846   -2.000
 7173.00    0.50554   0.50803   -2.000
 7174.00    0.50642   0.50775   -2.000
 7175.00    0.50214   0.50781   -2.000
 7176.00    0.50156   0.50728   -2.000
 7177.00    0.51490   0.50684   -2.000
 7178.00    0.54752   0.50656   -2.000
 7179.00    0.58785   0.50600   -2.000
 7180.00    0.61321   0.50556   -2.000
 7181.00    0.61390   0.50498   -2.000
 7182.00    0.59516   0.50446   -2.000
 7183.00    0.56559   0.50420   -2.000
 7184.00    0.53369   0.50344   -2.000
 7185.00    0.50704   0.50309   -2.000
 7186.00    0.49086   0.50316   -2.000
 7187.00    0.48519   0.50237   -2.000
 7188.00    0.48629   0.50218   -2.000
 7189.00    0.49101   0.50264   -2.000
 7190.00    0.49738   0.50196   -2.000
 7191.00    0.50352   0.50187   -2.000
 7192.00    0.50722   0.50263   -2.000
 7193.00    0.50576   0.50216   -2.000
 7194.00    0.49722   0.50205   -2.000
 7195.00    0.48320   0.50290   -2.000
 7196.00    0.46822   0.50269   -2.000
 7197.00    0.45755   0.50248   -2.000
 7198.00    0.45286   0.50318   -2.000
 7199.00    0.44578   0.50320   -2.000
 7200.00    0.42953   0.50291   -2.000
 7201.00    0.42043   0.50330   -2.000
 7202.00    0.43794   0.50350   -2.000
 7203.00    0.46596   0.50322   -2.000
 7204.00    0.47434   0.50326   -2.000
 7205.00    0.46371   0.50362   -2.000
 7206.00    0.45306   0.50349   -2.000
 7207.00    0.44932   0.50322   -2.000
 7208.00    0.45011   0.50368   -2.000
 7209.00    0.45485   0.50384   -2.000
 7210.00    0.46368   0.50342   -2.000
 7211.00    0.47376   0.50389   -2.000
 7212.00    0.48314   0.50434   -2.000
 7213.00    0.49630   0.50393   -2.000
 7214.00    0.51596   0.50439   -2.000
 7215.00    0.53206   0.50504   -2.000
 7216.00    0.53457   0.50474   -2.000
 7217.00    0.53082   0.50510   -2.000
 7218.00    0.53219   0.50591   -2.000
