###################################################################
## OUTPUT of StarlightChains_v04.for    [Cid@UFSC - 01/Apr/2007] ##
###################################################################

## Some input info
2006jd.txt                               [arq_obs]
Base.CB07.vall.4m                        [arq_base]
Masks.EmLines.NEW.gm                     [arq_masks]
StCv04.C11.config                        [arq_config]
   66                                    [N_base]
    0                                    [N_YAV_components = # of components with extra extinction!]
    0                                    [i_FitPowerLaw (1/0 = Yes/No)]
-9.99                                    [alpha_PowerLaw]
CCM                                      [red_law_option]
 1.458241                                [q_norm = A(l_norm)/A(V)]

## (Re)Sampling Parameters
 3741.00                                 [l_ini (A)]
 7218.00                                 [l_fin (A)]
    1.00                                 [dl    (A)]     (OBS: dl_cushion =    50.00 A)

## Normalization info
 4020.00                                 [l_norm (A) - for base]
 4010.00                                 [llow_norm (A) - window for f_obs]
 4060.00                                 [lupp_norm (A) - window for f_obs]
4.512138E-17                             [fobs_norm (in input units)]

## S/N
 3691.00                                 [llow_SN (A) - window for S/N]
 7268.00                                 [lupp_SN (A) - window for S/N]
   2.589                                 [S/N in S/N window]
   3.251                                 [S/N in norm. window]
  10.000                                 [S/N_err in S/N window]
  12.558                                 [S/N_err in norm. window]
  1.0000                                 [fscale_chi2]

## etc...
    -2007321                             [idum_orig]
  2382                                   [NOl_eff]
  1717                                   [Nl_eff]
   665    NSIGMA                         [Ntot_cliped & clip_method]
   480900                                [Nglobal_steps]
   7                                     [N_chains]
   7                                     [NEX0s_base = N_base in EX0s-fits]
 0   0   1       73   2.0   2.932E+01    [Clip-Bug, RC-Crash & Burn-In warning-flags, n_censored_weights, wei_nsig_threshold & wei_limit]
    10     10.033      9.525      0.508  [idt_all, wdt_TotTime, wdt_UsrTime & wdt_SysTime (sec)]

## Synthesis Results - Best model ##

 2.34652E+00                             [chi2/Nl_eff]
    12.82637                             [adev (%)]

    97.73102                             [sum-of-x (%)]
 2.54000E-17                             [Flux_tot (units of input spectrum!)]
 1.21707E-13                             [Mini_tot (???)]
 7.44355E-14                             [Mcor_tot (???)]

 270.29                                  [v0_min  (km/s)]
 189.05                                  [vd_min  (km/s)]
-0.4107                                  [AV_min  (mag)]
 0.0000                                  [YAV_min (mag)]

# j     x_j(%)      Mini_j(%)     Mcor_j(%)     age_j(yr)     Z_j      (L/M)_j    YAV?  Mstars   component_j        a/Fe...       SSP_chi2r SSP_adev(%)   SSP_AV   SSP_x(%)
  1      0.0000     0.0000E+00    0.0000E+00    1.000000E+06  0.00400  1.094E-02    0   1.0000   age020_m42            0.0000     2.4518E+00    12.8900   2.3386    83.2347
  2      0.0000     0.0000E+00    0.0000E+00    3.160000E+06  0.00400  4.007E-02    0   0.9999   age045_m42            0.0000     2.4186E+00    12.9327   1.6051    89.2886
  3      0.0000     0.0000E+00    0.0000E+00    5.010000E+06  0.00400  2.539E-02    0   0.9488   age055_m42            0.0000     2.4135E+00    12.8701   1.9216    87.2466
  4      0.0000     0.0000E+00    0.0000E+00    6.610000E+06  0.00400  2.620E-02    0   0.9220   age061_m42            0.0000     2.4384E+00    12.9979   1.5233    89.8110
  5      0.0000     0.0000E+00    0.0000E+00    1.000000E+07  0.00400  1.322E-02    0   0.8862   age070_m42            0.0000     2.6480E+00    13.4919   1.2195    92.3467
  6      0.0000     0.0000E+00    0.0000E+00    1.445000E+07  0.00400  7.883E-03    0   0.8571   age078_m42            0.0000     2.6179E+00    13.3892   1.5490    89.9377
  7      0.0000     0.0000E+00    0.0000E+00    2.512000E+07  0.00400  5.251E-03    0   0.8174   age090_m42            0.0000     2.6946E+00    13.6036   1.0843    93.0390
  8      0.0000     0.0000E+00    0.0000E+00    4.000000E+07  0.00400  3.649E-03    0   0.7851   age104_m42            0.0000     2.6717E+00    13.5700   0.8587    93.7735
  9      0.0000     0.0000E+00    0.0000E+00    5.500000E+07  0.00400  3.098E-03    0   0.7629   age110_m42            0.0000     2.5953E+00    13.4107   1.0208    93.5341
 10      0.0000     0.0000E+00    0.0000E+00    1.015200E+08  0.00400  2.228E-03    0   0.7207   age116_m42            0.0000     2.5578E+00    13.3122   1.0473    93.5393
 11      0.0000     0.0000E+00    0.0000E+00    2.861200E+08  0.00400  1.093E-03    0   0.6648   age125_m42            0.0000     2.7370E+00    13.7566   0.4674    96.6376
 12      0.0000     0.0000E+00    0.0000E+00    5.088000E+08  0.00400  6.597E-04    0   0.6365   age130_m42            0.0000     2.6511E+00    13.5186   0.4705    97.0278
 13      0.0000     0.0000E+00    0.0000E+00    1.434000E+09  0.00400  2.132E-04    0   0.5798   age139_m42            0.0000     2.5178E+00    13.2020  -0.4810    98.2623
 14      0.0000     0.0000E+00    0.0000E+00    4.250000E+09  0.00400  5.895E-05    0   0.5377   age158_m42            0.0000     2.3200E+00    12.7571  -0.8979    93.7474
 15      0.0000     0.0000E+00    0.0000E+00    7.500000E+09  0.00400  3.510E-05    0   0.5212   age171_m42            0.0000     2.3392E+00    12.7903  -1.0000    89.9598
 16      0.0000     0.0000E+00    0.0000E+00    1.300000E+10  0.00400  2.005E-05    0   0.5034   age193_m42            0.0000     2.5308E+00    13.1735  -1.0000    83.4986
 17      0.0000     0.0000E+00    0.0000E+00    1.800000E+10  0.00400  1.525E-05    0   0.4967   age213_m42            0.0000     2.5616E+00    13.2330  -1.0000    82.3047
 18      0.0000     0.0000E+00    0.0000E+00    1.000000E+06  0.00800  1.238E-02    0   1.0000   age020_m52            0.0000     2.4530E+00    12.8896   2.3355    83.3770
 19      0.0000     0.0000E+00    0.0000E+00    3.160000E+06  0.00800  3.074E-02    0   0.9966   age045_m52            0.0000     2.4294E+00    12.8428   2.2573    84.2076
 20      0.0000     0.0000E+00    0.0000E+00    5.010000E+06  0.00800  2.668E-02    0   0.9443   age055_m52            0.0000     2.4215E+00    12.8723   2.0043    86.4400
 21     19.3979     1.9393E-01    2.9099E-01    6.610000E+06  0.00800  2.136E-02    0   0.9177   age061_m52            0.0000     2.5697E+00    13.3093   0.7320    92.9262
 22      0.0000     0.0000E+00    0.0000E+00    1.000000E+07  0.00800  1.215E-02    0   0.8827   age070_m52            0.0000     2.7362E+00    13.6721   1.3917    92.3120
 23      0.0000     0.0000E+00    0.0000E+00    1.445000E+07  0.00800  8.717E-03    0   0.8552   age078_m52            0.0000     2.6288E+00    13.4252   1.5137    91.1869
 24      0.0000     0.0000E+00    0.0000E+00    2.512000E+07  0.00800  5.592E-03    0   0.8162   age090_m52            0.0000     2.7296E+00    13.6840   1.1456    94.1945
 25      0.0000     0.0000E+00    0.0000E+00    4.000000E+07  0.00800  3.896E-03    0   0.7841   age104_m52            0.0000     2.7071E+00    13.6599   1.0620    94.7899
 26      0.0000     0.0000E+00    0.0000E+00    1.015200E+08  0.00800  2.148E-03    0   0.7226   age116_m52            0.0000     2.6099E+00    13.4449   1.0103    94.3654
 27      0.0000     0.0000E+00    0.0000E+00    2.861200E+08  0.00800  9.925E-04    0   0.6683   age125_m52            0.0000     2.6630E+00    13.5468   0.5352    97.8842
 28      0.0000     0.0000E+00    0.0000E+00    9.047900E+08  0.00800  3.141E-04    0   0.6138   age135_m52            0.0000     2.5676E+00    13.2924  -0.2358   100.8929
 29      0.0000     0.0000E+00    0.0000E+00    1.434000E+09  0.00800  1.719E-04    0   0.5853   age139_m52            0.0000     2.4672E+00    13.0961  -0.8112    98.7854
 30      0.0000     0.0000E+00    0.0000E+00    2.500000E+09  0.00800  7.872E-05    0   0.5600   age150_m52            0.0000     2.3623E+00    12.8438  -1.0000    93.2491
 31      0.0000     0.0000E+00    0.0000E+00    4.250000E+09  0.00800  4.336E-05    0   0.5426   age158_m52            0.0000     2.3585E+00    12.8346  -1.0000    91.8054
 32      0.0000     0.0000E+00    0.0000E+00    6.250000E+09  0.00800  3.159E-05    0   0.5319   age166_m52            0.0000     2.5911E+00    13.2777  -1.0000    84.3618
 33      0.0000     0.0000E+00    0.0000E+00    1.300000E+10  0.00800  1.361E-05    0   0.5073   age193_m52            0.0000     3.9972E+00    16.0898  -1.0000    67.9034
 34      0.0000     0.0000E+00    0.0000E+00    1.800000E+10  0.00800  9.886E-06    0   0.4990   age213_m52            0.0000     4.4252E+00    16.8170  -1.0000    64.3127
 35      0.0000     0.0000E+00    0.0000E+00    1.000000E+06  0.02000  1.544E-02    0   1.0000   age020_m62            0.0000     2.4559E+00    12.8918   2.3318    83.5616
 36      0.0000     0.0000E+00    0.0000E+00    3.160000E+06  0.02000  3.762E-02    0   0.9858   age045_m62            0.0000     2.4361E+00    12.8535   2.2674    84.4649
 37      0.0000     0.0000E+00    0.0000E+00    5.010000E+06  0.02000  3.296E-02    0   0.9342   age055_m62            0.0000     2.3956E+00    12.8613   1.8818    88.3435
 38      0.0000     0.0000E+00    0.0000E+00    8.710000E+06  0.02000  1.154E-02    0   0.8861   age067_m62            0.0000     3.4931E+00    15.3524   0.8074    95.8369
 39      0.0000     0.0000E+00    0.0000E+00    1.445000E+07  0.02000  7.663E-03    0   0.8472   age078_m62            0.0000     2.9507E+00    14.1698   1.0253    94.7545
 40      0.0000     0.0000E+00    0.0000E+00    2.512000E+07  0.02000  4.532E-03    0   0.8099   age090_m62            0.0000     3.0097E+00    14.3113   1.0109    94.7571
 41      0.0000     0.0000E+00    0.0000E+00    5.500000E+07  0.02000  2.733E-03    0   0.7595   age110_m62            0.0000     2.6831E+00    13.5991   1.0428    94.2256
 42      0.0000     0.0000E+00    0.0000E+00    1.609000E+08  0.02000  1.369E-03    0   0.6985   age120_m62            0.0000     2.6525E+00    13.5278   0.8924    96.4899
 43      0.0000     0.0000E+00    0.0000E+00    2.861200E+08  0.02000  9.013E-04    0   0.6714   age125_m62            0.0000     2.6805E+00    13.5549   0.6507    98.9288
 44      0.0000     0.0000E+00    0.0000E+00    5.088000E+08  0.02000  5.028E-04    0   0.6449   age130_m62            0.0000     2.6068E+00    13.3317   0.2978   100.6294
 45      0.0000     0.0000E+00    0.0000E+00    9.047900E+08  0.02000  2.428E-04    0   0.6179   age135_m62            0.0000     2.4454E+00    13.0157  -0.2765    99.6930
 46      0.0000     0.0000E+00    0.0000E+00    1.434000E+09  0.02000  1.263E-04    0   0.5908   age139_m62            0.0000     2.3793E+00    12.8904  -0.7113    97.9548
 47      0.0000     0.0000E+00    0.0000E+00    2.500000E+09  0.02000  5.985E-05    0   0.5673   age150_m62            0.0000     2.3619E+00    12.8320  -1.0000    93.7593
 48      0.0000     0.0000E+00    0.0000E+00    4.250000E+09  0.02000  3.271E-05    0   0.5468   age158_m62            0.0000     2.7850E+00    13.5863  -1.0000    81.7663
 49      0.0000     0.0000E+00    0.0000E+00    1.000000E+10  0.02000  1.360E-05    0   0.5167   age181_m62            0.0000     3.9054E+00    15.7188  -1.0000    69.6566
 50      0.0000     0.0000E+00    0.0000E+00    1.800000E+10  0.02000  7.124E-06    0   0.5013   age213_m62            0.0000     4.7969E+00    17.2423  -1.0000    62.6892
 51      0.0000     0.0000E+00    0.0000E+00    1.000000E+06  0.05000  2.592E-02    0   0.9998   age020_m72            0.0000     2.4748E+00    12.9168   2.3236    83.5605
 52      0.0000     0.0000E+00    0.0000E+00    3.160000E+06  0.05000  4.845E-02    0   0.9577   age045_m72            0.0000     2.3927E+00    12.7918   2.1464    85.7949
 53      0.0000     0.0000E+00    0.0000E+00    5.010000E+06  0.05000  3.072E-02    0   0.9147   age055_m72            0.0000     2.7844E+00    13.7654   1.6275    90.6989
 54      0.0000     0.0000E+00    0.0000E+00    6.610000E+06  0.05000  1.455E-02    0   0.8877   age061_m72            0.0000     4.3597E+00    17.1785   0.8277    97.3786
 55      0.0000     0.0000E+00    0.0000E+00    1.000000E+07  0.05000  9.074E-03    0   0.8524   age070_m72            0.0000     2.9615E+00    14.1294   1.8051    90.6464
 56      0.0000     0.0000E+00    0.0000E+00    2.512000E+07  0.05000  4.250E-03    0   0.7902   age090_m72            0.0000     2.8802E+00    14.0211   1.4982    92.6116
 57      0.0000     0.0000E+00    0.0000E+00    4.000000E+07  0.05000  3.087E-03    0   0.7618   age104_m72            0.0000     2.9467E+00    14.1933   1.2647    94.3398
 58      0.0000     0.0000E+00    0.0000E+00    1.015200E+08  0.05000  1.700E-03    0   0.7096   age116_m72            0.0000     2.7385E+00    13.7257   1.0264    96.3216
 59      0.0000     0.0000E+00    0.0000E+00    2.861200E+08  0.05000  7.384E-04    0   0.6633   age125_m72            0.0000     2.6616E+00    13.4832   0.5309    99.8185
 60      0.0000     0.0000E+00    0.0000E+00    5.088000E+08  0.05000  3.819E-04    0   0.6372   age130_m72            0.0000     2.4940E+00    13.0956   0.0584   100.7979
 61     78.3331     9.9806E+01    9.9709E+01    9.047900E+08  0.05000  1.676E-04    0   0.6110   age135_m72            0.0000     2.3702E+00    12.8481  -0.6084    98.1067
 62      0.0000     0.0000E+00    0.0000E+00    1.434000E+09  0.05000  8.837E-05    0   0.5874   age139_m72            0.0000     2.3950E+00    12.8948  -1.0000    95.1352
 63      0.0000     0.0000E+00    0.0000E+00    2.500000E+09  0.05000  4.233E-05    0   0.5598   age150_m72            0.0000     2.8037E+00    13.6069  -1.0000    82.5032
 64      0.0000     0.0000E+00    0.0000E+00    6.250000E+09  0.05000  1.435E-05    0   0.5249   age166_m72            0.0000     4.2829E+00    16.4008  -1.0000    66.3444
 65      0.0000     0.0000E+00    0.0000E+00    1.300000E+10  0.05000  6.513E-06    0   0.5036   age193_m72            0.0000     5.5860E+00    18.5138  -1.0000    58.6748
 66      0.0000     0.0000E+00    0.0000E+00    1.800000E+10  0.05000  4.527E-06    0   0.4945   age213_m72            0.0000     6.4226E+00    19.7510  -1.0000    54.1799


## Synthesis Results - Average & Chains ##

# j      x_j: min, <> & last-chain-values for 1 ...  7 chains
  1      0.0000      0.0554      0.0000      0.0000      0.0000      0.0000      0.0000      0.0000      0.0000
  2      0.0000      0.2802      0.0000      0.0000      0.0000      0.0000      0.0000      0.0000      0.0000
  3      0.0000      0.1189      0.0000      0.0000      0.8644      0.0000      0.0000      0.0000      0.0000
  4      0.0000      0.1721      0.0000      0.0000      0.0000      0.0000      0.0000      0.6396      0.0000
  5      0.0000      0.4164      0.0000      0.0000      0.3002      0.0568      0.0000      0.0000      0.0000
  6      0.0000      0.0654      0.0000      0.0000      0.0000      0.0000      0.0000      0.0000      0.7163
  7      0.0000      0.1933      0.0000      0.0000      0.0000      0.0000      0.0000      0.0000      0.0000
  8      0.0000      0.2153      0.0000      0.0000      1.4859      0.2262      2.4873      0.0000      0.0000
  9      0.0000      0.1066      0.1440      0.0000      0.0000      0.0000      0.1630      0.0000      0.0000
 10      0.0000      0.3519      0.0000      0.0000      0.0000      0.0000      0.9880      0.0000      0.0424
 11      0.0000      0.1606      0.0000      0.0000      0.0000      0.0000      0.0000      0.0000      0.0000
 12      0.0000      0.3470      0.0000      0.0000      0.0000      0.0000      0.0000      0.0000      0.0000
 13      0.0000      0.3377      0.0000      0.0000      0.0000      2.1469      0.0000      0.0000      0.0000
 14      0.0000      0.2540      0.5067      0.0000      0.3665      1.1540      1.4578      0.0000      0.0000
 15      0.0000      0.0736      0.0000      0.0000      0.0186      0.0000      0.0000      0.0000      0.0000
 16      0.0000      0.0546      0.0000      0.0000      0.0000      0.3327      0.1962      0.0000      0.0000
 17      0.0000      0.0616      0.0000      0.0000      0.0000      0.0000      0.0000      0.0000      0.0000
 18      0.0000      0.0659      0.0000      0.0000      0.0000      0.0000      0.0000      0.0000      0.1976
 19      0.0000      0.1320      0.0000      0.0000      0.0000      0.0000      0.0951      0.0000      0.9960
 20      0.0000      0.1284      0.0000      0.0000      0.0000      0.0000      0.0000      0.0000      0.0000
 21     19.3979     30.1950     32.8679     32.3132     28.6077     29.7256     29.7417     31.4884     31.8971
 22      0.0000      0.0926      0.0000      0.3439      0.0000      0.0000      0.0000      0.0000      0.0000
 23      0.0000      0.1647      0.0000      0.0000      0.0000      0.0000      0.0790      0.0000      0.0000
 24      0.0000      0.1276      0.0000      0.0000      0.0000      0.0808      0.0000      0.0000      0.0000
 25      0.0000      0.2273      0.0000      0.0000      0.0000      0.0000      0.0000      0.0000      0.3648
 26      0.0000      0.1559      0.0000      0.0000      0.0000      0.0000      0.0000      0.0381      0.0000
 27      0.0000      0.2643      0.0000      0.0000      0.1680      0.0000      0.0000      0.0000      0.0000
 28      0.0000      0.2120      0.0000      0.1898      0.0000      0.4264      0.0000      0.0000      0.3329
 29      0.0000      0.0707      0.0000      0.0000      0.0000      0.0000      0.0000      0.0000      0.3441
 30      0.0000      0.1297      0.0000      0.0000      0.0000      0.0000      0.3210      0.1371      0.1214
 31      0.0000      0.0882      0.0000      0.0000      0.0000      0.8267      0.0000      0.0000      0.0000
 32      0.0000      0.0351      0.0000      0.0000      0.0000      0.0000      0.0000      0.0000      0.0000
 33      0.0000      0.0092      0.0000      0.0000      0.0000      0.0000      0.0000      0.0000      0.0000
 34      0.0000      0.0222      0.0000      0.0000      0.0000      0.0000      0.0000      0.0000      0.0000
 35      0.0000      0.0741      0.0000      0.0000      0.0175      0.0000      0.0564      0.0000      0.0000
 36      0.0000      0.0969      0.0000      0.0000      0.0000      0.0000      0.0000      0.0000      0.0000
 37      0.0000      0.1638      0.0000      0.0000      0.9479      0.0000      0.0000      0.0000      0.0000
 38      0.0000      0.0609      0.0000      0.0000      0.0000      0.0000      0.0000      0.0000      0.0000
 39      0.0000      0.0673      0.0000      0.0000      0.0000      0.0000      0.0000      0.0000      0.0000
 40      0.0000      0.1172      0.0000      0.0000      0.0000      0.0000      0.0000      0.0000      0.0000
 41      0.0000      0.1700      0.9610      0.0000      0.0000      0.0000      0.0000      0.0000      0.0000
 42      0.0000      0.1286      1.6895      0.0000      0.0000      0.0000      0.0000      0.0000      0.0000
 43      0.0000      0.1627      0.0000      0.0000      0.0000      0.0000      0.0000      0.0000      0.0000
 44      0.0000      0.3368      0.0000      0.0000      0.0000      2.4797      0.0000      0.0000      0.0000
 45      0.0000      1.9528      0.0000      4.4818      0.0000      0.0000      4.3035      1.5782      1.5872
 46      0.0000      0.4951      0.0000      1.4253      0.0000      0.0000      0.7677      0.0000      3.5243
 47      0.0000      0.1650      0.0000      0.0000      1.1865      0.0000      0.9801      0.0000      0.0000
 48      0.0000      0.0786      0.0000      0.0000      0.1651      0.0000      0.0000      0.0000      0.5080
 49      0.0000      0.0150      0.0821      0.0000      0.4891      0.3704      0.0000      0.0000      0.0000
 50      0.0000      0.0378      0.0000      0.0000      0.0000      0.0000      0.0000      0.0000      0.0000
 51      0.0000      0.0571      0.1384      0.5681      0.0000      0.0000      0.0000      0.0000      0.0000
 52      0.0000      0.1340      0.0000      0.0000      0.0000      0.0000      0.0000      0.0000      0.0000
 53      0.0000      0.2157      0.2097      0.0455      0.0000      2.1187      0.0000      0.0000      0.0000
 54      0.0000      0.0287      0.0000      0.0000      0.0000      0.0000      0.0000      0.0000      0.0000
 55      0.0000      0.0961      0.0000      0.0000      0.0000      0.0000      0.0000      0.0000      0.0000
 56      0.0000      0.0627      0.0000      0.0000      0.0000      0.0000      0.0000      0.0000      0.0000
 57      0.0000      0.0787      0.0000      0.0000      0.0000      0.2593      0.0000      0.0000      0.0000
 58      0.0000      0.0702      0.0000      0.0000      0.0000      0.0000      0.0000      0.0000      0.0000
 59      0.0000      0.1361      0.0000      1.9060      0.0000      0.0582      0.0000      0.0000      0.6456
 60      0.0000      2.4558      4.1208      0.0000      0.7219      0.0000      0.0000      0.0000      0.0000
 61     78.3331     53.1010     56.0947     55.8742     61.7417     56.9303     54.5613     62.5539     55.3353
 62      0.0000      0.5415      0.0000      0.0000      0.0095      0.0000      0.1754      0.0000      0.0812
 63      0.0000      0.1384      0.0000      0.0000      0.0000      0.0000      0.0000      0.0000      0.0000
 64      0.0000      0.0154      0.1372      0.0000      0.0000      0.0000      0.0000      0.0000      0.0000
 65      0.0000      0.0076      0.0000      0.0000      0.0000      0.0000      0.0000      0.0000      0.0000
 66      0.0000      0.0042      0.0000      0.0000      0.0000      0.0000      0.0000      0.0000      0.0000

# j      m_j: min, <> & last-chain-values for 1 ...  7 chains
  1  0.0000E+00  2.1662E-03  0.0000E+00  0.0000E+00  0.0000E+00  0.0000E+00  0.0000E+00  0.0000E+00  0.0000E+00
  2  0.0000E+00  2.9905E-03  0.0000E+00  0.0000E+00  0.0000E+00  0.0000E+00  0.0000E+00  0.0000E+00  0.0000E+00
  3  0.0000E+00  1.9009E-03  0.0000E+00  0.0000E+00  1.2222E-02  0.0000E+00  0.0000E+00  0.0000E+00  0.0000E+00
  4  0.0000E+00  2.5904E-03  0.0000E+00  0.0000E+00  0.0000E+00  0.0000E+00  0.0000E+00  9.6011E-03  0.0000E+00
  5  0.0000E+00  1.1939E-02  0.0000E+00  0.0000E+00  7.6145E-03  1.4517E-03  0.0000E+00  0.0000E+00  0.0000E+00
  6  0.0000E+00  3.0422E-03  0.0000E+00  0.0000E+00  0.0000E+00  0.0000E+00  0.0000E+00  0.0000E+00  3.2981E-02
  7  0.0000E+00  1.2873E-02  0.0000E+00  0.0000E+00  0.0000E+00  0.0000E+00  0.0000E+00  0.0000E+00  0.0000E+00
  8  0.0000E+00  1.9815E-02  0.0000E+00  0.0000E+00  1.2096E-01  1.8557E-02  2.1701E-01  0.0000E+00  0.0000E+00
  9  0.0000E+00  1.1229E-02  1.5646E-02  0.0000E+00  0.0000E+00  0.0000E+00  1.6279E-02  0.0000E+00  0.0000E+00
 10  0.0000E+00  4.8683E-02  0.0000E+00  0.0000E+00  0.0000E+00  0.0000E+00  1.2959E-01  0.0000E+00  5.8071E-03
 11  0.0000E+00  4.1772E-02  0.0000E+00  0.0000E+00  0.0000E+00  0.0000E+00  0.0000E+00  0.0000E+00  0.0000E+00
 12  0.0000E+00  1.4318E-01  0.0000E+00  0.0000E+00  0.0000E+00  0.0000E+00  0.0000E+00  0.0000E+00  0.0000E+00
 13  0.0000E+00  3.9282E-01  0.0000E+00  0.0000E+00  0.0000E+00  2.2266E+00  0.0000E+00  0.0000E+00  0.0000E+00
 14  0.0000E+00  9.9098E-01  2.0387E+00  0.0000E+00  1.2647E+00  4.0141E+00  5.3922E+00  0.0000E+00  0.0000E+00
 15  0.0000E+00  4.6728E-01  0.0000E+00  0.0000E+00  1.0429E-01  0.0000E+00  0.0000E+00  0.0000E+00  0.0000E+00
 16  0.0000E+00  5.8591E-01  0.0000E+00  0.0000E+00  0.0000E+00  3.1854E+00  1.9976E+00  0.0000E+00  0.0000E+00
 17  0.0000E+00  8.5803E-01  0.0000E+00  0.0000E+00  0.0000E+00  0.0000E+00  0.0000E+00  0.0000E+00  0.0000E+00
 18  0.0000E+00  2.2765E-03  0.0000E+00  0.0000E+00  0.0000E+00  0.0000E+00  0.0000E+00  0.0000E+00  6.7588E-03
 19  0.0000E+00  1.8310E-03  0.0000E+00  0.0000E+00  0.0000E+00  0.0000E+00  1.2497E-03  0.0000E+00  1.3675E-02
 20  0.0000E+00  1.9440E-03  0.0000E+00  0.0000E+00  0.0000E+00  0.0000E+00  0.0000E+00  0.0000E+00  0.0000E+00
 21  2.9099E-01  5.5485E-01  6.2285E-01  6.1623E-01  4.6503E-01  4.8705E-01  5.1817E-01  5.7709E-01  5.8035E-01
 22  0.0000E+00  2.8765E-03  0.0000E+00  1.1092E-02  0.0000E+00  0.0000E+00  0.0000E+00  0.0000E+00  0.0000E+00
 23  0.0000E+00  6.9111E-03  0.0000E+00  0.0000E+00  0.0000E+00  0.0000E+00  3.1414E-03  0.0000E+00  0.0000E+00
 24  0.0000E+00  7.9683E-03  0.0000E+00  0.0000E+00  0.0000E+00  4.4960E-03  0.0000E+00  0.0000E+00  0.0000E+00
 25  0.0000E+00  1.9564E-02  0.0000E+00  0.0000E+00  0.0000E+00  0.0000E+00  0.0000E+00  0.0000E+00  3.1090E-02
 26  0.0000E+00  2.2426E-02  0.0000E+00  0.0000E+00  0.0000E+00  0.0000E+00  0.0000E+00  5.4697E-03  0.0000E+00
 27  0.0000E+00  7.6107E-02  0.0000E+00  0.0000E+00  4.2790E-02  0.0000E+00  0.0000E+00  0.0000E+00  0.0000E+00
 28  0.0000E+00  1.7722E-01  0.0000E+00  1.6463E-01  0.0000E+00  3.1777E-01  0.0000E+00  0.0000E+00  2.7552E-01
 29  0.0000E+00  1.0295E-01  0.0000E+00  0.0000E+00  0.0000E+00  0.0000E+00  0.0000E+00  0.0000E+00  4.9615E-01
 30  0.0000E+00  3.9473E-01  0.0000E+00  0.0000E+00  0.0000E+00  0.0000E+00  9.2591E-01  4.1605E-01  3.6572E-01
 31  0.0000E+00  4.7225E-01  0.0000E+00  0.0000E+00  0.0000E+00  3.9455E+00  0.0000E+00  0.0000E+00  0.0000E+00
 32  0.0000E+00  2.5256E-01  0.0000E+00  0.0000E+00  0.0000E+00  0.0000E+00  0.0000E+00  0.0000E+00  0.0000E+00
 33  0.0000E+00  1.4743E-01  0.0000E+00  0.0000E+00  0.0000E+00  0.0000E+00  0.0000E+00  0.0000E+00  0.0000E+00
 34  0.0000E+00  4.7821E-01  0.0000E+00  0.0000E+00  0.0000E+00  0.0000E+00  0.0000E+00  0.0000E+00  0.0000E+00
 35  0.0000E+00  2.0521E-03  0.0000E+00  0.0000E+00  4.2789E-04  0.0000E+00  1.4809E-03  0.0000E+00  0.0000E+00
 36  0.0000E+00  1.0856E-03  0.0000E+00  0.0000E+00  0.0000E+00  0.0000E+00  0.0000E+00  0.0000E+00  0.0000E+00
 37  0.0000E+00  1.9858E-03  0.0000E+00  0.0000E+00  1.0165E-02  0.0000E+00  0.0000E+00  0.0000E+00  0.0000E+00
 38  0.0000E+00  1.9993E-03  0.0000E+00  0.0000E+00  0.0000E+00  0.0000E+00  0.0000E+00  0.0000E+00  0.0000E+00
 39  0.0000E+00  3.1847E-03  0.0000E+00  0.0000E+00  0.0000E+00  0.0000E+00  0.0000E+00  0.0000E+00  0.0000E+00
 40  0.0000E+00  8.9615E-03  0.0000E+00  0.0000E+00  0.0000E+00  0.0000E+00  0.0000E+00  0.0000E+00  0.0000E+00
 41  0.0000E+00  2.0209E-02  1.1779E-01  0.0000E+00  0.0000E+00  0.0000E+00  0.0000E+00  0.0000E+00  0.0000E+00
 42  0.0000E+00  2.8061E-02  3.8022E-01  0.0000E+00  0.0000E+00  0.0000E+00  0.0000E+00  0.0000E+00  0.0000E+00
 43  0.0000E+00  5.1843E-02  0.0000E+00  0.0000E+00  0.0000E+00  0.0000E+00  0.0000E+00  0.0000E+00  0.0000E+00
 44  0.0000E+00  1.8474E-01  0.0000E+00  0.0000E+00  0.0000E+00  1.2129E+00  0.0000E+00  0.0000E+00  0.0000E+00
 45  0.0000E+00  2.1255E+00  0.0000E+00  5.0628E+00  0.0000E+00  0.0000E+00  4.4412E+00  1.7133E+00  1.7106E+00
 46  0.0000E+00  9.9057E-01  0.0000E+00  2.9594E+00  0.0000E+00  0.0000E+00  1.4562E+00  0.0000E+00  6.9815E+00
 47  0.0000E+00  6.6899E-01  0.0000E+00  0.0000E+00  4.2551E+00  0.0000E+00  3.7673E+00  0.0000E+00  0.0000E+00
 48  0.0000E+00  5.6211E-01  0.0000E+00  0.0000E+00  1.0440E+00  0.0000E+00  0.0000E+00  0.0000E+00  3.5960E+00
 49  0.0000E+00  2.4356E-01  1.3751E+00  0.0000E+00  7.0305E+00  5.3673E+00  0.0000E+00  0.0000E+00  0.0000E+00
 50  0.0000E+00  1.1388E+00  0.0000E+00  0.0000E+00  0.0000E+00  0.0000E+00  0.0000E+00  0.0000E+00  0.0000E+00
 51  0.0000E+00  9.4143E-04  2.3550E-03  9.7263E-03  0.0000E+00  0.0000E+00  0.0000E+00  0.0000E+00  0.0000E+00
 52  0.0000E+00  1.1326E-03  0.0000E+00  0.0000E+00  0.0000E+00  0.0000E+00  0.0000E+00  0.0000E+00  0.0000E+00
 53  0.0000E+00  2.7474E-03  2.7545E-03  6.0128E-04  0.0000E+00  2.4059E-02  0.0000E+00  0.0000E+00  0.0000E+00
 54  0.0000E+00  7.4968E-04  0.0000E+00  0.0000E+00  0.0000E+00  0.0000E+00  0.0000E+00  0.0000E+00  0.0000E+00
 55  0.0000E+00  3.8631E-03  0.0000E+00  0.0000E+00  0.0000E+00  0.0000E+00  0.0000E+00  0.0000E+00  0.0000E+00
 56  0.0000E+00  4.9850E-03  0.0000E+00  0.0000E+00  0.0000E+00  0.0000E+00  0.0000E+00  0.0000E+00  0.0000E+00
 57  0.0000E+00  8.3082E-03  0.0000E+00  0.0000E+00  0.0000E+00  2.4405E-02  0.0000E+00  0.0000E+00  0.0000E+00
 58  0.0000E+00  1.2532E-02  0.0000E+00  0.0000E+00  0.0000E+00  0.0000E+00  0.0000E+00  0.0000E+00  0.0000E+00
 59  0.0000E+00  5.2290E-02  0.0000E+00  7.5998E-01  0.0000E+00  1.9952E-02  0.0000E+00  0.0000E+00  2.4558E-01
 60  0.0000E+00  1.7525E+00  3.0326E+00  0.0000E+00  4.5570E-01  0.0000E+00  0.0000E+00  0.0000E+00  0.0000E+00
 61  9.9709E+01  8.2796E+01  9.0199E+01  9.0416E+01  8.5163E+01  7.9150E+01  8.0660E+01  9.7279E+01  8.5430E+01
 62  0.0000E+00  1.5396E+00  0.0000E+00  0.0000E+00  2.3995E-02  0.0000E+00  4.7279E-01  0.0000E+00  2.2869E-01
 63  0.0000E+00  7.8278E-01  0.0000E+00  0.0000E+00  0.0000E+00  0.0000E+00  0.0000E+00  0.0000E+00  0.0000E+00
 64  0.0000E+00  2.4023E-01  2.2132E+00  0.0000E+00  0.0000E+00  0.0000E+00  0.0000E+00  0.0000E+00  0.0000E+00
 65  0.0000E+00  2.5056E-01  0.0000E+00  0.0000E+00  0.0000E+00  0.0000E+00  0.0000E+00  0.0000E+00  0.0000E+00
 66  0.0000E+00  1.9738E-01  0.0000E+00  0.0000E+00  0.0000E+00  0.0000E+00  0.0000E+00  0.0000E+00  0.0000E+00

# AV, chi2 & Mass for <> & i_chain = 1 ...  7 solutions
AV      -0.4107     -0.1728     -0.1819     -0.2058     -0.2615     -0.2429     -0.2241     -0.2353     -0.2141
chi2 2.3465E+00  2.3780E+00  2.3711E+00  2.3688E+00  2.3615E+00  2.3703E+00  2.3695E+00  2.3598E+00  2.3703E+00
Mass 7.4435E-14  8.3649E-14  8.0123E-14  7.7106E-14  8.3932E-14  8.5376E-14  8.2345E-14  7.7113E-14  7.9916E-14
 270.29                                  [v0_min (km/s) before EX0s...]
 189.05                                  [vd_min (km/s) before EX0s...]


## Synthetic spectrum (Best Model) ##l_obs f_obs f_syn wei
 3478    [Nl_obs]
 3741.00    1.53372   0.51573    0.000
 3742.00    1.25995   0.54907    0.000
 3743.00    1.60771   0.57723    0.000
 3744.00    1.95262   0.59480    0.000
 3745.00    2.03647   0.59946   -1.000
 3746.00    2.16149   0.59181   -1.000
 3747.00    2.40298   0.57416   -1.000
 3748.00    2.47788   0.54939   -1.000
 3749.00    2.15337   0.52065   -1.000
 3750.00    1.43178   0.49183   -1.000
 3751.00    0.69226   0.46807   -1.000
 3752.00    0.44096   0.45514   22.678
 3753.00    0.60392   0.45766   16.559
 3754.00    0.70015   0.47685   -1.000
 3755.00    0.65156   0.50937   15.348
 3756.00    0.70134   0.54791   14.258
 3757.00    0.83711   0.58350   11.946
 3758.00    0.86386   0.60850   11.576
 3759.00    0.78854   0.61922   12.682
 3760.00    0.77305   0.61704   12.936
 3761.00    0.90970   0.60749   -1.000
 3762.00    1.16593   0.59758   -1.000
 3763.00    1.36928   0.59256   -1.000
 3764.00    1.35691   0.59403   -1.000
 3765.00    1.19809   0.59994   -1.000
 3766.00    1.06914   0.60620   -1.000
 3767.00    1.03293   0.60863   -1.000
 3768.00    1.05979   0.60447   -1.000
 3769.00    1.09609   0.59319   -1.000
 3770.00    1.09398   0.57657   -1.000
 3771.00    1.03602   0.55832   -1.000
 3772.00    0.93026   0.54305   -1.000
 3773.00    0.80287   0.53506   -1.000
 3774.00    0.70945   0.53690   14.095
 3775.00    0.73790   0.54859   13.552
 3776.00    0.91220   0.56783   -1.000
 3777.00    1.11658   0.59136   -1.000
 3778.00    1.22681   0.61662   -1.000
 3779.00    1.22570   0.64240   -1.000
 3780.00    1.17488   0.66837   -1.000
 3781.00    1.16945   0.69403   -1.000
 3782.00    1.22133   0.71805   -1.000
 3783.00    1.20999   0.73852   -1.000
 3784.00    1.11828   0.75347   -1.000
 3785.00    1.14349   0.76135   -1.000
 3786.00    1.38106   0.76111   -1.000
 3787.00    1.65629   0.75236   -1.000
 3788.00    1.71731   0.73578   -1.000
 3789.00    1.40026   0.71370   -1.000
 3790.00    0.87566   0.68982   11.420
 3791.00    0.63070   0.66800   15.855
 3792.00    0.78789   0.65054   12.692
 3793.00    0.95623   0.63708   -1.000
 3794.00    1.02839   0.62496   -1.000
 3795.00    1.33079   0.61064   -1.000
 3796.00    1.78456   0.59148   -1.000
 3797.00    1.82852   0.56704   -1.000
 3798.00    1.40901   0.53959   -1.000
 3799.00    1.09339   0.51368   -1.000
 3800.00    1.18081   0.49512   -1.000
 3801.00    1.50376   0.48940   -1.000
 3802.00    1.78843   0.49975   -1.000
 3803.00    1.82609   0.52558   -1.000
 3804.00    1.61687   0.56236   -1.000
 3805.00    1.34947   0.60301   -1.000
 3806.00    1.23838   0.64031   -1.000
 3807.00    1.40074   0.66947   -1.000
 3808.00    1.67720   0.68942   -1.000
 3809.00    1.78219   0.70263   -1.000
 3810.00    1.72272   0.71320   -1.000
 3811.00    1.70844   0.72410   -1.000
 3812.00    1.78095   0.73519   -1.000
 3813.00    1.82064   0.74323   -1.000
 3814.00    1.70714   0.74412   -1.000
 3815.00    1.41484   0.73590   -1.000
 3816.00    1.11428   0.72050   -1.000
 3817.00    1.00585   0.70295   -1.000
 3818.00    1.03883   0.68857   -1.000
 3819.00    1.04850   0.68018   -1.000
 3820.00    1.01550   0.67701   -1.000
 3821.00    1.01506   0.67608   -1.000
 3822.00    1.09345   0.67461   -1.000
 3823.00    1.18790   0.67140   -1.000
 3824.00    1.06878   0.66648   -1.000
 3825.00    0.61653   0.65977   16.220
 3826.00    0.11777   0.65058   -1.000
 3827.00   -0.04672   0.63836   -2.000
 3828.00    0.23688   0.62373   -1.000
 3829.00    0.81849   0.60838   12.218
 3830.00    1.34987   0.59376   -1.000
 3831.00    1.55881   0.57982   -1.000
 3832.00    1.47263   0.56479   -1.000
 3833.00    1.27007   0.54632   -1.000
 3834.00    1.12966   0.52311   -1.000
 3835.00    1.11996   0.49609   -1.000
 3836.00    1.14504   0.46868   -1.000
 3837.00    1.09447   0.44564   -1.000
 3838.00    0.94336   0.43139   -1.000
 3839.00    0.69953   0.42855   -1.000
 3840.00    0.38054   0.43736   26.278
 3841.00    0.10179   0.45624   -1.000
 3842.00    0.08533   0.48281   -1.000
 3843.00    0.42201   0.51456   23.696
 3844.00    0.96035   0.54896   -1.000
 3845.00    1.41085   0.58336   -1.000
 3846.00    1.49827   0.61509   -1.000
 3847.00    1.38788   0.64215    0.000
 3848.00    1.65417   0.66365    0.000
 3849.00    2.34694   0.67985    0.000
 3850.00    2.82856   0.69167    0.000
 3851.00    2.67986   0.70035    0.000
 3852.00    2.00330   0.70724    0.000
 3853.00    1.20789   0.71359    0.000
 3854.00    0.77444   0.72005    0.000
 3855.00    0.77973   0.72625    0.000
 3856.00    0.91243   0.73084    0.000
 3857.00    0.98151   0.73247    0.000
 3858.00    1.01356   0.73061    0.000
 3859.00    1.08840   0.72598    0.000
 3860.00    1.24739   0.72037    0.000
 3861.00    1.38842   0.71611    0.000
 3862.00    1.35143   0.71549    0.000
 3863.00    1.16950   0.71992    0.000
 3864.00    1.02291   0.72915    0.000
 3865.00    1.01889   0.74111    0.000
 3866.00    1.16411   0.75282    0.000
 3867.00    1.40371   0.76179    0.000
 3868.00    1.58839   0.76702    0.000
 3869.00    1.41618   0.76885    0.000
 3870.00    0.73181   0.76792    0.000
 3871.00    0.00354   0.76429    0.000
 3872.00   -0.17925   0.75743   -2.000
 3873.00    0.04746   0.74722    0.000
 3874.00    0.24961   0.73498    0.000
 3875.00    0.44538   0.72350    0.000
 3876.00    0.81889   0.71562    0.000
 3877.00    1.23630   0.71228    0.000
 3878.00    1.42867   0.71184    0.000
 3879.00    1.28158   0.71114    0.000
 3880.00    0.87249   0.70769    0.000
 3881.00    0.45781   0.70105   -1.000
 3882.00    0.27091   0.69226   -1.000
 3883.00    0.33036   0.68227   -1.000
 3884.00    0.54150   0.67074   18.467
 3885.00    0.80771   0.65615   12.381
 3886.00    1.03833   0.63682   -1.000
 3887.00    1.15526   0.61203   -1.000
 3888.00    1.15635   0.58269   -1.000
 3889.00    1.14472   0.55169   -1.000
 3890.00    1.17762   0.52362   -1.000
 3891.00    1.17488   0.50385   -1.000
 3892.00    1.05613   0.49676   -1.000
 3893.00    0.83662   0.50404   -1.000
 3894.00    0.62360   0.52386   16.036
 3895.00    0.57146   0.55150   17.499
 3896.00    0.66320   0.58128   15.078
 3897.00    0.66552   0.60869   15.026
 3898.00    0.53201   0.63157   18.797
 3899.00    0.51585   0.64988   19.386
 3900.00    0.69730   0.66479   14.341
 3901.00    0.84936   0.67775   11.774
 3902.00    0.85588   0.68986   11.684
 3903.00    0.83977   0.70144   11.908
 3904.00    0.92035   0.71183   10.865
 3905.00    1.10216   0.71966   -1.000
 3906.00    1.24606   0.72397   -1.000
 3907.00    1.16505   0.72537   -1.000
 3908.00    0.96564   0.72631   10.356
 3909.00    0.97394   0.73014   10.268
 3910.00    1.15975   0.73930   -1.000
 3911.00    1.18679   0.75387   -1.000
 3912.00    1.06041   0.77131   -1.000
 3913.00    1.10093   0.78758   -1.000
 3914.00    1.38921   0.79890   -1.000
 3915.00    1.73649   0.80319   -1.000
 3916.00    1.96830   0.80052   -1.000
 3917.00    2.01968   0.79255   -1.000
 3918.00    1.98149   0.78147   -1.000
 3919.00    1.95489   0.76921   -1.000
 3920.00    1.75361   0.75705   -1.000
 3921.00    1.17025   0.74585   -1.000
 3922.00    0.55837   0.73638   17.909
 3923.00    0.44769   0.72925   -1.000
 3924.00    0.72602   0.72452   13.774
 3925.00    0.95591   0.72111   10.461
 3926.00    1.07522   0.71670   -1.000
 3927.00    1.20621   0.70816   -1.000
 3928.00    1.23668   0.69265   -1.000
 3929.00    1.03572   0.66846   -1.000
 3930.00    0.79698   0.63544   12.547
 3931.00    0.71913   0.59489   13.906
 3932.00    0.59698   0.54911   16.751
 3933.00    0.29109   0.50126   -1.000
 3934.00    0.25108   0.45529   -1.000
 3935.00    0.81063   0.41593   -1.000
 3936.00    1.46805   0.38817   -1.000
 3937.00    1.65373   0.37622   -1.000
 3938.00    1.48362   0.38229   -1.000
 3939.00    1.27173   0.40564   -1.000
 3940.00    1.07127   0.44254   -1.000
 3941.00    0.95649   0.48714   -1.000
 3942.00    1.21761   0.53300   -1.000
 3943.00    1.85681   0.57469   -1.000
 3944.00    2.30520   0.60907   -1.000
 3945.00    2.18718   0.63571   -1.000
 3946.00    1.78289   0.65637   -1.000
 3947.00    1.48670   0.67357   -1.000
 3948.00    1.43499   0.68912   -1.000
 3949.00    1.47659   0.70337   -1.000
 3950.00    1.25829   0.71559   -1.000
 3951.00    0.71061   0.72512   14.072
 3952.00    0.21065   0.73211   -1.000
 3953.00    0.08828   0.73743   -1.000
 3954.00    0.39061   0.74202   -1.000
 3955.00    0.96512   0.74614   10.361
 3956.00    1.53761   0.74929   -1.000
 3957.00    1.85289   0.75046   -1.000
 3958.00    1.76568   0.74876   -1.000
 3959.00    1.35368   0.74385   -1.000
 3960.00    0.89437   0.73579    0.000
 3961.00    0.63692   0.72435    0.000
 3962.00    0.69269   0.70845    0.000
 3963.00    0.95614   0.68647    0.000
 3964.00    1.17749   0.65721    0.000
 3965.00    1.24249   0.62072    0.000
 3966.00    1.18794   0.57817    0.000
 3967.00    1.01737   0.53126    0.000
 3968.00    0.72858   0.48192    0.000
 3969.00    0.50309   0.43281    0.000
 3970.00    0.57539   0.38789    0.000
 3971.00    0.83821   0.35239    0.000
 3972.00    0.98215   0.33160    0.000
 3973.00    0.97072   0.32913    0.000
 3974.00    0.97603   0.34560    0.000
 3975.00    1.06180   0.37845    0.000
 3976.00    1.17227   0.42296    0.000
 3977.00    1.22625   0.47379    0.000
 3978.00    1.19502   0.52625    0.000
 3979.00    1.19393   0.57697    0.000
 3980.00    1.36083   0.62368    0.000
 3981.00    1.65777   0.66475   -1.000
 3982.00    1.94535   0.69891   -1.000
 3983.00    2.12545   0.72541   -1.000
 3984.00    2.14477   0.74452   -1.000
 3985.00    1.97653   0.75790   -1.000
 3986.00    1.64496   0.76814   -1.000
 3987.00    1.25199   0.77772   -1.000
 3988.00    0.91921   0.78806   10.879
 3989.00    0.72271   0.79920   13.837
 3990.00    0.70284   0.81035   14.228
 3991.00    0.87322   0.82073   11.452
 3992.00    1.15164   0.83002   -1.000
 3993.00    1.32102   0.83834   -1.000
 3994.00    1.25533   0.84566   -1.000
 3995.00    1.08576   0.85137    9.210
 3996.00    0.96910   0.85429   10.319
 3997.00    0.91066   0.85348   10.981
 3998.00    0.87099   0.84926   11.481
 3999.00    0.84533   0.84374   11.830
 4000.00    0.82202   0.84019   12.165
 4001.00    0.76929   0.84141   12.999
 4002.00    0.74172   0.84804   13.482
 4003.00    0.89097   0.85801   11.224
 4004.00    1.16166   0.86742   -1.000
 4005.00    1.22047   0.87243   -1.000
 4006.00    0.96905   0.87126   10.319
 4007.00    0.70986   0.86507   14.087
 4008.00    0.66216   0.85750   15.102
 4009.00    0.77981   0.85294   12.824
 4010.00    0.98488   0.85441   10.153
 4011.00    1.24773   0.86223   -1.000
 4012.00    1.48375   0.87417   -1.000
 4013.00    1.54599   0.88694   -1.000
 4014.00    1.35183   0.89795   -1.000
 4015.00    0.94174   0.90614   10.619
 4016.00    0.51170   0.91187   -1.000
 4017.00    0.34962   0.91616   -1.000
 4018.00    0.61376   0.91997   -1.000
 4019.00    1.22443   0.92389   -1.000
 4020.00    1.76925   0.92804   -1.000
 4021.00    1.77164   0.93203   -1.000
 4022.00    1.42259   0.93492   -1.000
 4023.00    1.32284   0.93547   -1.000
 4024.00    1.44152   0.93277   -1.000
 4025.00    1.31626   0.92706   -1.000
 4026.00    1.01838   0.91999    9.819
 4027.00    0.96529   0.91397   10.360
 4028.00    1.13037   0.91064    8.847
 4029.00    1.18706   0.90959   -1.000
 4030.00    1.06088   0.90811    9.426
 4031.00    0.86877   0.90257   11.511
 4032.00    0.64709   0.89071   15.454
 4033.00    0.41471   0.87338   -1.000
 4034.00    0.33210   0.85474   -1.000
 4035.00    0.52390   0.84054   -1.000
 4036.00    0.80691   0.83566   12.393
 4037.00    0.93739   0.84216   10.668
 4038.00    0.97212   0.85869   10.287
 4039.00    1.06624   0.88112    9.379
 4040.00    1.18534   0.90408    8.436
 4041.00    1.27216   0.92259   -1.000
 4042.00    1.44842   0.93334   -1.000
 4043.00    1.76002   0.93521   -1.000
 4044.00    1.92707   0.92891   -1.000
 4045.00    1.71159   0.91627   -1.000
 4046.00    1.26429   0.89983   -1.000
 4047.00    0.87679   0.88297   11.405
 4048.00    0.72948   0.86972   13.708
 4049.00    0.82451   0.86379   12.128
 4050.00    0.97347   0.86672   10.272
 4051.00    1.00000   0.87686   10.000
 4052.00    0.88787   0.88973   11.263
 4053.00    0.74762   0.90016   13.376
 4054.00    0.75356   0.90447   13.270
 4055.00    0.93487   0.90173   10.697
 4056.00    1.09306   0.89357    9.149
 4057.00    1.08299   0.88313    9.234
 4058.00    0.95897   0.87367   10.428
 4059.00    0.85708   0.86755   11.668
 4060.00    0.89404   0.86560   11.185
 4061.00    1.00872   0.86702    9.914
 4062.00    0.97674   0.86970   10.238
 4063.00    0.81091   0.87094   12.332
 4064.00    0.80173   0.86873   12.473
 4065.00    0.94033   0.86280   10.635
 4066.00    0.86720   0.85506   11.531
 4067.00    0.58659   0.84865   -1.000
 4068.00    0.52677   0.84625   -1.000
 4069.00    0.79718   0.84864   12.544
 4070.00    1.08559   0.85443    9.212
 4071.00    1.17257   0.86100   -1.000
 4072.00    1.09209   0.86575    9.157
 4073.00    1.09405   0.86709    9.140
 4074.00    1.42537   0.86467   -1.000
 4075.00    1.80139   0.85901   -1.000
 4076.00    1.70388   0.85063   -1.000
 4077.00    1.43447   0.83981   -1.000
 4078.00    1.70884   0.82701   -1.000
 4079.00    2.18472   0.81398   -1.000
 4080.00    1.94293   0.80405   -1.000
 4081.00    1.15166   0.80096   -1.000
 4082.00    0.66485   0.80664   15.041
 4083.00    0.60744   0.81969   16.462
 4084.00    0.56491   0.83574   -1.000
 4085.00    0.39229   0.84977   -1.000
 4086.00    0.21628   0.85868   -1.000
 4087.00    0.20036   0.86258   -1.000
 4088.00    0.41663   0.86417   -1.000
 4089.00    0.72125   0.86659   13.865
 4090.00    0.88042   0.87155   11.358
 4091.00    0.77246   0.87851   12.946
 4092.00    0.47465   0.88516    0.000
 4093.00    0.31498   0.88887    0.000
 4094.00    0.55779   0.88770    0.000
 4095.00    1.05129   0.88077    0.000
 4096.00    1.45634   0.86794    0.000
 4097.00    1.54330   0.84933    0.000
 4098.00    1.30683   0.82520    0.000
 4099.00    1.02034   0.79600    0.000
 4100.00    0.94152   0.76257    0.000
 4101.00    1.05398   0.72632    0.000
 4102.00    1.19896   0.68960    0.000
 4103.00    1.22369   0.65597    0.000
 4104.00    1.14414   0.63014    0.000
 4105.00    1.20611   0.61683    0.000
 4106.00    1.47195   0.61901    0.000
 4107.00    1.60913   0.63618    0.000
 4108.00    1.46586   0.66413    0.000
 4109.00    1.35204   0.69640    0.000
 4110.00    1.38458   0.72690    0.000
 4111.00    1.21548   0.75186    0.000
 4112.00    0.78057   0.77070    0.000
 4113.00    0.56621   0.78532   17.661
 4114.00    0.79483   0.79854   12.581
 4115.00    1.13823   0.81251   -1.000
 4116.00    1.37068   0.82771   -1.000
 4117.00    1.58256   0.84285   -1.000
 4118.00    1.74364   0.85551   -1.000
 4119.00    1.63307   0.86338   -1.000
 4120.00    1.31868   0.86525   -1.000
 4121.00    1.17281   0.86172   -1.000
 4122.00    1.24492   0.85497   -1.000
 4123.00    1.22053   0.84787   -1.000
 4124.00    1.04159   0.84284    9.601
 4125.00    0.94893   0.84101   10.538
 4126.00    0.97585   0.84200   10.247
 4127.00    0.94135   0.84430   10.623
 4128.00    0.86477   0.84594   11.564
 4129.00    0.91644   0.84523   10.912
 4130.00    0.99818   0.84137   10.018
 4131.00    0.87578   0.83473   11.418
 4132.00    0.73001   0.82667   13.698
 4133.00    0.91466   0.81903   10.933
 4134.00    1.17531   0.81369   -1.000
 4135.00    0.97840   0.81234   10.221
 4136.00    0.47842   0.81630   -1.000
 4137.00    0.22598   0.82618   -1.000
 4138.00    0.29734   0.84136   -1.000
 4139.00    0.44630   0.85984   -1.000
 4140.00    0.61764   0.87844   -1.000
 4141.00    0.84885   0.89364   11.781
 4142.00    0.99711   0.90238   10.029
 4143.00    0.91935   0.90281   10.877
 4144.00    0.76993   0.89503   12.988
 4145.00    0.75528   0.88146   13.240
 4146.00    0.77738   0.86638   12.864
 4147.00    0.67854   0.85457   14.737
 4148.00    0.57222   0.84914   -1.000
 4149.00    0.62047   0.85028   16.117
 4150.00    0.76050   0.85534   13.149
 4151.00    0.88018   0.86069   11.361
 4152.00    1.01287   0.86351    9.873
 4153.00    1.18979   0.86282   -1.000
 4154.00    1.29917   0.85917   -1.000
 4155.00    1.23473   0.85375   -1.000
 4156.00    1.02923   0.84776    9.716
 4157.00    0.79964   0.84239   12.506
 4158.00    0.67914   0.83883   14.725
 4159.00    0.70141   0.83830   14.257
 4160.00    0.74243   0.84152   13.469
 4161.00    0.69062   0.84837   14.480
 4162.00    0.56510   0.85776   -1.000
 4163.00    0.50631   0.86818   -1.000
 4164.00    0.71649   0.87819   13.957
 4165.00    1.18032   0.88682   -1.000
 4166.00    1.57382   0.89354   -1.000
 4167.00    1.63411   0.89799   -1.000
 4168.00    1.35050   0.89990   -1.000
 4169.00    0.91199   0.89900   10.965
 4170.00    0.61299   0.89511   -1.000
 4171.00    0.57307   0.88797   -1.000
 4172.00    0.67723   0.87710   14.766
 4173.00    0.84287   0.86227   11.864
 4174.00    1.09015   0.84411   -1.000
 4175.00    1.38405   0.82460   -1.000
 4176.00    1.61999   0.80683   -1.000
 4177.00    1.78255   0.79385   -1.000
 4178.00    1.92795   0.78722   -1.000
 4179.00    1.95849   0.78661   -1.000
 4180.00    1.67150   0.79048   -1.000
 4181.00    1.10381   0.79707   -1.000
 4182.00    0.54560   0.80512   -1.000
 4183.00    0.30189   0.81385   -1.000
 4184.00    0.51473   0.82260   -1.000
 4185.00    0.90585   0.83070   11.039
 4186.00    1.02060   0.83754    9.798
 4187.00    0.89720   0.84280   11.146
 4188.00    0.87594   0.84648   11.416
 4189.00    0.90905   0.84898   11.001
 4190.00    0.74847   0.85116   13.361
 4191.00    0.55587   0.85421   -1.000
 4192.00    0.63944   0.85907   15.639
 4193.00    0.81578   0.86600   12.258
 4194.00    0.75452   0.87413   13.253
 4195.00    0.67987   0.88159   14.709
 4196.00    0.96997   0.88607   10.310
 4197.00    1.42848   0.88532   -1.000
 4198.00    1.63405   0.87820   -1.000
 4199.00    1.54677   0.86568   -1.000
 4200.00    1.37412   0.85035   -1.000
 4201.00    1.29682   0.83532   -1.000
 4202.00    1.36205   0.82331   -1.000
 4203.00    1.41750   0.81593   -1.000
 4204.00    1.33024   0.81334   -1.000
 4205.00    1.20643   0.81463   -1.000
 4206.00    1.17668   0.81892   -1.000
 4207.00    1.18019   0.82580   -1.000
 4208.00    1.11330   0.83485   -1.000
 4209.00    0.97455   0.84552   10.261
 4210.00    0.80582   0.85705   12.410
 4211.00    0.63949   0.86816   15.638
 4212.00    0.54478   0.87761   -1.000
 4213.00    0.63874   0.88471   15.656
 4214.00    0.88763   0.88904   11.266
 4215.00    1.02122   0.89036    9.792
 4216.00    0.89575   0.88884   11.164
 4217.00    0.68805   0.88541   14.534
 4218.00    0.61005   0.88190   16.392
 4219.00    0.73009   0.88048   13.697
 4220.00    0.97862   0.88281   10.218
 4221.00    1.18977   0.88885   -1.000
 4222.00    1.26585   0.89631   -1.000
 4223.00    1.24101   0.90134   -1.000
 4224.00    1.18747   0.89988   -1.000
 4225.00    1.16299   0.88909   -1.000
 4226.00    1.18382   0.86922   -1.000
 4227.00    1.21488   0.84374   -1.000
 4228.00    1.17624   0.81812   -1.000
 4229.00    1.00059   0.79851    9.994
 4230.00    0.81971   0.79031   12.199
 4231.00    0.88240   0.79577   11.333
 4232.00    1.08010   0.81245   -1.000
 4233.00    1.03768   0.83446    9.637
 4234.00    0.84643   0.85457   11.814
 4235.00    0.96348   0.86705   10.379
 4236.00    1.33105   0.86977   -1.000
 4237.00    1.47934   0.86498   -1.000
 4238.00    1.39917   0.85729   -1.000
 4239.00    1.44319   0.85088   -1.000
 4240.00    1.58082   0.84845   -1.000
 4241.00    1.50117   0.85075   -1.000
 4242.00    1.20184   0.85704   -1.000
 4243.00    0.91643   0.86640   10.912
 4244.00    0.72335   0.87757   13.825
 4245.00    0.56822   0.88858   -1.000
 4246.00    0.44479   0.89737   -1.000
 4247.00    0.40499   0.90200   -1.000
 4248.00    0.51611   0.90100   -1.000
 4249.00    0.77513   0.89452   12.901
 4250.00    1.00160   0.88431    9.984
 4251.00    1.03598   0.87271    9.653
 4252.00    1.02256   0.86220    9.779
 4253.00    1.15284   0.85502   -1.000
 4254.00    1.30268   0.85219   -1.000
 4255.00    1.28960   0.85307   -1.000
 4256.00    1.21169   0.85638   -1.000
 4257.00    1.17500   0.86118   -1.000
 4258.00    0.98497   0.86626   10.153
 4259.00    0.52312   0.86979   -1.000
 4260.00    0.11729   0.87080   -1.000
 4261.00    0.09037   0.86969   -1.000
 4262.00    0.33694   0.86754   -1.000
 4263.00    0.61348   0.86612   16.300
 4264.00    0.81686   0.86805   12.242
 4265.00    0.96258   0.87569   10.389
 4266.00    1.13046   0.88888    8.846
 4267.00    1.31459   0.90460   -1.000
 4268.00    1.35953   0.91814   -1.000
 4269.00    1.26089   0.92461   -1.000
 4270.00    1.28520   0.92130   -1.000
 4271.00    1.43047   0.90842   -2.000
 4272.00    1.23677   0.88815   -2.000
 4273.00    0.64711   0.86400   -2.000
 4274.00    0.30584   0.84064   -2.000
 4275.00    0.49595   0.82244   -2.000
 4276.00    0.75681   0.81239   -2.000
 4277.00    0.79189   0.81201   -2.000
 4278.00    0.79704   0.82117   -2.000
 4279.00    0.91680   0.83691   -2.000
 4280.00    1.05013   0.85460   -2.000
 4281.00    1.08011   0.87063   -2.000
 4282.00    0.98037   0.88228   -2.000
 4283.00    0.84165   0.88765   -2.000
 4284.00    0.81710   0.88683   -2.000
 4285.00    0.91228   0.88171   -2.000
 4286.00    0.99822   0.87440   -2.000
 4287.00    1.07413   0.86608    9.310
 4288.00    1.24572   0.85662   -1.000
 4289.00    1.42864   0.84551   -1.000
 4290.00    1.40185   0.83260   -1.000
 4291.00    1.16990   0.81863   -1.000
 4292.00    0.92733   0.80574   10.784
 4293.00    0.74158   0.79653   13.485
 4294.00    0.57603   0.79287   17.360
 4295.00    0.51005   0.79527   -1.000
 4296.00    0.65017   0.80197   15.381
 4297.00    0.85683   0.80869   11.671
 4298.00    0.87952   0.81036   11.370
 4299.00    0.70786   0.80435   14.127
 4300.00    0.50198   0.79134   -1.000
 4301.00    0.35818   0.77349   -1.000
 4302.00    0.29170   0.75309   -1.000
 4303.00    0.27803   0.73310   -1.000
 4304.00    0.32262   0.71678   -1.000
 4305.00    0.54246   0.70692   18.435
 4306.00    1.01236   0.70421   -1.000
 4307.00    1.55375   0.70642   -1.000
 4308.00    1.87806   0.71072   -1.000
 4309.00    1.81055   0.71540   -1.000
 4310.00    1.45112   0.71942   -1.000
 4311.00    1.27765   0.72331   -1.000
 4312.00    1.54786   0.72902   -1.000
 4313.00    1.74226   0.73812   -1.000
 4314.00    1.44427   0.75133   -1.000
 4315.00    1.14900   0.76797   -1.000
 4316.00    1.31578   0.78628   -1.000
 4317.00    1.54991   0.80493   -1.000
 4318.00    1.43218   0.82406   -1.000
 4319.00    1.18621   0.84416   -1.000
 4320.00    1.11181   0.86445    8.994
 4321.00    1.15117   0.88198   -1.000
 4322.00    1.14009   0.89245    8.771
 4323.00    1.01141   0.89364    9.887
 4324.00    0.83500   0.88615   11.976
 4325.00    0.78808   0.87182   12.689
 4326.00    0.87110   0.85346   11.480
 4327.00    0.82910   0.83451   12.061
 4328.00    0.63810   0.81796   15.671
 4329.00    0.64732   0.80683   15.448
 4330.00    0.94991   0.80413    0.000
 4331.00    1.18827   0.81081    0.000
 4332.00    1.13774   0.82384    0.000
 4333.00    0.91629   0.83693    0.000
 4334.00    0.70053   0.84489    0.000
 4335.00    0.59336   0.84595    0.000
 4336.00    0.60372   0.84049    0.000
 4337.00    0.68139   0.82802    0.000
 4338.00    0.85868   0.80670    0.000
 4339.00    1.20425   0.77604    0.000
 4340.00    1.51732   0.73761    0.000
 4341.00    1.44165   0.69472    0.000
 4342.00    1.08920   0.65389    0.000
 4343.00    0.93060   0.62347    0.000
 4344.00    0.99411   0.60904    0.000
 4345.00    0.93661   0.61234    0.000
 4346.00    0.77092   0.63257    0.000
 4347.00    0.78809   0.66495    0.000
 4348.00    0.95662   0.70201    0.000
 4349.00    1.01932   0.73813    0.000
 4350.00    0.98811   0.76987    0.000
 4351.00    1.03525   0.79393    9.660
 4352.00    1.08500   0.80878   -1.000
 4353.00    0.95874   0.81536   10.430
 4354.00    0.76763   0.81580   13.027
 4355.00    0.75992   0.81356   13.159
 4356.00    0.95887   0.81377   10.429
 4357.00    1.20462   0.82084   -1.000
 4358.00    1.31416   0.83455   -1.000
 4359.00    1.18727   0.85075   -1.000
 4360.00    0.91316   0.86600   10.951
 4361.00    0.67592   0.87886   14.795
 4362.00    0.61118   0.88890   -1.000
 4363.00    0.74684   0.89747   13.390
 4364.00    0.96366   0.90712   10.377
 4365.00    1.10893   0.91866    9.018
 4366.00    1.12356   0.92992    8.900
 4367.00    1.02228   0.93802    9.782
 4368.00    0.86069   0.94131   11.619
 4369.00    0.73056   0.93916   13.688
 4370.00    0.74621   0.93154   13.401
 4371.00    0.93833   0.91991   10.657
 4372.00    1.17572   0.90738   -1.000
 4373.00    1.26554   0.89674   -1.000
 4374.00    1.06599   0.88855    9.381
 4375.00    0.69629   0.88175   14.362
 4376.00    0.58841   0.87558   -1.000
 4377.00    0.84490   0.86997   11.836
 4378.00    0.94665   0.86606   10.564
 4379.00    0.63460   0.86638   15.758
 4380.00    0.32870   0.87247   -1.000
 4381.00    0.34818   0.88160   -1.000
 4382.00    0.53458   0.88768   -1.000
 4383.00    0.67653   0.88543   14.781
 4384.00    0.73420   0.87332   13.620
 4385.00    0.79265   0.85309   12.616
 4386.00    0.97592   0.82823   10.247
 4387.00    1.19864   0.80384   -1.000
 4388.00    1.18221   0.78661   -1.000
 4389.00    0.94703   0.78168   10.559
 4390.00    0.84702   0.78855   11.806
 4391.00    0.96662   0.80203   10.345
 4392.00    1.04279   0.81688    9.590
 4393.00    0.96327   0.83034   10.381
 4394.00    0.85186   0.84107   11.739
 4395.00    0.79430   0.84890   12.590
 4396.00    0.77531   0.85471   12.898
 4397.00    0.75258   0.85874   13.288
 4398.00    0.70974   0.86097   14.090
 4399.00    0.73179   0.86281   13.665
 4400.00    0.92287   0.86579   10.836
 4401.00    1.17080   0.86867   -1.000
 4402.00    1.24756   0.86855   -1.000
 4403.00    1.14805   0.86486   -1.000
 4404.00    1.03372   0.85952    9.674
 4405.00    0.96727   0.85523   10.338
 4406.00    0.90932   0.85287   10.997
 4407.00    0.81521   0.85045   12.267
 4408.00    0.66877   0.84699   14.953
 4409.00    0.50724   0.84514   -1.000
 4410.00    0.40423   0.84729   -1.000
 4411.00    0.43264   0.85225   -1.000
 4412.00    0.59802   0.85870   16.722
 4413.00    0.76052   0.86700   13.149
 4414.00    0.79438   0.87588   12.588
 4415.00    0.80146   0.88187   12.477
 4416.00    0.93215   0.88262   10.728
 4417.00    1.13970   0.87763   -1.000
 4418.00    1.26991   0.86808   -1.000
 4419.00    1.20498   0.85829   -1.000
 4420.00    0.97881   0.85365   10.216
 4421.00    0.84925   0.85578   11.775
 4422.00    0.96562   0.86328   10.356
 4423.00    1.08251   0.87373    9.238
 4424.00    0.93965   0.88326   10.642
 4425.00    0.60166   0.88886   -1.000
 4426.00    0.28644   0.89085   -1.000
 4427.00    0.18271   0.89180   -1.000
 4428.00    0.30198   0.89317   -1.000
 4429.00    0.42197   0.89412   -1.000
 4430.00    0.41386   0.89392   -1.000
 4431.00    0.42783   0.89260   -1.000
 4432.00    0.59813   0.89030   -1.000
 4433.00    0.86468   0.88644   11.565
 4434.00    1.08127   0.88079    9.248
 4435.00    1.11158   0.87524    8.996
 4436.00    0.96737   0.87098   10.337
 4437.00    0.82537   0.86780   12.116
 4438.00    0.75564   0.86680   13.234
 4439.00    0.65172   0.87012   15.344
 4440.00    0.53307   0.87869   -1.000
 4441.00    0.60046   0.88973   -1.000
 4442.00    0.88415   0.89820   11.310
 4443.00    1.17863   0.90039   -1.000
 4444.00    1.36355   0.89530   -1.000
 4445.00    1.47411   0.88512   -1.000
 4446.00    1.50477   0.87459   -1.000
 4447.00    1.39795   0.86880   -1.000
 4448.00    1.23327   0.87082   -1.000
 4449.00    1.19355   0.87957   -1.000
 4450.00    1.28722   0.89015   -1.000
 4451.00    1.34769   0.89856   -1.000
 4452.00    1.25856   0.90368   -1.000
 4453.00    1.01239   0.90425    9.878
 4454.00    0.69772   0.89965   14.332
 4455.00    0.47587   0.89161   -1.000
 4456.00    0.53236   0.88119   -1.000
 4457.00    0.92625   0.86806   10.796
 4458.00    1.31671   0.85318   -1.000
 4459.00    1.26690   0.83964   -1.000
 4460.00    0.91952   0.83015   10.875
 4461.00    0.74648   0.82432    0.000
 4462.00    0.87915   0.82076    0.000
 4463.00    1.15246   0.81942    0.000
 4464.00    1.37665   0.82049    0.000
 4465.00    1.43019   0.82360    0.000
 4466.00    1.32759   0.82928    0.000
 4467.00    1.15861   0.83705    0.000
 4468.00    0.99110   0.84401    0.000
 4469.00    0.88064   0.84839    0.000
 4470.00    0.89463   0.85046    0.000
 4471.00    1.04525   0.85092    0.000
 4472.00    1.21673   0.85127    0.000
 4473.00    1.27665   0.85414    0.000
 4474.00    1.20397   0.86188    0.000
 4475.00    1.07881   0.87472    0.000
 4476.00    1.04449   0.89106    0.000
 4477.00    1.15574   0.90820    0.000
 4478.00    1.26735   0.92286    0.000
 4479.00    1.25972   0.93247    0.000
 4480.00    1.21360   0.93614    0.000
 4481.00    1.21012   0.93356    0.000
 4482.00    1.18423   0.92438   -1.000
 4483.00    1.07523   0.91027    9.300
 4484.00    0.92945   0.89562   10.759
 4485.00    0.81149   0.88572   12.323
 4486.00    0.74725   0.88403   13.382
 4487.00    0.76332   0.88989   13.101
 4488.00    0.89199   0.89907   11.211
 4489.00    1.05549   0.90717    9.474
 4490.00    1.06197   0.91099    9.416
 4491.00    0.91568   0.90893   10.921
 4492.00    0.88536   0.90214   11.295
 4493.00    1.06771   0.89421    9.366
 4494.00    1.26024   0.88848   -1.000
 4495.00    1.32159   0.88599   -1.000
 4496.00    1.29462   0.88559   -1.000
 4497.00    1.25206   0.88584   -1.000
 4498.00    1.22443   0.88695   -1.000
 4499.00    1.17709   0.89045   -1.000
 4500.00    1.04132   0.89679    9.603
 4501.00    0.84011   0.90528   11.903
 4502.00    0.69302   0.91482   14.430
 4503.00    0.69945   0.92398   14.297
 4504.00    0.87348   0.93247   11.448
 4505.00    1.07150   0.94186    9.333
 4506.00    1.09197   0.95352    9.158
 4507.00    0.97562   0.96562   10.250
 4508.00    0.94417   0.97491   10.591
 4509.00    1.07106   0.97993    9.337
 4510.00    1.25416   0.98089   -1.000
 4511.00    1.33423   0.97890   -1.000
 4512.00    1.20525   0.97579    8.297
 4513.00    0.97287   0.97276   10.279
 4514.00    0.82986   0.96917   12.050
 4515.00    0.77612   0.96372   12.885
 4516.00    0.70940   0.95618   14.096
 4517.00    0.66047   0.94733   15.141
 4518.00    0.71106   0.93844   14.063
 4519.00    0.81002   0.93101   12.345
 4520.00    0.86536   0.92568   11.556
 4521.00    0.91003   0.92194   10.989
 4522.00    1.00747   0.91950    9.926
 4523.00    1.10351   0.91786    9.062
 4524.00    1.12056   0.91549    8.924
 4525.00    1.08862   0.91053    9.186
 4526.00    1.06148   0.90237    9.421
 4527.00    1.01410   0.89215    9.861
 4528.00    0.93586   0.88047   10.685
 4529.00    0.92179   0.86752   10.848
 4530.00    1.00328   0.85457    9.967
 4531.00    1.00611   0.84307    9.939
 4532.00    0.80969   0.83437   12.350
 4533.00    0.56152   0.82964   -1.000
 4534.00    0.46662   0.82893   -1.000
 4535.00    0.59716   0.83124   16.746
 4536.00    0.85128   0.83501   11.747
 4537.00    0.97712   0.83978   10.234
 4538.00    0.88173   0.84735   11.341
 4539.00    0.78717   0.85928   12.704
 4540.00    0.86690   0.87435   11.535
 4541.00    1.04310   0.88874    9.587
 4542.00    1.19279   0.89900   -1.000
 4543.00    1.26936   0.90433   -1.000
 4544.00    1.27012   0.90590   -1.000
 4545.00    1.22242   0.90554   -1.000
 4546.00    1.21538   0.90401   -1.000
 4547.00    1.36539   0.90057   -1.000
 4548.00    1.59673   0.89537   -1.000
 4549.00    1.64300   0.88983   -1.000
 4550.00    1.45796   0.88414    0.000
 4551.00    1.28143   0.87716    0.000
 4552.00    1.23927   0.86873    0.000
 4553.00    1.25460   0.86121    0.000
 4554.00    1.28205   0.85674    0.000
 4555.00    1.34766   0.85422    0.000
 4556.00    1.40777   0.85237    0.000
 4557.00    1.35969   0.85168    0.000
 4558.00    1.20494   0.85369    0.000
 4559.00    1.05084   0.86001    0.000
 4560.00    0.98353   0.87059    0.000
 4561.00    1.02540   0.88290    0.000
 4562.00    1.12005   0.89436    0.000
 4563.00    1.16998   0.90371    0.000
 4564.00    1.12730   0.90996    0.000
 4565.00    0.99785   0.91204    0.000
 4566.00    0.80591   0.90961    0.000
 4567.00    0.60395   0.90471    0.000
 4568.00    0.50217   0.90102    0.000
 4569.00    0.58833   0.90097    0.000
 4570.00    0.78443   0.90457    0.000
 4571.00    0.95900   0.90978    0.000
 4572.00    1.14049   0.91442    0.000
 4573.00    1.39462   0.91709    0.000
 4574.00    1.60037   0.91700    0.000
 4575.00    1.58723   0.91597    0.000
 4576.00    1.36316   0.91655    0.000
 4577.00    1.05599   0.91777    0.000
 4578.00    0.79981   0.91761    0.000
 4579.00    0.71732   0.91584    0.000
 4580.00    0.90404   0.91245    0.000
 4581.00    1.29088   0.90653    0.000
 4582.00    1.53639   0.89736    0.000
 4583.00    1.42461   0.88616    0.000
 4584.00    1.22195   0.87533    0.000
 4585.00    1.21083   0.86644    0.000
 4586.00    1.27320   0.86016    0.000
 4587.00    1.23882   0.85773    0.000
 4588.00    1.18002   0.85982    0.000
 4589.00    1.19533   0.86517    0.000
 4590.00    1.23923   0.87225    0.000
 4591.00    1.23076   0.87949    0.000
 4592.00    1.14195   0.88521    0.000
 4593.00    1.01311   0.88809    0.000
 4594.00    0.94061   0.88781    0.000
 4595.00    0.96508   0.88550    0.000
 4596.00    1.02427   0.88305    0.000
 4597.00    1.06817   0.88141    0.000
 4598.00    1.10979   0.88039    0.000
 4599.00    1.14692   0.88034    0.000
 4600.00    1.14111   0.88149    0.000
 4601.00    1.11194   0.88331    0.000
 4602.00    1.13499   0.88494    0.000
 4603.00    1.14456   0.88553    0.000
 4604.00    0.95462   0.88592    0.000
 4605.00    0.66877   0.88742    0.000
 4606.00    0.65958   0.88994    0.000
 4607.00    0.91425   0.89343    0.000
 4608.00    1.01049   0.89812    0.000
 4609.00    0.82440   0.90473    0.000
 4610.00    0.61882   0.91340    0.000
 4611.00    0.57928   0.92301    0.000
 4612.00    0.69721   0.93152    0.000
 4613.00    0.85755   0.93699    0.000
 4614.00    0.92260   0.93900    0.000
 4615.00    0.87451   0.93840    0.000
 4616.00    0.80507   0.93598    0.000
 4617.00    0.80349   0.93292    0.000
 4618.00    0.89850   0.92963    0.000
 4619.00    0.99782   0.92584    0.000
 4620.00    0.97977   0.92269    0.000
 4621.00    0.89390   0.92033    0.000
 4622.00    0.87958   0.91857    0.000
 4623.00    0.94792   0.91906    0.000
 4624.00    1.02040   0.92220    0.000
 4625.00    1.05988   0.92598    0.000
 4626.00    1.07162   0.92933    0.000
 4627.00    1.06957   0.93163    0.000
 4628.00    1.05957   0.93195    0.000
 4629.00    1.02427   0.93080    0.000
 4630.00    0.94377   0.92898    0.000
 4631.00    0.82427   0.92588    0.000
 4632.00    0.68476   0.92175    0.000
 4633.00    0.53883   0.91895    0.000
 4634.00    0.42191   0.91789    0.000
 4635.00    0.41710   0.91600    0.000
 4636.00    0.58014   0.91222    0.000
 4637.00    0.85994   0.90782    0.000
 4638.00    1.10357   0.90379    0.000
 4639.00    1.09522   0.90015    0.000
 4640.00    0.80353   0.89672    0.000
 4641.00    0.54685   0.89411    0.000
 4642.00    0.58544   0.89286    0.000
 4643.00    0.81443   0.89295    0.000
 4644.00    1.00998   0.89397    0.000
 4645.00    1.03706   0.89430    0.000
 4646.00    0.90828   0.89214    0.000
 4647.00    0.78338   0.88728    0.000
 4648.00    0.76498   0.87996    0.000
 4649.00    0.79513   0.87098    0.000
 4650.00    0.80464   0.86294    0.000
 4651.00    0.79603   0.85842    0.000
 4652.00    0.80415   0.85836    0.000
 4653.00    0.86527   0.86218    0.000
 4654.00    0.98050   0.86813    0.000
 4655.00    1.10502   0.87464    0.000
 4656.00    1.17752   0.88020    0.000
 4657.00    1.15053   0.88333    0.000
 4658.00    1.05603   0.88475    0.000
 4659.00    0.99006   0.88643    0.000
 4660.00    0.95905   0.88993    0.000
 4661.00    0.87900   0.89608    0.000
 4662.00    0.77110   0.90317    0.000
 4663.00    0.76410   0.90803    0.000
 4664.00    0.88724   0.90861    0.000
 4665.00    1.04209   0.90425    0.000
 4666.00    1.11638   0.89533    0.000
 4667.00    1.05406   0.88306    0.000
 4668.00    0.94418   0.86790    0.000
 4669.00    0.94954   0.85049    0.000
 4670.00    1.08073   0.83436    0.000
 4671.00    1.21974   0.82421    0.000
 4672.00    1.29729   0.82175    0.000
 4673.00    1.30611   0.82601    0.000
 4674.00    1.24478   0.83527    0.000
 4675.00    1.13848   0.84701    0.000
 4676.00    1.09515   0.85923    0.000
 4677.00    1.19749   0.87113    0.000
 4678.00    1.30701   0.88147    0.000
 4679.00    1.23278   0.88869    0.000
 4680.00    1.04547   0.89150    0.000
 4681.00    0.92903   0.89005    0.000
 4682.00    0.89548   0.88631    0.000
 4683.00    0.86634   0.88232    0.000
 4684.00    0.83748   0.87912    0.000
 4685.00    0.84836   0.87769    0.000
 4686.00    0.91625   0.87849    0.000
 4687.00    1.03325   0.88066    0.000
 4688.00    1.17044   0.88332    0.000
 4689.00    1.26096   0.88598    0.000
 4690.00    1.19435   0.88789    0.000
 4691.00    0.95296   0.88872    0.000
 4692.00    0.72426   0.88865    0.000
 4693.00    0.69094   0.88769    0.000
 4694.00    0.84038   0.88642    0.000
 4695.00    1.04003   0.88604    0.000
 4696.00    1.13094   0.88669    0.000
 4697.00    1.06324   0.88776    0.000
 4698.00    0.96783   0.88864    0.000
 4699.00    0.95503   0.88811    0.000
 4700.00    0.98236   0.88476    0.000
 4701.00    0.95193   0.87862    0.000
 4702.00    0.79556   0.87139    0.000
 4703.00    0.56943   0.86424    0.000
 4704.00    0.46666   0.85707    0.000
 4705.00    0.58781   0.85005    0.000
 4706.00    0.84216   0.84454    0.000
 4707.00    1.09688   0.84192    0.000
 4708.00    1.25856   0.84149    0.000
 4709.00    1.28289   0.84132    0.000
 4710.00    1.17768   0.84068    0.000
 4711.00    1.00069   0.84053    0.000
 4712.00    0.84234   0.84223    0.000
 4713.00    0.76480   0.84622    0.000
 4714.00    0.77648   0.85136    0.000
 4715.00    0.82908   0.85592    0.000
 4716.00    0.85345   0.85964    0.000
 4717.00    0.87441   0.86365    0.000
 4718.00    0.97228   0.86943    0.000
 4719.00    1.05931   0.87708    0.000
 4720.00    0.96344   0.88519    0.000
 4721.00    0.83643   0.89304    0.000
 4722.00    1.01287   0.90088    0.000
 4723.00    1.37796   0.90826    0.000
 4724.00    1.49013   0.91405    0.000
 4725.00    1.23977   0.91745    0.000
 4726.00    0.87036   0.91852    0.000
 4727.00    0.68186   0.91739    0.000
 4728.00    0.85549   0.91337    0.000
 4729.00    1.24902   0.90545    0.000
 4730.00    1.53250   0.89415    0.000
 4731.00    1.50751   0.88190    0.000
 4732.00    1.19708   0.87096    0.000
 4733.00    0.88220   0.86206    0.000
 4734.00    0.83997   0.85598    0.000
 4735.00    0.95219   0.85374    0.000
 4736.00    0.94717   0.85511    0.000
 4737.00    0.81590   0.85900    0.000
 4738.00    0.71743   0.86369    0.000
 4739.00    0.77497   0.86781    0.000
 4740.00    0.97162   0.87226    0.000
 4741.00    1.07986   0.87759    0.000
 4742.00    0.94739   0.88216    0.000
 4743.00    0.78825   0.88534    0.000
 4744.00    0.82474   0.88831    0.000
 4745.00    0.92634   0.89182    0.000
 4746.00    0.94580   0.89555    0.000
 4747.00    1.02802   0.89852    0.000
 4748.00    1.25909   0.90069    0.000
 4749.00    1.38802   0.90287    0.000
 4750.00    1.21961   0.90476    0.000
 4751.00    0.90769   0.90567    0.000
 4752.00    0.66987   0.90563    0.000
 4753.00    0.57160   0.90442    0.000
 4754.00    0.59349   0.90158    0.000
 4755.00    0.68954   0.89715    0.000
 4756.00    0.81098   0.89167    0.000
 4757.00    0.92060   0.88604    0.000
 4758.00    0.99929   0.88117    0.000
 4759.00    1.04249   0.87750    0.000
 4760.00    1.02441   0.87531    0.000
 4761.00    0.90201   0.87437   11.086
 4762.00    0.72202   0.87359   13.850
 4763.00    0.62838   0.87125   15.914
 4764.00    0.66841   0.86603   14.961
 4765.00    0.74780   0.85851   13.373
 4766.00    0.80038   0.85044   12.494
 4767.00    0.83525   0.84298   11.972
 4768.00    0.84796   0.83720   11.793
 4769.00    0.81362   0.83463   12.291
 4770.00    0.77821   0.83636   12.850
 4771.00    0.83972   0.84223   11.909
 4772.00    0.99251   0.85063   10.075
 4773.00    1.12730   0.85924   -1.000
 4774.00    1.17256   0.86698   -1.000
 4775.00    1.12972   0.87451    8.852
 4776.00    1.05345   0.88221    9.493
 4777.00    1.01683   0.88918    9.834
 4778.00    1.04246   0.89446    9.593
 4779.00    1.11082   0.89836    9.002
 4780.00    1.21476   0.90153   -1.000
 4781.00    1.33301   0.90325   -1.000
 4782.00    1.35585   0.90261   -1.000
 4783.00    1.18284   0.90005   -1.000
 4784.00    0.92648   0.89610   10.794
 4785.00    0.79459   0.89079   12.585
 4786.00    0.82600   0.88478   12.106
 4787.00    0.91970   0.87912   10.873
 4788.00    0.95842   0.87382   10.434
 4789.00    0.89064   0.86905   11.228
 4790.00    0.81290   0.86578   12.302
 4791.00    0.84602   0.86422   11.820
 4792.00    0.95931   0.86465   10.424
 4793.00    1.05118   0.86740    9.513
 4794.00    1.07746   0.87215    9.281
 4795.00    1.05117   0.87896    9.513
 4796.00    1.02213   0.88728    9.783
 4797.00    1.04407   0.89518    9.578
 4798.00    1.13856   0.90104    8.783
 4799.00    1.25735   0.90398   -1.000
 4800.00    1.26592   0.90361   -1.000
 4801.00    1.10237   0.90063    9.071
 4802.00    0.90021   0.89641   11.109
 4803.00    0.80219   0.89238   12.466
 4804.00    0.80982   0.88940   12.348
 4805.00    0.87643   0.88729   11.410
 4806.00    0.98105   0.88508   10.193
 4807.00    1.08876   0.88241    9.185
 4808.00    1.13333   0.87999   -1.000
 4809.00    1.10746   0.87798    9.030
 4810.00    1.10069   0.87572    9.085
 4811.00    1.17410   0.87348   -1.000
 4812.00    1.29117   0.87223   -1.000
 4813.00    1.35879   0.87250   -1.000
 4814.00    1.27639   0.87434   -1.000
 4815.00    1.05509   0.87722    9.478
 4816.00    0.84633   0.88101   11.816
 4817.00    0.80285   0.88574   12.456
 4818.00    0.98559   0.89085   10.146
 4819.00    1.25671   0.89580   -1.000
 4820.00    1.33177   0.90012   -1.000
 4821.00    1.14222   0.90330    8.755
 4822.00    0.89460   0.90458   11.178
 4823.00    0.77778   0.90320   12.857
 4824.00    0.84385   0.89867   11.850
 4825.00    0.97793   0.89069   10.226
 4826.00    0.98699   0.88099   10.132
 4827.00    0.88081   0.87298   11.353
 4828.00    0.84156   0.86787   11.883
 4829.00    0.91147   0.86468   10.971
 4830.00    0.99145   0.86255   10.086
 4831.00    1.05609   0.86157    9.469
 4832.00    1.15324   0.86264   -1.000
 4833.00    1.27601   0.86447   -1.000
 4834.00    1.36016   0.86470   -1.000
 4835.00    1.34358   0.86375   -1.000
 4836.00    1.20261   0.86310   -1.000
 4837.00    0.99479   0.86283   10.052
 4838.00    0.82186   0.86223   12.168
 4839.00    0.74805   0.86111   13.368
 4840.00    0.77089   0.85959   12.972
 4841.00    0.80338   0.85728   12.447
 4842.00    0.77532   0.85401   12.898
 4843.00    0.78130   0.85067   12.799
 4844.00    0.93566   0.84793   10.688
 4845.00    1.14873   0.84543   -1.000
 4846.00    1.25492   0.84321   -1.000
 4847.00    1.21421   0.84205   -1.000
 4848.00    1.08723   0.84157    0.000
 4849.00    0.97114   0.83994    0.000
 4850.00    0.93083   0.83587    0.000
 4851.00    0.93871   0.83056    0.000
 4852.00    0.94932   0.82583    0.000
 4853.00    0.97744   0.82074    0.000
 4854.00    1.06715   0.81352    0.000
 4855.00    1.25039   0.80395    0.000
 4856.00    1.49438   0.79184    0.000
 4857.00    1.67842   0.77667    0.000
 4858.00    1.74696   0.75895    0.000
 4859.00    1.80340   0.73948    0.000
 4860.00    1.89377   0.71800    0.000
 4861.00    1.87964   0.69373    0.000
 4862.00    1.68124   0.66724    0.000
 4863.00    1.41647   0.64214    0.000
 4864.00    1.21728   0.62383    0.000
 4865.00    1.11470   0.61465    0.000
 4866.00    1.06217   0.61333    0.000
 4867.00    0.97286   0.61940    0.000
 4868.00    0.82335   0.63330    0.000
 4869.00    0.68400   0.65382    0.000
 4870.00    0.60779   0.67728    0.000
 4871.00    0.59281   0.69879    0.000
 4872.00    0.65658   0.71488    0.000
 4873.00    0.83688   0.72491    0.000
 4874.00    1.06268   0.73116    0.000
 4875.00    1.16377   0.73667   -1.000
 4876.00    1.09590   0.74245   -1.000
 4877.00    0.96872   0.74836   10.323
 4878.00    0.85543   0.75505   11.690
 4879.00    0.75711   0.76411   13.208
 4880.00    0.69753   0.77584   14.336
 4881.00    0.71723   0.78848   13.943
 4882.00    0.77343   0.79937   12.929
 4883.00    0.78370   0.80658   12.760
 4884.00    0.80930   0.81040   12.356
 4885.00    0.97983   0.81176   10.206
 4886.00    1.20400   0.81048   -1.000
 4887.00    1.26334   0.80620   -1.000
 4888.00    1.16661   0.79971   -1.000
 4889.00    1.09793   0.79344   -1.000
 4890.00    1.15274   0.78898   -1.000
 4891.00    1.28830   0.78573   -1.000
 4892.00    1.34126   0.78299   -1.000
 4893.00    1.17363   0.78188   -1.000
 4894.00    0.90498   0.78538   11.050
 4895.00    0.74854   0.79433   13.359
 4896.00    0.69968   0.80648   14.292
 4897.00    0.65367   0.82000   15.298
 4898.00    0.63823   0.83407   15.668
 4899.00    0.69984   0.84817   14.289
 4900.00    0.72261   0.86001   13.839
 4901.00    0.63039   0.86641   15.863
 4902.00    0.63704   0.86734   15.698
 4903.00    0.90617   0.86563   11.036
 4904.00    1.16919   0.86265   -1.000
 4905.00    1.13721   0.85847   -1.000
 4906.00    0.94406   0.85440   10.592
 4907.00    0.83928   0.85261   11.915
 4908.00    0.86041   0.85332   11.622
 4909.00    0.92537   0.85374   10.807
 4910.00    0.94887   0.85183   10.539
 4911.00    0.92136   0.84801   10.854
 4912.00    0.94423   0.84311   10.591
 4913.00    1.05864   0.83798    9.446
 4914.00    1.13998   0.83371   -1.000
 4915.00    1.08117   0.83081   -1.000
 4916.00    0.91528   0.82931   10.926
 4917.00    0.74858   0.82917   13.359
 4918.00    0.69368   0.82950   14.416
 4919.00    0.75999   0.82770   13.158
 4920.00    0.82440   0.82088   12.130
 4921.00    0.81015   0.80895   12.343
 4922.00    0.76796   0.79464   13.022
 4923.00    0.78797   0.78104   12.691
 4924.00    0.93084   0.77026   10.743
 4925.00    1.12935   0.76292   -1.000
 4926.00    1.20437   0.76018   -1.000
 4927.00    1.11085   0.76456   -1.000
 4928.00    0.98406   0.77647   10.162
 4929.00    0.91817   0.79223   10.891
 4930.00    0.90077   0.80778   11.102
 4931.00    0.89192   0.82215   11.212
 4932.00    0.86750   0.83521   11.527
 4933.00    0.86190   0.84531   11.602
 4934.00    0.93303   0.84974   10.718
 4935.00    1.02360   0.84754    9.769
 4936.00    1.00094   0.84132    9.991
 4937.00    0.87273   0.83420   11.458
 4938.00    0.76697   0.82672   13.038
 4939.00    0.73521   0.81788   13.602
 4940.00    0.74418   0.80855    0.000
 4941.00    0.77120   0.80273    0.000
 4942.00    0.81429   0.80338    0.000
 4943.00    0.86609   0.80822    0.000
 4944.00    0.91409   0.81416    0.000
 4945.00    0.95213   0.82159    0.000
 4946.00    0.98988   0.83144    0.000
 4947.00    1.06301   0.84205    0.000
 4948.00    1.18149   0.85077    0.000
 4949.00    1.24945   0.85706    0.000
 4950.00    1.18044   0.86178    0.000
 4951.00    1.08000   0.86496    0.000
 4952.00    1.09695   0.86651    0.000
 4953.00    1.18931   0.86732    0.000
 4954.00    1.24292   0.86728    0.000
 4955.00    1.25803   0.86519    0.000
 4956.00    1.28922   0.86113    0.000
 4957.00    1.34896   0.85572    0.000
 4958.00    1.41454   0.84791    0.000
 4959.00    1.44990   0.83685    0.000
 4960.00    1.43367   0.82704    0.000
 4961.00    1.38102   0.82320    0.000
 4962.00    1.30423   0.82358    0.000
 4963.00    1.18204   0.82466    0.000
 4964.00    1.02579   0.82681    0.000
 4965.00    0.92474   0.83297    0.000
 4966.00    0.94145   0.84089    0.000
 4967.00    1.03292   0.84454    0.000
 4968.00    1.09720   0.84333    0.000
 4969.00    1.03282   0.84058    0.000
 4970.00    0.88274   0.83776    0.000
 4971.00    0.86949   0.83462    0.000
 4972.00    1.04035   0.83177    0.000
 4973.00    1.12889   0.83146    0.000
 4974.00    1.00929   0.83425    0.000
 4975.00    0.88355   0.83834    0.000
 4976.00    0.89884   0.84278    0.000
 4977.00    0.98674   0.84669    0.000
 4978.00    1.06852   0.84907    0.000
 4979.00    1.13682   0.84863    0.000
 4980.00    1.16833   0.84411    0.000
 4981.00    1.10781   0.83617    0.000
 4982.00    0.96129   0.82542    0.000
 4983.00    0.81406   0.81173    0.000
 4984.00    0.75687   0.79569    0.000
 4985.00    0.83585   0.78011    0.000
 4986.00    0.98310   0.76857    0.000
 4987.00    1.06020   0.76188    0.000
 4988.00    1.05681   0.75951    0.000
 4989.00    1.07839   0.76194    0.000
 4990.00    1.13913   0.76902    0.000
 4991.00    1.16609   0.77867    0.000
 4992.00    1.16214   0.78810    0.000
 4993.00    1.18345   0.79621    0.000
 4994.00    1.18731   0.80294    0.000
 4995.00    1.08431   0.80674    0.000
 4996.00    0.92706   0.80791    0.000
 4997.00    0.84815   0.80883    0.000
 4998.00    0.85726   0.80979    0.000
 4999.00    0.90194   0.81007    0.000
 5000.00    1.05023   0.80846    0.000
 5001.00    1.40141   0.80472    0.000
 5002.00    1.88280   0.79962    0.000
 5003.00    2.30864   0.79284    0.000
 5004.00    2.52825   0.78496    0.000
 5005.00    2.49720   0.77726    0.000
 5006.00    2.33565   0.76977    0.000
 5007.00    2.18252   0.76240    0.000
 5008.00    2.00295   0.75666    0.000
 5009.00    1.72644   0.75468    0.000
 5010.00    1.43548   0.75615    0.000
 5011.00    1.24605   0.75783    0.000
 5012.00    1.15449   0.75814    0.000
 5013.00    1.10210   0.75830    0.000
 5014.00    1.05769   0.75810    0.000
 5015.00    1.00957   0.75572    0.000
 5016.00    0.95300   0.75032    0.000
 5017.00    0.91431   0.74413    0.000
 5018.00    0.95916   0.73870    0.000
 5019.00    1.07512   0.73315    0.000
 5020.00    1.10478   0.72854    0.000
 5021.00    0.97082   0.72791    0.000
 5022.00    0.81438   0.73141    0.000
 5023.00    0.75726   0.73572    0.000
 5024.00    0.75359   0.73923    0.000
 5025.00    0.73418   0.74464    0.000
 5026.00    0.69839   0.75328    0.000
 5027.00    0.67889   0.76198    0.000
 5028.00    0.70981   0.76818    0.000
 5029.00    0.78367   0.77231   12.760
 5030.00    0.84379   0.77708   11.851
 5031.00    0.85713   0.78287   11.667
 5032.00    0.84412   0.78729   11.847
 5033.00    0.84760   0.79020   11.798
 5034.00    0.90036   0.79375   11.107
 5035.00    0.95581   0.79871   10.462
 5036.00    0.90553   0.80205   11.043
 5037.00    0.75057   0.80067   13.323
 5038.00    0.61613   0.79610   16.230
 5039.00    0.57560   0.79104   17.373
 5040.00    0.60427   0.78382   16.549
 5041.00    0.63521   0.77270   15.743
 5042.00    0.61141   0.75986   16.356
 5043.00    0.57801   0.74963   17.301
 5044.00    0.64148   0.74552   15.589
 5045.00    0.79108   0.74642   12.641
 5046.00    0.90737   0.74994   11.021
 5047.00    0.90436   0.75668   11.057
 5048.00    0.78013   0.76720   12.818
 5049.00    0.64445   0.77848   15.517
 5050.00    0.63420   0.78600   15.768
 5051.00    0.73024   0.78895   13.694
 5052.00    0.80621   0.78928   12.404
 5053.00    0.79542   0.78733   12.572
 5054.00    0.71707   0.78369   13.946
 5055.00    0.66072   0.78168   15.135
 5056.00    0.69198   0.78345   14.451
 5057.00    0.71368   0.78795   14.012
 5058.00    0.59691   0.79378   16.753
 5059.00    0.40226   0.80135   -1.000
 5060.00    0.29151   0.81016   -1.000
 5061.00    0.35956   0.81789   -1.000
 5062.00    0.58004   0.82334   17.240
 5063.00    0.77895   0.82713   12.838
 5064.00    0.80635   0.82923   12.402
 5065.00    0.72686   0.82813   13.758
 5066.00    0.66713   0.82298   14.990
 5067.00    0.63637   0.81579   15.714
 5068.00    0.60151   0.80895   16.625
 5069.00    0.57559   0.80133   17.374
 5070.00    0.58096   0.79236   17.213
 5071.00    0.61198   0.78509   16.340
 5072.00    0.66650   0.78198   15.004
 5073.00    0.76839   0.78022   13.014
 5074.00    0.91455   0.77743   10.934
 5075.00    1.04090   0.77591   -1.000
 5076.00    1.08286   0.77614   -1.000
 5077.00    1.02081   0.77491   -1.000
 5078.00    0.88170   0.77169   11.342
 5079.00    0.73163   0.76884   13.668
 5080.00    0.63730   0.76533   15.691
 5081.00    0.63713   0.75838   15.695
 5082.00    0.71182   0.75055   14.048
 5083.00    0.78519   0.74563   12.736
 5084.00    0.80694   0.74238   12.393
 5085.00    0.78779   0.73876   12.694
 5086.00    0.76283   0.73787   13.109
 5087.00    0.76475   0.74268   13.076
 5088.00    0.78898   0.75029   12.675
 5089.00    0.79655   0.75722   12.554
 5090.00    0.78260   0.76435   12.778
 5091.00    0.78390   0.77288   12.757
 5092.00    0.80777   0.78072   12.380
 5093.00    0.82659   0.78633   12.098
 5094.00    0.84585   0.79110   11.822
 5095.00    0.89590   0.79557   11.162
 5096.00    0.93886   0.79796   10.651
 5097.00    0.89593   0.79720   11.162
 5098.00    0.80044   0.79394   12.493
 5099.00    0.77595   0.78845   12.887
 5100.00    0.87025   0.78050   11.491
 5101.00    1.02474   0.77126   -1.000
 5102.00    1.10845   0.76359   -1.000
 5103.00    1.01526   0.75880   -1.000
 5104.00    0.84691   0.75617   11.808
 5105.00    0.79921   0.75543   12.512
 5106.00    0.86408   0.75732   11.573
 5107.00    0.89381   0.76094   11.188
 5108.00    0.82565   0.76341   12.112
 5109.00    0.69313   0.76314   14.427
 5110.00    0.57209   0.76166   17.480
 5111.00    0.53065   0.76016   -1.000
 5112.00    0.56812   0.75838   17.602
 5113.00    0.63940   0.75748   15.640
 5114.00    0.70371   0.75901   14.210
 5115.00    0.73488   0.76260   13.608
 5116.00    0.72578   0.76730   13.778
 5117.00    0.68632   0.77314   14.570
 5118.00    0.63975   0.77990   15.631
 5119.00    0.61321   0.78606   16.308
 5120.00    0.62663   0.79011   15.958
 5121.00    0.68148   0.79143   14.674
 5122.00    0.75290   0.79030   13.282
 5123.00    0.81601   0.78690   12.255
 5124.00    0.86927   0.78058   11.504
 5125.00    0.91223   0.77119   10.962
 5126.00    0.92764   0.76063   10.780
 5127.00    0.90856   0.75091   11.006
 5128.00    0.87625   0.74232   11.412
 5129.00    0.84129   0.73474   11.887
 5130.00    0.78226   0.72916   12.783
 5131.00    0.70497   0.72663   14.185
 5132.00    0.67004   0.72691   14.925
 5133.00    0.70624   0.72896   14.159
 5134.00    0.76908   0.73166   13.003
 5135.00    0.82486   0.73486   12.123
 5136.00    0.88491   0.73931   11.301
 5137.00    0.92112   0.74437   10.856
 5138.00    0.85408   0.74733   11.708
 5139.00    0.71658   0.74752   13.955
 5140.00    0.67376   0.74661   14.842
 5141.00    0.75706   0.74505   13.209
 5142.00    0.81420   0.74256   12.282
 5143.00    0.79621   0.73888   12.560
 5144.00    0.81383   0.73421   12.288
 5145.00    0.89827   0.73086   11.133
 5146.00    0.95774   0.73074   -1.000
 5147.00    0.94660   0.73096   10.564
 5148.00    0.89932   0.72886   11.119
 5149.00    0.84793   0.72758   11.793
 5150.00    0.80708   0.72891   12.390
 5151.00    0.80908   0.72993   12.360
 5152.00    0.88381   0.72881   11.315
 5153.00    0.98031   0.72740   -1.000
 5154.00    1.00515   0.72735   -1.000
 5155.00    0.96441   0.72777   -1.000
 5156.00    0.93437   0.72781   10.702
 5157.00    0.91939   0.72886   10.877
 5158.00    0.87786   0.73220   11.391
 5159.00    0.83998   0.73687   11.905
 5160.00    0.86912   0.74193   11.506
 5161.00    0.94454   0.74757   10.587
 5162.00    0.99514   0.75302   10.049
 5163.00    0.99641   0.75586   10.036
 5164.00    0.96604   0.75444   10.351
 5165.00    0.92875   0.74942   10.767
 5166.00    0.89268   0.74117   11.202
 5167.00    0.82675   0.72821   12.096
 5168.00    0.71720   0.71065   13.943
 5169.00    0.64200   0.69122   15.576
 5170.00    0.67469   0.67245   14.822
 5171.00    0.75944   0.65601   13.168
 5172.00    0.80736   0.64293   12.386
 5173.00    0.82092   0.63243   12.181
 5174.00    0.84862   0.62623   -1.000
 5175.00    0.92050   0.62883   -1.000
 5176.00    1.02586   0.63972   -1.000
 5177.00    1.10343   0.65200   -1.000
 5178.00    1.09776   0.66361   -1.000
 5179.00    1.01000   0.67931   -1.000
 5180.00    0.88971   0.69828   11.240
 5181.00    0.81471   0.71269   12.274
 5182.00    0.81204   0.71956   12.315
 5183.00    0.81382   0.72159   12.288
 5184.00    0.77022   0.71865   12.983
 5185.00    0.71972   0.70925   13.894
 5186.00    0.70858   0.69808   14.113
 5187.00    0.73975   0.69038   13.518
 5188.00    0.80051   0.68490   12.492
 5189.00    0.87982   0.68029   11.366
 5190.00    0.96236   0.68083    0.000
 5191.00    1.02470   0.68900    0.000
 5192.00    1.03488   0.69858    0.000
 5193.00    0.96771   0.70304    0.000
 5194.00    0.87362   0.70401    0.000
 5195.00    0.86611   0.70683    0.000
 5196.00    0.93531   0.70954    0.000
 5197.00    0.92739   0.70718    0.000
 5198.00    0.77524   0.70416    0.000
 5199.00    0.55966   0.70648    0.000
 5200.00    0.39678   0.71125    0.000
 5201.00    0.37528   0.71472    0.000
 5202.00    0.49301   0.71856    0.000
 5203.00    0.66352   0.72317    0.000
 5204.00    0.79773   0.72642    0.000
 5205.00    0.84474   0.72725    0.000
 5206.00    0.83099   0.72427    0.000
 5207.00    0.82959   0.71773    0.000
 5208.00    0.85706   0.71053    0.000
 5209.00    0.88044   0.70397    0.000
 5210.00    0.89534   0.69652    0.000
 5211.00    0.92261   0.69079   -1.000
 5212.00    0.96172   0.69090   -1.000
 5213.00    0.98773   0.69534   -1.000
 5214.00    0.96721   0.70101   -1.000
 5215.00    0.89546   0.70886   11.167
 5216.00    0.85293   0.71824   11.724
 5217.00    0.91156   0.72588   10.970
 5218.00    0.97030   0.73195   10.306
 5219.00    0.88107   0.73756   11.350
 5220.00    0.67751   0.74192   14.760
 5221.00    0.50819   0.74457   -1.000
 5222.00    0.49060   0.74731   -1.000
 5223.00    0.64581   0.75085   15.484
 5224.00    0.84991   0.75331   11.766
 5225.00    0.95905   0.75267   10.427
 5226.00    0.96095   0.74864   10.406
 5227.00    0.91761   0.74145   10.898
 5228.00    0.88176   0.73101   11.341
 5229.00    0.88663   0.71977   11.279
 5230.00    0.94221   0.71120   -1.000
 5231.00    1.01428   0.70510   -1.000
 5232.00    1.01555   0.70081   -1.000
 5233.00    0.90382   0.70111   11.064
 5234.00    0.75475   0.70627   13.249
 5235.00    0.65568   0.71163   15.251
 5236.00    0.62213   0.71569   16.074
 5237.00    0.64241   0.72033   15.566
 5238.00    0.71160   0.72508   14.053
 5239.00    0.81119   0.72937   12.328
 5240.00    0.90199   0.73456   11.087
 5241.00    0.97414   0.74119   10.266
 5242.00    1.06309   0.74852   -1.000
 5243.00    1.16149   0.75551   -1.000
 5244.00    1.19319   0.76087   -1.000
 5245.00    1.14536   0.76473   -1.000
 5246.00    1.10492   0.76811   -1.000
 5247.00    1.09518   0.76977   -1.000
 5248.00    1.03355   0.76744   -1.000
 5249.00    0.89992   0.76322   11.112
 5250.00    0.78328   0.75998   12.767
 5251.00    0.76107   0.75555   13.139
 5252.00    0.84302   0.74805   11.862
 5253.00    0.95474   0.74166   10.474
 5254.00    0.98164   0.73926   -1.000
 5255.00    0.93145   0.73772   10.736
 5256.00    0.92024   0.73550   10.867
 5257.00    0.95682   0.73594   10.451
 5258.00    0.94909   0.74018   10.536
 5259.00    0.91722   0.74467   10.903
 5260.00    0.96626   0.74720   10.349
 5261.00    1.05375   0.74896   -1.000
 5262.00    1.03815   0.74997   -1.000
 5263.00    0.94167   0.74713   10.619
 5264.00    0.90708   0.73884   11.024
 5265.00    0.96007   0.72667   -1.000
 5266.00    1.01969   0.71169   -1.000
 5267.00    1.02949   0.69416   -1.000
 5268.00    0.97833   0.67693   -1.000
 5269.00    0.88703   0.66344   -1.000
 5270.00    0.79532   0.65249   12.574
 5271.00    0.74369   0.64273   13.446
 5272.00    0.76312   0.63840   13.104
 5273.00    0.86326   0.64141   -1.000
 5274.00    1.02122   0.64576   -1.000
 5275.00    1.17058   0.64919   -1.000
 5276.00    1.24078   0.65685   -1.000
 5277.00    1.21224   0.66889   -1.000
 5278.00    1.12166   0.68048   -1.000
 5279.00    1.05354   0.69108   -1.000
 5280.00    1.05791   0.70164   -1.000
 5281.00    1.06786   0.71085   -1.000
 5282.00    1.01864   0.71883   -1.000
 5283.00    0.96967   0.72604   -1.000
 5284.00    0.96767   0.73037   10.334
 5285.00    0.91939   0.73144   10.877
 5286.00    0.75907   0.73248   13.174
 5287.00    0.58925   0.73611   16.971
 5288.00    0.51282   0.74105   -1.000
 5289.00    0.49862   0.74609   -1.000
 5290.00    0.49164   0.75304   -1.000
 5291.00    0.49922   0.76289   -1.000
 5292.00    0.54979   0.77240   -1.000
 5293.00    0.65620   0.77867   15.239
 5294.00    0.79099   0.78205   12.642
 5295.00    0.88579   0.78347   11.289
 5296.00    0.91458   0.78250   10.934
 5297.00    0.92783   0.77822   10.778
 5298.00    0.96723   0.77054   10.339
 5299.00    1.02118   0.76110   -1.000
 5300.00    1.04378   0.75253   -1.000
 5301.00    0.98441   0.74561   -1.000
 5302.00    0.87123   0.73921   11.478
 5303.00    0.81316   0.73409   12.298
 5304.00    0.84916   0.73339   11.776
 5305.00    0.91121   0.73741   10.974
 5306.00    0.93196   0.74281   10.730
 5307.00    0.89133   0.74800   11.219
 5308.00    0.82550   0.75427   12.114
 5309.00    0.80026   0.76162   12.496
 5310.00    0.81782   0.76818   12.228
 5311.00    0.81750   0.77285   12.232
 5312.00    0.76866   0.77601   13.010
 5313.00    0.69397   0.77827   14.410
 5314.00    0.65336   0.77953   15.306
 5315.00    0.69992   0.77929   14.287
 5316.00    0.78549   0.77760   12.731
 5317.00    0.81359   0.77443   12.291
 5318.00    0.81207   0.76979   12.314
 5319.00    0.88207   0.76521   11.337
 5320.00    1.00796   0.76164   -1.000
 5321.00    1.09158   0.75770   -1.000
 5322.00    1.09764   0.75345   -1.000
 5323.00    1.04484   0.75101   -1.000
 5324.00    0.94032   0.74927   10.635
 5325.00    0.80569   0.74502   12.412
 5326.00    0.73443   0.73850   13.616
 5327.00    0.80111   0.73213   12.483
 5328.00    0.91808   0.72473   10.892
 5329.00    0.95825   0.71378   -1.000
 5330.00    0.94902   0.70238   -1.000
 5331.00    0.97636   0.69602   -1.000
 5332.00    1.03127   0.69334   -1.000
 5333.00    1.05979   0.69092   -1.000
 5334.00    1.04480   0.69191   -1.000
 5335.00    1.00608   0.69965   -1.000
 5336.00    0.98593   0.71014   -1.000
 5337.00    1.00055   0.71835   -1.000
 5338.00    0.99950   0.72453   -1.000
 5339.00    0.93565   0.73054   10.688
 5340.00    0.82958   0.73513   12.054
 5341.00    0.73212   0.73561   13.659
 5342.00    0.68404   0.73309   14.619
 5343.00    0.68823   0.73159   14.530
 5344.00    0.70044   0.73149   14.277
 5345.00    0.70703   0.73049   14.144
 5346.00    0.76467   0.72974   13.078
 5347.00    0.88198   0.73141   11.338
 5348.00    0.96320   0.73430   10.382
 5349.00    0.96326   0.73646   10.381
 5350.00    0.95752   0.73745   10.444
 5351.00    0.98097   0.73830   -1.000
 5352.00    0.96447   0.74069   10.368
 5353.00    0.89115   0.74418   11.222
 5354.00    0.84925   0.74724   -2.000
 5355.00    0.88555   0.75147   -2.000
 5356.00    0.95120   0.75883   -2.000
 5357.00    0.98206   0.76700   -2.000
 5358.00    0.94155   0.77361   -2.000
 5359.00    0.84209   0.77972   -2.000
 5360.00    0.73677   0.78569   -2.000
 5361.00    0.65972   0.78947   -2.000
 5362.00    0.61466   0.79001   -2.000
 5363.00    0.61200   0.78800   -2.000
 5364.00    0.66494   0.78403   -2.000
 5365.00    0.73884   0.77826   -2.000
 5366.00    0.77112   0.77062   -2.000
 5367.00    0.77081   0.76169   -2.000
 5368.00    0.80033   0.75302   -2.000
 5369.00    0.85494   0.74500   11.697
 5370.00    0.87642   0.73721   11.410
 5371.00    0.86090   0.72992   11.616
 5372.00    0.84929   0.72350   11.775
 5373.00    0.84847   0.71881   11.786
 5374.00    0.83229   0.71684   12.015
 5375.00    0.78018   0.71711   12.818
 5376.00    0.69672   0.71937   14.353
 5377.00    0.63079   0.72503   15.853
 5378.00    0.63206   0.73329   15.821
 5379.00    0.67348   0.74133   14.848
 5380.00    0.69333   0.74824   14.423
 5381.00    0.68076   0.75366   14.689
 5382.00    0.66343   0.75663   15.073
 5383.00    0.66947   0.75760   14.937
 5384.00    0.71393   0.75707   14.007
 5385.00    0.78870   0.75501   12.679
 5386.00    0.86865   0.75312   11.512
 5387.00    0.92226   0.75242   10.843
 5388.00    0.93018   0.75165   10.751
 5389.00    0.90243   0.75096   11.081
 5390.00    0.84974   0.75096   11.768
 5391.00    0.75659   0.75005   13.217
 5392.00    0.63358   0.74755   15.783
 5393.00    0.56112   0.74437   17.822
 5394.00    0.60165   0.74006   16.621
 5395.00    0.72428   0.73443   13.807
 5396.00    0.85658   0.72905   11.674
 5397.00    0.93460   0.72398   10.700
 5398.00    0.92378   0.71802   10.825
 5399.00    0.83257   0.71289   12.011
 5400.00    0.71590   0.71043   13.968
 5401.00    0.66195   0.70815   15.107
 5402.00    0.69747   0.70485   14.337
 5403.00    0.74759   0.70378   13.376
 5404.00    0.75590   0.70461   13.229
 5405.00    0.74621   0.70286   13.401
 5406.00    0.76221   0.69877   13.120
 5407.00    0.82764   0.69548   12.083
 5408.00    0.92159   0.69215   -1.000
 5409.00    0.98304   0.68760   -1.000
 5410.00    0.98282   0.68360   -1.000
 5411.00    0.94462   0.68184   -1.000
 5412.00    0.89353   0.68288   11.192
 5413.00    0.84119   0.68648   11.888
 5414.00    0.81354   0.69119   12.292
 5415.00    0.84287   0.69649   11.864
 5416.00    0.90339   0.70358   11.069
 5417.00    0.92500   0.71189   10.811
 5418.00    0.90836   0.71903   11.009
 5419.00    0.91713   0.72427   10.904
 5420.00    0.94496   0.72899   10.582
 5421.00    0.92665   0.73335   10.792
 5422.00    0.87455   0.73574   11.434
 5423.00    0.86366   0.73610   11.579
 5424.00    0.90138   0.73567   11.094
 5425.00    0.93237   0.73425   10.725
 5426.00    0.92491   0.73196   10.812
 5427.00    0.88264   0.73041   11.330
 5428.00    0.82598   0.72914   12.107
 5429.00    0.78415   0.72684   12.753
 5430.00    0.78684   0.72442   12.709
 5431.00    0.84364   0.72279   11.853
 5432.00    0.91270   0.72124   10.957
 5433.00    0.93665   0.71830   10.676
 5434.00    0.90887   0.71351   11.003
 5435.00    0.85568   0.70980   11.687
 5436.00    0.79429   0.70886   12.590
 5437.00    0.74606   0.70802   13.404
 5438.00    0.75977   0.70708   13.162
 5439.00    0.85508   0.70955   11.695
 5440.00    0.95302   0.71572   -1.000
 5441.00    0.96053   0.72276   -1.000
 5442.00    0.87750   0.73005   11.396
 5443.00    0.77077   0.73766   12.974
 5444.00    0.72664   0.74407   13.762
 5445.00    0.77494   0.74797   12.904
 5446.00    0.83130   0.74880   12.029
 5447.00    0.82645   0.74658   12.100
 5448.00    0.81565   0.74186   12.260
 5449.00    0.84705   0.73640   11.806
 5450.00    0.85909   0.73147   11.640
 5451.00    0.81911   0.72712   12.208
 5452.00    0.81659   0.72464   12.246
 5453.00    0.90385   0.72536   11.064
 5454.00    0.99757   0.72734   -1.000
 5455.00    1.02484   0.72837   -1.000
 5456.00    1.01105   0.72848   -1.000
 5457.00    0.99562   0.72815   -1.000
 5458.00    0.97859   0.72761   -1.000
 5459.00    0.92989   0.72651   10.754
 5460.00    0.81161   0.72458   12.321
 5461.00    0.65527   0.72395   15.261
 5462.00    0.56732   0.72600   17.627
 5463.00    0.56946   0.72791   17.560
 5464.00    0.56303   0.72781   -2.000
 5465.00    0.50536   0.72774   -2.000
 5466.00    0.46309   0.72872   -2.000
 5467.00    0.51068   0.72818   -2.000
 5468.00    0.67410   0.72620   -2.000
 5469.00    0.88313   0.72634   -2.000
 5470.00    1.01769   0.72796   -2.000
 5471.00    1.11325   0.72784   -2.000
 5472.00    1.31370   0.72742   -2.000
 5473.00    1.52127   0.72823   -2.000
 5474.00    1.45136   0.72699   -2.000
 5475.00    1.08726   0.72290   -2.000
 5476.00    0.68245   0.71898   -2.000
 5477.00    0.42689   0.71427   -2.000
 5478.00    0.37186   0.70675   -2.000
 5479.00    0.46690   0.70038   -2.000
 5480.00    0.60416   0.69703   -2.000
 5481.00    0.69473   0.69299   -2.000
 5482.00    0.70345   0.68963   -2.000
 5483.00    0.68129   0.69126   -2.000
 5484.00    0.71475   0.69540   -2.000
 5485.00    0.82255   0.69815   -2.000
 5486.00    0.95784   0.70160   -2.000
 5487.00    1.04707   0.70744   -2.000
 5488.00    1.03910   0.71240   -1.000
 5489.00    0.96806   0.71542   -1.000
 5490.00    0.90712   0.71841   11.024
 5491.00    0.88924   0.72048   11.246
 5492.00    0.90735   0.72057   11.021
 5493.00    0.93122   0.72101   10.739
 5494.00    0.92919   0.72189   10.762
 5495.00    0.89203   0.72131   11.210
 5496.00    0.83541   0.72111   11.970
 5497.00    0.79651   0.72206   12.555
 5498.00    0.79818   0.72157   12.529
 5499.00    0.81636   0.72048   12.249
 5500.00    0.82222   0.72114   12.162
 5501.00    0.82131   0.72126   12.176
 5502.00    0.81621   0.71897   12.252
 5503.00    0.77753   0.71734   12.861
 5504.00    0.70246   0.71717   14.236
 5505.00    0.65406   0.71531   15.289
 5506.00    0.68363   0.71189   14.628
 5507.00    0.77417   0.70921   12.917
 5508.00    0.86896   0.70738   11.508
 5509.00    0.90290   0.70577   11.075
 5510.00    0.85827   0.70387   11.651
 5511.00    0.78674   0.70158   12.711
 5512.00    0.73471   0.70077   13.611
 5513.00    0.70635   0.70104   14.157
 5514.00    0.70495   0.70016   14.185
 5515.00    0.74747   0.69963   13.379
 5516.00    0.82159   0.70070   12.172
 5517.00    0.87561   0.70193   11.421
 5518.00    0.87023   0.70372   11.491
 5519.00    0.80304   0.70732   12.453
 5520.00    0.70907   0.71179   14.103
 5521.00    0.64728   0.71601   15.449
 5522.00    0.65183   0.72019   15.342
 5523.00    0.71849   0.72435   13.918
 5524.00    0.82397   0.72704   12.136
 5525.00    0.93309   0.72760   10.717
 5526.00    0.99915   0.72657   -1.000
 5527.00    0.98151   0.72424   -1.000
 5528.00    0.89467   0.72053   11.177
 5529.00    0.79761   0.71549   12.537
 5530.00    0.72686   0.71019   13.758
 5531.00    0.68585   0.70615   14.580
 5532.00    0.66458   0.70300   15.047
 5533.00    0.64769   0.70043   15.440
 5534.00    0.62141   0.70049   16.093
 5535.00    0.58508   0.70250   17.092
 5536.00    0.57012   0.70378   17.540
 5537.00    0.60929   0.70521   16.413
 5538.00    0.67298   0.70785   14.859
 5539.00    0.70726   0.70975   14.139
 5540.00    0.71982   0.71092   13.892
 5541.00    0.74605   0.71360   13.404
 5542.00    0.77207   0.71659   12.952
 5543.00    0.77173   0.71836   12.958
 5544.00    0.77663   0.72008   12.876
 5545.00    0.82336   0.72198   12.145
 5546.00    0.87142   0.72316   11.475
 5547.00    0.86255   0.72313   11.594
 5548.00    0.80684   0.72273   12.394
 5549.00    0.75158   0.72344   13.305
 5550.00    0.73115   0.72468   13.677
 5551.00    0.75072   0.72550   13.321
 5552.00    0.77820   0.72726   12.850
 5553.00    0.78380   0.72985   12.758
 5554.00    0.77741   0.73141   12.863
 5555.00    0.78326   0.73194   12.767
 5556.00    0.81258   0.73208   12.306
 5557.00    0.85476   0.73156   11.699
 5558.00    0.87642   0.73007   11.410
 5559.00    0.85954   0.72801   11.634
 5560.00    0.82582   0.72634   12.109
 5561.00    0.79741   0.72501   12.541
 5562.00    0.77096   0.72322   12.971
 5563.00    0.74059   0.72124   13.503
 5564.00    0.71306   0.71945   14.024
 5565.00    0.70184   0.71741   14.248
 5566.00    0.71938   0.71500   13.901
 5567.00    0.75826   0.71197   13.188
 5568.00    0.78806   0.70903   12.689
 5569.00    0.79235   0.70711   12.621
 5570.00    0.78392   0.70474   12.756
 5571.00    0.78603   0.70209   12.722
 5572.00    0.81824   0.70137   12.221
 5573.00    0.87646   0.70115   11.410
 5574.00    0.93215   0.69966   -1.000
 5575.00    0.96251   0.69987   -1.000
 5576.00    0.96152   0.70202   -1.000
 5577.00    0.93521   0.70225   -1.000
 5578.00    0.89663   0.70274   11.153
 5579.00    0.85621   0.70615   11.679
 5580.00    0.82228   0.70838   12.161
 5581.00    0.81225   0.70924   12.311
 5582.00    0.84157   0.71162   11.883
 5583.00    0.88435   0.71316   11.308
 5584.00    0.88973   0.71259   11.239
 5585.00    0.85090   0.71176   11.752
 5586.00    0.80484   0.70951   12.425
 5587.00    0.78848   0.70485   12.683
 5588.00    0.81404   0.69942   12.284
 5589.00    0.84090   0.69323   11.892
 5590.00    0.81328   0.68604   12.296
 5591.00    0.74472   0.67898   13.428
 5592.00    0.69294   0.67333   14.431
 5593.00    0.68365   0.66977   14.627
 5594.00    0.70421   0.66814   14.200
 5595.00    0.71858   0.66854   13.916
 5596.00    0.69829   0.67076   14.321
 5597.00    0.66402   0.67436   15.060
 5598.00    0.65062   0.67830   15.370
 5599.00    0.65087   0.68107   15.364
 5600.00    0.64753   0.68374   15.443
 5601.00    0.66269   0.68666   15.090
 5602.00    0.71714   0.68721   13.944
 5603.00    0.77756   0.68614   12.861
 5604.00    0.80160   0.68645   12.475
 5605.00    0.79286   0.68750   12.613
 5606.00    0.78111   0.68834   12.802
 5607.00    0.79385   0.69086   12.597
 5608.00    0.83565   0.69583   11.967
 5609.00    0.87491   0.70214   11.430
 5610.00    0.87939   0.70855   11.372
 5611.00    0.84601   0.71475   11.820
 5612.00    0.78148   0.72013   12.796
 5613.00    0.68835   0.72355   14.527
 5614.00    0.59177   0.72486   16.898
 5615.00    0.55136   0.72403   18.137
 5616.00    0.60047   0.72059   16.654
 5617.00    0.70900   0.71555   14.104
 5618.00    0.81616   0.71040   12.253
 5619.00    0.86048   0.70445   11.621
 5620.00    0.82466   0.69809   12.126
 5621.00    0.75020   0.69446   13.330
 5622.00    0.68056   0.69313   14.694
 5623.00    0.63259   0.69171   15.808
 5624.00    0.60888   0.69138   16.424
 5625.00    0.60530   0.69224   16.521
 5626.00    0.61485   0.69261   16.264
 5627.00    0.63295   0.69282   15.799
 5628.00    0.67137   0.69289   14.895
 5629.00    0.74868   0.69252   13.357
 5630.00    0.83459   0.69356   11.982
 5631.00    0.85979   0.69626   11.631
 5632.00    0.82091   0.69877   12.182
 5633.00    0.78414   0.70178   12.753
 5634.00    0.78149   0.70589   12.796
 5635.00    0.79375   0.70882   12.598
 5636.00    0.79938   0.71000   12.510
 5637.00    0.79039   0.71043   12.652
 5638.00    0.77453   0.70919   12.911
 5639.00    0.76738   0.70633   13.031
 5640.00    0.77218   0.70341   12.950
 5641.00    0.77863   0.70026   12.843
 5642.00    0.77174   0.69658   12.958
 5643.00    0.74031   0.69402   13.508
 5644.00    0.68986   0.69299   14.496
 5645.00    0.64598   0.69195   15.480
 5646.00    0.65370   0.69154   15.297
 5647.00    0.73794   0.69299   13.551
 5648.00    0.83882   0.69484   11.922
 5649.00    0.87198   0.69640   11.468
 5650.00    0.84015   0.69858   11.903
 5651.00    0.79595   0.70074   12.564
 5652.00    0.76158   0.70221   13.131
 5653.00    0.74230   0.70319   13.472
 5654.00    0.75889   0.70337   13.177
 5655.00    0.82271   0.70248   12.155
 5656.00    0.90164   0.70054   11.091
 5657.00    0.95230   0.69782   -1.000
 5658.00    0.96130   0.69419   -1.000
 5659.00    0.93795   0.68874   -1.000
 5660.00    0.90025   0.68296   11.108
 5661.00    0.86118   0.67880   11.612
 5662.00    0.81843   0.67411   12.219
 5663.00    0.77198   0.66897   12.954
 5664.00    0.73845   0.66750   13.542
 5665.00    0.72938   0.66846   13.710
 5666.00    0.73461   0.66860   13.613
 5667.00    0.74222   0.67007   13.473
 5668.00    0.75352   0.67405   13.271
 5669.00    0.77336   0.67774   12.931
 5670.00    0.80067   0.68045   12.490
 5671.00    0.81635   0.68358   12.250
 5672.00    0.78650   0.68699   12.715
 5673.00    0.72622   0.69019   13.770
 5674.00    0.71611   0.69366   13.964
 5675.00    0.78178   0.69726   12.791
 5676.00    0.85000   0.70071   11.765
 5677.00    0.86653   0.70437   11.540
 5678.00    0.84801   0.70789   11.792
 5679.00    0.83579   0.70999   11.965
 5680.00    0.86318   0.71069   11.585
 5681.00    0.91583   0.71100   10.919
 5682.00    0.93723   0.71006   10.670
 5683.00    0.91375   0.70695   10.944
 5684.00    0.88762   0.70325   11.266
 5685.00    0.88228   0.69976   11.334
 5686.00    0.88517   0.69543   11.297
 5687.00    0.88207   0.69066   11.337
 5688.00    0.86737   0.68712   11.529
 5689.00    0.83949   0.68471   11.912
 5690.00    0.80226   0.68286   12.465
 5691.00    0.77239   0.68228   12.947
 5692.00    0.77111   0.68312   12.968
 5693.00    0.79851   0.68517   12.523
 5694.00    0.83735   0.68819   11.942
 5695.00    0.87744   0.69130   11.397
 5696.00    0.91339   0.69434   10.948
 5697.00    0.92793   0.69768   10.777
 5698.00    0.90297   0.70012   11.075
 5699.00    0.84760   0.70069   11.798
 5700.00    0.78791   0.70054   12.692
 5701.00    0.73891   0.69964   13.533
 5702.00    0.70919   0.69695   14.101
 5703.00    0.71585   0.69333   13.969
 5704.00    0.76228   0.69017   13.118
 5705.00    0.80358   0.68663   12.444
 5706.00    0.79532   0.68225   12.574
 5707.00    0.76602   0.67850   13.055
 5708.00    0.76639   0.67532   13.048
 5709.00    0.79288   0.67153   12.612
 5710.00    0.81957   0.66733   12.202
 5711.00    0.84636   0.66402   11.815
 5712.00    0.88013   0.66148   -1.000
 5713.00    0.90982   0.65880   -1.000
 5714.00    0.92706   0.65771   -1.000
 5715.00    0.94623   0.65936   -1.000
 5716.00    0.96802   0.66171   -1.000
 5717.00    0.95062   0.66546   -1.000
 5718.00    0.87556   0.67182   11.421
 5719.00    0.79692   0.67785   12.548
 5720.00    0.75848   0.68360   13.184
 5721.00    0.73311   0.69034   13.640
 5722.00    0.68862   0.69579   14.522
 5723.00    0.63707   0.70010   15.697
 5724.00    0.61853   0.70449   16.167
 5725.00    0.67816   0.70761   14.746
 5726.00    0.80664   0.70972   12.397
 5727.00    0.92208   0.71165   10.845
 5728.00    0.97457   0.71229   -1.000
 5729.00    0.99143   0.71192   -1.000
 5730.00    0.99435   0.71151   -1.000
 5731.00    0.96290   0.71030   -1.000
 5732.00    0.87801   0.70831   11.389
 5733.00    0.74959   0.70684   13.341
 5734.00    0.64020   0.70584   15.620
 5735.00    0.64506   0.70458   15.502
 5736.00    0.77354   0.70375   12.928
 5737.00    0.93008   0.70405   10.752
 5738.00    1.02363   0.70459   -1.000
 5739.00    1.01648   0.70472   -1.000
 5740.00    0.94405   0.70523    0.000
 5741.00    0.88941   0.70590    0.000
 5742.00    0.88661   0.70591    0.000
 5743.00    0.91014   0.70563    0.000
 5744.00    0.93379   0.70524    0.000
 5745.00    0.94641   0.70458    0.000
 5746.00    0.94671   0.70388    0.000
 5747.00    0.93925   0.70321    0.000
 5748.00    0.92846   0.70236    0.000
 5749.00    0.91781   0.70138    0.000
 5750.00    0.91100   0.70046    0.000
 5751.00    0.90806   0.69917    0.000
 5752.00    0.89716   0.69727    0.000
 5753.00    0.86476   0.69531    0.000
 5754.00    0.81702   0.69337    0.000
 5755.00    0.77050   0.69095    0.000
 5756.00    0.72971   0.68869    0.000
 5757.00    0.69632   0.68725    0.000
 5758.00    0.68897   0.68615    0.000
 5759.00    0.72660   0.68567    0.000
 5760.00    0.80019   0.68615    0.000
 5761.00    0.88156   0.68682    0.000
 5762.00    0.94157   0.68753    0.000
 5763.00    0.96190   0.68827    0.000
 5764.00    0.94590   0.68847    0.000
 5765.00    0.91050   0.68855    0.000
 5766.00    0.87504   0.68896    0.000
 5767.00    0.85953   0.68941    0.000
 5768.00    0.88173   0.69067    0.000
 5769.00    0.93380   0.69303    0.000
 5770.00    0.96565   0.69529    0.000
 5771.00    0.94260   0.69762    0.000
 5772.00    0.89221   0.70011    0.000
 5773.00    0.85060   0.70145    0.000
 5774.00    0.81779   0.70180    0.000
 5775.00    0.78162   0.70170    0.000
 5776.00    0.73907   0.70063   -2.000
 5777.00    0.70052   0.69909   -2.000
 5778.00    0.68694   0.69756   -2.000
 5779.00    0.69798   0.69540   -2.000
 5780.00    0.69988   0.69298   -2.000
 5781.00    0.67591   0.69049   -2.000
 5782.00    0.64828   0.68685   -2.000
 5783.00    0.63069   0.68247   -2.000
 5784.00    0.61014   0.67821   -2.000
 5785.00    0.59029   0.67331   -2.000
 5786.00    0.60331   0.66831   -2.000
 5787.00    0.66225   0.66491   -2.000
 5788.00    0.74526   0.66277   -2.000
 5789.00    0.82466   0.66133   -2.000
 5790.00    0.88151   0.66188   -2.000
 5791.00    0.91171   0.66429   -2.000
 5792.00    0.92356   0.66681   -2.000
 5793.00    0.92143   0.66984   -2.000
 5794.00    0.90248   0.67371   -2.000
 5795.00    0.86556   0.67680   -2.000
 5796.00    0.81847   0.67939    0.000
 5797.00    0.78947   0.68224    0.000
 5798.00    0.81151   0.68422    0.000
 5799.00    0.87124   0.68565    0.000
 5800.00    0.91917   0.68756    0.000
 5801.00    0.92992   0.68904    0.000
 5802.00    0.90734   0.68993    0.000
 5803.00    0.86003   0.69140    0.000
 5804.00    0.79840   0.69293    0.000
 5805.00    0.74060   0.69354    0.000
 5806.00    0.70449   0.69400    0.000
 5807.00    0.69028   0.69449    0.000
 5808.00    0.68857   0.69403    0.000
 5809.00    0.70052   0.69308    0.000
 5810.00    0.73473   0.69245    0.000
 5811.00    0.79539   0.69183    0.000
 5812.00    0.87124   0.69136    0.000
 5813.00    0.92427   0.69142    0.000
 5814.00    0.92857   0.69174    0.000
 5815.00    0.92279   0.69226    0.000
 5816.00    0.94906   0.69274    0.000
 5817.00    0.97018   0.69287    0.000
 5818.00    0.93181   0.69302    0.000
 5819.00    0.84602   0.69332    0.000
 5820.00    0.76371   0.69343    0.000
 5821.00    0.73126   0.69387    0.000
 5822.00    0.75612   0.69514    0.000
 5823.00    0.78359   0.69658    0.000
 5824.00    0.76561   0.69798    0.000
 5825.00    0.72153   0.69982    0.000
 5826.00    0.69076   0.70153    0.000
 5827.00    0.68786   0.70262    0.000
 5828.00    0.70351   0.70354    0.000
 5829.00    0.71166   0.70428    0.000
 5830.00    0.69734   0.70461    0.000
 5831.00    0.67317   0.70476    0.000
 5832.00    0.65572   0.70474    0.000
 5833.00    0.65077   0.70456    0.000
 5834.00    0.66475   0.70427    0.000
 5835.00    0.70866   0.70360    0.000
 5836.00    0.77727   0.70268    0.000
 5837.00    0.84275   0.70192    0.000
 5838.00    0.88416   0.70101    0.000
 5839.00    0.90103   0.69988    0.000
 5840.00    0.90306   0.69931    0.000
 5841.00    0.90303   0.69924    0.000
 5842.00    0.90968   0.69906    0.000
 5843.00    0.92429   0.69927    0.000
 5844.00    0.93979   0.70007    0.000
 5845.00    0.94348   0.70055    0.000
 5846.00    0.92790   0.70064    0.000
 5847.00    0.89270   0.70064    0.000
 5848.00    0.83744   0.70000    0.000
 5849.00    0.76152   0.69859    0.000
 5850.00    0.67163   0.69679    0.000
 5851.00    0.58796   0.69445    0.000
 5852.00    0.55425   0.69169    0.000
 5853.00    0.61041   0.68879    0.000
 5854.00    0.71674   0.68546    0.000
 5855.00    0.78356   0.68190    0.000
 5856.00    0.78804   0.67844    0.000
 5857.00    0.76797   0.67463    0.000
 5858.00    0.74534   0.67067    0.000
 5859.00    0.72076   0.66741    0.000
 5860.00    0.69744   0.66466    0.000
 5861.00    0.68417   0.66215    0.000
 5862.00    0.69113   0.66094    0.000
 5863.00    0.72089   0.66109    0.000
 5864.00    0.75520   0.66174    0.000
 5865.00    0.76883   0.66339    0.000
 5866.00    0.75470   0.66607    0.000
 5867.00    0.72479   0.66869    0.000
 5868.00    0.70461   0.67151    0.000
 5869.00    0.71487   0.67461    0.000
 5870.00    0.74924   0.67716    0.000
 5871.00    0.78941   0.67938    0.000
 5872.00    0.82708   0.68176    0.000
 5873.00    0.86181   0.68369    0.000
 5874.00    0.89505   0.68501    0.000
 5875.00    0.92172   0.68628    0.000
 5876.00    0.92456   0.68715    0.000
 5877.00    0.90013   0.68718    0.000
 5878.00    0.87986   0.68682    0.000
 5879.00    0.88667   0.68611    0.000
 5880.00    0.89851   0.68469    0.000
 5881.00    0.88145   0.68276    0.000
 5882.00    0.82071   0.68068    0.000
 5883.00    0.73193   0.67835    0.000
 5884.00    0.66206   0.67543    0.000
 5885.00    0.64706   0.67221    0.000
 5886.00    0.68331   0.66876    0.000
 5887.00    0.73551   0.66404    0.000
 5888.00    0.75151   0.65779    0.000
 5889.00    0.71189   0.65050    0.000
 5890.00    0.65036   0.64096    0.000
 5891.00    0.60607   0.62899    0.000
 5892.00    0.59561   0.61693    0.000
 5893.00    0.60768   0.60424    0.000
 5894.00    0.61034   0.59094    0.000
 5895.00    0.59292   0.58123    0.000
 5896.00    0.57542   0.57426    0.000
 5897.00    0.56737   0.56823    0.000
 5898.00    0.55651   0.56736    0.000
 5899.00    0.53324   0.57004    0.000
 5900.00    0.50127   0.57290    0.000
 5901.00    0.47992   0.57987   20.837
 5902.00    0.49537   0.58995   20.187
 5903.00    0.55121   0.59926   18.142
 5904.00    0.62589   0.61042   15.977
 5905.00    0.69338   0.62295   14.422
 5906.00    0.73247   0.63334   13.652
 5907.00    0.73399   0.64258   13.624
 5908.00    0.70319   0.65110   14.221
 5909.00    0.66046   0.65725   15.141
 5910.00    0.63064   0.66154   15.857
 5911.00    0.61895   0.66491   16.156
 5912.00    0.61540   0.66712   16.250
 5913.00    0.61583   0.66824   16.238
 5914.00    0.62652   0.66867   15.961
 5915.00    0.66356   0.66855   15.070
 5916.00    0.73497   0.66794   13.606
 5917.00    0.81087   0.66673   12.333
 5918.00    0.84943   0.66540   11.773
 5919.00    0.84674   0.66449   11.810
 5920.00    0.82397   0.66368   12.136
 5921.00    0.79612   0.66342   12.561
 5922.00    0.77290   0.66413   12.938
 5923.00    0.76598   0.66505   13.055
 5924.00    0.78369   0.66643   12.760
 5925.00    0.82354   0.66816   12.143
 5926.00    0.87976   0.66939   11.367
 5927.00    0.95196   0.67052   -1.000
 5928.00    1.02726   0.67136   -1.000
 5929.00    1.06341   0.67138   -1.000
 5930.00    1.02611   0.67115   -1.000
 5931.00    0.92613   0.67043   -1.000
 5932.00    0.80018   0.66926   12.497
 5933.00    0.68743   0.66822   14.547
 5934.00    0.60769   0.66696   16.456
 5935.00    0.54932   0.66591   18.204
 5936.00    0.50936   0.66551   19.632
 5937.00    0.51941   0.66532   19.253
 5938.00    0.59669   0.66542   16.759
 5939.00    0.71204   0.66596   14.044
 5940.00    0.82055   0.66687   12.187
 5941.00    0.88688   0.66765   11.275
 5942.00    0.90649   0.66811   -1.000
 5943.00    0.91018   0.66891   -1.000
 5944.00    0.92150   0.66939   -1.000
 5945.00    0.93500   0.66917   -1.000
 5946.00    0.93032   0.66922   -1.000
 5947.00    0.88737   0.66917   11.269
 5948.00    0.81954   0.66864   12.202
 5949.00    0.77359   0.66822   12.927
 5950.00    0.76252   0.66768   13.114
 5951.00    0.75266   0.66690   13.286
 5952.00    0.72983   0.66606   13.702
 5953.00    0.71539   0.66488   13.978
 5954.00    0.72530   0.66376   13.787
 5955.00    0.75577   0.66302   13.232
 5956.00    0.78774   0.66206   12.695
 5957.00    0.79798   0.66128   12.532
 5958.00    0.78692   0.66132   12.708
 5959.00    0.77615   0.66145   12.884
 5960.00    0.77740   0.66154   12.863
 5961.00    0.78497   0.66238   12.739
 5962.00    0.78011   0.66365   12.819
 5963.00    0.74256   0.66483   13.467
 5964.00    0.67449   0.66632   14.826
 5965.00    0.60091   0.66816   16.641
 5966.00    0.55733   0.66982   17.943
 5967.00    0.56804   0.67113   17.604
 5968.00    0.60990   0.67256   16.396
 5969.00    0.63295   0.67367   15.799
 5970.00    0.61187   0.67424   16.343
 5971.00    0.55556   0.67508   18.000
 5972.00    0.50537   0.67576   19.787
 5973.00    0.50067   0.67596   19.973
 5974.00    0.52789   0.67634   18.943
 5975.00    0.55253   0.67645   18.099
 5976.00    0.57460   0.67576   17.404
 5977.00    0.60696   0.67471   16.475
 5978.00    0.63746   0.67330   15.687
 5979.00    0.64333   0.67115   15.544
 5980.00    0.61567   0.66872   16.243
 5981.00    0.57222   0.66656   17.476
 5982.00    0.56368   0.66425   17.741
 5983.00    0.61767   0.66207   16.190
 5984.00    0.68638   0.66051   14.569
 5985.00    0.71218   0.65874   14.041
 5986.00    0.69316   0.65702   14.427
 5987.00    0.66358   0.65580   15.070
 5988.00    0.66774   0.65407   14.976
 5989.00    0.72571   0.65280   13.780
 5990.00    0.81080   0.65243   12.334
 5991.00    0.87750   0.65188   -1.000
 5992.00    0.88663   0.65206   -1.000
 5993.00    0.82536   0.65322   12.116
 5994.00    0.71809   0.65429   13.926
 5995.00    0.61415   0.65533   16.283
 5996.00    0.57097   0.65663   17.514
 5997.00    0.60515   0.65786   16.525
 5998.00    0.67341   0.65831   14.850
 5999.00    0.72230   0.65845   13.845
 6000.00    0.72025   0.65865   13.884
 6001.00    0.67780   0.65799   14.754
 6002.00    0.64422   0.65711   15.523
 6003.00    0.65132   0.65642   15.354
 6004.00    0.69220   0.65518   14.447
 6005.00    0.74144   0.65421   13.487
 6006.00    0.76828   0.65323   13.016
 6007.00    0.75230   0.65176   13.293
 6008.00    0.69402   0.65085   14.409
 6009.00    0.62938   0.64953   15.889
 6010.00    0.61282   0.64786   16.318
 6011.00    0.64938   0.64706   15.399
 6012.00    0.69470   0.64582   14.395
 6013.00    0.71896   0.64476   13.909
 6014.00    0.72054   0.64465   13.878
 6015.00    0.70991   0.64407   14.086
 6016.00    0.70347   0.64377   14.215
 6017.00    0.71922   0.64374   13.904
 6018.00    0.76440   0.64313   13.082
 6019.00    0.81097   0.64277   12.331
 6020.00    0.81401   0.64195   12.285
 6021.00    0.76082   0.64075   13.144
 6022.00    0.67229   0.64029   14.875
 6023.00    0.58482   0.63933   17.099
 6024.00    0.53237   0.63825   18.784
 6025.00    0.52179   0.63831   19.165
 6026.00    0.53979   0.63855   18.526
 6027.00    0.57142   0.63888   17.500
 6028.00    0.60695   0.64003   16.476
 6029.00    0.64712   0.64204   15.453
 6030.00    0.69574   0.64424   14.373
 6031.00    0.74856   0.64628   13.359
 6032.00    0.79299   0.64919   12.611
 6033.00    0.81073   0.65219   12.335
 6034.00    0.79244   0.65437   12.619
 6035.00    0.75278   0.65685   13.284
 6036.00    0.71004   0.65930   14.084
 6037.00    0.66377   0.66098   15.065
 6038.00    0.61035   0.66233   16.384
 6039.00    0.55942   0.66353   17.876
 6040.00    0.52331   0.66428   19.109
 6041.00    0.50650   0.66444   19.743
 6042.00    0.51003   0.66443   19.607
 6043.00    0.53520   0.66419   18.685
 6044.00    0.57669   0.66368   17.340
 6045.00    0.61894   0.66330   16.157
 6046.00    0.65034   0.66281   15.376
 6047.00    0.67290   0.66261   14.861
 6048.00    0.69730   0.66284   14.341
 6049.00    0.73618   0.66289   13.584
 6050.00    0.78521   0.66322   12.735
 6051.00    0.81775   0.66387   12.229
 6052.00    0.81800   0.66396   12.225
 6053.00    0.79604   0.66375   12.562
 6054.00    0.76879   0.66350   13.008
 6055.00    0.74875   0.66263   13.356
 6056.00    0.73999   0.66118   13.514
 6057.00    0.73790   0.65958   13.552
 6058.00    0.73617   0.65801   13.584
 6059.00    0.73108   0.65637   13.678
 6060.00    0.72650   0.65470   13.765
 6061.00    0.72999   0.65378   13.699
 6062.00    0.73208   0.65324   13.660
 6063.00    0.71126   0.65250   14.060
 6064.00    0.67426   0.65222   14.831
 6065.00    0.65388   0.65207   15.293
 6066.00    0.66138   0.65132   15.120
 6067.00    0.68097   0.65067   14.685
 6068.00    0.69650   0.65042   14.358
 6069.00    0.69999   0.64975   14.286
 6070.00    0.69351   0.64981   14.419
 6071.00    0.68512   0.65119   14.596
 6072.00    0.67862   0.65232   14.736
 6073.00    0.67300   0.65418   14.859
 6074.00    0.66696   0.65707   14.993
 6075.00    0.66157   0.65921   15.116
 6076.00    0.66321   0.66090   15.078
 6077.00    0.67558   0.66219   14.802
 6078.00    0.68502   0.66245   14.598
 6079.00    0.67828   0.66176   14.743
 6080.00    0.67524   0.66015   14.810
 6081.00    0.70301   0.65808   14.225
 6082.00    0.74893   0.65523   13.352
 6083.00    0.78197   0.65201   12.788
 6084.00    0.79289   0.64944   12.612
 6085.00    0.79002   0.64663   12.658
 6086.00    0.78591   0.64381   12.724
 6087.00    0.78917   0.64233   12.672
 6088.00    0.79715   0.64105   12.545
 6089.00    0.80017   0.63969   12.497
 6090.00    0.78747   0.63925   12.699
 6091.00    0.75119   0.63905   13.312
 6092.00    0.69073   0.63889   14.477
 6093.00    0.62147   0.63900   16.091
 6094.00    0.57898   0.63895   17.272
 6095.00    0.58506   0.63927   17.092
 6096.00    0.62085   0.63985   16.107
 6097.00    0.65408   0.63998   15.289
 6098.00    0.66316   0.64048   15.079
 6099.00    0.63963   0.64139   15.634
 6100.00    0.58900   0.64149   16.978
 6101.00    0.53218   0.64118   18.791
 6102.00    0.50173   0.64096   19.931
 6103.00    0.51169   0.63954   19.543
 6104.00    0.54329   0.63736   18.406
 6105.00    0.57173   0.63564   17.491
 6106.00    0.58371   0.63295   17.132
 6107.00    0.58426   0.63042   17.116
 6108.00    0.59304   0.63006   16.862
 6109.00    0.61082   0.62945   16.372
 6110.00    0.61178   0.62946   16.346
 6111.00    0.58221   0.63169   17.176
 6112.00    0.53584   0.63354   18.662
 6113.00    0.50337   0.63557   19.866
 6114.00    0.51953   0.63812   19.248
 6115.00    0.59339   0.63952   16.852
 6116.00    0.70223   0.64081   14.240
 6117.00    0.80928   0.64187   12.357
 6118.00    0.87778   0.64188   -1.000
 6119.00    0.89450   0.64164   -1.000
 6120.00    0.87166   0.64063   -1.000
 6121.00    0.83111   0.63912   12.032
 6122.00    0.79538   0.63757   12.573
 6123.00    0.77692   0.63478   12.871
 6124.00    0.77231   0.63211   12.948
 6125.00    0.75605   0.63010   13.227
 6126.00    0.70083   0.62714   14.269
 6127.00    0.62458   0.62543   16.011
 6128.00    0.57137   0.62529   17.502
 6129.00    0.55067   0.62442   18.160
 6130.00    0.54181   0.62469   18.457
 6131.00    0.52703   0.62623   18.974
 6132.00    0.50447   0.62685   19.823
 6133.00    0.49811   0.62749   20.076
 6134.00    0.53308   0.62836   18.759
 6135.00    0.59489   0.62802   16.810
 6136.00    0.65197   0.62677   15.338
 6137.00    0.69760   0.62493   14.335
 6138.00    0.73877   0.62184   13.536
 6139.00    0.77300   0.61812   12.937
 6140.00    0.79042   0.61419   12.651
 6141.00    0.78112   0.60991   12.802
 6142.00    0.74321   0.60701   13.455
 6143.00    0.69062   0.60587   14.480
 6144.00    0.64457   0.60548   15.514
 6145.00    0.62298   0.60625   16.052
 6146.00    0.63326   0.60860   15.791
 6147.00    0.66697   0.61214   14.993
 6148.00    0.70634   0.61533   14.157
 6149.00    0.73200   0.61802   13.661
 6150.00    0.73490   0.62095   13.607
 6151.00    0.72481   0.62291   13.797
 6152.00    0.72247   0.62381   13.841
 6153.00    0.74986   0.62456   13.336
 6154.00    0.80699   0.62488   12.392
 6155.00    0.86091   0.62480   -1.000
 6156.00    0.87898   0.62456   -1.000
 6157.00    0.85166   0.62441   -1.000
 6158.00    0.79459   0.62366   12.585
 6159.00    0.74323   0.62220   13.455
 6160.00    0.71985   0.62091   13.892
 6161.00    0.71702   0.61847   13.947
 6162.00    0.70666   0.61478   14.151
 6163.00    0.65428   0.61126   15.284
 6164.00    0.56034   0.60706   17.846
 6165.00    0.46841   0.60199   21.349
 6166.00    0.41834   0.59774   -1.000
 6167.00    0.42406   0.59463   -1.000
 6168.00    0.46842   0.59253   21.348
 6169.00    0.51475   0.59162   19.427
 6170.00    0.55339   0.59143   18.071
 6171.00    0.60282   0.59266   16.589
 6172.00    0.65842   0.59476   15.188
 6173.00    0.69117   0.59603   14.468
 6174.00    0.69538   0.59776   14.381
 6175.00    0.69229   0.60075   14.445
 6176.00    0.69882   0.60315   14.310
 6177.00    0.71734   0.60510   13.940
 6178.00    0.73299   0.60796   13.643
 6179.00    0.72443   0.61099   13.804
 6180.00    0.68953   0.61341   -2.000
 6181.00    0.64152   0.61576   -2.000
 6182.00    0.58799   0.61845   -2.000
 6183.00    0.53360   0.62068   -2.000
 6184.00    0.49416   0.62210   -2.000
 6185.00    0.49055   0.62377   -2.000
 6186.00    0.53247   0.62510   -2.000
 6187.00    0.61302   0.62528   -2.000
 6188.00    0.70540   0.62526   -2.000
 6189.00    0.77717   0.62468   -2.000
 6190.00    0.81258   0.62296   -2.000
 6191.00    0.81073   0.62097   -2.000
 6192.00    0.77812   0.61837   12.851
 6193.00    0.72784   0.61572   13.739
 6194.00    0.67951   0.61376   14.716
 6195.00    0.65310   0.61124   15.312
 6196.00    0.66082   0.60992   15.133
 6197.00    0.69924   0.61059   14.301
 6198.00    0.74297   0.61107   13.459
 6199.00    0.75915   0.61224   13.173
 6200.00    0.72422   0.61441   13.808
 6201.00    0.63715   0.61637   15.695
 6202.00    0.52857   0.61831   18.919
 6203.00    0.44421   0.61978   -1.000
 6204.00    0.42553   0.62080   -1.000
 6205.00    0.47394   0.62217   21.100
 6206.00    0.53191   0.62332   18.800
 6207.00    0.54835   0.62417   18.237
 6208.00    0.52469   0.62521   19.059
 6209.00    0.49289   0.62612   20.289
 6210.00    0.49225   0.62683   20.315
 6211.00    0.53073   0.62694   18.842
 6212.00    0.57047   0.62639   17.529
 6213.00    0.57937   0.62531   17.260
 6214.00    0.55881   0.62309   17.895
 6215.00    0.52934   0.62019   18.892
 6216.00    0.51730   0.61693   19.331
 6217.00    0.53053   0.61286   18.849
 6218.00    0.55246   0.60886   18.101
 6219.00    0.56723   0.60539   17.630
 6220.00    0.57108   0.60204   17.511
 6221.00    0.57172   0.59973   17.491
 6222.00    0.58206   0.59838   17.180
 6223.00    0.59942   0.59731   16.683
 6224.00    0.60633   0.59732   16.493
 6225.00    0.59958   0.59800   16.678
 6226.00    0.59414   0.59895   16.831
 6227.00    0.60352   0.60028   16.569
 6228.00    0.62926   0.60116   15.892
 6229.00    0.65010   0.60195   15.382
 6230.00    0.63708   0.60247   15.697
 6231.00    0.60006   0.60177   16.665
 6232.00    0.57894   0.60086   17.273
 6233.00    0.59251   0.59963   16.877
 6234.00    0.63132   0.59744   15.840
 6235.00    0.67081   0.59589   14.907
 6236.00    0.68561   0.59513   14.585
 6237.00    0.67215   0.59427   14.878
 6238.00    0.64671   0.59440   15.463
 6239.00    0.63277   0.59508   15.804
 6240.00    0.64851   0.59547   15.420
 6241.00    0.69026   0.59575   14.487
 6242.00    0.74058   0.59559   13.503
 6243.00    0.78586   0.59482   12.725
 6244.00    0.81686   0.59315   -1.000
 6245.00    0.82600   0.59143   -1.000
 6246.00    0.81202   0.58972   -1.000
 6247.00    0.78609   0.58711   12.721
 6248.00    0.75771   0.58552   13.198
 6249.00    0.71790   0.58470   13.929
 6250.00    0.66015   0.58350   15.148
 6251.00    0.60434   0.58351   16.547
 6252.00    0.57082   0.58400   17.519
 6253.00    0.55257   0.58410   18.097
 6254.00    0.54009   0.58453   18.515
 6255.00    0.54603   0.58449   18.314
 6256.00    0.58318   0.58357   17.147
 6257.00    0.64342   0.58252   15.542
 6258.00    0.70299   0.58116   14.225
 6259.00    0.73163   0.57952   13.668
 6260.00    0.71860   0.57824   13.916
 6261.00    0.68688   0.57761   14.559
 6262.00    0.65649   0.57746   15.232
 6263.00    0.62234   0.57834   16.068
 6264.00    0.58268   0.58057   17.162
 6265.00    0.55485   0.58287   18.023
 6266.00    0.55319   0.58564   18.077
 6267.00    0.57581   0.58925   17.367
 6268.00    0.60782   0.59223   16.452
 6269.00    0.62734   0.59467   15.940
 6270.00    0.62454   0.59701   16.012
 6271.00    0.60906   0.59888   16.419
 6272.00    0.60003   0.60028   16.666
 6273.00    0.61613   0.60128   16.230
 6274.00    0.65501   0.60203   15.267
 6275.00    0.68916   0.60281   14.510
 6276.00    0.68372   0.60357   14.626
 6277.00    0.61433   0.60416   16.278
 6278.00    0.50363   0.60446   19.856
 6279.00    0.41641   0.60471   -1.000
 6280.00    0.40257   0.60481    0.000
 6281.00    0.47173   0.60419    0.000
 6282.00    0.57654   0.60358    0.000
 6283.00    0.64090   0.60293    0.000
 6284.00    0.64851   0.60185    0.000
 6285.00    0.64062   0.60149    0.000
 6286.00    0.64845   0.60130    0.000
 6287.00    0.67783   0.60137    0.000
 6288.00    0.71527   0.60245    0.000
 6289.00    0.74142   0.60337    0.000
 6290.00    0.75585   0.60468    0.000
 6291.00    0.76804   0.60623    0.000
 6292.00    0.77048   0.60718    0.000
 6293.00    0.75044   0.60815    0.000
 6294.00    0.72021   0.60837    0.000
 6295.00    0.70905   0.60795    0.000
 6296.00    0.74015   0.60737    0.000
 6297.00    0.80978   0.60585    0.000
 6298.00    0.86455   0.60405    0.000
 6299.00    0.85155   0.60217    0.000
 6300.00    0.79052   0.59970    0.000
 6301.00    0.73779   0.59733    0.000
 6302.00    0.72661   0.59489    0.000
 6303.00    0.75756   0.59266    0.000
 6304.00    0.79851   0.59107    0.000
 6305.00    0.81550   0.58962    0.000
 6306.00    0.80484   0.58873    0.000
 6307.00    0.77393   0.58891    0.000
 6308.00    0.72032   0.58979    0.000
 6309.00    0.64917   0.59096    0.000
 6310.00    0.58879   0.59242    0.000
 6311.00    0.56807   0.59418    0.000
 6312.00    0.59489   0.59572    0.000
 6313.00    0.64797   0.59670    0.000
 6314.00    0.67819   0.59694    0.000
 6315.00    0.65919   0.59631    0.000
 6316.00    0.61758   0.59503    0.000
 6317.00    0.58794   0.59335    0.000
 6318.00    0.58204   0.59087    0.000
 6319.00    0.59520   0.58784    0.000
 6320.00    0.61391   0.58550    0.000
 6321.00    0.63050   0.58347   15.860
 6322.00    0.64842   0.58160   15.422
 6323.00    0.66633   0.58085   15.008
 6324.00    0.67186   0.58101   14.884
 6325.00    0.65211   0.58219   15.335
 6326.00    0.60110   0.58417   16.636
 6327.00    0.52855   0.58639   18.920
 6328.00    0.46027   0.58923   21.726
 6329.00    0.42471   0.59227   -1.000
 6330.00    0.44218   0.59496   22.615
 6331.00    0.50688   0.59688   19.728
 6332.00    0.58837   0.59843   16.996
 6333.00    0.65822   0.59964   15.193
 6334.00    0.69899   0.59967   14.306
 6335.00    0.70283   0.59911   14.228
 6336.00    0.67318   0.59787   14.855
 6337.00    0.63089   0.59606   15.851
 6338.00    0.60379   0.59424   16.562
 6339.00    0.59588   0.59170   16.782
 6340.00    0.58880   0.58913   16.984
 6341.00    0.56535   0.58734   17.688
 6342.00    0.52108   0.58589   19.191
 6343.00    0.47616   0.58458   21.001
 6344.00    0.46498   0.58383   21.506
 6345.00    0.51001   0.58347   19.607
 6346.00    0.60876   0.58352   16.427
 6347.00    0.72149   0.58372   13.860
 6348.00    0.79739   0.58346   -1.000
 6349.00    0.82200   0.58387   -1.000
 6350.00    0.80695   0.58447   -1.000
 6351.00    0.76130   0.58472   13.135
 6352.00    0.69661   0.58560   14.355
 6353.00    0.63971   0.58655   15.632
 6354.00    0.61393   0.58761   16.288
 6355.00    0.61277   0.58854   16.319
 6356.00    0.61509   0.58882   16.258
 6357.00    0.60851   0.58899   16.434
 6358.00    0.59525   0.58844   16.800
 6359.00    0.59390   0.58682   16.838
 6360.00    0.61929   0.58487   16.148
 6361.00    0.66244   0.58260   15.096
 6362.00    0.70397   0.57975   14.205
 6363.00    0.72878   0.57671   13.722
 6364.00    0.72588   0.57406   13.776
 6365.00    0.68891   0.57191   14.516
 6366.00    0.63228   0.57033   15.816
 6367.00    0.59878   0.56939   16.701
 6368.00    0.61637   0.56926   16.224
 6369.00    0.66900   0.57033   14.948
 6370.00    0.72619   0.57191   13.770
 6371.00    0.76584   0.57374   13.057
 6372.00    0.78042   0.57626   12.814
 6373.00    0.77811   0.57896   12.852
 6374.00    0.77137   0.58154   12.964
 6375.00    0.76906   0.58391   13.003
 6376.00    0.77138   0.58614   12.964
 6377.00    0.77020   0.58838   12.984
 6378.00    0.76376   0.59017   13.093
 6379.00    0.75949   0.59139   13.167
 6380.00    0.75404   0.59241   13.262
 6381.00    0.73060   0.59319   13.687
 6382.00    0.68660   0.59345   14.565
 6383.00    0.64218   0.59340   15.572
 6384.00    0.62668   0.59298   15.957
 6385.00    0.66319   0.59250   15.079
 6386.00    0.73482   0.59229   13.609
 6387.00    0.79237   0.59200   12.620
 6388.00    0.81655   0.59188   -1.000
 6389.00    0.82437   0.59202   -1.000
 6390.00    0.82717   0.59223   -1.000
 6391.00    0.82287   0.59254   -1.000
 6392.00    0.80962   0.59265   -1.000
 6393.00    0.78816   0.59229   12.688
 6394.00    0.75771   0.59147   13.198
 6395.00    0.71737   0.59054   13.940
 6396.00    0.67165   0.58943   14.889
 6397.00    0.62995   0.58764   15.874
 6398.00    0.60259   0.58606   16.595
 6399.00    0.59373   0.58488   16.843
 6400.00    0.59014   0.58364   16.945
 6401.00    0.57439   0.58267   17.410
 6402.00    0.55136   0.58201   18.137
 6403.00    0.53891   0.58166   18.556
 6404.00    0.54485   0.58160   18.354
 6405.00    0.56548   0.58194   17.684
 6406.00    0.58931   0.58228   16.969
 6407.00    0.60462   0.58268   16.539
 6408.00    0.60888   0.58314   16.424
 6409.00    0.60844   0.58281   16.436
 6410.00    0.61562   0.58317   16.244
 6411.00    0.63940   0.58352   15.640
 6412.00    0.67519   0.58244   14.811
 6413.00    0.70959   0.58176   14.093
 6414.00    0.72723   0.58117   13.751
 6415.00    0.71622   0.58010   13.962
 6416.00    0.67350   0.57943   14.848
 6417.00    0.61207   0.57872   16.338
 6418.00    0.56459   0.57846   17.712
 6419.00    0.55948   0.57867   17.874
 6420.00    0.60021   0.57815   16.661
 6421.00    0.66428   0.57768   15.054
 6422.00    0.70852   0.57793   14.114
 6423.00    0.70633   0.57794   14.158
 6424.00    0.67126   0.57814   14.897
 6425.00    0.63611   0.57869   15.721
 6426.00    0.63363   0.57944   15.782
 6427.00    0.67079   0.58103   14.908
 6428.00    0.71909   0.58269   13.906
 6429.00    0.74637   0.58420   13.398
 6430.00    0.73646   0.58553   13.579
 6431.00    0.69486   0.58645   14.391
 6432.00    0.64665   0.58698   15.464
 6433.00    0.61520   0.58675   16.255
 6434.00    0.60977   0.58556   16.400
 6435.00    0.61694   0.58415   16.209
 6436.00    0.60574   0.58287   16.509
 6437.00    0.56138   0.58148   17.813
 6438.00    0.49555   0.58062   20.180
 6439.00    0.43354   0.57973   23.066
 6440.00    0.40172   0.57894   -1.000
 6441.00    0.40343   0.57929   -1.000
 6442.00    0.41986   0.57962   -1.000
 6443.00    0.43764   0.57995   22.850
 6444.00    0.45442   0.58079   22.006
 6445.00    0.46996   0.58165   21.278
 6446.00    0.48354   0.58304   20.681
 6447.00    0.49421   0.58437   20.234
 6448.00    0.50298   0.58508   19.882
 6449.00    0.51745   0.58595   19.326
 6450.00    0.54591   0.58596   18.318
 6451.00    0.58247   0.58491   17.168
 6452.00    0.61203   0.58355   16.339
 6453.00    0.62653   0.58117   15.961
 6454.00    0.62570   0.57858   15.982
 6455.00    0.61221   0.57622   16.334
 6456.00    0.59045   0.57379   16.936
 6457.00    0.56626   0.57230   17.660
 6458.00    0.54730   0.57122   18.272
 6459.00    0.54346   0.57046   18.401
 6460.00    0.56117   0.57072   17.820
 6461.00    0.59542   0.57121   16.795
 6462.00    0.63307   0.57173   15.796
 6463.00    0.65911   0.57223   15.172
 6464.00    0.66171   0.57257   15.112
 6465.00    0.63753   0.57301   15.685
 6466.00    0.59477   0.57320   16.813
 6467.00    0.55417   0.57347   18.045
 6468.00    0.53039   0.57381   18.854
 6469.00    0.51428   0.57413   19.445
 6470.00    0.48924   0.57499   20.440
 6471.00    0.44943   0.57564   22.251
 6472.00    0.40689   0.57632   -1.000
 6473.00    0.39293   0.57746   -1.000
 6474.00    0.42839   0.57846   23.343
 6475.00    0.50073   0.57898   19.971
 6476.00    0.57577   0.57931   17.368
 6477.00    0.61348   0.57970   16.300
 6478.00    0.60689   0.57998   16.477
 6479.00    0.59922   0.58031   16.688
 6480.00    0.62429   0.58037   16.018
 6481.00    0.67157   0.58028   14.891
 6482.00    0.70958   0.58010   14.093
 6483.00    0.70683   0.57957   14.148
 6484.00    0.66340   0.57877   15.074
 6485.00    0.61594   0.57775   16.235
 6486.00    0.58136   0.57674   17.201
 6487.00    0.53954   0.57558   18.534
 6488.00    0.48289   0.57450   20.708
 6489.00    0.43351   0.57370   23.067
 6490.00    0.41847   0.57277   23.897
 6491.00    0.45319   0.57153   22.066
 6492.00    0.52067   0.56978   19.206
 6493.00    0.57783   0.56744   17.306
 6494.00    0.60379   0.56409   16.562
 6495.00    0.60626   0.55924   16.495
 6496.00    0.58708   0.55371   17.034
 6497.00    0.54224   0.54773   18.442
 6498.00    0.49452   0.54150   20.222
 6499.00    0.48327   0.53614   20.692
 6500.00    0.51219   0.53138   19.524
 6501.00    0.55289   0.52863   18.087
 6502.00    0.58921   0.52840   16.972
 6503.00    0.61784   0.52943   16.185
 6504.00    0.62472   0.53281   16.007
 6505.00    0.59466   0.53748   16.816
 6506.00    0.54187   0.54289   18.455
 6507.00    0.50195   0.54919   19.922
 6508.00    0.50377   0.55475   19.850
 6509.00    0.55415   0.55982   18.046
 6510.00    0.62192   0.56434   16.079
 6511.00    0.66270   0.56776   15.090
 6512.00    0.66291   0.57036   15.085
 6513.00    0.63639   0.57203   15.714
 6514.00    0.60795   0.57283   16.449
 6515.00    0.59960   0.57312   16.678
 6516.00    0.61530   0.57279   16.252
 6517.00    0.64217   0.57191   15.572
 6518.00    0.65619   0.57081   15.240
 6519.00    0.64039   0.56943   15.615
 6520.00    0.60480   0.56800   16.535
 6521.00    0.57869   0.56680   17.280
 6522.00    0.59775   0.56570   16.729
 6523.00    0.67905   0.56520   14.727
 6524.00    0.79967   0.56510   -1.000
 6525.00    0.91632   0.56527   -1.000
 6526.00    0.98764   0.56612   -1.000
 6527.00    0.99898   0.56679   -1.000
 6528.00    0.97757   0.56733    0.000
 6529.00    0.96034   0.56792    0.000
 6530.00    0.96766   0.56812    0.000
 6531.00    1.00201   0.56813    0.000
 6532.00    1.05054   0.56765    0.000
 6533.00    1.10034   0.56685    0.000
 6534.00    1.14819   0.56625    0.000
 6535.00    1.19798   0.56560    0.000
 6536.00    1.25731   0.56498    0.000
 6537.00    1.32937   0.56444    0.000
 6538.00    1.40808   0.56385    0.000
 6539.00    1.47710   0.56363    0.000
 6540.00    1.51397   0.56361    0.000
 6541.00    1.51085   0.56355    0.000
 6542.00    1.48201   0.56344    0.000
 6543.00    1.45342   0.56301    0.000
 6544.00    1.45217   0.56249    0.000
 6545.00    1.48448   0.56179    0.000
 6546.00    1.53185   0.56048    0.000
 6547.00    1.56852   0.55860    0.000
 6548.00    1.57353   0.55655    0.000
 6549.00    1.54752   0.55433    0.000
 6550.00    1.51262   0.55197    0.000
 6551.00    1.49489   0.54954    0.000
 6552.00    1.51070   0.54687    0.000
 6553.00    1.54585   0.54463    0.000
 6554.00    1.57516   0.54243    0.000
 6555.00    1.62636   0.53977    0.000
 6556.00    1.77351   0.53674    0.000
 6557.00    2.08166   0.53298    0.000
 6558.00    2.56536   0.52851    0.000
 6559.00    3.13165   0.52306    0.000
 6560.00    3.61103   0.51637    0.000
 6561.00    3.84411   0.50851    0.000
 6562.00    3.73368   0.49960    0.000
 6563.00    3.30432   0.48948    0.000
 6564.00    2.68063   0.47890    0.000
 6565.00    2.02914   0.46945    0.000
 6566.00    1.50253   0.46086    0.000
 6567.00    1.16981   0.45404    0.000
 6568.00    1.02165   0.44969    0.000
 6569.00    0.99632   0.44838    0.000
 6570.00    1.01493   0.45185    0.000
 6571.00    1.02311   0.45810    0.000
 6572.00    0.99615   0.46581    0.000
 6573.00    0.93795   0.47492    0.000
 6574.00    0.86979   0.48434    0.000
 6575.00    0.81710   0.49356    0.000
 6576.00    0.79982   0.50199    0.000
 6577.00    0.82397   0.50932    0.000
 6578.00    0.88270   0.51535    0.000
 6579.00    0.95841   0.52053    0.000
 6580.00    1.02504   0.52503    0.000
 6581.00    1.05169   0.52896    0.000
 6582.00    1.01664   0.53279    0.000
 6583.00    0.91937   0.53621    0.000
 6584.00    0.78715   0.53915    0.000
 6585.00    0.67251   0.54158    0.000
 6586.00    0.60660   0.54356    0.000
 6587.00    0.57370   0.54504    0.000
 6588.00    0.55295   0.54628    0.000
 6589.00    0.54300   0.54728    0.000
 6590.00    0.54671   0.54768    0.000
 6591.00    0.56101   0.54793    0.000
 6592.00    0.57504   0.54770    0.000
 6593.00    0.57397   0.54713    0.000
 6594.00    0.56142   0.54632    0.000
 6595.00    0.56153   0.54531    0.000
 6596.00    0.57978   0.54427    0.000
 6597.00    0.59357   0.54299    0.000
 6598.00    0.58648   0.54181    0.000
 6599.00    0.56003   0.54078    0.000
 6600.00    0.52301   0.54086    0.000
 6601.00    0.48900   0.54180    0.000
 6602.00    0.48199   0.54281    0.000
 6603.00    0.52509   0.54410    0.000
 6604.00    0.59977   0.54543    0.000
 6605.00    0.65302   0.54691    0.000
 6606.00    0.65561   0.54840    0.000
 6607.00    0.61481   0.54926    0.000
 6608.00    0.56140   0.54945    0.000
 6609.00    0.53307   0.54916   18.759
 6610.00    0.54377   0.54844   18.390
 6611.00    0.58136   0.54776   17.201
 6612.00    0.62023   0.54726   16.123
 6613.00    0.63467   0.54674   15.756
 6614.00    0.61985   0.54651   16.133
 6615.00    0.58571   0.54656   17.073
 6616.00    0.53758   0.54741   18.602
 6617.00    0.48182   0.54884   20.755
 6618.00    0.44155   0.55018   22.647
 6619.00    0.44412   0.55154   22.516
 6620.00    0.49656   0.55292   20.139
 6621.00    0.58215   0.55453   17.178
 6622.00    0.66269   0.55593   15.090
 6623.00    0.70048   0.55674   14.276
 6624.00    0.68771   0.55714   14.541
 6625.00    0.64632   0.55725   15.472
 6626.00    0.61974   0.55711   16.136
 6627.00    0.63274   0.55671   15.804
 6628.00    0.65039   0.55585   15.375
 6629.00    0.62709   0.55468   15.947
 6630.00    0.56232   0.55343   17.784
 6631.00    0.48777   0.55202   20.501
 6632.00    0.44613   0.55090   22.415
 6633.00    0.46231   0.54958   21.630
 6634.00    0.52090   0.54804   19.198
 6635.00    0.58325   0.54657   17.145
 6636.00    0.60713   0.54525   16.471
 6637.00    0.57598   0.54425   17.362
 6638.00    0.51612   0.54338   19.375
 6639.00    0.46532   0.54261   21.490
 6640.00    0.44817   0.54218   22.313
 6641.00    0.46748   0.54247   21.391
 6642.00    0.50255   0.54314   19.898
 6643.00    0.52675   0.54375   18.984
 6644.00    0.52069   0.54415   19.205
 6645.00    0.48468   0.54445   20.632
 6646.00    0.44170   0.54496   22.640
 6647.00    0.41865   0.54550   23.887
 6648.00    0.43347   0.54570   23.070
 6649.00    0.48156   0.54550   20.766
 6650.00    0.53498   0.54555   18.692
 6651.00    0.56564   0.54613   17.679
 6652.00    0.55859   0.54675   17.902
 6653.00    0.52337   0.54725   19.107
 6654.00    0.49030   0.54767   20.396
 6655.00    0.48227   0.54827   20.735
 6656.00    0.50450   0.54898   19.822
 6657.00    0.54537   0.54937   18.336
 6658.00    0.58270   0.54948   17.162
 6659.00    0.60050   0.54946   16.653
 6660.00    0.59553   0.54917   16.792
 6661.00    0.58037   0.54876   17.230
 6662.00    0.57501   0.54794   17.391
 6663.00    0.58415   0.54683   17.119
 6664.00    0.59907   0.54552   16.692
 6665.00    0.61537   0.54403   16.250
 6666.00    0.63267   0.54257   15.806
 6667.00    0.64489   0.54102   15.507
 6668.00    0.64299   0.53965   15.552
 6669.00    0.62451   0.53837   16.013
 6670.00    0.59667   0.53775   16.760
 6671.00    0.57794   0.53790   17.303
 6672.00    0.58641   0.53816   17.053
 6673.00    0.62060   0.53867   16.113
 6674.00    0.66338   0.53941   15.074
 6675.00    0.69349   0.54030   14.420
 6676.00    0.69450   0.54125   14.399
 6677.00    0.66477   0.54171   15.043
 6678.00    0.61474   0.54140   16.267
 6679.00    0.56092   0.54076   17.828
 6680.00    0.51763   0.54001   19.319
 6681.00    0.48843   0.53916   20.474
 6682.00    0.47121   0.53819   21.222
 6683.00    0.46477   0.53697   21.516
 6684.00    0.46782   0.53616   21.376
 6685.00    0.47724   0.53644   20.954
 6686.00    0.48783   0.53753   20.499
 6687.00    0.49249   0.53874   20.305
 6688.00    0.48438   0.54016   20.645
 6689.00    0.45968   0.54166   21.754
 6690.00    0.42475   0.54340   23.543
 6691.00    0.39936   0.54503   -1.000
 6692.00    0.39793   0.54618   -1.000
 6693.00    0.41757   0.54696   23.948
 6694.00    0.45144   0.54728   22.151
 6695.00    0.49681   0.54738   20.129
 6696.00    0.54499   0.54712    0.000
 6697.00    0.57709   0.54643    0.000
 6698.00    0.57743   0.54558    0.000
 6699.00    0.54430   0.54458    0.000
 6700.00    0.50452   0.54353    0.000
 6701.00    0.50667   0.54256    0.000
 6702.00    0.55429   0.54142    0.000
 6703.00    0.59185   0.54063    0.000
 6704.00    0.58641   0.54004    0.000
 6705.00    0.55445   0.53956    0.000
 6706.00    0.51966   0.53944    0.000
 6707.00    0.49632   0.53919    0.000
 6708.00    0.49520   0.53901    0.000
 6709.00    0.52543   0.53866    0.000
 6710.00    0.59324   0.53832    0.000
 6711.00    0.69942   0.53798    0.000
 6712.00    0.83332   0.53761    0.000
 6713.00    0.97251   0.53708    0.000
 6714.00    1.08760   0.53625    0.000
 6715.00    1.14701   0.53546    0.000
 6716.00    1.12595   0.53434    0.000
 6717.00    1.01834   0.53312    0.000
 6718.00    0.85868   0.53177    0.000
 6719.00    0.70533   0.53031    0.000
 6720.00    0.59173   0.52926    0.000
 6721.00    0.52394   0.52829    0.000
 6722.00    0.49836   0.52754    0.000
 6723.00    0.50672   0.52723    0.000
 6724.00    0.53880   0.52744    0.000
 6725.00    0.58920   0.52852    0.000
 6726.00    0.66710   0.52962    0.000
 6727.00    0.77846   0.53075    0.000
 6728.00    0.89589   0.53199    0.000
 6729.00    0.97173   0.53324    0.000
 6730.00    0.96562   0.53455    0.000
 6731.00    0.86829   0.53548    0.000
 6732.00    0.72571   0.53613    0.000
 6733.00    0.59829   0.53671    0.000
 6734.00    0.50784   0.53707    0.000
 6735.00    0.45602   0.53746    0.000
 6736.00    0.45118   0.53765    0.000
 6737.00    0.49055   0.53772    0.000
 6738.00    0.54071   0.53752    0.000
 6739.00    0.56393   0.53705    0.000
 6740.00    0.54657   0.53653    0.000
 6741.00    0.50664   0.53589    0.000
 6742.00    0.49161   0.53518    0.000
 6743.00    0.52025   0.53417    0.000
 6744.00    0.54455   0.53305    0.000
 6745.00    0.52980   0.53198    0.000
 6746.00    0.50888   0.53111    0.000
 6747.00    0.51608   0.53024    0.000
 6748.00    0.54313   0.52939    0.000
 6749.00    0.57318   0.52847    0.000
 6750.00    0.60286   0.52776    0.000
 6751.00    0.63049   0.52714    0.000
 6752.00    0.64869   0.52662    0.000
 6753.00    0.64588   0.52626   15.483
 6754.00    0.60992   0.52575   16.396
 6755.00    0.54008   0.52571   18.516
 6756.00    0.45197   0.52567   22.126
 6757.00    0.37154   0.52610   -1.000
 6758.00    0.32780   0.52673   -1.000
 6759.00    0.33491   0.52743   -1.000
 6760.00    0.38555   0.52863   -1.000
 6761.00    0.45567   0.52966   21.946
 6762.00    0.51288   0.53100   19.498
 6763.00    0.53826   0.53207   18.578
 6764.00    0.53219   0.53318   18.790
 6765.00    0.50707   0.53404   19.721
 6766.00    0.47909   0.53445   20.873
 6767.00    0.45183   0.53463   22.132
 6768.00    0.41945   0.53411   23.840
 6769.00    0.38840   0.53357   -1.000
 6770.00    0.37017   0.53274   -1.000
 6771.00    0.34909   0.53171   -1.000
 6772.00    0.29943   0.53064   -1.000
 6773.00    0.24269   0.52951   -1.000
 6774.00    0.22862   0.52888   -1.000
 6775.00    0.26769   0.52866   -1.000
 6776.00    0.33418   0.52871   -1.000
 6777.00    0.40126   0.52918   24.921
 6778.00    0.45183   0.52981   22.132
 6779.00    0.48453   0.53076   20.638
 6780.00    0.50278   0.53188   19.889
 6781.00    0.49581   0.53285   20.169
 6782.00    0.45518   0.53369   21.969
 6783.00    0.40299   0.53398   24.814
 6784.00    0.36788   0.53391   -1.000
 6785.00    0.34714   0.53343   -1.000
 6786.00    0.32627   0.53267   -1.000
 6787.00    0.30988   0.53157   -1.000
 6788.00    0.30932   0.53036   -1.000
 6789.00    0.32361   0.52905   -1.000
 6790.00    0.34294   0.52786   -1.000
 6791.00    0.35557   0.52698   -1.000
 6792.00    0.35454   0.52641   -1.000
 6793.00    0.34349   0.52622   -1.000
 6794.00    0.33216   0.52613   -1.000
 6795.00    0.33138   0.52614   -1.000
 6796.00    0.34879   0.52622   -1.000
 6797.00    0.38451   0.52626   -1.000
 6798.00    0.42358   0.52630   23.608
 6799.00    0.43455   0.52621   23.012
 6800.00    0.40155   0.52607   24.903
 6801.00    0.34420   0.52598   -1.000
 6802.00    0.29200   0.52591   -1.000
 6803.00    0.26511   0.52598   -1.000
 6804.00    0.26802   0.52609   -1.000
 6805.00    0.28907   0.52618   -1.000
 6806.00    0.31590   0.52631   -1.000
 6807.00    0.34343   0.52639   -1.000
 6808.00    0.36796   0.52634   -1.000
 6809.00    0.38407   0.52630   -1.000
 6810.00    0.38510   0.52601   -1.000
 6811.00    0.36597   0.52568   -1.000
 6812.00    0.33367   0.52532   -1.000
 6813.00    0.30700   0.52489   -1.000
 6814.00    0.29693   0.52459   -1.000
 6815.00    0.30037   0.52413   -1.000
 6816.00    0.30700   0.52376   -1.000
 6817.00    0.30697   0.52363   -1.000
 6818.00    0.30742   0.52356   -1.000
 6819.00    0.32638   0.52363   -1.000
 6820.00    0.35785   0.52370   -1.000
 6821.00    0.37691   0.52381   -1.000
 6822.00    0.38518   0.52415   -1.000
 6823.00    0.39995   0.52453   25.003
 6824.00    0.39316   0.52499   25.435
 6825.00    0.33281   0.52548   -1.000
 6826.00    0.31539   0.52572   -1.000
 6827.00    0.46736   0.52603   21.397
 6828.00    0.66599   0.52615   15.015
 6829.00    0.67415   0.52619   14.834
 6830.00    0.53016   0.52621   18.862
 6831.00    0.43997   0.52600   22.729
 6832.00    0.43332   0.52573   23.078
 6833.00    0.42091   0.52522   23.758
 6834.00    0.40087   0.52472   24.946
 6835.00    0.42259   0.52429   23.663
 6836.00    0.47549   0.52387   21.031
 6837.00    0.51304   0.52347   19.492
 6838.00    0.51295   0.52289   19.495
 6839.00    0.47835   0.52220   20.905
 6840.00    0.42713   0.52111   23.412
 6841.00    0.38390   0.51984   -1.000
 6842.00    0.37057   0.51825   -1.000
 6843.00    0.38823   0.51656   25.758
 6844.00    0.40135   0.51484   24.916
 6845.00    0.37718   0.51316   -1.000
 6846.00    0.32666   0.51190   -1.000
 6847.00    0.28378   0.51096   -1.000
 6848.00    0.27900   0.51065   -1.000
 6849.00    0.31388   0.51087   -1.000
 6850.00    0.34668   0.51167   -1.000
 6851.00    0.34420   0.51285   -1.000
 6852.00    0.32103   0.51422   -1.000
 6853.00    0.30462   0.51554   -1.000
 6854.00    0.30713   0.51665   -1.000
 6855.00    0.32921   0.51730   -1.000
 6856.00    0.36390   0.51745   -1.000
 6857.00    0.39697   0.51734   25.191
 6858.00    0.41051   0.51678   24.360
 6859.00    0.40289   0.51592   24.821
 6860.00    0.39495   0.51482   25.320
 6861.00    0.39954   0.51362   25.029
 6862.00    0.40879   0.51239   24.462
 6863.00    0.41504   0.51130   24.094
 6864.00    0.41983   0.51070   23.819
 6865.00    0.42603   0.51045   23.473
 6866.00    0.43415   0.51028   23.034
 6867.00    0.44372   0.51021   22.537
 6868.00    0.45571   0.51022   21.944
 6869.00    0.47906   0.51025   20.874
 6870.00    0.52367   0.51047   19.096
 6871.00    0.56762   0.51066   17.617
 6872.00    0.56714   0.51076   17.632
 6873.00    0.52449   0.51047   19.066
 6874.00    0.48660   0.51019   20.551
 6875.00    0.47519   0.50992   21.044
 6876.00    0.47608   0.50970   21.005
 6877.00    0.46820   0.50971   21.358
 6878.00    0.43865   0.50971   22.797
 6879.00    0.39853   0.50985   25.092
 6880.00    0.37360   0.50985   -1.000
 6881.00    0.37425   0.51002   -1.000
 6882.00    0.39482   0.51020   25.328
 6883.00    0.42718   0.51029   23.410
 6884.00    0.46374   0.51035   21.564
 6885.00    0.49769   0.51044   20.093
 6886.00    0.52310   0.51054   19.117
 6887.00    0.53524   0.51041   18.683
 6888.00    0.53473   0.51051   18.701
 6889.00    0.53336   0.51073   18.749
 6890.00    0.54004   0.51115   18.517
 6891.00    0.53977   0.51188   18.526
 6892.00    0.51738   0.51272   19.328
 6893.00    0.49255   0.51372   20.303
 6894.00    0.48815   0.51451   20.485
 6895.00    0.48595   0.51537   20.578
 6896.00    0.45385   0.51611   22.034
 6897.00    0.38494   0.51658   25.978
 6898.00    0.30298   0.51697   -1.000
 6899.00    0.25928   0.51702   -1.000
 6900.00    0.28124   0.51696   -1.000
 6901.00    0.32764   0.51668   -1.000
 6902.00    0.35006   0.51657   -1.000
 6903.00    0.34989   0.51637   -1.000
 6904.00    0.34592   0.51624   -1.000
 6905.00    0.34396   0.51625   -1.000
 6906.00    0.34793   0.51629   -1.000
 6907.00    0.36833   0.51632   -1.000
 6908.00    0.40741   0.51640   24.545
 6909.00    0.44929   0.51657   22.257
 6910.00    0.46856   0.51669   21.342
 6911.00    0.44222   0.51673   22.613
 6912.00    0.38394   0.51649   26.046
 6913.00    0.35047   0.51632   -1.000
 6914.00    0.36242   0.51576   -1.000
 6915.00    0.37523   0.51518   -1.000
 6916.00    0.36312   0.51442   -1.000
 6917.00    0.35126   0.51356   -1.000
 6918.00    0.35644   0.51267   -1.000
 6919.00    0.36426   0.51173   -1.000
 6920.00    0.35721   0.51111   -1.000
 6921.00    0.33042   0.51063   -1.000
 6922.00    0.30199   0.51040   -1.000
 6923.00    0.30430   0.51040   -1.000
 6924.00    0.33858   0.51067   -1.000
 6925.00    0.37140   0.51077   -1.000
 6926.00    0.37903   0.51088   26.383
 6927.00    0.36192   0.51103   -1.000
 6928.00    0.34080   0.51090   -1.000
 6929.00    0.34146   0.51072   -1.000
 6930.00    0.35740   0.51020   -1.000
 6931.00    0.36185   0.50975   -1.000
 6932.00    0.36525   0.50906   -1.000
 6933.00    0.40289   0.50860   24.821
 6934.00    0.47022   0.50819   21.266
 6935.00    0.52993   0.50811   18.870
 6936.00    0.56146   0.50817   17.811
 6937.00    0.56713   0.50807   17.633
 6938.00    0.56153   0.50819   17.809
 6939.00    0.55961   0.50816   17.870
 6940.00    0.55967   0.50839   17.868
 6941.00    0.55357   0.50839   18.065
 6942.00    0.54854   0.50861   18.230
 6943.00    0.55208   0.50876   18.113
 6944.00    0.54443   0.50862   18.368
 6945.00    0.50766   0.50834   19.698
 6946.00    0.47104   0.50773   21.229
 6947.00    0.47381   0.50726   21.105
 6948.00    0.50891   0.50654   19.650
 6949.00    0.54208   0.50580   18.447
 6950.00    0.54502   0.50500   18.348
 6951.00    0.51153   0.50412   19.549
 6952.00    0.46898   0.50336   21.323
 6953.00    0.45199   0.50267   22.125
 6954.00    0.47303   0.50238   21.140
 6955.00    0.51394   0.50225   19.457
 6956.00    0.52686   0.50216   18.980
 6957.00    0.49501   0.50218   20.202
 6958.00    0.47565   0.50232   21.024
 6959.00    0.50942   0.50235   19.630
 6960.00    0.55380   0.50266   18.057
 6961.00    0.56228   0.50310   17.785
 6962.00    0.54193   0.50369   18.453
 6963.00    0.51329   0.50429   19.482
 6964.00    0.48099   0.50497   20.790
 6965.00    0.44106   0.50564   22.673
 6966.00    0.39000   0.50612   25.641
 6967.00    0.34424   0.50652   -1.000
 6968.00    0.34172   0.50687   -1.000
 6969.00    0.39047   0.50719   25.610
 6970.00    0.44965   0.50740   22.239
 6971.00    0.47348   0.50744   21.120
 6972.00    0.43914   0.50731   22.772
 6973.00    0.37035   0.50712   -1.000
 6974.00    0.32923   0.50664   -1.000
 6975.00    0.34219   0.50605   -1.000
 6976.00    0.38134   0.50514   26.223
 6977.00    0.41325   0.50383   24.199
 6978.00    0.42241   0.50220   23.673
 6979.00    0.42424   0.50007   23.571
 6980.00    0.45176   0.49792   22.136
 6981.00    0.50077   0.49600   19.969
 6982.00    0.52980   0.49412   18.875
 6983.00    0.51201   0.49255   19.531
 6984.00    0.45309   0.49158   22.071
 6985.00    0.39522   0.49121   25.303
 6986.00    0.39402   0.49143   25.379
 6987.00    0.46082   0.49227   21.700
 6988.00    0.55876   0.49387   17.897
 6989.00    0.62877   0.49571   15.904
 6990.00    0.62531   0.49741   15.992
 6991.00    0.57541   0.49913   17.379
 6992.00    0.54329   0.50053   18.406
 6993.00    0.54032   0.50164   18.507
 6994.00    0.53827   0.50244   18.578
 6995.00    0.52322   0.50299   19.112
 6996.00    0.49620   0.50330   20.153
 6997.00    0.45884   0.50333   21.794
 6998.00    0.41840   0.50321   23.900
 6999.00    0.39724   0.50288   25.174
 7000.00    0.40725   0.50230   24.555
 7001.00    0.41687   0.50145   -2.000
 7002.00    0.40688   0.50053   -2.000
 7003.00    0.43846   0.49944   -2.000
 7004.00    0.54813   0.49830   -2.000
 7005.00    0.62836   0.49702   -2.000
 7006.00    0.58115   0.49583   -2.000
 7007.00    0.48405   0.49471   -2.000
 7008.00    0.44463   0.49382   -2.000
 7009.00    0.44826   0.49325   -2.000
 7010.00    0.44674   0.49295   -2.000
 7011.00    0.44706   0.49280   -2.000
 7012.00    0.46757   0.49270   -2.000
 7013.00    0.49775   0.49270   -2.000
 7014.00    0.52313   0.49278   -2.000
 7015.00    0.54424   0.49279   -2.000
 7016.00    0.55659   0.49266   -2.000
 7017.00    0.54075   0.49214   -2.000
 7018.00    0.49818   0.49156   -2.000
 7019.00    0.46573   0.49084   -2.000
 7020.00    0.45641   0.49013   -2.000
 7021.00    0.44005   0.48946   -2.000
 7022.00    0.43799   0.48890   -2.000
 7023.00    0.53833   0.48849   -2.000
 7024.00    0.70063   0.48809   -2.000
 7025.00    0.72608   0.48800   -2.000
 7026.00    0.58750   0.48821   -2.000
 7027.00    0.50078   0.48864   -2.000
 7028.00    0.55718   0.48907   -2.000
 7029.00    0.62778   0.48953   -2.000
 7030.00    0.62840   0.48994   -2.000
 7031.00    0.59460   0.49035   -2.000
 7032.00    0.55899   0.49087   -2.000
 7033.00    0.51692   0.49146   -2.000
 7034.00    0.46706   0.49219   -2.000
 7035.00    0.42111   0.49291   -2.000
 7036.00    0.38995   0.49354   -2.000
 7037.00    0.37593   0.49414   -2.000
 7038.00    0.36441   0.49450   -2.000
 7039.00    0.33679   0.49469   -2.000
 7040.00    0.30871   0.49487   -2.000
 7041.00    0.31219   0.49518   -2.000
 7042.00    0.33189   0.49562   -2.000
 7043.00    0.32480   0.49619   -2.000
 7044.00    0.29424   0.49698   -2.000
 7045.00    0.27894   0.49790   -2.000
 7046.00    0.29876   0.49876   -2.000
 7047.00    0.34699   0.49992   -2.000
 7048.00    0.39761   0.50102   -2.000
 7049.00    0.42639   0.50216   -2.000
 7050.00    0.44255   0.50308   -2.000
 7051.00    0.46390   0.50373   -2.000
 7052.00    0.47218   0.50396   -2.000
 7053.00    0.44252   0.50375   -2.000
 7054.00    0.39325   0.50326   -2.000
 7055.00    0.35990   0.50253   -2.000
 7056.00    0.35263   0.50163   -2.000
 7057.00    0.36460   0.50063   -2.000
 7058.00    0.38904   0.49947   -2.000
 7059.00    0.42251   0.49826   -2.000
 7060.00    0.46522   0.49701   -2.000
 7061.00    0.50865   0.49578   -2.000
 7062.00    0.52583   0.49487   -2.000
 7063.00    0.50299   0.49405   -2.000
 7064.00    0.46672   0.49354   -2.000
 7065.00    0.44800   0.49311   -2.000
 7066.00    0.45025   0.49275   -2.000
 7067.00    0.46313   0.49226   -2.000
 7068.00    0.47724   0.49171   -2.000
 7069.00    0.49582   0.49113   -2.000
 7070.00    0.53731   0.49055   -2.000
 7071.00    0.59775   0.49019   -2.000
 7072.00    0.63395   0.48987   -2.000
 7073.00    0.62053   0.48968   -2.000
 7074.00    0.57996   0.48952   -2.000
 7075.00    0.54206   0.48968   -2.000
 7076.00    0.51928   0.48987   -2.000
 7077.00    0.50673   0.49034   -2.000
 7078.00    0.48865   0.49102   -2.000
 7079.00    0.46629   0.49182   -2.000
 7080.00    0.46241   0.49258   -2.000
 7081.00    0.48075   0.49321   -2.000
 7082.00    0.49516   0.49348   -2.000
 7083.00    0.48129   0.49341   -2.000
 7084.00    0.43045   0.49293   -2.000
 7085.00    0.35070   0.49199   -2.000
 7086.00    0.26700   0.49066   -2.000
 7087.00    0.21990   0.48909   -2.000
 7088.00    0.24478   0.48722   -2.000
 7089.00    0.31024   0.48515   -2.000
 7090.00    0.34754   0.48303   -2.000
 7091.00    0.38968   0.48093   -2.000
 7092.00    0.52337   0.47900   -2.000
 7093.00    0.65780   0.47737   -2.000
 7094.00    0.60492   0.47605   -2.000
 7095.00    0.42124   0.47520   -2.000
 7096.00    0.33045   0.47474   -2.000
 7097.00    0.36291   0.47459   -2.000
 7098.00    0.39294   0.47462   -2.000
 7099.00    0.38460   0.47488   -2.000
 7100.00    0.38164   0.47543   -2.000
 7101.00    0.39078   0.47597   -2.000
 7102.00    0.38836   0.47684   -2.000
 7103.00    0.37117   0.47751   -2.000
 7104.00    0.35509   0.47826   -2.000
 7105.00    0.35830   0.47897   -2.000
 7106.00    0.39364   0.47949   -2.000
 7107.00    0.46087   0.47991   -2.000
 7108.00    0.53769   0.48000   -2.000
 7109.00    0.57241   0.47996   -2.000
 7110.00    0.53201   0.47964   -2.000
 7111.00    0.45955   0.47903   -2.000
 7112.00    0.42166   0.47823   -2.000
 7113.00    0.44003   0.47725   -2.000
 7114.00    0.49502   0.47629   -2.000
 7115.00    0.54077   0.47531   -2.000
 7116.00    0.54021   0.47427   -2.000
 7117.00    0.49660   0.47336   -2.000
 7118.00    0.43814   0.47251   -2.000
 7119.00    0.39832   0.47201   -2.000
 7120.00    0.38877   0.47149   -2.000
 7121.00    0.38378   0.47108   -2.000
 7122.00    0.36870   0.47084   -2.000
 7123.00    0.37157   0.47060   -2.000
 7124.00    0.41457   0.47054   -2.000
 7125.00    0.48101   0.47034   -2.000
 7126.00    0.53614   0.47025   -2.000
 7127.00    0.54651   0.47004   -2.000
 7128.00    0.50663   0.46992   -2.000
 7129.00    0.44936   0.46979   -2.000
 7130.00    0.41802   0.46969   -2.000
 7131.00    0.44348   0.46949   -2.000
 7132.00    0.50964   0.46932   -2.000
 7133.00    0.55377   0.46920   -2.000
 7134.00    0.54622   0.46928   -2.000
 7135.00    0.51311   0.46935   -2.000
 7136.00    0.47212   0.46957   -2.000
 7137.00    0.41788   0.46996   -2.000
 7138.00    0.37431   0.47067   -2.000
 7139.00    0.39203   0.47151   -2.000
 7140.00    0.46491   0.47239   -2.000
 7141.00    0.52867   0.47332   -2.000
 7142.00    0.55484   0.47442   -2.000
 7143.00    0.56358   0.47531   -2.000
 7144.00    0.56594   0.47595   -2.000
 7145.00    0.55431   0.47632   -2.000
 7146.00    0.52638   0.47623   -2.000
 7147.00    0.49646   0.47602   -2.000
 7148.00    0.50516   0.47538   -2.000
 7149.00    0.58683   0.47443   -2.000
 7150.00    0.69077   0.47345   -2.000
 7151.00    0.71884   0.47251   -2.000
 7152.00    0.64405   0.47167   -2.000
 7153.00    0.51391   0.47098   -2.000
 7154.00    0.40384   0.47062   -2.000
 7155.00    0.37366   0.47056   -2.000
 7156.00    0.40846   0.47078   -2.000
 7157.00    0.44576   0.47136   -2.000
 7158.00    0.44005   0.47212   -2.000
 7159.00    0.40582   0.47304   -2.000
 7160.00    0.45717   0.47412   -2.000
 7161.00    0.65069   0.47486   -2.000
 7162.00    0.77447   0.47548   -2.000
 7163.00    0.63185   0.47576   -2.000
 7164.00    0.42360   0.47565   -2.000
 7165.00    0.41657   0.47517   -2.000
 7166.00    0.51072   0.47437   -2.000
 7167.00    0.50300   0.47368   -2.000
 7168.00    0.42032   0.47288   -2.000
 7169.00    0.37544   0.47230   -2.000
 7170.00    0.38787   0.47193   -2.000
 7171.00    0.41769   0.47190   -2.000
 7172.00    0.41782   0.47230   -2.000
 7173.00    0.37565   0.47310   -2.000
 7174.00    0.33770   0.47409   -2.000
 7175.00    0.34469   0.47532   -2.000
 7176.00    0.38451   0.47657   -2.000
 7177.00    0.44167   0.47774   -2.000
 7178.00    0.52873   0.47861   -2.000
 7179.00    0.63415   0.47917   -2.000
 7180.00    0.69711   0.47919   -2.000
 7181.00    0.68096   0.47880   -2.000
 7182.00    0.61058   0.47804   -2.000
 7183.00    0.51720   0.47700   -2.000
 7184.00    0.41032   0.47588   -2.000
 7185.00    0.30388   0.47457   -2.000
 7186.00    0.22708   0.47327   -2.000
 7187.00    0.20589   0.47192   -2.000
 7188.00    0.24893   0.47064   -2.000
 7189.00    0.32787   0.46939   -2.000
 7190.00    0.38440   0.46819   -2.000
 7191.00    0.39198   0.46708   -2.000
 7192.00    0.37234   0.46615   -2.000
 7193.00    0.36128   0.46535   -2.000
 7194.00    0.38606   0.46476   -2.000
 7195.00    0.43543   0.46429   -2.000
 7196.00    0.46533   0.46417   -2.000
 7197.00    0.44819   0.46415   -2.000
 7198.00    0.39213   0.46446   -2.000
 7199.00    0.34881   0.46503   -2.000
 7200.00    0.38378   0.46573   -2.000
 7201.00    0.49516   0.46661   -2.000
 7202.00    0.62250   0.46739   -2.000
 7203.00    0.72067   0.46806   -2.000
 7204.00    0.76870   0.46863   -2.000
 7205.00    0.74825   0.46906   -2.000
 7206.00    0.64424   0.46928   -2.000
 7207.00    0.45747   0.46926   -2.000
 7208.00    0.24201   0.46889   -2.000
 7209.00    0.16298   0.46843   -2.000
 7210.00    0.33803   0.46777   -2.000
 7211.00    0.56049   0.46721   -2.000
 7212.00    0.55074   0.46664   -2.000
 7213.00    0.41565   0.46617   -2.000
 7214.00    0.41092   0.46586   -2.000
 7215.00    0.49898   0.46566   -2.000
 7216.00    0.50873   0.46574   -2.000
 7217.00    0.43222   0.46583   -2.000
 7218.00    0.35749   0.46613   -2.000
