###################################################################
## OUTPUT of StarlightChains_v04.for    [Cid@UFSC - 01/Apr/2007] ##
###################################################################

## Some input info
2006ab.txt                               [arq_obs]
Base.CB07.vall.4m                        [arq_base]
Masks.EmLines.NEW.gm                     [arq_masks]
StCv04.C11.config                        [arq_config]
   66                                    [N_base]
    0                                    [N_YAV_components = # of components with extra extinction!]
    0                                    [i_FitPowerLaw (1/0 = Yes/No)]
-9.99                                    [alpha_PowerLaw]
CCM                                      [red_law_option]
 1.458241                                [q_norm = A(l_norm)/A(V)]

## (Re)Sampling Parameters
 3741.00                                 [l_ini (A)]
 7218.00                                 [l_fin (A)]
    1.00                                 [dl    (A)]     (OBS: dl_cushion =    50.00 A)

## Normalization info
 4020.00                                 [l_norm (A) - for base]
 4010.00                                 [llow_norm (A) - window for f_obs]
 4060.00                                 [lupp_norm (A) - window for f_obs]
6.363483E-17                             [fobs_norm (in input units)]

## S/N
 3691.00                                 [llow_SN (A) - window for S/N]
 7268.00                                 [lupp_SN (A) - window for S/N]
   4.178                                 [S/N in S/N window]
   2.394                                 [S/N in norm. window]
  10.000                                 [S/N_err in S/N window]
   5.729                                 [S/N_err in norm. window]
  1.0000                                 [fscale_chi2]

## etc...
    -2007310                             [idum_orig]
  2356                                   [NOl_eff]
  2022                                   [Nl_eff]
   334    NSIGMA                         [Ntot_cliped & clip_method]
  1074010                                [Nglobal_steps]
   7                                     [N_chains]
  19                                     [NEX0s_base = N_base in EX0s-fits]
 0   0   1       51   2.0   1.742E+01    [Clip-Bug, RC-Crash & Burn-In warning-flags, n_censored_weights, wei_nsig_threshold & wei_limit]
    12     12.327     11.831      0.495  [idt_all, wdt_TotTime, wdt_UsrTime & wdt_SysTime (sec)]

## Synthesis Results - Best model ##

 7.59755E-01                             [chi2/Nl_eff]
     6.13160                             [adev (%)]

   116.53667                             [sum-of-x (%)]
 1.04738E-16                             [Flux_tot (units of input spectrum!)]
 1.13608E-11                             [Mini_tot (???)]
 5.69509E-12                             [Mcor_tot (???)]

-270.22                                  [v0_min  (km/s)]
 252.75                                  [vd_min  (km/s)]
 0.2571                                  [AV_min  (mag)]
 0.0000                                  [YAV_min (mag)]

# j     x_j(%)      Mini_j(%)     Mcor_j(%)     age_j(yr)     Z_j      (L/M)_j    YAV?  Mstars   component_j        a/Fe...       SSP_chi2r SSP_adev(%)   SSP_AV   SSP_x(%)
  1      0.0000     0.0000E+00    0.0000E+00    1.000000E+06  0.00400  1.094E-02    0   1.0000   age020_m42            0.0000     1.6404E+00     8.5916   4.0000   106.3981
  2      0.0000     0.0000E+00    0.0000E+00    3.160000E+06  0.00400  4.007E-02    0   0.9999   age045_m42            0.0000     1.3240E+00     8.3136   3.4797   104.8685
  3      0.0000     0.0000E+00    0.0000E+00    5.010000E+06  0.00400  2.539E-02    0   0.9488   age055_m42            0.0000     1.3608E+00     8.3111   3.8145   101.5776
  4      0.0000     0.0000E+00    0.0000E+00    6.610000E+06  0.00400  2.620E-02    0   0.9220   age061_m42            0.0000     1.3393E+00     8.3756   3.3998   105.3790
  5      0.0000     0.0000E+00    0.0000E+00    1.000000E+07  0.00400  1.322E-02    0   0.8862   age070_m42            0.0000     1.4920E+00     9.0663   3.0930   108.5024
  6      0.0000     0.0000E+00    0.0000E+00    1.445000E+07  0.00400  7.883E-03    0   0.8571   age078_m42            0.0000     1.5061E+00     9.0395   3.4331   105.1131
  7      0.0000     0.0000E+00    0.0000E+00    2.512000E+07  0.00400  5.251E-03    0   0.8174   age090_m42            0.0000     1.5293E+00     9.2336   2.9557   109.4151
  8      0.0000     0.0000E+00    0.0000E+00    4.000000E+07  0.00400  3.649E-03    0   0.7851   age104_m42            0.0000     1.4732E+00     9.0735   2.7228   110.6760
  9      0.0000     0.0000E+00    0.0000E+00    5.500000E+07  0.00400  3.098E-03    0   0.7629   age110_m42            0.0000     1.3995E+00     8.7517   2.8795   110.7015
 10      0.0000     0.0000E+00    0.0000E+00    1.015200E+08  0.00400  2.228E-03    0   0.7207   age116_m42            0.0000     1.3694E+00     8.5711   2.9024   110.9117
 11      0.0000     0.0000E+00    0.0000E+00    2.861200E+08  0.00400  1.093E-03    0   0.6648   age125_m42            0.0000     1.4549E+00     9.0361   2.3067   115.4222
 12      0.0000     0.0000E+00    0.0000E+00    5.088000E+08  0.00400  6.597E-04    0   0.6365   age130_m42            0.0000     1.3555E+00     8.5606   2.3016   116.3847
 13      0.0000     0.0000E+00    0.0000E+00    1.434000E+09  0.00400  2.132E-04    0   0.5798   age139_m42            0.0000     1.1035E+00     7.6286   1.3310   118.9880
 14      0.0000     0.0000E+00    0.0000E+00    4.250000E+09  0.00400  5.895E-05    0   0.5377   age158_m42            0.0000     9.3060E-01     6.9517   0.9268   112.7349
 15      0.0000     0.0000E+00    0.0000E+00    7.500000E+09  0.00400  3.510E-05    0   0.5212   age171_m42            0.0000     8.9479E-01     6.7651   0.7458   111.7429
 16      0.0000     0.0000E+00    0.0000E+00    1.300000E+10  0.00400  2.005E-05    0   0.5034   age193_m42            0.0000     8.8212E-01     6.6642   0.5857   110.9733
 17      0.0000     0.0000E+00    0.0000E+00    1.800000E+10  0.00400  1.525E-05    0   0.4967   age213_m42            0.0000     8.8356E-01     6.6797   0.5637   110.4090
 18      6.6143     4.2266E-03    8.4314E-03    1.000000E+06  0.00800  1.238E-02    0   1.0000   age020_m52            0.0000     1.6319E+00     8.5638   4.0000   106.4543
 19      0.0000     0.0000E+00    0.0000E+00    3.160000E+06  0.00800  3.074E-02    0   0.9966   age045_m52            0.0000     1.4958E+00     8.2351   4.0000   104.2173
 20      0.0000     0.0000E+00    0.0000E+00    5.010000E+06  0.00800  2.668E-02    0   0.9443   age055_m52            0.0000     1.3701E+00     8.2925   3.9009   100.4787
 21      0.0000     0.0000E+00    0.0000E+00    6.610000E+06  0.00800  2.136E-02    0   0.9177   age061_m52            0.0000     1.3539E+00     8.6514   2.6009   109.4539
 22      0.0000     0.0000E+00    0.0000E+00    1.000000E+07  0.00800  1.215E-02    0   0.8827   age070_m52            0.0000     1.5847E+00     9.3642   3.2705   108.1947
 23      0.0000     0.0000E+00    0.0000E+00    1.445000E+07  0.00800  8.717E-03    0   0.8552   age078_m52            0.0000     1.4943E+00     9.0072   3.3947   106.7719
 24      0.0000     0.0000E+00    0.0000E+00    2.512000E+07  0.00800  5.592E-03    0   0.8162   age090_m52            0.0000     1.5370E+00     9.2464   3.0155   110.9137
 25      0.0000     0.0000E+00    0.0000E+00    4.000000E+07  0.00800  3.896E-03    0   0.7841   age104_m52            0.0000     1.4828E+00     9.0920   2.9224   112.1273
 26      0.0000     0.0000E+00    0.0000E+00    1.015200E+08  0.00800  2.148E-03    0   0.7226   age116_m52            0.0000     1.3898E+00     8.7260   2.8648   111.9471
 27      0.0000     0.0000E+00    0.0000E+00    2.861200E+08  0.00800  9.925E-04    0   0.6683   age125_m52            0.0000     1.3388E+00     8.4600   2.3606   117.8074
 28      0.0000     0.0000E+00    0.0000E+00    9.047900E+08  0.00800  3.141E-04    0   0.6138   age135_m52            0.0000     1.1257E+00     7.6514   1.5671   122.7862
 29      0.0000     0.0000E+00    0.0000E+00    1.434000E+09  0.00800  1.719E-04    0   0.5853   age139_m52            0.0000     1.0020E+00     7.3105   0.9993   119.6709
 30      0.0000     0.0000E+00    0.0000E+00    2.500000E+09  0.00800  7.872E-05    0   0.5600   age150_m52            0.0000     8.7483E-01     6.6570   0.7577   115.3928
 31      0.0000     0.0000E+00    0.0000E+00    4.250000E+09  0.00800  4.336E-05    0   0.5426   age158_m52            0.0000     8.7694E-01     6.6721   0.7481   114.0101
 32      0.0000     0.0000E+00    0.0000E+00    6.250000E+09  0.00800  3.159E-05    0   0.5319   age166_m52            0.0000     8.6174E-01     6.5108   0.5516   113.9024
 33      0.0000     0.0000E+00    0.0000E+00    1.300000E+10  0.00800  1.361E-05    0   0.5073   age193_m52            0.0000     8.6613E-01     6.3460   0.0917   112.9805
 34      0.0000     0.0000E+00    0.0000E+00    1.800000E+10  0.00800  9.886E-06    0   0.4990   age213_m52            0.0000     9.1060E-01     6.4022  -0.0066   112.1088
 35      5.3926     2.7630E-03    5.5118E-03    1.000000E+06  0.02000  1.544E-02    0   1.0000   age020_m62            0.0000     1.6326E+00     8.5560   4.0000   106.5239
 36      6.8830     1.4474E-03    2.8463E-03    3.160000E+06  0.02000  3.762E-02    0   0.9858   age045_m62            0.0000     1.5298E+00     8.3048   4.0000   104.9082
 37      0.0000     0.0000E+00    0.0000E+00    5.010000E+06  0.02000  3.296E-02    0   0.9342   age055_m62            0.0000     1.3303E+00     8.1973   3.7679   103.2111
 38      0.0033     2.2334E-06    3.9478E-06    8.710000E+06  0.02000  1.154E-02    0   0.8861   age067_m62            0.0000     2.3243E+00    11.8190   2.6926   111.8657
 39      0.0000     0.0000E+00    0.0000E+00    1.445000E+07  0.02000  7.663E-03    0   0.8472   age078_m62            0.0000     1.7481E+00    10.0281   2.9010   111.2074
 40      0.0000     0.0000E+00    0.0000E+00    2.512000E+07  0.02000  4.532E-03    0   0.8099   age090_m62            0.0000     1.8077E+00    10.2332   2.8877   111.1392
 41      0.0000     0.0000E+00    0.0000E+00    5.500000E+07  0.02000  2.733E-03    0   0.7595   age110_m62            0.0000     1.4727E+00     9.0295   2.9092   111.1307
 42      0.0000     0.0000E+00    0.0000E+00    1.609000E+08  0.02000  1.369E-03    0   0.6985   age120_m62            0.0000     1.3884E+00     8.6383   2.7347   115.1754
 43      0.0000     0.0000E+00    0.0000E+00    2.861200E+08  0.02000  9.013E-04    0   0.6714   age125_m62            0.0000     1.3513E+00     8.3944   2.4738   119.2456
 44      0.0000     0.0000E+00    0.0000E+00    5.088000E+08  0.02000  5.028E-04    0   0.6449   age130_m62            0.0000     1.2242E+00     7.8436   2.1034   122.3210
 45      0.0000     0.0000E+00    0.0000E+00    9.047900E+08  0.02000  2.428E-04    0   0.6179   age135_m62            0.0000     1.0101E+00     7.1395   1.5352   120.7993
 46      0.0000     0.0000E+00    0.0000E+00    1.434000E+09  0.02000  1.263E-04    0   0.5908   age139_m62            0.0000     9.0398E-01     6.7403   1.1021   118.5530
 47      0.0000     0.0000E+00    0.0000E+00    2.500000E+09  0.02000  5.985E-05    0   0.5673   age150_m62            0.0000     8.4581E-01     6.4285   0.7528   116.2952
 48      0.0063     1.5157E-03    1.6533E-03    4.250000E+09  0.02000  3.271E-05    0   0.5468   age158_m62            0.0000     8.4635E-01     6.2787   0.4595   115.0102
 49      0.0029     1.6752E-03    1.7267E-03    1.000000E+10  0.02000  1.360E-05    0   0.5167   age181_m62            0.0000     9.3592E-01     6.3887   0.1231   114.2091
 50      0.0000     0.0000E+00    0.0000E+00    1.800000E+10  0.02000  7.124E-06    0   0.5013   age213_m62            0.0000     1.0423E+00     6.5774  -0.0729   112.7987
 51      8.3831     2.5586E-03    5.1030E-03    1.000000E+06  0.05000  2.592E-02    0   0.9998   age020_m72            0.0000     1.6408E+00     8.5525   4.0000   106.1597
 52      0.0000     0.0000E+00    0.0000E+00    3.160000E+06  0.05000  4.845E-02    0   0.9577   age045_m72            0.0000     1.3804E+00     8.1036   4.0000   101.4675
 53      0.0000     0.0000E+00    0.0000E+00    5.010000E+06  0.05000  3.072E-02    0   0.9147   age055_m72            0.0000     1.6553E+00     9.5601   3.5167   105.7076
 54      0.0000     0.0000E+00    0.0000E+00    6.610000E+06  0.05000  1.455E-02    0   0.8877   age061_m72            0.0000     3.2291E+00    14.2664   2.7146   113.3891
 55      0.0000     0.0000E+00    0.0000E+00    1.000000E+07  0.05000  9.074E-03    0   0.8524   age070_m72            0.0000     1.8622E+00    10.1276   3.6919   105.6347
 56      0.0000     0.0000E+00    0.0000E+00    2.512000E+07  0.05000  4.250E-03    0   0.7902   age090_m72            0.0000     1.7234E+00     9.8513   3.3747   108.5745
 57      0.0000     0.0000E+00    0.0000E+00    4.000000E+07  0.05000  3.087E-03    0   0.7618   age104_m72            0.0000     1.7597E+00    10.0262   3.1332   111.0591
 58      0.0000     0.0000E+00    0.0000E+00    1.015200E+08  0.05000  1.700E-03    0   0.7096   age116_m72            0.0000     1.4842E+00     8.9925   2.8722   114.7776
 59      0.0000     0.0000E+00    0.0000E+00    2.861200E+08  0.05000  7.384E-04    0   0.6633   age125_m72            0.0000     1.2786E+00     8.0496   2.3428   120.9979
 60      0.0000     0.0000E+00    0.0000E+00    5.088000E+08  0.05000  3.819E-04    0   0.6372   age130_m72            0.0000     1.0689E+00     7.2212   1.8691   122.2711
 61      0.0000     0.0000E+00    0.0000E+00    9.047900E+08  0.05000  1.676E-04    0   0.6110   age135_m72            0.0000     8.8630E-01     6.5001   1.2085   118.6045
 62      0.0000     0.0000E+00    0.0000E+00    1.434000E+09  0.05000  8.837E-05    0   0.5874   age139_m72            0.0000     8.4809E-01     6.3360   0.7514   118.1190
 63     14.0850     2.6323E+00    2.9396E+00    2.500000E+09  0.05000  4.233E-05    0   0.5598   age150_m72            0.0000     8.5629E-01     6.2542   0.4609   115.9896
 64     25.2731     1.3933E+01    1.4589E+01    6.250000E+09  0.05000  1.435E-05    0   0.5249   age166_m72            0.0000     9.4494E-01     6.3909   0.0313   113.5898
 65      7.0719     8.5899E+00    8.6294E+00    1.300000E+10  0.05000  6.513E-06    0   0.5036   age193_m72            0.0000     1.1066E+00     6.7276  -0.2303   113.9516
 66     42.8213     7.4831E+01    7.3817E+01    1.800000E+10  0.05000  4.527E-06    0   0.4945   age213_m72            0.0000     1.2178E+00     6.9766  -0.3777   113.1599


## Synthesis Results - Average & Chains ##

# j      x_j: min, <> & last-chain-values for 1 ...  7 chains
  1      0.0000      1.9647      4.1683      3.3452      3.2130      2.7774      0.2683      3.8951      5.0478
  2      0.0000      0.1770      0.0000      0.0000      0.0000      0.0000      0.8433      0.0000      0.0000
  3      0.0000      0.1462      0.1031      0.0000      0.0000      0.0000      0.0000      1.5850      0.0000
  4      0.0000      0.4202      0.0000      0.6301      0.0000      0.0000      1.5121      0.0000      0.0000
  5      0.0000      0.1799      0.0000      0.0000      1.1516      0.0000      0.0000      0.0000      0.0000
  6      0.0000      0.3514      0.2906      0.4470      0.0000      0.0000      2.6318      0.0000      1.5938
  7      0.0000      0.2948      0.0000      0.0000      0.0000      3.2148      0.3124      1.2648      0.0000
  8      0.0000      0.3111      0.0000      0.6599      0.0000      1.2048      0.0000      0.0000      1.3563
  9      0.0000      0.1497      0.0000      0.0000      0.0000      0.0000      0.3321      0.8880      0.0000
 10      0.0000      0.1474      0.7864      0.0000      0.1333      0.0000      0.0000      0.0000      0.2255
 11      0.0000      0.2637      0.0000      0.0000      0.0000      0.0000      0.0000      0.0037      0.0000
 12      0.0000      0.1829      0.0000      0.0000      0.0000      0.0000      0.7391      0.0000      0.9908
 13      0.0000      0.4488      0.0000      0.0000      0.0000      0.0000      0.0000      0.0000      0.0000
 14      0.0000      0.9217      0.0000      0.0000      0.0000      0.0000      0.0000      0.0000      1.7498
 15      0.0000      1.1904      0.0000      0.0000      0.0000      0.0000      0.0000      1.6293      0.0000
 16      0.0000      1.1588      0.0000      0.0000      0.0000      0.0000      0.0000      0.0000      0.3900
 17      0.0000      0.8941      0.0000      0.0000      0.7209      0.0000      0.2416      0.0000      0.5697
 18      6.6143      1.2996      3.3169      1.9305      0.0000      0.4623      1.7762      0.0000      1.3315
 19      0.0000      1.2450      2.0294      2.2633      2.1437      0.0000      0.0000      1.0898      1.5620
 20      0.0000      0.6187      0.6242      0.0000      0.9391      2.8428      0.0000      0.0000      0.0000
 21      0.0000      0.5943      0.0000      1.5303      0.0000      0.0000      0.0000      0.0000      0.0000
 22      0.0000      0.2799      1.5545      0.0000      0.0000      0.4716      0.0000      0.1661      0.0000
 23      0.0000      0.2733      0.0000      0.5069      0.0000      0.0000      0.0000      1.3200      0.0000
 24      0.0000      0.3898      0.0000      0.0000      2.7171      0.0000      0.0000      1.1604      0.0000
 25      0.0000      0.4332      0.2047      1.1410      1.2219      0.0000      0.0000      0.0000      0.0000
 26      0.0000      0.1398      0.0000      0.0000      0.0000      0.0000      0.0000      0.0000      0.0182
 27      0.0000      0.0808      0.0000      0.0000      0.0000      0.7388      0.0000      0.0000      0.0000
 28      0.0000      0.3439      0.0000      0.0000      0.0000      0.0000      0.0000      0.1989      0.0000
 29      0.0000      0.3183      0.0000      0.0000      0.0000      0.0000      0.0000      0.0000      0.0000
 30      0.0000      1.0180      0.0000      0.0000      0.0000      0.7677      0.0000      0.2320      0.0000
 31      0.0000      0.9644      0.0000      0.0000      0.0510      0.0000      0.0000      0.0000      0.0000
 32      0.0000      0.9333      0.0000      0.0000      0.0000      0.0000      0.0000      0.0000      0.0000
 33      0.0000      0.4579      0.0000      0.0000      1.7580      0.0000      0.0000      0.0000      0.0000
 34      0.0000      0.6409      0.0000      0.3357      0.0000      0.0000      1.2174      0.0000      0.0000
 35      5.3926      2.7390      2.8081      3.4565      3.7476      3.2905      4.7712      2.1920      3.5113
 36      6.8830      3.0996      0.0000      3.1722      1.9198      8.2845      3.4338      3.5668      3.2250
 37      0.0000      0.2793      0.6367      0.0948      0.1894      0.5714      0.0000      0.0105      0.0000
 38      0.0033      0.1712      0.0000      1.3170      0.0000      0.0000      1.0230      0.0000      0.0000
 39      0.0000      0.1768      0.0000      0.0000      0.0000      0.0000      0.0000      0.0000      0.0000
 40      0.0000      0.2282      0.0461      1.3723      0.0000      0.0000      0.8395      0.2846      0.0000
 41      0.0000      0.3461      0.0000      0.0000      0.0000      0.0000      0.0000      0.0000      0.0000
 42      0.0000      0.1198      0.0000      0.0000      0.0000      0.0000      0.0000      0.0000      0.0000
 43      0.0000      0.1444      0.0000      1.3096      0.0345      0.0000      0.0000      0.0000      0.3401
 44      0.0000      0.3483      0.0000      0.0000      0.0000      0.5991      0.0000      0.0586      0.0000
 45      0.0000      0.4911      0.9244      0.0000      0.3846      0.0000      0.0000      0.2371      0.0000
 46      0.0000      0.8544      0.0000      0.5567      0.0000      0.8810      3.0144      0.0000      0.0000
 47      0.0000      2.2257      7.3257      0.3509      0.0000      1.6357      0.0072      4.6202      0.0000
 48      0.0063      7.9030      0.0000      7.7516      9.3486      0.0000      5.5563      1.6751      0.0000
 49      0.0029      5.1663      5.0719      3.4141      6.1176      5.1612      5.7686      1.0771      8.1531
 50      0.0000      6.7678      3.6752      7.5195      6.8506     10.4519      9.2662      6.8428      4.9925
 51      8.3831      3.2815      5.2880      2.4423      3.8177      3.3791      5.0811      3.2167      5.8900
 52      0.0000      0.2381      0.0000      0.0000      0.0000      0.1623      1.0710      0.0000      0.0000
 53      0.0000      0.2683      0.0000      0.0000      0.0000      0.1018      0.0000      0.0000      0.0000
 54      0.0000      0.3097      0.0000      0.0000      3.5515      0.0000      0.0000      1.5709      0.0000
 55      0.0000      0.2637      0.1980      0.0000      0.0000      0.0000      0.0000      0.0000      0.0000
 56      0.0000      0.2706      0.0000      0.0000      0.6472      0.0000      0.0000      0.0000      0.0000
 57      0.0000      0.1798      0.0000      0.0000      0.0000      0.0597      0.0000      0.0000      0.0000
 58      0.0000      0.1389      0.0000      0.0000      0.0000      0.3587      0.0000      1.1500      0.0000
 59      0.0000      0.1386      0.0000      0.0000      0.0000      0.0000      0.0000      0.0000      0.0000
 60      0.0000      0.4047      0.2312      0.0000      0.0000      0.0000      0.0000      0.0000      0.0000
 61      0.0000      0.5763      0.0000      0.0000      0.0000      0.9369      0.0000      0.0000      0.5685
 62      0.0000      1.9580      1.6327      0.0000      0.0000      2.5300      0.0000      6.0199      4.0465
 63     14.0850     25.9394     40.9714     38.7721     34.2937     25.3419     27.1429     35.8390     33.6388
 64     25.2731     13.0746     19.5704     14.4152     10.5198     18.8144     17.8985     12.5185     14.2691
 65      7.0719      3.6538      0.7065      4.3711      2.6896      5.2316      6.4497      2.8987      6.1221
 66     42.8213     14.8616     14.2738     13.0481     18.6819     15.7743     14.5929     19.2202     15.4770

# j      m_j: min, <> & last-chain-values for 1 ...  7 chains
  1  0.0000E+00  4.7910E-03  1.1182E-02  8.4529E-03  7.2511E-03  6.1456E-03  5.9016E-04  9.0855E-03  1.1929E-02
  2  0.0000E+00  1.1786E-04  0.0000E+00  0.0000E+00  0.0000E+00  0.0000E+00  5.0633E-04  0.0000E+00  0.0000E+00
  3  0.0000E+00  1.4579E-04  1.1302E-04  0.0000E+00  0.0000E+00  0.0000E+00  0.0000E+00  1.5114E-03  0.0000E+00
  4  0.0000E+00  3.9448E-04  0.0000E+00  6.1300E-04  0.0000E+00  0.0000E+00  1.2803E-03  0.0000E+00  0.0000E+00
  5  0.0000E+00  3.2170E-04  0.0000E+00  0.0000E+00  1.9059E-03  0.0000E+00  0.0000E+00  0.0000E+00  0.0000E+00
  6  0.0000E+00  1.0194E-03  9.2740E-04  1.3435E-03  0.0000E+00  0.0000E+00  6.8848E-03  0.0000E+00  4.4802E-03
  7  0.0000E+00  1.2242E-03  0.0000E+00  0.0000E+00  0.0000E+00  1.2114E-02  1.1700E-03  5.0240E-03  0.0000E+00
  8  0.0000E+00  1.7854E-03  0.0000E+00  3.9249E-03  0.0000E+00  6.2749E-03  0.0000E+00  0.0000E+00  7.5440E-03
  9  0.0000E+00  9.8315E-04  0.0000E+00  0.0000E+00  0.0000E+00  0.0000E+00  1.9676E-03  5.5801E-03  0.0000E+00
 10  0.0000E+00  1.2720E-03  7.4656E-03  0.0000E+00  1.0650E-03  0.0000E+00  0.0000E+00  0.0000E+00  1.8854E-03
 11  0.0000E+00  4.2786E-03  0.0000E+00  0.0000E+00  0.0000E+00  0.0000E+00  0.0000E+00  5.8012E-05  0.0000E+00
 12  0.0000E+00  4.7090E-03  0.0000E+00  0.0000E+00  0.0000E+00  0.0000E+00  1.7158E-02  0.0000E+00  2.4714E-02
 13  0.0000E+00  3.2563E-02  0.0000E+00  0.0000E+00  0.0000E+00  0.0000E+00  0.0000E+00  0.0000E+00  0.0000E+00
 14  0.0000E+00  2.2429E-01  0.0000E+00  0.0000E+00  0.0000E+00  0.0000E+00  0.0000E+00  0.0000E+00  4.1261E-01
 15  0.0000E+00  4.7158E-01  0.0000E+00  0.0000E+00  0.0000E+00  0.0000E+00  0.0000E+00  6.1736E-01  0.0000E+00
 16  0.0000E+00  7.7618E-01  0.0000E+00  0.0000E+00  0.0000E+00  0.0000E+00  0.0000E+00  0.0000E+00  2.5316E-01
 17  0.0000E+00  7.7688E-01  0.0000E+00  0.0000E+00  5.7970E-01  0.0000E+00  1.8935E-01  0.0000E+00  4.7970E-01
 18  8.4314E-03  2.8005E-03  7.8628E-03  4.3108E-03  0.0000E+00  9.0399E-04  3.4521E-03  0.0000E+00  2.7805E-03
 19  0.0000E+00  1.0768E-03  1.9309E-03  2.0285E-03  1.7159E-03  0.0000E+00  0.0000E+00  9.0156E-04  1.3092E-03
 20  0.0000E+00  5.8420E-04  6.4835E-04  0.0000E+00  8.2066E-04  2.4356E-03  0.0000E+00  0.0000E+00  0.0000E+00
 21  0.0000E+00  6.8122E-04  0.0000E+00  1.8175E-03  0.0000E+00  0.0000E+00  0.0000E+00  0.0000E+00  0.0000E+00
 22  0.0000E+00  5.4241E-04  3.3144E-03  0.0000E+00  0.0000E+00  8.2934E-04  0.0000E+00  3.0791E-04  0.0000E+00
 23  0.0000E+00  7.1533E-04  0.0000E+00  1.3747E-03  0.0000E+00  0.0000E+00  0.0000E+00  3.3046E-03  0.0000E+00
 24  0.0000E+00  1.5178E-03  0.0000E+00  0.0000E+00  9.7914E-03  0.0000E+00  0.0000E+00  4.3221E-03  0.0000E+00
 25  0.0000E+00  2.3257E-03  1.2092E-03  6.3479E-03  6.0716E-03  0.0000E+00  0.0000E+00  0.0000E+00  0.0000E+00
 26  0.0000E+00  1.2542E-03  0.0000E+00  0.0000E+00  0.0000E+00  0.0000E+00  0.0000E+00  0.0000E+00  1.5793E-04
 27  0.0000E+00  1.4510E-03  0.0000E+00  0.0000E+00  0.0000E+00  1.2043E-02  0.0000E+00  0.0000E+00  0.0000E+00
 28  0.0000E+00  1.7928E-02  0.0000E+00  0.0000E+00  0.0000E+00  0.0000E+00  0.0000E+00  9.9182E-03  0.0000E+00
 29  0.0000E+00  2.8911E-02  0.0000E+00  0.0000E+00  0.0000E+00  0.0000E+00  0.0000E+00  0.0000E+00  0.0000E+00
 30  0.0000E+00  1.9320E-01  0.0000E+00  0.0000E+00  0.0000E+00  1.3220E-01  0.0000E+00  4.2123E-02  0.0000E+00
 31  0.0000E+00  3.2197E-01  0.0000E+00  0.0000E+00  1.5753E-02  0.0000E+00  0.0000E+00  0.0000E+00  0.0000E+00
 32  0.0000E+00  4.1921E-01  0.0000E+00  0.0000E+00  0.0000E+00  0.0000E+00  0.0000E+00  0.0000E+00  0.0000E+00
 33  0.0000E+00  4.5532E-01  0.0000E+00  0.0000E+00  1.6178E+00  0.0000E+00  0.0000E+00  0.0000E+00  0.0000E+00
 34  0.0000E+00  8.6297E-01  0.0000E+00  4.6845E-01  0.0000E+00  0.0000E+00  1.4785E+00  0.0000E+00  0.0000E+00
 35  5.5118E-03  4.7326E-03  5.3374E-03  6.1886E-03  5.9926E-03  5.1589E-03  7.4351E-03  3.6228E-03  5.8793E-03
 36  2.8463E-03  2.1668E-03  0.0000E+00  2.2979E-03  1.2420E-03  5.2551E-03  2.1649E-03  2.3850E-03  2.1848E-03
 37  0.0000E+00  2.1119E-04  5.2960E-04  7.4260E-05  1.3257E-04  3.9205E-04  0.0000E+00  7.5781E-06  0.0000E+00
 38  3.9478E-06  3.5067E-04  0.0000E+00  2.7955E-03  0.0000E+00  0.0000E+00  1.8900E-03  0.0000E+00  0.0000E+00
 39  0.0000E+00  5.2149E-04  0.0000E+00  0.0000E+00  0.0000E+00  0.0000E+00  0.0000E+00  0.0000E+00  0.0000E+00
 40  0.0000E+00  1.0879E-03  2.4195E-04  6.7792E-03  0.0000E+00  0.0000E+00  3.6096E-03  1.2977E-03  0.0000E+00
 41  0.0000E+00  2.5656E-03  0.0000E+00  0.0000E+00  0.0000E+00  0.0000E+00  0.0000E+00  0.0000E+00  0.0000E+00
 42  0.0000E+00  1.6307E-03  0.0000E+00  0.0000E+00  0.0000E+00  0.0000E+00  0.0000E+00  0.0000E+00  0.0000E+00
 43  0.0000E+00  2.8702E-03  0.0000E+00  2.6969E-02  6.3509E-04  0.0000E+00  0.0000E+00  0.0000E+00  6.5499E-03
 44  0.0000E+00  1.1919E-02  0.0000E+00  0.0000E+00  0.0000E+00  1.8601E-02  0.0000E+00  1.9172E-03  0.0000E+00
 45  0.0000E+00  3.3343E-02  6.9040E-02  0.0000E+00  2.4167E-02  0.0000E+00  0.0000E+00  1.5401E-02  0.0000E+00
 46  0.0000E+00  1.0663E-01  0.0000E+00  7.1993E-02  0.0000E+00  9.9757E-02  3.3927E-01  0.0000E+00  0.0000E+00
 47  0.0000E+00  5.6281E-01  2.0378E+00  9.1949E-02  0.0000E+00  3.7531E-01  1.6465E-03  1.1175E+00  0.0000E+00
 48  1.6533E-03  3.5244E+00  0.0000E+00  3.5821E+00  3.8584E+00  0.0000E+00  2.2348E+00  7.1457E-01  0.0000E+00
 49  1.7267E-03  5.2363E+00  5.6551E+00  3.5858E+00  5.7384E+00  4.7467E+00  5.2732E+00  1.0443E+00  8.0081E+00
 50  0.0000E+00  1.2705E+01  7.5898E+00  1.4627E+01  1.1902E+01  1.7804E+01  1.5689E+01  1.2287E+01  9.0824E+00
 51  5.1030E-03  3.3767E-03  5.9860E-03  2.6043E-03  3.6357E-03  3.1552E-03  4.7156E-03  3.1662E-03  5.8736E-03
 52  0.0000E+00  1.2557E-04  0.0000E+00  0.0000E+00  0.0000E+00  7.7638E-05  5.0937E-04  0.0000E+00  0.0000E+00
 53  0.0000E+00  2.1309E-04  0.0000E+00  0.0000E+00  0.0000E+00  7.3401E-05  0.0000E+00  0.0000E+00  0.0000E+00
 54  0.0000E+00  5.0412E-04  0.0000E+00  0.0000E+00  5.3497E-03  0.0000E+00  0.0000E+00  2.4457E-03  0.0000E+00
 55  0.0000E+00  6.6084E-04  5.4593E-04  0.0000E+00  0.0000E+00  0.0000E+00  0.0000E+00  0.0000E+00  0.0000E+00
 56  0.0000E+00  1.3424E-03  0.0000E+00  0.0000E+00  2.9709E-03  0.0000E+00  0.0000E+00  0.0000E+00  0.0000E+00
 57  0.0000E+00  1.1840E-03  0.0000E+00  0.0000E+00  0.0000E+00  3.5641E-04  0.0000E+00  0.0000E+00  0.0000E+00
 58  0.0000E+00  1.5471E-03  0.0000E+00  0.0000E+00  0.0000E+00  3.6245E-03  0.0000E+00  1.2249E-02  0.0000E+00
 59  0.0000E+00  3.3214E-03  0.0000E+00  0.0000E+00  0.0000E+00  0.0000E+00  0.0000E+00  0.0000E+00  0.0000E+00
 60  0.0000E+00  1.8012E-02  1.1322E-02  0.0000E+00  0.0000E+00  0.0000E+00  0.0000E+00  0.0000E+00  0.0000E+00
 61  0.0000E+00  5.6044E-02  0.0000E+00  0.0000E+00  0.0000E+00  8.2684E-02  0.0000E+00  0.0000E+00  5.3577E-02
 62  0.0000E+00  3.4720E-01  3.1850E-01  0.0000E+00  0.0000E+00  4.0708E-01  0.0000E+00  1.0211E+00  6.9538E-01
 63  2.9396E+00  9.1515E+00  1.5901E+01  1.4174E+01  1.1197E+01  8.1127E+00  8.6367E+00  1.2094E+01  1.1501E+01
 64  1.4589E+01  1.2759E+01  2.1008E+01  1.4576E+01  9.5004E+00  1.6659E+01  1.5752E+01  1.1685E+01  1.3494E+01
 65  8.6294E+00  7.5370E+00  1.6033E+00  9.3432E+00  5.1346E+00  9.7923E+00  1.1999E+01  5.7194E+00  1.2238E+01
 66  7.3817E+01  4.3308E+01  4.5758E+01  3.9401E+01  5.0383E+01  4.1711E+01  3.8353E+01  5.3575E+01  4.3707E+01

# AV, chi2 & Mass for <> & i_chain = 1 ...  7 solutions
AV       0.2571      0.5094      0.5119      0.5119      0.4631      0.5006      0.4521      0.4850      0.5141
chi2 7.5976E-01  7.8210E-01  7.7538E-01  7.7598E-01  7.7571E-01  7.7721E-01  7.7343E-01  7.7642E-01  7.7775E-01
Mass 5.6951E-12  4.7281E-12  4.3125E-12  4.5781E-12  4.8008E-12  5.1491E-12  4.8539E-12  4.7833E-12  4.9099E-12
-270.22                                  [v0_min (km/s) before EX0s...]
 252.75                                  [vd_min (km/s) before EX0s...]


## Synthetic spectrum (Best Model) ##l_obs f_obs f_syn wei
 3478    [Nl_obs]
 3741.00    0.13348   0.59921    0.000
 3742.00   -0.00072   0.58142   -2.000
 3743.00    0.07747   0.56710    0.000
 3744.00    0.43393   0.56085    0.000
 3745.00    0.74484   0.56447   13.426
 3746.00    0.69670   0.57569   14.353
 3747.00    0.56526   0.59326   17.425
 3748.00    0.79711   0.61772   12.545
 3749.00    1.38000   0.64525   -1.000
 3750.00    1.96637   0.66770   -1.000
 3751.00    2.14042   0.68012   -1.000
 3752.00    1.73733   0.68471   -1.000
 3753.00    1.12512   0.68475   -1.000
 3754.00    0.74445   0.68022   13.433
 3755.00    0.62515   0.67118   15.996
 3756.00    0.64652   0.66132   15.467
 3757.00    0.81532   0.65535   12.265
 3758.00    1.10103   0.65470   -1.000
 3759.00    1.28893   0.65662   -1.000
 3760.00    1.18274   0.65714   -1.000
 3761.00    0.78049   0.65722   12.812
 3762.00    0.24596   0.66131   -1.000
 3763.00   -0.15098   0.66921   -2.000
 3764.00   -0.23579   0.67706   -2.000
 3765.00   -0.05107   0.68608   -2.000
 3766.00    0.29062   0.70006   -1.000
 3767.00    0.69838   0.71685   14.319
 3768.00    1.02467   0.73177   -1.000
 3769.00    1.06255   0.74528   -1.000
 3770.00    0.82583   0.75979   12.109
 3771.00    0.63170   0.77367   15.830
 3772.00    0.67294   0.78471   14.860
 3773.00    0.84497   0.79493   11.835
 3774.00    1.04836   0.80603    9.539
 3775.00    1.31203   0.81587   -1.000
 3776.00    1.64221   0.82275   -1.000
 3777.00    1.95944   0.82756   -1.000
 3778.00    2.14165   0.82953   -1.000
 3779.00    2.06968   0.82427   -1.000
 3780.00    1.72498   0.81055   -1.000
 3781.00    1.21749   0.79281   -1.000
 3782.00    0.74414   0.77312   13.438
 3783.00    0.51322   0.75042   -1.000
 3784.00    0.55068   0.72662   17.425
 3785.00    0.68837   0.70684   14.527
 3786.00    0.73353   0.69150   13.633
 3787.00    0.58550   0.67729   17.080
 3788.00    0.40356   0.66367   -1.000
 3789.00    0.48467   0.65214   17.425
 3790.00    0.81714   0.64195   12.238
 3791.00    1.10869   0.63013   -1.000
 3792.00    1.15773   0.61817   -1.000
 3793.00    0.95523   0.61197   -1.000
 3794.00    0.69276   0.61436   14.435
 3795.00    0.63203   0.62273   15.822
 3796.00    0.82997   0.63520   12.049
 3797.00    1.13417   0.65341   -1.000
 3798.00    1.29887   0.67623   -1.000
 3799.00    1.17378   0.69828   -1.000
 3800.00    0.98935   0.71494   -1.000
 3801.00    1.09093   0.72670   -1.000
 3802.00    1.41116   0.73608   -1.000
 3803.00    1.62758   0.74229   -1.000
 3804.00    1.55501   0.74375   -1.000
 3805.00    1.21099   0.74141   -1.000
 3806.00    0.80833   0.73682   12.371
 3807.00    0.56093   0.72927   17.425
 3808.00    0.43491   0.71756   -1.000
 3809.00    0.33707   0.70125   -1.000
 3810.00    0.37958   0.68202   -1.000
 3811.00    0.66988   0.66297   14.928
 3812.00    1.04087   0.64474   -1.000
 3813.00    1.24442   0.62607   -1.000
 3814.00    1.19487   0.60860   -1.000
 3815.00    0.95007   0.59623   -1.000
 3816.00    0.66069   0.58844   15.136
 3817.00    0.50568   0.58044   17.425
 3818.00    0.62089   0.57097   16.106
 3819.00    0.96345   0.56374   -1.000
 3820.00    1.23770   0.56010   -1.000
 3821.00    1.24315   0.55677   -1.000
 3822.00    1.12700   0.55129   -1.000
 3823.00    1.07816   0.54541   -1.000
 3824.00    1.09286   0.54114   -1.000
 3825.00    1.07606   0.53714   -1.000
 3826.00    0.94112   0.53117   -1.000
 3827.00    0.71822   0.52366   13.923
 3828.00    0.58482   0.51622   17.099
 3829.00    0.63557   0.50974   15.734
 3830.00    0.77192   0.50445   -1.000
 3831.00    0.88713   0.50081   -1.000
 3832.00    0.96298   0.50027   -1.000
 3833.00    1.00329   0.50428   -1.000
 3834.00    1.00628   0.51272   -1.000
 3835.00    1.01279   0.52478   -1.000
 3836.00    1.09376   0.54069   -1.000
 3837.00    1.18888   0.55967   -1.000
 3838.00    1.11004   0.57978   -1.000
 3839.00    0.85612   0.59929   11.681
 3840.00    0.65713   0.61743   15.218
 3841.00    0.63132   0.63328   15.840
 3842.00    0.68343   0.64473   14.632
 3843.00    0.63298   0.65022   15.798
 3844.00    0.36053   0.65138   -1.000
 3845.00    0.11491   0.65173   -1.000
 3846.00    0.35171   0.65144   -1.000
 3847.00    0.94619   0.64796    0.000
 3848.00    1.27228   0.64190    0.000
 3849.00    1.11226   0.63605    0.000
 3850.00    0.75028   0.63033    0.000
 3851.00    0.51610   0.62312    0.000
 3852.00    0.59576   0.61463    0.000
 3853.00    0.88615   0.60634    0.000
 3854.00    1.10996   0.60002    0.000
 3855.00    1.14921   0.59790    0.000
 3856.00    1.05217   0.60068    0.000
 3857.00    0.88640   0.60629    0.000
 3858.00    0.72800   0.61299    0.000
 3859.00    0.69899   0.62090    0.000
 3860.00    0.88686   0.62930    0.000
 3861.00    1.19248   0.63527    0.000
 3862.00    1.41537   0.63662    0.000
 3863.00    1.44232   0.63445    0.000
 3864.00    1.27817   0.63076    0.000
 3865.00    1.03960   0.62647    0.000
 3866.00    0.87818   0.62238    0.000
 3867.00    0.87009   0.62029    0.000
 3868.00    0.98953   0.62152    0.000
 3869.00    1.10219   0.62525    0.000
 3870.00    1.07994   0.62959    0.000
 3871.00    0.93882   0.63295    0.000
 3872.00    0.76565   0.63475    0.000
 3873.00    0.61788   0.63563    0.000
 3874.00    0.57408   0.63554    0.000
 3875.00    0.78050   0.63223    0.000
 3876.00    1.23443   0.62592    0.000
 3877.00    1.59898   0.62188    0.000
 3878.00    1.57024   0.62208    0.000
 3879.00    1.21691   0.62039    0.000
 3880.00    0.80228   0.61425    0.000
 3881.00    0.59231   0.61054   16.883
 3882.00    0.75115   0.61273   13.313
 3883.00    1.25877   0.61642   -1.000
 3884.00    1.83942   0.62157   -1.000
 3885.00    1.99166   0.63395   -1.000
 3886.00    1.54816   0.65392   -1.000
 3887.00    0.96487   0.67617   -1.000
 3888.00    0.65113   0.69772   15.358
 3889.00    0.57856   0.71771   17.284
 3890.00    0.62787   0.73496   15.927
 3891.00    0.78626   0.74876   12.718
 3892.00    1.00633   0.75755    9.937
 3893.00    1.15809   0.76067   -1.000
 3894.00    1.21474   0.76183   -1.000
 3895.00    1.29227   0.76463   -1.000
 3896.00    1.37373   0.76613   -1.000
 3897.00    1.25942   0.76369   -1.000
 3898.00    0.93660   0.76185   10.677
 3899.00    0.66129   0.76338   15.122
 3900.00    0.60968   0.76512   16.402
 3901.00    0.75650   0.76758   13.219
 3902.00    0.97746   0.77539   10.231
 3903.00    1.12950   0.78765   -1.000
 3904.00    1.18016   0.80044   -1.000
 3905.00    1.21522   0.81448   -1.000
 3906.00    1.31524   0.83035   -1.000
 3907.00    1.51085   0.84379   -1.000
 3908.00    1.77556   0.85154   -1.000
 3909.00    2.02804   0.85435   -1.000
 3910.00    2.14508   0.85237   -1.000
 3911.00    2.01875   0.84427   -1.000
 3912.00    1.68962   0.83100   -1.000
 3913.00    1.34253   0.81403   -1.000
 3914.00    1.20848   0.79349   -1.000
 3915.00    1.40147   0.77121   -1.000
 3916.00    1.62831   0.75038   -1.000
 3917.00    1.48195   0.73151   -1.000
 3918.00    1.15576   0.71372   -1.000
 3919.00    1.15704   0.69727   -1.000
 3920.00    1.49091   0.68144   -1.000
 3921.00    1.76270   0.66448   -1.000
 3922.00    1.64425   0.64519   -1.000
 3923.00    1.05198   0.62323   -1.000
 3924.00    0.28558   0.59893   -1.000
 3925.00   -0.22388   0.57367   -2.000
 3926.00   -0.32631   0.54959   -2.000
 3927.00   -0.10355   0.52899   -2.000
 3928.00    0.29048   0.51359   -1.000
 3929.00    0.66122   0.50434   15.124
 3930.00    0.79307   0.50240   -1.000
 3931.00    0.56566   0.50841   17.425
 3932.00    0.09085   0.52124   -1.000
 3933.00   -0.30752   0.53927   -2.000
 3934.00   -0.17308   0.56086   -2.000
 3935.00    0.62883   0.58394   15.902
 3936.00    1.50269   0.60714   -1.000
 3937.00    1.80911   0.62961   -1.000
 3938.00    1.55271   0.64960   -1.000
 3939.00    1.09913   0.66813   -1.000
 3940.00    0.83533   0.68912   11.971
 3941.00    0.96135   0.71178   10.402
 3942.00    1.35179   0.73197   -1.000
 3943.00    1.68857   0.75156   -1.000
 3944.00    1.61842   0.77473   -1.000
 3945.00    1.07853   0.79788    9.272
 3946.00    0.46865   0.81425   -1.000
 3947.00    0.22008   0.82474   -1.000
 3948.00    0.48327   0.83516   -1.000
 3949.00    1.08348   0.84413    9.230
 3950.00    1.58165   0.84443   -1.000
 3951.00    1.73086   0.83634   -1.000
 3952.00    1.68026   0.82624   -1.000
 3953.00    1.60970   0.81390   -1.000
 3954.00    1.54089   0.79378   -1.000
 3955.00    1.43709   0.76498   -1.000
 3956.00    1.26325   0.73184   -1.000
 3957.00    1.00642   0.69787   -1.000
 3958.00    0.69609   0.66229   14.366
 3959.00    0.45166   0.62345   17.425
 3960.00    0.42230   0.58440    0.000
 3961.00    0.47318   0.54995    0.000
 3962.00    0.24502   0.52130    0.000
 3963.00   -0.16626   0.49790   -2.000
 3964.00   -0.20489   0.48173   -2.000
 3965.00    0.28457   0.47649    0.000
 3966.00    0.91684   0.48381    0.000
 3967.00    1.29246   0.50222    0.000
 3968.00    1.23675   0.53036    0.000
 3969.00    0.97148   0.56819    0.000
 3970.00    0.92552   0.61327    0.000
 3971.00    1.09720   0.66076    0.000
 3972.00    1.12890   0.70792    0.000
 3973.00    0.94145   0.75392    0.000
 3974.00    0.79683   0.79650    0.000
 3975.00    1.04471   0.83319    0.000
 3976.00    1.75200   0.86309    0.000
 3977.00    2.07787   0.88713    0.000
 3978.00    1.14631   0.90712    0.000
 3979.00    0.00395   0.92416    0.000
 3980.00    0.37890   0.93804    0.000
 3981.00    1.69384   0.94933   -1.000
 3982.00    2.26970   0.96133   -1.000
 3983.00    2.32079   0.97468   -1.000
 3984.00    2.78476   0.98482   -1.000
 3985.00    2.69434   0.99163   -1.000
 3986.00    0.86601   0.99958   11.547
 3987.00   -1.08156   1.00686   -2.000
 3988.00   -0.95029   1.00939   -2.000
 3989.00    0.45588   1.00948   -1.000
 3990.00    1.23142   1.01147    8.121
 3991.00    1.36759   1.01370   -1.000
 3992.00    1.50114   1.01415   -1.000
 3993.00    1.06863   1.01696    9.358
 3994.00   -0.30765   1.02559   -2.000
 3995.00   -1.20721   1.03425   -2.000
 3996.00   -0.44520   1.03837   -2.000
 3997.00    0.83640   1.04335   11.956
 3998.00    1.32466   1.04957    7.549
 3999.00    1.63253   1.04810   -1.000
 4000.00    2.47147   1.03927   -1.000
 4001.00    3.01668   1.03453   -1.000
 4002.00    2.51463   1.03572   -1.000
 4003.00    1.58822   1.03632   -1.000
 4004.00    0.96821   1.03845   10.328
 4005.00    0.54051   1.04781   -1.000
 4006.00    0.20183   1.06195   -1.000
 4007.00    0.39414   1.07531   -1.000
 4008.00    1.18674   1.08681    8.426
 4009.00    1.79069   1.09765   -1.000
 4010.00    1.55236   1.10879   -1.000
 4011.00    0.56649   1.11709   -1.000
 4012.00   -0.51260   1.12001   -2.000
 4013.00   -0.78897   1.12256   -2.000
 4014.00   -0.11603   1.12694   -2.000
 4015.00    0.62892   1.12631   -1.000
 4016.00    0.81426   1.12068   12.281
 4017.00    0.61422   1.11720   -1.000
 4018.00    0.58478   1.11470   -1.000
 4019.00    1.24563   1.10798    8.028
 4020.00    2.23001   1.10032   -1.000
 4021.00    2.40630   1.09444   -1.000
 4022.00    1.75209   1.08754   -1.000
 4023.00    1.52338   1.07839   -1.000
 4024.00    2.14280   1.06516   -1.000
 4025.00    2.78552   1.04587   -1.000
 4026.00    2.67031   1.02666   -1.000
 4027.00    1.58835   1.01232   -1.000
 4028.00    0.10165   0.99999   -1.000
 4029.00   -0.75307   0.99313   -2.000
 4030.00   -0.47346   0.99864   -2.000
 4031.00    0.64989   1.01492   -1.000
 4032.00    1.67408   1.03540   -1.000
 4033.00    1.67258   1.05657   -1.000
 4034.00    1.23151   1.07502    8.120
 4035.00    1.65278   1.08517   -1.000
 4036.00    2.31506   1.08501   -1.000
 4037.00    1.61993   1.07732   -1.000
 4038.00    0.26075   1.06213   -1.000
 4039.00    0.18549   1.03896   -1.000
 4040.00    1.19218   1.01459    8.388
 4041.00    1.64200   0.99973   -1.000
 4042.00    1.01803   0.99742    9.823
 4043.00   -0.03624   1.00146   -2.000
 4044.00   -0.51007   1.01075   -2.000
 4045.00    0.12048   1.02895   -1.000
 4046.00    0.84197   1.05008   11.877
 4047.00    0.44342   1.06472   -1.000
 4048.00   -0.35466   1.07210   -2.000
 4049.00   -0.15715   1.07301   -2.000
 4050.00    1.00000   1.06719   10.000
 4051.00    2.13304   1.05819   -1.000
 4052.00    2.33619   1.04628   -1.000
 4053.00    1.48782   1.03162   -1.000
 4054.00    0.80988   1.01891   12.347
 4055.00    1.30136   1.00949    7.684
 4056.00    2.07888   0.99995   -1.000
 4057.00    1.88672   0.98838   -1.000
 4058.00    0.76930   0.97633   12.999
 4059.00   -0.44309   0.96966   -2.000
 4060.00   -0.84726   0.97140   -2.000
 4061.00   -0.14790   0.97338   -2.000
 4062.00    0.89585   0.97322   11.163
 4063.00    1.37157   0.98031   -1.000
 4064.00    0.99321   0.99480   10.068
 4065.00    0.13590   1.00343   -1.000
 4066.00   -0.29468   1.00270   -2.000
 4067.00    0.31587   1.00372   -1.000
 4068.00    1.74722   1.00954   -1.000
 4069.00    3.21815   1.01013   -1.000
 4070.00    3.73615   1.00495   -1.000
 4071.00    2.97963   1.00346   -1.000
 4072.00    1.68632   1.00825   -1.000
 4073.00    0.81276   1.01575   12.304
 4074.00    0.93866   1.02569   10.653
 4075.00    1.76951   1.04023   -1.000
 4076.00    2.20956   1.05921   -1.000
 4077.00    1.91845   1.07842   -1.000
 4078.00    1.71085   1.09571   -1.000
 4079.00    1.88564   1.11331   -1.000
 4080.00    1.83002   1.12982   -1.000
 4081.00    1.60395   1.14292   -1.000
 4082.00    2.09056   1.15545   -1.000
 4083.00    2.97010   1.16787   -1.000
 4084.00    2.72086   1.17624   -1.000
 4085.00    1.45537   1.18081    6.871
 4086.00    0.96849   1.18189   10.325
 4087.00    1.48222   1.17511    6.747
 4088.00    1.52627   1.16201   -1.000
 4089.00    0.95272   1.14542   10.496
 4090.00    0.99293   1.12179   10.071
 4091.00    1.72752   1.09272   -1.000
 4092.00    2.08673   1.06439    0.000
 4093.00    1.79321   1.03699    0.000
 4094.00    1.42895   1.01009    0.000
 4095.00    1.30881   0.98678    0.000
 4096.00    1.41283   0.96920    0.000
 4097.00    1.86757   0.96129    0.000
 4098.00    2.67057   0.96426    0.000
 4099.00    2.91915   0.97255    0.000
 4100.00    1.70734   0.98603    0.000
 4101.00    0.11437   1.00709    0.000
 4102.00   -0.04843   1.02889   -2.000
 4103.00    0.86426   1.04601    0.000
 4104.00    1.32328   1.06065    0.000
 4105.00    1.13164   1.07307    0.000
 4106.00    0.96341   1.08068    0.000
 4107.00    0.99346   1.08548    0.000
 4108.00    0.99340   1.09134    0.000
 4109.00    0.78933   1.09672    0.000
 4110.00    0.44699   1.09891    0.000
 4111.00    0.39650   1.10068    0.000
 4112.00    0.92888   1.10365    0.000
 4113.00    1.58999   1.10203   -1.000
 4114.00    1.76115   1.09626   -1.000
 4115.00    1.40430   1.09373    7.121
 4116.00    0.87888   1.09299   11.378
 4117.00    0.62487   1.08955   -1.000
 4118.00    0.81187   1.08694   12.317
 4119.00    1.07114   1.08866    9.336
 4120.00    1.03159   1.08991    9.694
 4121.00    0.81512   1.08698   12.268
 4122.00    0.75309   1.08158   -1.000
 4123.00    1.06779   1.07454    9.365
 4124.00    1.57755   1.06451   -1.000
 4125.00    1.60191   1.05212   -1.000
 4126.00    0.92238   1.03967   10.841
 4127.00    0.33444   1.02953   -1.000
 4128.00    0.35066   1.02464   -1.000
 4129.00    0.45602   1.02441   -1.000
 4130.00    0.37693   1.02922   -1.000
 4131.00    0.72604   1.03879   -1.000
 4132.00    1.70308   1.04920   -1.000
 4133.00    2.50134   1.05773   -1.000
 4134.00    2.53129   1.06280   -1.000
 4135.00    2.00061   1.06116   -1.000
 4136.00    1.24355   1.05329    8.041
 4137.00    0.43038   1.04203   -1.000
 4138.00   -0.07477   1.02646   -2.000
 4139.00    0.27310   1.01186   -1.000
 4140.00    1.36411   1.00464   -1.000
 4141.00    2.29819   1.00000   -1.000
 4142.00    2.38276   0.99634   -1.000
 4143.00    1.61578   0.99909   -1.000
 4144.00    0.88275   1.00444   11.328
 4145.00    1.39493   1.00611   -1.000
 4146.00    2.53540   1.00623   -1.000
 4147.00    2.25799   1.00683   -1.000
 4148.00    0.82026   1.00555   12.191
 4149.00    0.58839   1.00387   -1.000
 4150.00    1.75808   1.00637   -1.000
 4151.00    2.32571   1.01203   -1.000
 4152.00    1.70094   1.01923   -1.000
 4153.00    0.98601   1.03001   10.142
 4154.00    0.99797   1.04580   10.020
 4155.00    1.78741   1.06135   -1.000
 4156.00    2.79028   1.07331   -1.000
 4157.00    3.23395   1.08572   -1.000
 4158.00    2.92880   1.09602   -1.000
 4159.00    2.20757   1.09763   -1.000
 4160.00    1.42440   1.09443    7.020
 4161.00    0.84070   1.09149   11.895
 4162.00    0.61047   1.08394   -1.000
 4163.00    0.71991   1.07123   -1.000
 4164.00    0.89780   1.05936   11.138
 4165.00    0.88529   1.04829   11.296
 4166.00    0.88225   1.03527   11.335
 4167.00    1.14763   1.02189    8.714
 4168.00    1.31392   1.01069    7.611
 4169.00    0.99529   1.00184   10.047
 4170.00    0.74159   0.99503   13.485
 4171.00    1.15902   0.99105    8.628
 4172.00    1.64620   0.99114   -1.000
 4173.00    1.42643   0.99431   -1.000
 4174.00    0.94390   0.99991   10.594
 4175.00    0.92910   1.00775   10.763
 4176.00    1.19560   1.01542    8.364
 4177.00    1.26607   1.02369    7.898
 4178.00    1.15613   1.03234    8.650
 4179.00    1.13312   1.03815    8.825
 4180.00    1.37816   1.04383    7.256
 4181.00    1.76685   1.05046   -1.000
 4182.00    1.77527   1.05318   -1.000
 4183.00    1.21516   1.05391    8.229
 4184.00    0.74441   1.05922   -1.000
 4185.00    0.81737   1.06437   12.234
 4186.00    0.94512   1.06366   10.581
 4187.00    0.69333   1.06303   -1.000
 4188.00    0.36931   1.06435   -1.000
 4189.00    0.36510   1.06016   -1.000
 4190.00    0.69791   1.04767   -1.000
 4191.00    1.17492   1.03402    8.511
 4192.00    1.54947   1.02246   -1.000
 4193.00    1.71267   1.00761   -1.000
 4194.00    1.74965   0.99268   -1.000
 4195.00    1.64669   0.98702   -1.000
 4196.00    1.23331   0.98811    8.108
 4197.00    0.71454   0.99155   -1.000
 4198.00    0.70678   1.00305   -1.000
 4199.00    1.13159   1.02241    8.837
 4200.00    1.07584   1.04195    9.295
 4201.00    0.47567   1.06144   -1.000
 4202.00    0.40076   1.08194   -1.000
 4203.00    1.19225   1.09931    8.387
 4204.00    2.03499   1.11150   -1.000
 4205.00    2.25802   1.11831   -1.000
 4206.00    1.79175   1.12067   -1.000
 4207.00    0.98087   1.12002   10.195
 4208.00    0.39710   1.11683   -1.000
 4209.00    0.48042   1.11458   -1.000
 4210.00    1.29629   1.11504    7.714
 4211.00    2.19434   1.11717   -1.000
 4212.00    2.23042   1.12425   -1.000
 4213.00    1.56110   1.13483   -1.000
 4214.00    1.20945   1.13993    8.268
 4215.00    1.48722   1.13975   -1.000
 4216.00    1.91194   1.13581   -1.000
 4217.00    1.99198   1.11991   -1.000
 4218.00    1.57107   1.09004   -1.000
 4219.00    1.13200   1.05557    8.834
 4220.00    1.31764   1.02340    7.589
 4221.00    1.85917   0.99294   -1.000
 4222.00    1.99148   0.96949   -1.000
 4223.00    1.62904   0.96413   -1.000
 4224.00    1.20595   0.97372    8.292
 4225.00    1.00127   0.98821    9.987
 4226.00    1.04880   1.01122    9.535
 4227.00    1.19341   1.04084    8.379
 4228.00    1.25238   1.06180    7.985
 4229.00    1.23754   1.07648    8.081
 4230.00    1.26698   1.09235    7.893
 4231.00    1.39230   1.10033    7.182
 4232.00    1.53822   1.10389   -1.000
 4233.00    1.47559   1.11626    6.777
 4234.00    1.10352   1.13018    9.062
 4235.00    0.76219   1.14171   -1.000
 4236.00    0.81660   1.16121   -1.000
 4237.00    1.16669   1.18371    8.571
 4238.00    1.46651   1.19859    6.819
 4239.00    1.42819   1.20952    7.002
 4240.00    1.03377   1.21877    9.673
 4241.00    0.66576   1.21767   -1.000
 4242.00    0.63725   1.20450   -1.000
 4243.00    0.79776   1.18759   -1.000
 4244.00    0.91183   1.16936   10.967
 4245.00    0.97980   1.14697   10.206
 4246.00    1.03058   1.12332    9.703
 4247.00    0.96642   1.10738   10.347
 4248.00    0.75991   1.09963   -1.000
 4249.00    0.57500   1.09241   -1.000
 4250.00    0.55465   1.08876   -1.000
 4251.00    0.68362   1.09366   -1.000
 4252.00    0.86899   1.10044   11.508
 4253.00    1.01403   1.10450    9.862
 4254.00    1.11904   1.11120    8.936
 4255.00    1.29013   1.12381    7.751
 4256.00    1.47992   1.13690    6.757
 4257.00    1.42956   1.15044    6.995
 4258.00    1.08167   1.16936    9.245
 4259.00    0.71244   1.18653   -1.000
 4260.00    0.56511   1.19607   -1.000
 4261.00    0.69643   1.20223   -1.000
 4262.00    1.07550   1.19956    9.298
 4263.00    1.60147   1.18006   -1.000
 4264.00    1.99870   1.15220   -1.000
 4265.00    1.91683   1.12391   -1.000
 4266.00    1.43770   1.09074    6.956
 4267.00    1.08235   1.05813    9.239
 4268.00    1.19966   1.04068    8.336
 4269.00    1.73599   1.03623   -1.000
 4270.00    2.20496   1.03731   -1.000
 4271.00    2.00411   1.05156   -1.000
 4272.00    1.32485   1.07769    7.548
 4273.00    0.96662   1.10195   10.345
 4274.00    1.12133   1.12437    8.918
 4275.00    1.35168   1.14460    7.398
 4276.00    1.37724   1.15686    7.261
 4277.00    1.22849   1.16343    8.140
 4278.00    1.12123   1.16252    8.919
 4279.00    1.25632   1.15494    7.960
 4280.00    1.47372   1.14652   -2.000
 4281.00    1.52499   1.13277   -2.000
 4282.00    1.73597   1.11593   -2.000
 4283.00    2.48049   1.10262   -2.000
 4284.00    3.01150   1.08846   -2.000
 4285.00    2.31441   1.07496   -2.000
 4286.00    0.88892   1.06781   -2.000
 4287.00   -0.06239   1.06422   -2.000
 4288.00   -0.38072   1.06175   -2.000
 4289.00   -0.42808   1.05928   -2.000
 4290.00    0.05134   1.05405   -2.000
 4291.00    1.25336   1.04633   -2.000
 4292.00    2.23444   1.03259   -2.000
 4293.00    2.08086   1.01154   -2.000
 4294.00    1.49184   0.98940   -2.000
 4295.00    1.48979   0.96494   -2.000
 4296.00    1.73159   0.94108   -1.000
 4297.00    1.47825   0.92284   -1.000
 4298.00    0.84075   0.90449   11.894
 4299.00    0.35995   0.88987   -1.000
 4300.00    0.41545   0.88277   -1.000
 4301.00    0.94022   0.87569   10.636
 4302.00    1.28953   0.87276   -1.000
 4303.00    1.06625   0.87850    9.379
 4304.00    0.76561   0.88966   13.061
 4305.00    0.88215   0.91182   11.336
 4306.00    1.19367   0.94624    8.378
 4307.00    1.30932   0.98810    7.638
 4308.00    1.12851   1.04107    8.861
 4309.00    0.80660   1.10247   12.398
 4310.00    0.66494   1.16099   -1.000
 4311.00    0.90049   1.21718   11.105
 4312.00    1.40589   1.27021    7.113
 4313.00    1.83961   1.30585   -1.000
 4314.00    1.76797   1.32451   -1.000
 4315.00    1.18571   1.33274    8.434
 4316.00    0.67208   1.32218   -1.000
 4317.00    0.65461   1.29657   -1.000
 4318.00    1.04950   1.26842    9.528
 4319.00    1.47231   1.23849    6.792
 4320.00    1.47104   1.21342    6.798
 4321.00    1.04877   1.20170    9.535
 4322.00    0.73035   1.20212   -1.000
 4323.00    0.84540   1.21637   -1.000
 4324.00    1.27807   1.24296    7.824
 4325.00    1.71072   1.27378   -1.000
 4326.00    1.81075   1.30379   -1.000
 4327.00    1.52589   1.33057    6.554
 4328.00    1.10663   1.34911    9.036
 4329.00    0.82104   1.35131   -1.000
 4330.00    0.81611   1.33974    0.000
 4331.00    1.00525   1.32273    0.000
 4332.00    1.16792   1.29500    0.000
 4333.00    1.32440   1.25665    0.000
 4334.00    1.65291   1.22677    0.000
 4335.00    1.99032   1.20709    0.000
 4336.00    1.92795   1.18792    0.000
 4337.00    1.37466   1.18484    0.000
 4338.00    0.62970   1.20306    0.000
 4339.00    0.21423   1.22207    0.000
 4340.00    0.54209   1.24381    0.000
 4341.00    1.33383   1.27649    0.000
 4342.00    1.90283   1.30262    0.000
 4343.00    1.95437   1.31537    0.000
 4344.00    1.64804   1.32537    0.000
 4345.00    1.40710   1.33099    0.000
 4346.00    1.58626   1.32688    0.000
 4347.00    1.99336   1.31773    0.000
 4348.00    2.19540   1.31283    0.000
 4349.00    2.11302   1.31402    0.000
 4350.00    1.90870   1.31563    0.000
 4351.00    1.68719   1.32037    5.927
 4352.00    1.47054   1.33448    6.800
 4353.00    1.22798   1.35224    8.143
 4354.00    0.94833   1.36720   -1.000
 4355.00    0.72115   1.38264   -1.000
 4356.00    0.67098   1.40061   -1.000
 4357.00    0.86382   1.41700   -1.000
 4358.00    1.24302   1.42848    8.045
 4359.00    1.58795   1.43593    6.297
 4360.00    1.71397   1.44115    5.834
 4361.00    1.66963   1.44145    5.989
 4362.00    1.64272   1.43351    6.087
 4363.00    1.82199   1.42024    5.489
 4364.00    2.09181   1.40628   -1.000
 4365.00    1.88696   1.39017   -1.000
 4366.00    1.14395   1.36980    8.742
 4367.00    0.87823   1.35090   -1.000
 4368.00    1.53971   1.33629    6.495
 4369.00    2.00728   1.32174   -1.000
 4370.00    1.57134   1.30880    6.364
 4371.00    1.10833   1.29951    9.023
 4372.00    1.28216   1.29022    7.799
 4373.00    1.52693   1.27861    6.549
 4374.00    1.34054   1.26412    7.460
 4375.00    0.99828   1.24390   10.017
 4376.00    0.92067   1.21711   10.862
 4377.00    1.27149   1.18898    7.865
 4378.00    1.85183   1.16209   -1.000
 4379.00    2.17905   1.13688   -1.000
 4380.00    2.07565   1.12089   -1.000
 4381.00    1.83976   1.11908   -1.000
 4382.00    1.72058   1.12655   -1.000
 4383.00    1.72140   1.13985   -1.000
 4384.00    1.79249   1.16201   -1.000
 4385.00    1.88725   1.18978   -1.000
 4386.00    1.85557   1.21485   -1.000
 4387.00    1.51677   1.23862    6.593
 4388.00    1.05371   1.26349    9.490
 4389.00    0.93799   1.28688   10.661
 4390.00    1.23539   1.30625    8.095
 4391.00    1.55825   1.32161    6.417
 4392.00    1.63085   1.33618    6.132
 4393.00    1.45700   1.34307    6.863
 4394.00    1.28087   1.33884    7.807
 4395.00    1.38744   1.33346    7.208
 4396.00    1.63339   1.31991    6.122
 4397.00    1.61179   1.29459    6.204
 4398.00    1.33556   1.27447    7.488
 4399.00    1.15082   1.25701    8.689
 4400.00    1.17012   1.23554    8.546
 4401.00    1.29786   1.22618    7.705
 4402.00    1.54762   1.23331    6.462
 4403.00    1.93736   1.24337   -1.000
 4404.00    2.17357   1.25709   -1.000
 4405.00    1.94862   1.28350   -1.000
 4406.00    1.55631   1.31222    6.425
 4407.00    1.50384   1.32885    6.650
 4408.00    1.70812   1.34308    5.854
 4409.00    1.79593   1.36055   -1.000
 4410.00    1.75922   1.36612    5.684
 4411.00    1.77483   1.36608    5.634
 4412.00    1.81307   1.37546   -1.000
 4413.00    1.77239   1.38234    5.642
 4414.00    1.72106   1.38458    5.810
 4415.00    1.74498   1.39207    5.731
 4416.00    1.73973   1.39869    5.748
 4417.00    1.65038   1.40028    6.059
 4418.00    1.73715   1.39954    5.757
 4419.00    2.11705   1.39839   -1.000
 4420.00    2.30984   1.39627   -1.000
 4421.00    1.96034   1.39314   -1.000
 4422.00    1.52764   1.39083    6.546
 4423.00    1.53165   1.38668    6.529
 4424.00    1.84164   1.38400   -1.000
 4425.00    2.09050   1.38225   -1.000
 4426.00    2.08660   1.37394   -1.000
 4427.00    1.84907   1.36838   -1.000
 4428.00    1.58087   1.36689    6.326
 4429.00    1.43896   1.36229    6.949
 4430.00    1.38302   1.36235    7.231
 4431.00    1.31253   1.36776    7.619
 4432.00    1.17929   1.37579    8.480
 4433.00    1.05491   1.38669    9.480
 4434.00    1.12030   1.39667    8.926
 4435.00    1.37195   1.40821    7.289
 4436.00    1.53225   1.41858    6.526
 4437.00    1.52766   1.42442    6.546
 4438.00    1.64798   1.43414    6.068
 4439.00    1.98793   1.44441   -1.000
 4440.00    2.25141   1.45068   -1.000
 4441.00    2.21601   1.46373   -1.000
 4442.00    1.94374   1.47645   -1.000
 4443.00    1.69657   1.47833    5.894
 4444.00    1.77499   1.48209    5.634
 4445.00    2.05042   1.48164   -1.000
 4446.00    2.00757   1.46580   -1.000
 4447.00    1.60799   1.44802    6.219
 4448.00    1.36678   1.42701    7.316
 4449.00    1.47697   1.39834    6.771
 4450.00    1.66198   1.37150    6.017
 4451.00    1.71424   1.34510    5.833
 4452.00    1.62225   1.32200    6.164
 4453.00    1.40885   1.30825    7.098
 4454.00    1.12207   1.29647    8.912
 4455.00    0.94467   1.29035   10.586
 4456.00    1.08608   1.29815    9.207
 4457.00    1.43749   1.30718    6.957
 4458.00    1.67828   1.31608    5.958
 4459.00    1.73502   1.33614    5.764
 4460.00    1.75164   1.35597    5.709
 4461.00    1.78043   1.36973    0.000
 4462.00    1.77688   1.38726    0.000
 4463.00    1.73098   1.40599    0.000
 4464.00    1.66907   1.42093    0.000
 4465.00    1.60583   1.43579    0.000
 4466.00    1.55421   1.45558    0.000
 4467.00    1.55839   1.47654    0.000
 4468.00    1.68127   1.49444    0.000
 4469.00    1.96889   1.51461    0.000
 4470.00    2.33138   1.53406    0.000
 4471.00    2.39686   1.54510    0.000
 4472.00    1.93656   1.55141    0.000
 4473.00    1.44920   1.55468    0.000
 4474.00    1.52669   1.55108    0.000
 4475.00    1.95640   1.54312    0.000
 4476.00    2.18589   1.53755    0.000
 4477.00    2.02316   1.53407    0.000
 4478.00    1.63644   1.53095    0.000
 4479.00    1.42544   1.53334    0.000
 4480.00    1.61104   1.53853    0.000
 4481.00    1.86439   1.54064    0.000
 4482.00    1.80644   1.54243    5.536
 4483.00    1.50866   1.54147    6.628
 4484.00    1.25906   1.53465    7.942
 4485.00    1.29099   1.52616    7.746
 4486.00    1.62132   1.51669    6.168
 4487.00    1.96892   1.50574    5.079
 4488.00    2.05604   1.49808   -1.000
 4489.00    1.84671   1.49436    5.415
 4490.00    1.51045   1.49281    6.621
 4491.00    1.34374   1.49793    7.442
 4492.00    1.49013   1.50940    6.711
 4493.00    1.79478   1.52448    5.572
 4494.00    2.07373   1.54376   -1.000
 4495.00    2.26907   1.56700   -1.000
 4496.00    2.32376   1.59359   -1.000
 4497.00    2.14478   1.61729   -1.000
 4498.00    1.82726   1.63928    5.473
 4499.00    1.68624   1.66261    5.930
 4500.00    1.79824   1.67801    5.561
 4501.00    1.87678   1.68744    5.328
 4502.00    1.77851   1.69535    5.623
 4503.00    1.67302   1.69593    5.977
 4504.00    1.72759   1.69099    5.788
 4505.00    1.95705   1.68302    5.110
 4506.00    2.19851   1.67230   -1.000
 4507.00    2.20138   1.65975   -1.000
 4508.00    1.97769   1.64555    5.056
 4509.00    1.80562   1.63411    5.538
 4510.00    1.79662   1.62417    5.566
 4511.00    1.81106   1.61508    5.522
 4512.00    1.67584   1.61207    5.967
 4513.00    1.33530   1.60932    7.489
 4514.00    1.06775   1.60621   -1.000
 4515.00    1.27683   1.60512    7.832
 4516.00    1.77537   1.59780    5.633
 4517.00    1.97936   1.58681    5.052
 4518.00    1.87762   1.57072    5.326
 4519.00    1.90902   1.54569    5.238
 4520.00    2.10620   1.52036   -1.000
 4521.00    2.17455   1.49108   -1.000
 4522.00    2.09507   1.45966   -1.000
 4523.00    2.03336   1.43625   -1.000
 4524.00    1.89970   1.41601   -1.000
 4525.00    1.51595   1.40220    6.597
 4526.00    1.07935   1.39857    9.265
 4527.00    0.96756   1.39986   -1.000
 4528.00    1.25650   1.40886    7.959
 4529.00    1.73682   1.42349    5.758
 4530.00    2.08441   1.44104   -1.000
 4531.00    2.07756   1.46098   -1.000
 4532.00    1.86086   1.48072    5.374
 4533.00    1.68657   1.50183    5.929
 4534.00    1.52049   1.51792    6.577
 4535.00    1.27058   1.52938    7.870
 4536.00    1.12960   1.54157    8.853
 4537.00    1.31484   1.54628    7.605
 4538.00    1.71885   1.54661    5.818
 4539.00    2.05569   1.54855   -1.000
 4540.00    2.08103   1.54556   -1.000
 4541.00    1.75581   1.54132    5.695
 4542.00    1.36409   1.53926    7.331
 4543.00    1.23313   1.53514    8.109
 4544.00    1.45047   1.53225    6.894
 4545.00    1.83782   1.52979    5.441
 4546.00    2.00178   1.52909    4.996
 4547.00    1.78418   1.53354    5.605
 4548.00    1.55706   1.53669    6.422
 4549.00    1.60521   1.54438    6.230
 4550.00    1.69954   1.55961    0.000
 4551.00    1.61075   1.57285    0.000
 4552.00    1.45748   1.58899    0.000
 4553.00    1.40926   1.60797    0.000
 4554.00    1.48297   1.62163    0.000
 4555.00    1.60743   1.63361    0.000
 4556.00    1.69147   1.64163    0.000
 4557.00    1.73902   1.64358    0.000
 4558.00    1.86983   1.64469    0.000
 4559.00    2.08579   1.64168    0.000
 4560.00    2.20261   1.63870    0.000
 4561.00    2.13422   1.63943    0.000
 4562.00    1.98997   1.63841    0.000
 4563.00    1.85878   1.64141    0.000
 4564.00    1.72756   1.64577    0.000
 4565.00    1.57121   1.64705    0.000
 4566.00    1.41801   1.65322    0.000
 4567.00    1.44198   1.65537    0.000
 4568.00    1.85082   1.65249    0.000
 4569.00    2.36784   1.65494    0.000
 4570.00    2.34941   1.65065    0.000
 4571.00    1.79411   1.64023    0.000
 4572.00    1.37047   1.63420    0.000
 4573.00    1.43078   1.62303    0.000
 4574.00    1.80236   1.60746    0.000
 4575.00    2.10698   1.59627    0.000
 4576.00    2.02211   1.58584    0.000
 4577.00    1.69922   1.57681    0.000
 4578.00    1.56821   1.57415    0.000
 4579.00    1.59342   1.57425    0.000
 4580.00    1.42383   1.57735    0.000
 4581.00    1.15123   1.58589    0.000
 4582.00    1.14411   1.59340    0.000
 4583.00    1.33204   1.60012    0.000
 4584.00    1.37473   1.60709    0.000
 4585.00    1.28768   1.60867    0.000
 4586.00    1.31463   1.60710    0.000
 4587.00    1.47100   1.60349    0.000
 4588.00    1.59989   1.59511    0.000
 4589.00    1.61106   1.58666    0.000
 4590.00    1.53301   1.57903    0.000
 4591.00    1.52025   1.56995    0.000
 4592.00    1.68875   1.56600    0.000
 4593.00    1.88861   1.56459    0.000
 4594.00    1.91434   1.56219    0.000
 4595.00    1.82272   1.56644    0.000
 4596.00    1.77102   1.57124    0.000
 4597.00    1.76625   1.57620    0.000
 4598.00    1.75840   1.58805    0.000
 4599.00    1.77681   1.59959    0.000
 4600.00    1.82354   1.61355    0.000
 4601.00    1.76017   1.63207    0.000
 4602.00    1.53002   1.65052    0.000
 4603.00    1.36290   1.66978    0.000
 4604.00    1.43328   1.68695    0.000
 4605.00    1.55885   1.70267    0.000
 4606.00    1.58059   1.71535    0.000
 4607.00    1.66881   1.72262    0.000
 4608.00    1.88427   1.73055    0.000
 4609.00    1.88004   1.73476    0.000
 4610.00    1.54267   1.73517    0.000
 4611.00    1.38036   1.74053    0.000
 4612.00    1.68004   1.74250    0.000
 4613.00    2.00436   1.74250    0.000
 4614.00    1.95408   1.74766    0.000
 4615.00    1.64230   1.74768    0.000
 4616.00    1.38508   1.74644    0.000
 4617.00    1.44338   1.74898    0.000
 4618.00    1.73444   1.74592    0.000
 4619.00    1.80710   1.74243    0.000
 4620.00    1.52503   1.74214    0.000
 4621.00    1.28668   1.73756    0.000
 4622.00    1.32973   1.73270    0.000
 4623.00    1.48174   1.72999    0.000
 4624.00    1.60279   1.72500    0.000
 4625.00    1.73803   1.71802    0.000
 4626.00    1.89070   1.71087    0.000
 4627.00    1.96289   1.70337    0.000
 4628.00    1.90613   1.69146    0.000
 4629.00    1.76087   1.67740    0.000
 4630.00    1.58284   1.66531    0.000
 4631.00    1.42471   1.64992    0.000
 4632.00    1.36503   1.63412    0.000
 4633.00    1.46949   1.62064    0.000
 4634.00    1.64785   1.60662    0.000
 4635.00    1.71128   1.59550    0.000
 4636.00    1.65443   1.58381    0.000
 4637.00    1.64016   1.57159    0.000
 4638.00    1.74712   1.56249    0.000
 4639.00    1.90328   1.55057    0.000
 4640.00    1.89717   1.53982    0.000
 4641.00    1.55375   1.53435    0.000
 4642.00    1.10635   1.52793    0.000
 4643.00    0.99512   1.52657    0.000
 4644.00    1.28054   1.53345    0.000
 4645.00    1.68318   1.54058    0.000
 4646.00    1.90829   1.55258    0.000
 4647.00    1.79589   1.56906    0.000
 4648.00    1.46651   1.58388    0.000
 4649.00    1.20489   1.60109    0.000
 4650.00    1.21770   1.61704    0.000
 4651.00    1.50062   1.63114    0.000
 4652.00    1.71958   1.64640    0.000
 4653.00    1.59394   1.65703    0.000
 4654.00    1.43839   1.66373    0.000
 4655.00    1.65586   1.66679    0.000
 4656.00    1.99372   1.66242    0.000
 4657.00    2.02566   1.65046    0.000
 4658.00    1.84301   1.63206    0.000
 4659.00    1.71994   1.60946    0.000
 4660.00    1.64794   1.58481    0.000
 4661.00    1.53942   1.56163    0.000
 4662.00    1.48592   1.54317    0.000
 4663.00    1.59359   1.53117    0.000
 4664.00    1.80185   1.52850    0.000
 4665.00    1.97515   1.53328    0.000
 4666.00    2.01238   1.54197    0.000
 4667.00    1.92438   1.55697    0.000
 4668.00    1.86640   1.57361    0.000
 4669.00    1.91009   1.58670    0.000
 4670.00    1.89412   1.59858    0.000
 4671.00    1.70459   1.60602    0.000
 4672.00    1.46902   1.60842    0.000
 4673.00    1.37940   1.60820    0.000
 4674.00    1.53557   1.60545    0.000
 4675.00    1.79057   1.60194    0.000
 4676.00    1.75299   1.59801    0.000
 4677.00    1.36736   1.59517    0.000
 4678.00    1.12280   1.59354    0.000
 4679.00    1.27292   1.59363    0.000
 4680.00    1.50235   1.59587    0.000
 4681.00    1.50006   1.59714    0.000
 4682.00    1.25707   1.59949    0.000
 4683.00    1.01001   1.60303    0.000
 4684.00    1.09968   1.60438    0.000
 4685.00    1.51070   1.60687    0.000
 4686.00    1.82148   1.61056    0.000
 4687.00    1.83002   1.61254    0.000
 4688.00    1.70073   1.61523    0.000
 4689.00    1.53115   1.61649    0.000
 4690.00    1.27840   1.61473    0.000
 4691.00    1.09044   1.61276    0.000
 4692.00    1.24861   1.60713    0.000
 4693.00    1.61031   1.59800    0.000
 4694.00    1.70191   1.58812    0.000
 4695.00    1.53578   1.57838    0.000
 4696.00    1.55121   1.56968    0.000
 4697.00    1.76669   1.56035    0.000
 4698.00    1.81778   1.55398    0.000
 4699.00    1.66653   1.55262    0.000
 4700.00    1.57773   1.55200    0.000
 4701.00    1.61866   1.55325    0.000
 4702.00    1.67006   1.55812    0.000
 4703.00    1.71725   1.56327    0.000
 4704.00    1.80302   1.57043    0.000
 4705.00    1.80331   1.57880    0.000
 4706.00    1.57488   1.58670    0.000
 4707.00    1.31139   1.59964    0.000
 4708.00    1.32928   1.61219    0.000
 4709.00    1.58065   1.62513    0.000
 4710.00    1.79913   1.64450    0.000
 4711.00    1.87692   1.66285    0.000
 4712.00    1.83320   1.68167    0.000
 4713.00    1.67651   1.70127    0.000
 4714.00    1.46867   1.71794    0.000
 4715.00    1.42727   1.73435    0.000
 4716.00    1.66547   1.74487    0.000
 4717.00    1.86428   1.74774    0.000
 4718.00    1.72594   1.74578    0.000
 4719.00    1.53611   1.73711    0.000
 4720.00    1.63301   1.72345    0.000
 4721.00    1.77504   1.70442    0.000
 4722.00    1.66320   1.68272    0.000
 4723.00    1.51992   1.66377    0.000
 4724.00    1.60482   1.64660    0.000
 4725.00    1.72653   1.63285    0.000
 4726.00    1.67379   1.62605    0.000
 4727.00    1.60937   1.62315    0.000
 4728.00    1.69967   1.62582    0.000
 4729.00    1.80592   1.63652    0.000
 4730.00    1.76545   1.64599    0.000
 4731.00    1.62026   1.65660    0.000
 4732.00    1.51768   1.67129    0.000
 4733.00    1.59652   1.68254    0.000
 4734.00    1.79003   1.69470    0.000
 4735.00    1.77819   1.70568    0.000
 4736.00    1.51754   1.71279    0.000
 4737.00    1.44802   1.72433    0.000
 4738.00    1.71310   1.73424    0.000
 4739.00    1.84943   1.73911    0.000
 4740.00    1.65557   1.74663    0.000
 4741.00    1.52614   1.75330    0.000
 4742.00    1.67783   1.75683    0.000
 4743.00    1.85786   1.75866    0.000
 4744.00    1.86922   1.75739    0.000
 4745.00    1.77576   1.75434    0.000
 4746.00    1.67895   1.74917    0.000
 4747.00    1.61935   1.74107    0.000
 4748.00    1.59460   1.73164    0.000
 4749.00    1.57757   1.72345    0.000
 4750.00    1.55094   1.71489    0.000
 4751.00    1.52631   1.70635    0.000
 4752.00    1.56277   1.69890    0.000
 4753.00    1.72034   1.69064    0.000
 4754.00    1.89850   1.68345    0.000
 4755.00    1.90610   1.67429    0.000
 4756.00    1.81107   1.66257    0.000
 4757.00    1.85494   1.65183    0.000
 4758.00    1.94654   1.64143    0.000
 4759.00    1.79821   1.63232    0.000
 4760.00    1.60922   1.62581    0.000
 4761.00    1.81013   1.62388    5.524
 4762.00    2.08004   1.62680    4.808
 4763.00    1.75631   1.63531    5.694
 4764.00    1.19743   1.64788    8.351
 4765.00    1.27477   1.66143    7.845
 4766.00    1.78133   1.67855    5.614
 4767.00    1.89853   1.69586    5.267
 4768.00    1.65189   1.71331    6.054
 4769.00    1.58499   1.72976    6.309
 4770.00    1.73255   1.74020    5.772
 4771.00    1.81121   1.74991    5.521
 4772.00    1.80516   1.75639    5.540
 4773.00    1.84445   1.75749    5.422
 4774.00    1.88865   1.75515    5.295
 4775.00    1.82352   1.74793    5.484
 4776.00    1.65910   1.73931    6.027
 4777.00    1.52054   1.72715    6.577
 4778.00    1.58619   1.71462    6.304
 4779.00    1.87766   1.70583    5.326
 4780.00    2.05267   1.69530    4.872
 4781.00    1.85724   1.68960    5.384
 4782.00    1.61091   1.68913    6.208
 4783.00    1.68223   1.69041    5.944
 4784.00    1.92384   1.69902    5.198
 4785.00    2.01793   1.70975    4.956
 4786.00    1.86451   1.72227    5.363
 4787.00    1.59065   1.73946    6.287
 4788.00    1.48718   1.75497    6.724
 4789.00    1.65253   1.76823    6.051
 4790.00    1.76335   1.77915    5.671
 4791.00    1.60369   1.78589    6.236
 4792.00    1.42682   1.78939    7.009
 4793.00    1.47943   1.78981    6.759
 4794.00    1.67213   1.78745    5.980
 4795.00    1.81023   1.78453    5.524
 4796.00    1.78334   1.78135    5.607
 4797.00    1.68507   1.77764    5.934
 4798.00    1.79651   1.77288    5.566
 4799.00    2.09564   1.76674    4.772
 4800.00    2.12334   1.76332    4.710
 4801.00    1.78911   1.75918    5.589
 4802.00    1.62169   1.75364    6.166
 4803.00    1.83890   1.75149    5.438
 4804.00    2.03813   1.75054    4.906
 4805.00    1.95261   1.75235    5.121
 4806.00    1.72934   1.75679    5.783
 4807.00    1.57664   1.76211    6.343
 4808.00    1.59418   1.77117    6.273
 4809.00    1.73191   1.78103    5.774
 4810.00    1.83818   1.79063    5.440
 4811.00    1.87999   1.80028    5.319
 4812.00    1.95733   1.80658    5.109
 4813.00    2.07742   1.81189    4.814
 4814.00    2.13456   1.81329    4.685
 4815.00    2.09071   1.81066    4.783
 4816.00    1.99901   1.80676    5.002
 4817.00    1.90356   1.79624    5.253
 4818.00    1.81600   1.78598    5.507
 4819.00    1.73453   1.77896    5.765
 4820.00    1.65832   1.76959    6.030
 4821.00    1.60899   1.76159    6.215
 4822.00    1.61576   1.75386    6.189
 4823.00    1.67085   1.74766    5.985
 4824.00    1.75303   1.74720    5.704
 4825.00    1.89622   1.74460    5.274
 4826.00    2.11096   1.74048    4.737
 4827.00    2.20991   1.74096    4.525
 4828.00    2.00554   1.74199    4.986
 4829.00    1.71839   1.74276    5.819
 4830.00    1.68707   1.74227    5.927
 4831.00    1.76778   1.74139    5.657
 4832.00    1.65520   1.74086    6.042
 4833.00    1.52953   1.73843    6.538
 4834.00    1.70671   1.73520    5.859
 4835.00    1.99806   1.73340    5.005
 4836.00    2.03707   1.73297    4.909
 4837.00    1.84090   1.73023    5.432
 4838.00    1.65701   1.72992    6.035
 4839.00    1.66623   1.73369    6.002
 4840.00    1.86700   1.73610    5.356
 4841.00    2.00717   1.73806    4.982
 4842.00    1.88779   1.73671    5.297
 4843.00    1.67694   1.73390    5.963
 4844.00    1.59003   1.73285    6.289
 4845.00    1.55459   1.72575    6.433
 4846.00    1.46469   1.71404    6.827
 4847.00    1.42900   1.70103    6.998
 4848.00    1.54724   1.68240    0.000
 4849.00    1.71275   1.65917    0.000
 4850.00    1.78052   1.63464    0.000
 4851.00    1.71626   1.61034    0.000
 4852.00    1.57758   1.58433    0.000
 4853.00    1.47461   1.55693    0.000
 4854.00    1.44615   1.53171    0.000
 4855.00    1.40095   1.51067    0.000
 4856.00    1.30270   1.50016    0.000
 4857.00    1.25928   1.49758    0.000
 4858.00    1.30076   1.49716    0.000
 4859.00    1.29355   1.50425    0.000
 4860.00    1.24633   1.51530    0.000
 4861.00    1.39754   1.52868    0.000
 4862.00    1.74609   1.54321    0.000
 4863.00    1.91661   1.55504    0.000
 4864.00    1.72928   1.56386    0.000
 4865.00    1.40727   1.56861    0.000
 4866.00    1.22624   1.57514    0.000
 4867.00    1.31682   1.58461    0.000
 4868.00    1.54139   1.59558    0.000
 4869.00    1.57353   1.60715    0.000
 4870.00    1.38155   1.62012    0.000
 4871.00    1.27394   1.63779    0.000
 4872.00    1.38357   1.65504    0.000
 4873.00    1.55985   1.67173    0.000
 4874.00    1.64434   1.68320    0.000
 4875.00    1.59224   1.68654    6.280
 4876.00    1.54425   1.68921    6.476
 4877.00    1.70250   1.68746    5.874
 4878.00    1.93080   1.67958    5.179
 4879.00    1.88487   1.66749    5.305
 4880.00    1.64434   1.65178    6.081
 4881.00    1.59999   1.64116    6.250
 4882.00    1.77342   1.63436    5.639
 4883.00    1.87312   1.62883    5.339
 4884.00    1.80051   1.62939    5.554
 4885.00    1.66377   1.63424    6.010
 4886.00    1.55853   1.65155    6.416
 4887.00    1.51820   1.67679    6.587
 4888.00    1.51331   1.70167    6.608
 4889.00    1.51315   1.73099    6.609
 4890.00    1.59025   1.75867    6.288
 4891.00    1.80348   1.78391    5.545
 4892.00    1.98327   1.80591    5.042
 4893.00    1.92960   1.81850    5.182
 4894.00    1.76143   1.82490    5.677
 4895.00    1.70718   1.82878    5.858
 4896.00    1.73553   1.82667    5.762
 4897.00    1.71709   1.82077    5.824
 4898.00    1.70133   1.81491    5.878
 4899.00    1.77480   1.80831    5.634
 4900.00    1.85074   1.80313    5.403
 4901.00    1.81951   1.79615    5.496
 4902.00    1.74099   1.78699    5.744
 4903.00    1.71045   1.77929    5.846
 4904.00    1.70107   1.77165    5.879
 4905.00    1.68053   1.76495    5.950
 4906.00    1.72835   1.75803    5.786
 4907.00    1.87767   1.74938    5.326
 4908.00    1.98006   1.74021    5.050
 4909.00    1.91754   1.73007    5.215
 4910.00    1.77932   1.71712    5.620
 4911.00    1.71173   1.70106    5.842
 4912.00    1.77806   1.68098    5.624
 4913.00    1.90022   1.65966    5.263
 4914.00    1.86478   1.64204    5.363
 4915.00    1.62219   1.62986    6.165
 4916.00    1.43556   1.62496    6.966
 4917.00    1.47795   1.62669    6.766
 4918.00    1.61321   1.63716    6.199
 4919.00    1.69745   1.65611    5.891
 4920.00    1.74487   1.68285    5.731
 4921.00    1.78987   1.71244    5.587
 4922.00    1.81766   1.73858    5.502
 4923.00    1.83062   1.76418    5.463
 4924.00    1.86985   1.78392    5.348
 4925.00    1.94586   1.79637    5.139
 4926.00    2.01442   1.80265    4.964
 4927.00    2.02222   1.79822    4.945
 4928.00    1.93404   1.78983    5.171
 4929.00    1.75627   1.78015    5.694
 4930.00    1.54315   1.76564    6.480
 4931.00    1.38325   1.75159    7.229
 4932.00    1.36050   1.74102    7.350
 4933.00    1.44127   1.73590    6.938
 4934.00    1.49351   1.73937    6.696
 4935.00    1.47551   1.74814    6.777
 4936.00    1.45690   1.76003    6.864
 4937.00    1.49139   1.77712    6.705
 4938.00    1.58612   1.79775    6.305
 4939.00    1.72777   1.81826    5.788
 4940.00    1.87835   1.83774    0.000
 4941.00    1.94686   1.85435    0.000
 4942.00    1.85556   1.86645    0.000
 4943.00    1.70937   1.87489    0.000
 4944.00    1.68889   1.87727    0.000
 4945.00    1.73067   1.87443    0.000
 4946.00    1.66111   1.86595    0.000
 4947.00    1.60790   1.85164    0.000
 4948.00    1.80176   1.83460    0.000
 4949.00    2.04964   1.81197    0.000
 4950.00    2.00164   1.78990    0.000
 4951.00    1.78567   1.76825    0.000
 4952.00    1.73601   1.75067    0.000
 4953.00    1.77873   1.74216    0.000
 4954.00    1.68511   1.73446    0.000
 4955.00    1.59529   1.73259    0.000
 4956.00    1.73687   1.73428    0.000
 4957.00    1.93466   1.73736    0.000
 4958.00    1.92462   1.74380    0.000
 4959.00    1.83683   1.74600    0.000
 4960.00    1.90244   1.74674    0.000
 4961.00    2.03585   1.74892    0.000
 4962.00    2.05073   1.74937    0.000
 4963.00    1.95501   1.75268    0.000
 4964.00    1.85825   1.75708    0.000
 4965.00    1.83476   1.76147    0.000
 4966.00    1.87081   1.76993    0.000
 4967.00    1.84427   1.77516    0.000
 4968.00    1.70885   1.77889    0.000
 4969.00    1.63356   1.77958    0.000
 4970.00    1.71685   1.77273    0.000
 4971.00    1.77183   1.76297    0.000
 4972.00    1.65803   1.74652    0.000
 4973.00    1.52411   1.72586    0.000
 4974.00    1.54495   1.70336    0.000
 4975.00    1.71914   1.67856    0.000
 4976.00    1.90611   1.65711    0.000
 4977.00    1.90024   1.63977    0.000
 4978.00    1.68310   1.62884    0.000
 4979.00    1.51402   1.62574    0.000
 4980.00    1.52753   1.62747    0.000
 4981.00    1.55883   1.63601    0.000
 4982.00    1.52107   1.64877    0.000
 4983.00    1.55277   1.66292    0.000
 4984.00    1.68271   1.68033    0.000
 4985.00    1.72948   1.69384    0.000
 4986.00    1.65351   1.70505    0.000
 4987.00    1.64232   1.71456    0.000
 4988.00    1.74603   1.71723    0.000
 4989.00    1.79193   1.71921    0.000
 4990.00    1.69717   1.71682    0.000
 4991.00    1.56249   1.70859    0.000
 4992.00    1.53318   1.69923    0.000
 4993.00    1.69088   1.68447    0.000
 4994.00    1.87820   1.66852    0.000
 4995.00    1.80358   1.65321    0.000
 4996.00    1.55636   1.63521    0.000
 4997.00    1.53130   1.61882    0.000
 4998.00    1.72319   1.60346    0.000
 4999.00    1.76280   1.59079    0.000
 5000.00    1.59528   1.58361    0.000
 5001.00    1.48824   1.57792    0.000
 5002.00    1.56944   1.57451    0.000
 5003.00    1.75564   1.57184    0.000
 5004.00    1.87713   1.56749    0.000
 5005.00    1.80272   1.56488    0.000
 5006.00    1.63564   1.56024    0.000
 5007.00    1.58111   1.55598    0.000
 5008.00    1.59946   1.55227    0.000
 5009.00    1.52340   1.54586    0.000
 5010.00    1.40412   1.54336    0.000
 5011.00    1.41021   1.54268    0.000
 5012.00    1.54165   1.54510    0.000
 5013.00    1.67580   1.55175    0.000
 5014.00    1.72475   1.55768    0.000
 5015.00    1.67098   1.56720    0.000
 5016.00    1.57881   1.57869    0.000
 5017.00    1.53281   1.58944    0.000
 5018.00    1.55154   1.60337    0.000
 5019.00    1.61271   1.61455    0.000
 5020.00    1.69898   1.62750    0.000
 5021.00    1.77069   1.64297    0.000
 5022.00    1.73606   1.65591    0.000
 5023.00    1.57993   1.67158    0.000
 5024.00    1.48896   1.68450    0.000
 5025.00    1.58771   1.69565    0.000
 5026.00    1.68165   1.70503    0.000
 5027.00    1.59877   1.70698    0.000
 5028.00    1.51089   1.70439    0.000
 5029.00    1.59641   1.69850    6.264
 5030.00    1.73818   1.68633    5.753
 5031.00    1.77696   1.67028    5.628
 5032.00    1.73096   1.65160    5.777
 5033.00    1.67609   1.63114    5.966
 5034.00    1.63971   1.61874    6.099
 5035.00    1.60004   1.61139    6.250
 5036.00    1.50995   1.60997    6.623
 5037.00    1.42508   1.61674    7.017
 5038.00    1.53186   1.62564    6.528
 5039.00    1.78661   1.63990    5.597
 5040.00    1.79773   1.65433    5.563
 5041.00    1.46921   1.66768    6.806
 5042.00    1.24553   1.68097    8.029
 5043.00    1.38541   1.68921    7.218
 5044.00    1.65264   1.69478    6.051
 5045.00    1.78542   1.69958    5.601
 5046.00    1.73415   1.70481    5.767
 5047.00    1.62143   1.71276    6.167
 5048.00    1.64936   1.72244    6.063
 5049.00    1.81040   1.73456    5.524
 5050.00    1.87096   1.74962    5.345
 5051.00    1.79275   1.76362    5.578
 5052.00    1.78240   1.77684    5.610
 5053.00    1.85532   1.78830    5.390
 5054.00    1.80612   1.79483    5.537
 5055.00    1.65927   1.79701    6.027
 5056.00    1.66058   1.79172    6.022
 5057.00    1.76831   1.78206    5.655
 5058.00    1.69916   1.77227    5.885
 5059.00    1.52816   1.75794    6.544
 5060.00    1.60917   1.74262    6.214
 5061.00    1.89286   1.72731    5.283
 5062.00    1.99192   1.71450    5.020
 5063.00    1.80841   1.70522    5.530
 5064.00    1.55959   1.69551    6.412
 5065.00    1.46376   1.69071    6.832
 5066.00    1.60907   1.68770    6.215
 5067.00    1.84386   1.68338    5.423
 5068.00    1.91960   1.67845    5.209
 5069.00    1.81440   1.67235    5.511
 5070.00    1.67589   1.66568    5.967
 5071.00    1.59618   1.65374    6.265
 5072.00    1.57976   1.64108    6.330
 5073.00    1.56544   1.63118    6.388
 5074.00    1.50643   1.62258    6.638
 5075.00    1.48310   1.61539    6.743
 5076.00    1.57226   1.61068    6.360
 5077.00    1.64120   1.61248    6.093
 5078.00    1.54705   1.61936    6.464
 5079.00    1.43373   1.63049    6.975
 5080.00    1.47957   1.64526    6.759
 5081.00    1.54660   1.66297    6.466
 5082.00    1.47070   1.68132    6.799
 5083.00    1.42823   1.69794    7.002
 5084.00    1.59025   1.71342    6.288
 5085.00    1.73222   1.72654    5.773
 5086.00    1.65134   1.73513    6.056
 5087.00    1.59114   1.73855    6.285
 5088.00    1.77430   1.73731    5.636
 5089.00    1.96414   1.73214    5.091
 5090.00    1.90408   1.72349    5.252
 5091.00    1.70851   1.71125    5.853
 5092.00    1.56886   1.69994    6.374
 5093.00    1.50333   1.68943    6.652
 5094.00    1.50336   1.67927    6.652
 5095.00    1.63356   1.67062    6.122
 5096.00    1.83616   1.66346    5.446
 5097.00    1.84677   1.65998    5.415
 5098.00    1.59782   1.65808    6.259
 5099.00    1.41068   1.65582    7.089
 5100.00    1.49626   1.65367    6.683
 5101.00    1.69504   1.65256    5.900
 5102.00    1.80144   1.65086    5.551
 5103.00    1.75703   1.65239    5.691
 5104.00    1.63835   1.65664    6.104
 5105.00    1.60500   1.66253    6.231
 5106.00    1.70676   1.67268    5.859
 5107.00    1.82914   1.68339    5.467
 5108.00    1.87752   1.69651    5.326
 5109.00    1.85213   1.71068    5.399
 5110.00    1.79830   1.72155    5.561
 5111.00    1.76727   1.73000    5.658
 5112.00    1.75413   1.73305    5.701
 5113.00    1.71241   1.73000    5.840
 5114.00    1.68962   1.72301    5.918
 5115.00    1.80156   1.70942    5.551
 5116.00    1.98730   1.69242    5.032
 5117.00    2.03524   1.67387    4.913
 5118.00    1.91505   1.65405    5.222
 5119.00    1.78480   1.63648    5.603
 5120.00    1.71443   1.62107    5.833
 5121.00    1.65998   1.61067    6.024
 5122.00    1.61080   1.60609    6.208
 5123.00    1.58895   1.60657    6.293
 5124.00    1.55130   1.61095    6.446
 5125.00    1.44532   1.61868    6.919
 5126.00    1.38465   1.62756    7.222
 5127.00    1.53370   1.63742    6.520
 5128.00    1.78876   1.64647    5.590
 5129.00    1.90570   1.65177    5.247
 5130.00    1.87449   1.65587    5.335
 5131.00    1.83899   1.65495    5.438
 5132.00    1.82034   1.65286    5.493
 5133.00    1.76176   1.64858    5.676
 5134.00    1.68666   1.63982    5.929
 5135.00    1.66040   1.63232    6.023
 5136.00    1.68978   1.62390    5.918
 5137.00    1.73175   1.61685    5.775
 5138.00    1.73112   1.61123    5.777
 5139.00    1.66123   1.60464    6.020
 5140.00    1.56759   1.60017    6.379
 5141.00    1.51427   1.59792    6.604
 5142.00    1.51118   1.59542    6.617
 5143.00    1.53324   1.59445    6.522
 5144.00    1.55451   1.59538    6.433
 5145.00    1.56895   1.59840    6.374
 5146.00    1.60432   1.60448    6.233
 5147.00    1.67194   1.61257    5.981
 5148.00    1.72182   1.62294    5.808
 5149.00    1.71616   1.63439    5.827
 5150.00    1.69464   1.64632    5.901
 5151.00    1.70193   1.65656    5.876
 5152.00    1.72403   1.66439    5.800
 5153.00    1.72675   1.66773    5.791
 5154.00    1.69165   1.66318    5.911
 5155.00    1.62001   1.65045    6.173
 5156.00    1.53224   1.62748    6.526
 5157.00    1.45575   1.59518    6.869
 5158.00    1.41441   1.55627    7.070
 5159.00    1.41497   1.51092    7.067
 5160.00    1.44101   1.46564    6.940
 5161.00    1.46682   1.42086    6.817
 5162.00    1.47241   1.37830    6.792
 5163.00    1.47760   1.34246    6.768
 5164.00    1.53928   1.31512    6.497
 5165.00    1.64171   1.30118    6.091
 5166.00    1.67507   1.29954    5.970
 5167.00    1.60862   1.30889    6.216
 5168.00    1.53369   1.32404    6.520
 5169.00    1.47913   1.34246    6.761
 5170.00    1.37710   1.36478    7.262
 5171.00    1.26785   1.38833    7.887
 5172.00    1.30960   1.40893    7.636
 5173.00    1.49109   1.42182    6.706
 5174.00    1.60911   1.42879    6.215
 5175.00    1.58101   1.43115    6.325
 5176.00    1.49681   1.43002    6.681
 5177.00    1.41715   1.43030    7.056
 5178.00    1.33368   1.43186    7.498
 5179.00    1.25710   1.43772    7.955
 5180.00    1.22636   1.44779    8.154
 5181.00    1.25688   1.46269    7.956
 5182.00    1.33044   1.48470    7.516
 5183.00    1.40873   1.50788    7.099
 5184.00    1.45389   1.53058    6.878
 5185.00    1.46761   1.54957    6.814
 5186.00    1.47764   1.56603    6.768
 5187.00    1.48738   1.58105    6.723
 5188.00    1.48782   1.59202    6.721
 5189.00    1.50454   1.60210    6.647
 5190.00    1.57568   1.61312    0.000
 5191.00    1.69153   1.62417    0.000
 5192.00    1.80098   1.63211    0.000
 5193.00    1.84504   1.63855    0.000
 5194.00    1.79024   1.64107    0.000
 5195.00    1.67155   1.63706    0.000
 5196.00    1.56592   1.62881    0.000
 5197.00    1.53911   1.61581    0.000
 5198.00    1.60310   1.59828    0.000
 5199.00    1.67357   1.57961    0.000
 5200.00    1.66507   1.56264    0.000
 5201.00    1.61775   1.54907    0.000
 5202.00    1.60185   1.54123    0.000
 5203.00    1.58707   1.54085    0.000
 5204.00    1.53154   1.54996    0.000
 5205.00    1.49327   1.56267    0.000
 5206.00    1.53453   1.58225    0.000
 5207.00    1.61491   1.60645    0.000
 5208.00    1.67859   1.63150    0.000
 5209.00    1.74379   1.65735    0.000
 5210.00    1.82447   1.67886    0.000
 5211.00    1.86131   1.69774    5.373
 5212.00    1.82062   1.71025    5.493
 5213.00    1.77159   1.71819    5.645
 5214.00    1.78021   1.72159    5.617
 5215.00    1.82632   1.71960    5.475
 5216.00    1.85401   1.71326    5.394
 5217.00    1.81984   1.70108    5.495
 5218.00    1.73736   1.68932    5.756
 5219.00    1.68621   1.67640    5.930
 5220.00    1.68694   1.66374    5.928
 5221.00    1.64976   1.65521    6.061
 5222.00    1.55230   1.64990    6.442
 5223.00    1.51243   1.65044    6.612
 5224.00    1.59397   1.65686    6.274
 5225.00    1.72245   1.67046    5.806
 5226.00    1.81898   1.68899    5.498
 5227.00    1.86039   1.70720    5.375
 5228.00    1.82546   1.72733    5.478
 5229.00    1.69429   1.74626    5.902
 5230.00    1.55959   1.76339    6.412
 5231.00    1.60200   1.78255    6.242
 5232.00    1.79774   1.79929    5.563
 5233.00    1.90586   1.81473    5.247
 5234.00    1.86454   1.82743    5.363
 5235.00    1.84274   1.83536    5.427
 5236.00    1.89278   1.83816    5.283
 5237.00    1.90169   1.83534    5.258
 5238.00    1.83300   1.83035    5.456
 5239.00    1.76282   1.82159    5.673
 5240.00    1.74744   1.80843    5.723
 5241.00    1.78426   1.79528    5.605
 5242.00    1.81912   1.78195    5.497
 5243.00    1.78560   1.76812    5.600
 5244.00    1.69653   1.75581    5.894
 5245.00    1.63377   1.74822    6.121
 5246.00    1.66703   1.74712    5.999
 5247.00    1.80646   1.74753    5.536
 5248.00    1.94658   1.75203    5.137
 5249.00    1.95658   1.75939    5.111
 5250.00    1.88216   1.76473    5.313
 5251.00    1.86508   1.76821    5.362
 5252.00    1.91709   1.76489    5.216
 5253.00    1.95872   1.75795    5.105
 5254.00    1.96191   1.74418    5.097
 5255.00    1.94100   1.72217    5.152
 5256.00    1.89750   1.69336    5.270
 5257.00    1.82263   1.65916    5.487
 5258.00    1.71527   1.62297    5.830
 5259.00    1.58983   1.58556    6.290
 5260.00    1.48178   1.55289    6.749
 5261.00    1.42385   1.52794    7.023
 5262.00    1.41525   1.51216    7.066
 5263.00    1.44025   1.50429    6.943
 5264.00    1.49353   1.50866    6.696
 5265.00    1.55748   1.52210    6.421
 5266.00    1.57994   1.54000    6.329
 5267.00    1.55350   1.56635    6.437
 5268.00    1.58635   1.60050    6.304
 5269.00    1.74618   1.63706    5.727
 5270.00    1.91845   1.67025    5.213
 5271.00    1.97826   1.70206    5.055
 5272.00    1.94757   1.72957    5.135
 5273.00    1.90126   1.75316    5.260
 5274.00    1.87632   1.77557    5.330
 5275.00    1.86717   1.79375    5.356
 5276.00    1.83653   1.80903    5.445
 5277.00    1.78540   1.82214    5.601
 5278.00    1.78380   1.83548    5.606
 5279.00    1.83441   1.85003    5.451
 5280.00    1.81567   1.86617    5.508
 5281.00    1.71890   1.88212    5.818
 5282.00    1.73948   1.89929    5.749
 5283.00    1.92247   1.91383    5.202
 5284.00    2.02893   1.92274    4.929
 5285.00    1.95739   1.92528    5.109
 5286.00    1.90349   1.92192    5.253
 5287.00    1.98851   1.91431    5.029
 5288.00    2.10911   1.90120    4.741
 5289.00    2.13719   1.88481    4.679
 5290.00    2.02742   1.86650    4.932
 5291.00    1.85565   1.84960    5.389
 5292.00    1.78058   1.83656    5.616
 5293.00    1.83812   1.82731    5.440
 5294.00    1.91325   1.82413    5.227
 5295.00    1.94178   1.82790    5.150
 5296.00    1.95219   1.84094    5.122
 5297.00    1.94731   1.85920    5.135
 5298.00    1.89730   1.87853    5.271
 5299.00    1.84693   1.90026    5.414
 5300.00    1.88966   1.92255    5.292
 5301.00    1.99461   1.94332    5.014
 5302.00    2.03134   1.96034    4.923
 5303.00    1.97440   1.97294    5.065
 5304.00    1.90903   1.98061    5.238
 5305.00    1.90259   1.98485    5.256
 5306.00    1.96402   1.98640    5.092
 5307.00    2.03046   1.98367    4.925
 5308.00    2.02264   1.97770    4.944
 5309.00    1.96675   1.96915    5.085
 5310.00    1.94834   1.95847    5.133
 5311.00    1.96988   1.94609    5.076
 5312.00    1.97918   1.93170    5.053
 5313.00    1.97399   1.91581    5.066
 5314.00    1.97883   1.89741    5.053
 5315.00    1.97318   1.87784    5.068
 5316.00    1.92173   1.85414    5.204
 5317.00    1.84088   1.82987    5.432
 5318.00    1.77706   1.80563    5.627
 5319.00    1.75808   1.78137    5.688
 5320.00    1.78075   1.75976    5.616
 5321.00    1.80595   1.74020    5.537
 5322.00    1.79438   1.72989    5.573
 5323.00    1.75133   1.72585    5.710
 5324.00    1.70052   1.72841    5.881
 5325.00    1.64836   1.73543    6.067
 5326.00    1.60556   1.75237    6.228
 5327.00    1.61064   1.77552    6.209
 5328.00    1.67384   1.79704    5.974
 5329.00    1.72625   1.81678    5.793
 5330.00    1.72148   1.83276    5.809
 5331.00    1.72574   1.84635    5.795
 5332.00    1.80141   1.85513    5.551
 5333.00    1.90562   1.85870    5.248
 5334.00    1.97464   1.85865    5.064
 5335.00    1.99846   1.85771    5.004
 5336.00    2.00193   1.85539    4.995
 5337.00    2.02010   1.85273    4.950
 5338.00    2.05646   1.85211    4.863
 5339.00    2.06653   1.85645    4.839
 5340.00    2.04278   1.86147    4.895
 5341.00    2.05037   1.86780    4.877
 5342.00    2.09225   1.87711    4.780
 5343.00    2.06008   1.88799    4.854
 5344.00    1.94111   1.90351    5.152
 5345.00    1.89022   1.92063    5.290
 5346.00    1.97055   1.93890    5.075
 5347.00    2.05960   1.95982    4.855
 5348.00    2.08377   1.98087    4.799
 5349.00    2.10382   1.99982    4.753
 5350.00    2.16056   2.01487    4.628
 5351.00    2.21741   2.02595    4.510
 5352.00    2.22748   2.03312    4.489
 5353.00    2.17108   2.03315    4.606
 5354.00    2.08310   2.02847    4.801
 5355.00    2.03671   2.01797    4.910
 5356.00    2.04940   2.00311    4.879
 5357.00    2.06935   1.98437    4.832
 5358.00    2.04642   1.96248    4.887
 5359.00    1.96400   1.93941    5.092
 5360.00    1.85906   1.91630    5.379
 5361.00    1.79679   1.89607    5.565
 5362.00    1.78271   1.87607    5.609
 5363.00    1.77277   1.86206    5.641
 5364.00    1.76714   1.85199    5.659
 5365.00    1.80130   1.84751   -2.000
 5366.00    1.86244   1.84932   -2.000
 5367.00    1.89666   1.85532   -2.000
 5368.00    1.87396   1.86778   -2.000
 5369.00    1.80893   1.88330   -2.000
 5370.00    1.76991   1.90299   -2.000
 5371.00    1.82811   1.91955   -2.000
 5372.00    1.95736   1.93441   -2.000
 5373.00    2.07694   1.94594   -2.000
 5374.00    2.16323   1.95344   -2.000
 5375.00    2.22835   1.95833   -2.000
 5376.00    2.25085   1.95972   -2.000
 5377.00    2.20757   1.95785   -2.000
 5378.00    2.13858   1.95288   -2.000
 5379.00    2.09327   1.94660   -2.000
 5380.00    2.04159   1.93770    4.898
 5381.00    1.94072   1.92738    5.153
 5382.00    1.83782   1.91572    5.441
 5383.00    1.80316   1.90159    5.546
 5384.00    1.83163   1.88637    5.460
 5385.00    1.87630   1.87041    5.330
 5386.00    1.90230   1.85444    5.257
 5387.00    1.89117   1.83882    5.288
 5388.00    1.84036   1.82527    5.434
 5389.00    1.77713   1.81326    5.627
 5390.00    1.76511   1.80318    5.665
 5391.00    1.82774   1.79497    5.471
 5392.00    1.88590   1.78764    5.303
 5393.00    1.85726   1.78281    5.384
 5394.00    1.74687   1.77706    5.725
 5395.00    1.63385   1.77297    6.121
 5396.00    1.63655   1.76860    6.110
 5397.00    1.77223   1.76280    5.643
 5398.00    1.88284   1.75631    5.311
 5399.00    1.86016   1.75073    5.376
 5400.00    1.78209   1.74652    5.611
 5401.00    1.73672   1.74441    5.758
 5402.00    1.71591   1.74774    5.828
 5403.00    1.70717   1.75596    5.858
 5404.00    1.74087   1.77011    5.744
 5405.00    1.81990   1.78751    5.495
 5406.00    1.89461   1.80806    5.278
 5407.00    1.94759   1.82988    5.135
 5408.00    2.01491   1.85363    4.963
 5409.00    2.07063   1.87625    4.829
 5410.00    2.01717   1.89558    4.957
 5411.00    1.89327   1.91194    5.282
 5412.00    1.88929   1.92443    5.293
 5413.00    2.02272   1.93342    4.944
 5414.00    2.08968   1.93846    4.785
 5415.00    2.00170   1.93910    4.996
 5416.00    1.86292   1.93703    5.368
 5417.00    1.76970   1.93302    5.651
 5418.00    1.74914   1.92704    5.717
 5419.00    1.80216   1.91929    5.549
 5420.00    1.91261   1.91052    5.228
 5421.00    2.02993   1.89987    4.926
 5422.00    2.09060   1.88931    4.783
 5423.00    2.09160   1.87872    4.781
 5424.00    2.07762   1.86725    4.813
 5425.00    2.05427   1.85700    4.868
 5426.00    1.99494   1.84997    5.013
 5427.00    1.91239   1.84580    5.229
 5428.00    1.84840   1.84831    5.410
 5429.00    1.81163   1.85404    5.520
 5430.00    1.78387   1.86351    5.606
 5431.00    1.76252   1.87776    5.674
 5432.00    1.75864   1.89362    5.686
 5433.00    1.77613   1.91135    5.630
 5434.00    1.81365   1.92670    5.514
 5435.00    1.87486   1.93913    5.334
 5436.00    1.95473   1.94656    5.116
 5437.00    2.01582   1.94831    4.961
 5438.00    2.02253   1.94540    4.944
 5439.00    1.99731   1.93770    5.007
 5440.00    1.98052   1.92735    5.049
 5441.00    1.96328   1.91539    5.094
 5442.00    1.92910   1.90293    5.184
 5443.00    1.91805   1.89346    5.214
 5444.00    1.97425   1.88464    5.065
 5445.00    2.07288   1.87935    4.824
 5446.00    2.14961   1.87427    4.652
 5447.00    2.14749   1.87034    4.657
 5448.00    2.05681   1.86689    4.862
 5449.00    1.94569   1.86451    5.140
 5450.00    1.89099   1.86293    5.288
 5451.00    1.90770   1.86267    5.242
 5452.00    1.96179   1.86472    5.097
 5453.00    1.99409   1.86727    5.015
 5454.00    1.97218   1.87146    5.071
 5455.00    1.92678   1.87463    5.190
 5456.00    1.89566   1.87733    5.275
 5457.00    1.88059   1.87954    5.317
 5458.00    1.88037   1.88050    5.318
 5459.00    1.91150   1.88216    5.231
 5460.00    1.96317   1.88262    5.094
 5461.00    1.97863   1.88202    5.054
 5462.00    1.94356   1.88037    5.145
 5463.00    1.92485   1.87671    5.195
 5464.00    1.95755   1.87087    5.108
 5465.00    1.99108   1.86312    5.022
 5466.00    1.97694   1.85388    5.058
 5467.00    1.91917   1.84394    5.211
 5468.00    1.87155   1.83328    5.343
 5469.00    1.91151   1.82372    5.231
 5470.00    2.03204   1.81597    4.921
 5471.00    2.12337   1.80950    4.710
 5472.00    2.11933   1.80624    4.718
 5473.00    2.04697   1.80733    4.885
 5474.00    1.95906   1.81069    5.104
 5475.00    1.89994   1.81754   -2.000
 5476.00    1.88657   1.82471   -2.000
 5477.00    1.90859   1.83418   -2.000
 5478.00    1.95220   1.84370   -2.000
 5479.00    2.00378   1.85388   -2.000
 5480.00    2.03439   1.86374   -2.000
 5481.00    2.03531   1.87166   -2.000
 5482.00    2.13275   1.87812   -2.000
 5483.00    2.44592   1.88284   -2.000
 5484.00    2.61719   1.88763   -2.000
 5485.00    2.10923   1.89037   -2.000
 5486.00    1.27504   1.89345   -2.000
 5487.00    1.04516   1.89555   -2.000
 5488.00    1.54505   1.89629   -2.000
 5489.00    2.17799   1.89688   -2.000
 5490.00    2.55102   1.89676   -2.000
 5491.00    2.61208   1.89616   -2.000
 5492.00    2.49325   1.89384   -2.000
 5493.00    2.37257   1.89149   -2.000
 5494.00    2.28120   1.88859   -2.000
 5495.00    2.17016   1.88440   -2.000
 5496.00    2.08788   1.87919   -2.000
 5497.00    2.10447   1.87334   -2.000
 5498.00    2.14341   1.86796   -2.000
 5499.00    2.08666   1.86212    4.792
 5500.00    1.96981   1.85736    5.077
 5501.00    1.90056   1.85171    5.262
 5502.00    1.90477   1.84754    5.250
 5503.00    1.94761   1.84467    5.134
 5504.00    1.99041   1.84230    5.024
 5505.00    2.00413   1.84087    4.990
 5506.00    1.97757   1.84131    5.057
 5507.00    1.92610   1.84259    5.192
 5508.00    1.89625   1.84718    5.274
 5509.00    1.91704   1.85427    5.216
 5510.00    1.95357   1.86344    5.119
 5511.00    1.96380   1.87500    5.092
 5512.00    1.95516   1.88638    5.115
 5513.00    1.94870   1.89876    5.132
 5514.00    1.94390   1.90880    5.144
 5515.00    1.93861   1.91651    5.158
 5516.00    1.94479   1.92104    5.142
 5517.00    1.95989   1.92256    5.102
 5518.00    1.95030   1.92113    5.127
 5519.00    1.90439   1.91733    5.251
 5520.00    1.86321   1.91195    5.367
 5521.00    1.85643   1.90580    5.387
 5522.00    1.86464   1.90021    5.363
 5523.00    1.86701   1.89516    5.356
 5524.00    1.86876   1.89300    5.351
 5525.00    1.87582   1.89352    5.331
 5526.00    1.88273   1.89498    5.311
 5527.00    1.89282   1.89815    5.283
 5528.00    1.92128   1.90187    5.205
 5529.00    1.95380   1.90734    5.118
 5530.00    1.94371   1.91235    5.145
 5531.00    1.89574   1.91882    5.275
 5532.00    1.88142   1.92543    5.315
 5533.00    1.93566   1.93151    5.166
 5534.00    2.02510   1.93818    4.938
 5535.00    2.10578   1.94460    4.749
 5536.00    2.14995   1.95075    4.651
 5537.00    2.15416   1.95623    4.642
 5538.00    2.13797   1.96102    4.677
 5539.00    2.12946   1.96622    4.696
 5540.00    2.15283   1.97154    4.645
 5541.00    2.20624   1.97602    4.533
 5542.00    2.26389   1.98028    4.417
 5543.00    2.30217   1.98461    4.344
 5544.00    2.30704   1.98727    4.335
 5545.00    2.27228   1.98829    4.401
 5546.00    2.20470   1.98797    4.536
 5547.00    2.13800   1.98575    4.677
 5548.00    2.11185   1.98217    4.735
 5549.00    2.11649   1.97709    4.725
 5550.00    2.10914   1.97166    4.741
 5551.00    2.07703   1.96553    4.815
 5552.00    2.03715   1.95889    4.909
 5553.00    2.00759   1.95140    4.981
 5554.00    1.99931   1.94444    5.002
 5555.00    2.01225   1.93689    4.970
 5556.00    2.03483   1.92930    4.914
 5557.00    2.04550   1.92189    4.889
 5558.00    2.03126   1.91457    4.923
 5559.00    2.01510   1.90859    4.963
 5560.00    2.02593   1.90317    4.936
 5561.00    2.04910   1.89845    4.880
 5562.00    2.04985   1.89571    4.878
 5563.00    2.01614   1.89425    4.960
 5564.00    1.96390   1.89460    5.092
 5565.00    1.93376   1.89565    5.171
 5566.00    1.95561   1.89928    5.113
 5567.00    2.00914   1.90290    4.977
 5568.00    2.05293   1.90685    4.871
 5569.00    2.06194   1.91206    4.850
 5570.00    2.02995   1.91681    4.926
 5571.00    1.96727   1.91955    5.083
 5572.00    1.89389   1.92125    5.280
 5573.00    1.83247   1.92056    5.457
 5574.00    1.80391   1.91668    5.543
 5575.00    1.82225   1.91006    5.488
 5576.00    1.87948   1.90037    5.321
 5577.00    1.93805   1.88738    5.160
 5578.00    1.96741   1.87275    5.083
 5579.00    1.97009   1.85686    5.076
 5580.00    1.96029   1.84055    5.101
 5581.00    1.94625   1.82606    5.138
 5582.00    1.92522   1.81361    5.194
 5583.00    1.88511   1.80546    5.305
 5584.00    1.83108   1.80125    5.461
 5585.00    1.79633   1.80094    5.567
 5586.00    1.80850   1.80436    5.529
 5587.00    1.86820   1.80966    5.353
 5588.00    1.94132   1.81694    5.151
 5589.00    1.96987   1.82487    5.076
 5590.00    1.94188   1.83244    5.150
 5591.00    1.90804   1.83960    5.241
 5592.00    1.89897   1.84548    5.266
 5593.00    1.89871   1.85078    5.267
 5594.00    1.89764   1.85605    5.270
 5595.00    1.90834   1.86323    5.240
 5596.00    1.93609   1.87088    5.165
 5597.00    1.97135   1.88188    5.073
 5598.00    2.00629   1.89386    4.984
 5599.00    2.04090   1.90818    4.900
 5600.00    2.08217   1.92218    4.803
 5601.00    2.13397   1.93521    4.686
 5602.00    2.16797   1.94591    4.613
 5603.00    2.14267   1.95311    4.667
 5604.00    2.08222   1.95647    4.803
 5605.00    2.05897   1.95545    4.857
 5606.00    2.08658   1.95022    4.793
 5607.00    2.11888   1.94146    4.719
 5608.00    2.11953   1.92936    4.718
 5609.00    2.07674   1.91670    4.815
 5610.00    1.99540   1.90434    5.012
 5611.00    1.89666   1.89314    5.272
 5612.00    1.82011   1.88444    5.494
 5613.00    1.80526   1.87715    5.539
 5614.00    1.85495   1.87278    5.391
 5615.00    1.93914   1.86998    5.157
 5616.00    2.01594   1.86952    4.960
 5617.00    2.04758   1.86993    4.884
 5618.00    2.02076   1.87224    4.949
 5619.00    1.95257   1.87639    5.121
 5620.00    1.89248   1.88214    5.284
 5621.00    1.88644   1.88914    5.301
 5622.00    1.92551   1.89725    5.193
 5623.00    1.96860   1.90520    5.080
 5624.00    1.98428   1.91276    5.040
 5625.00    1.96853   1.91868    5.080
 5626.00    1.95664   1.92286    5.111
 5627.00    1.97882   1.92439    5.054
 5628.00    2.00983   1.92382    4.976
 5629.00    2.01268   1.92099    4.968
 5630.00    1.99114   1.91659    5.022
 5631.00    1.97095   1.91152    5.074
 5632.00    1.97375   1.90643    5.066
 5633.00    2.00121   1.90193    4.997
 5634.00    2.02569   1.89803    4.937
 5635.00    2.02364   1.89586    4.942
 5636.00    2.00264   1.89561    4.993
 5637.00    1.97542   1.89646    5.062
 5638.00    1.94050   1.89936    5.153
 5639.00    1.91193   1.90263    5.230
 5640.00    1.93336   1.90720    5.172
 5641.00    2.00821   1.91126    4.980
 5642.00    2.06463   1.91520    4.843
 5643.00    2.05878   1.91788    4.857
 5644.00    2.03166   1.91985    4.922
 5645.00    2.02991   1.91985    4.926
 5646.00    2.05691   1.91789    4.862
 5647.00    2.08430   1.91349    4.798
 5648.00    2.06966   1.90718    4.832
 5649.00    2.00654   1.90016    4.984
 5650.00    1.93748   1.89204    5.161
 5651.00    1.89065   1.88305    5.289
 5652.00    1.85832   1.87532    5.381
 5653.00    1.84187   1.87041    5.429
 5654.00    1.86285   1.86673    5.368
 5655.00    1.92201   1.86572    5.203
 5656.00    1.98966   1.86702    5.026
 5657.00    2.03653   1.87183    4.910
 5658.00    2.04790   1.87781    4.883
 5659.00    2.02917   1.88607    4.928
 5660.00    2.00242   1.89449    4.994
 5661.00    1.98922   1.90454    5.027
 5662.00    1.99863   1.91459    5.003
 5663.00    2.00969   1.92546    4.976
 5664.00    1.98880   1.93593    5.028
 5665.00    1.95214   1.94663    5.123
 5666.00    1.95472   1.95661    5.116
 5667.00    2.01512   1.96566    4.962
 5668.00    2.10754   1.97311    4.745
 5669.00    2.19236   1.97881    4.561
 5670.00    2.23430   1.98253    4.476
 5671.00    2.22509   1.98340    4.494
 5672.00    2.18116   1.98215    4.585
 5673.00    2.12782   1.97817    4.700
 5674.00    2.08544   1.97289    4.795
 5675.00    2.05035   1.96582    4.877
 5676.00    2.00957   1.95870    4.976
 5677.00    1.97316   1.95164    5.068
 5678.00    1.96095   1.94545    5.100
 5679.00    1.97095   1.94083    5.074
 5680.00    1.98074   1.93777    5.049
 5681.00    1.95924   1.93763    5.104
 5682.00    1.88931   1.93887    5.293
 5683.00    1.79638   1.94289    5.567
 5684.00    1.73073   1.94719    5.778
 5685.00    1.73635   1.95270    5.759
 5686.00    1.82240   1.95724    5.487
 5687.00    1.93661   1.96104    5.164
 5688.00    2.01675   1.96277    4.958
 5689.00    2.05234   1.96200    4.872
 5690.00    2.06701   1.95877    4.838
 5691.00    2.08950   1.95290    4.786
 5692.00    2.12318   1.94452    4.710
 5693.00    2.12517   1.93452    4.706
 5694.00    2.07380   1.92311    4.822
 5695.00    2.02439   1.91132    4.940
 5696.00    2.02858   1.89898    4.930
 5697.00    2.06583   1.88689    4.841
 5698.00    2.09161   1.87522    4.781
 5699.00    2.08096   1.86490    4.805
 5700.00    2.03006   1.85566    4.926
 5701.00    1.95422   1.84919    5.117
 5702.00    1.88053   1.84505    5.318
 5703.00    1.83960   1.84396    5.436
 5704.00    1.84510   1.84707    5.420
 5705.00    1.88343   1.85367    5.309
 5706.00    1.92957   1.86413    5.183
 5707.00    1.96031   1.87773    5.101
 5708.00    1.97250   1.89435    5.070
 5709.00    1.98649   1.91235    5.034
 5710.00    2.01406   1.93187    4.965
 5711.00    2.04582   1.95084    4.888
 5712.00    2.07232   1.96935    4.826
 5713.00    2.09324   1.98586    4.777
 5714.00    2.11162   2.00050    4.736
 5715.00    2.13073   2.01213    4.693
 5716.00    2.15282   2.02120    4.645
 5717.00    2.17546   2.02731    4.597
 5718.00    2.18048   2.03080    4.586
 5719.00    2.14289   2.03220    4.667
 5720.00    2.07617   2.03176    4.817
 5721.00    2.02977   2.03012    4.927
 5722.00    2.02980   2.02763    4.927
 5723.00    2.06593   2.02513    4.840
 5724.00    2.11210   2.02310    4.735
 5725.00    2.13958   2.02153    4.674
 5726.00    2.13464   2.02079    4.685
 5727.00    2.10425   2.02064    4.752
 5728.00    2.07755   2.02119    4.813
 5729.00    2.08905   2.02206    4.787
 5730.00    2.13901   2.02317    4.675
 5731.00    2.19763   2.02415    4.550
 5732.00    2.23575   2.02490    4.473
 5733.00    2.23705   2.02544    4.470
 5734.00    2.20811   2.02568    4.529
 5735.00    2.17056   2.02557    4.607
 5736.00    2.14220   2.02502    4.668
 5737.00    2.13193   2.02382    4.691
 5738.00    2.13762   2.02249    4.678
 5739.00    2.15142   2.02048    4.648
 5740.00    2.16899   2.01812    0.000
 5741.00    2.18754   2.01470    0.000
 5742.00    2.20062   2.01103    0.000
 5743.00    2.19933   2.00668    0.000
 5744.00    2.17584   2.00266    0.000
 5745.00    2.13256   1.99862    0.000
 5746.00    2.09217   1.99509    0.000
 5747.00    2.07540   1.99213    0.000
 5748.00    2.07398   1.98981    0.000
 5749.00    2.06950   1.98838    0.000
 5750.00    2.05792   1.98734    0.000
 5751.00    2.04279   1.98735    0.000
 5752.00    2.02618   1.98739    0.000
 5753.00    2.01652   1.98862    0.000
 5754.00    2.03401   1.98986    0.000
 5755.00    2.07733   1.99243    0.000
 5756.00    2.09957   1.99534    0.000
 5757.00    2.07058   1.99982    0.000
 5758.00    2.02475   2.00478    0.000
 5759.00    2.00175   2.01075    0.000
 5760.00    2.00078   2.01682    0.000
 5761.00    2.01217   2.02268    0.000
 5762.00    2.04027   2.02772    0.000
 5763.00    2.08297   2.03131    0.000
 5764.00    2.12040   2.03331    0.000
 5765.00    2.13884   2.03300    0.000
 5766.00    2.14257   2.03076    0.000
 5767.00    2.13103   2.02595    0.000
 5768.00    2.09181   2.01908    0.000
 5769.00    2.03820   2.00994    0.000
 5770.00    2.01699   1.99886    0.000
 5771.00    2.04295   1.98597    0.000
 5772.00    2.07808   1.97157    0.000
 5773.00    2.09280   1.95653    0.000
 5774.00    2.09143   1.94139    0.000
 5775.00    2.09363   1.92727    0.000
 5776.00    2.12037   1.91498    0.000
 5777.00    2.17321   1.90565    0.000
 5778.00    2.22891   1.89983    0.000
 5779.00    2.25122   1.89806    0.000
 5780.00    2.20808   1.90043    0.000
 5781.00    2.11342   1.90652    0.000
 5782.00    2.02450   1.91589    0.000
 5783.00    1.98799   1.92756    0.000
 5784.00    2.01630   1.94100    0.000
 5785.00    2.07231   1.95499    0.000
 5786.00    2.09430   1.96925    0.000
 5787.00    2.07364   1.98270    0.000
 5788.00    2.04513   1.99563   -2.000
 5789.00    2.00873   2.00694   -2.000
 5790.00    1.94114   2.01760   -2.000
 5791.00    1.86919   2.02634   -2.000
 5792.00    1.84740   2.03447   -2.000
 5793.00    1.87242   2.04059   -2.000
 5794.00    1.89886   2.04610   -2.000
 5795.00    1.90882   2.04960   -2.000
 5796.00    1.90885   2.05247   -2.000
 5797.00    1.89806   2.05356   -2.000
 5798.00    1.87495   2.05415   -2.000
 5799.00    1.85910   2.05350   -2.000
 5800.00    1.87948   2.05271   -2.000
 5801.00    1.94896   2.05137   -2.000
 5802.00    2.05191   2.05025   -2.000
 5803.00    2.13445   2.04907   -2.000
 5804.00    2.14320   2.04827   -2.000
 5805.00    2.08009   2.04768   -2.000
 5806.00    1.98865   2.04754   -2.000
 5807.00    1.92455   2.04783   -2.000
 5808.00    1.92820   2.04872    0.000
 5809.00    1.99716   2.05033    0.000
 5810.00    2.09668   2.05273    0.000
 5811.00    2.17796   2.05601    0.000
 5812.00    2.21369   2.06008    0.000
 5813.00    2.22914   2.06478    0.000
 5814.00    2.26012   2.06994    0.000
 5815.00    2.31057   2.07507    0.000
 5816.00    2.36312   2.08018    0.000
 5817.00    2.39383   2.08460    0.000
 5818.00    2.38769   2.08860    0.000
 5819.00    2.34996   2.09153    0.000
 5820.00    2.30017   2.09386    0.000
 5821.00    2.26333   2.09508    0.000
 5822.00    2.24546   2.09569    0.000
 5823.00    2.22210   2.09536    0.000
 5824.00    2.17876   2.09449    0.000
 5825.00    2.13428   2.09303    0.000
 5826.00    2.11246   2.09129    0.000
 5827.00    2.12281   2.08940    0.000
 5828.00    2.15806   2.08763    0.000
 5829.00    2.19597   2.08616    0.000
 5830.00    2.21424   2.08515    0.000
 5831.00    2.20070   2.08463    0.000
 5832.00    2.16315   2.08453    0.000
 5833.00    2.12829   2.08465    0.000
 5834.00    2.11537   2.08463    0.000
 5835.00    2.12528   2.08417    0.000
 5836.00    2.14721   2.08271    0.000
 5837.00    2.16646   2.08014    0.000
 5838.00    2.18221   2.07586    0.000
 5839.00    2.20570   2.07015    0.000
 5840.00    2.22806   2.06254    0.000
 5841.00    2.22078   2.05368    0.000
 5842.00    2.17717   2.04326    0.000
 5843.00    2.11895   2.03213    0.000
 5844.00    2.07155   2.02010    0.000
 5845.00    2.05085   2.00802    0.000
 5846.00    2.04900   1.99593    0.000
 5847.00    2.04119   1.98446    0.000
 5848.00    2.01438   1.97396    0.000
 5849.00    1.97604   1.96474    0.000
 5850.00    1.95500   1.95750    0.000
 5851.00    1.97930   1.95194    0.000
 5852.00    2.02656   1.94906    0.000
 5853.00    2.04735   1.94788    0.000
 5854.00    2.03860   1.94942    0.000
 5855.00    2.03255   1.95229    0.000
 5856.00    2.04389   1.95726    0.000
 5857.00    2.06880   1.96293    0.000
 5858.00    2.10291   1.96973    0.000
 5859.00    2.14069   1.97664    0.000
 5860.00    2.16891   1.98372    0.000
 5861.00    2.17382   1.99046    0.000
 5862.00    2.15403   1.99651    0.000
 5863.00    2.12059   2.00182    0.000
 5864.00    2.09317   2.00578    0.000
 5865.00    2.08764   2.00854    0.000
 5866.00    2.10011   2.00947    0.000
 5867.00    2.11120   2.00876    0.000
 5868.00    2.09594   2.00599    0.000
 5869.00    2.04802   2.00128    0.000
 5870.00    2.00325   1.99445    0.000
 5871.00    1.99265   1.98546    0.000
 5872.00    1.99226   1.97419    0.000
 5873.00    1.97150   1.96036    0.000
 5874.00    1.94467   1.94368    0.000
 5875.00    1.93739   1.92367    0.000
 5876.00    1.95090   1.89998    0.000
 5877.00    1.97145   1.87221    0.000
 5878.00    1.98240   1.84035    0.000
 5879.00    1.97385   1.80467    0.000
 5880.00    1.94827   1.76602    0.000
 5881.00    1.90882   1.72567    0.000
 5882.00    1.85175   1.68549    0.000
 5883.00    1.77964   1.64744    0.000
 5884.00    1.70874   1.61393    0.000
 5885.00    1.65248   1.58667    0.000
 5886.00    1.61142   1.56767    0.000
 5887.00    1.58068   1.55772    0.000
 5888.00    1.55610   1.55762    0.000
 5889.00    1.54045   1.56695    0.000
 5890.00    1.54461   1.58534    0.000
 5891.00    1.57559   1.61108    0.000
 5892.00    1.63061   1.64306    0.000
 5893.00    1.70017   1.67894    0.000
 5894.00    1.77002   1.71721    0.000
 5895.00    1.82241   1.75551    0.000
 5896.00    1.84307   1.79260    0.000
 5897.00    1.84682   1.82670    0.000
 5898.00    1.87282   1.85719    0.000
 5899.00    1.92541   1.88313    0.000
 5900.00    1.96638   1.90464    0.000
 5901.00    1.97038   1.92145    5.075
 5902.00    1.94422   1.93432    5.143
 5903.00    1.92156   1.94326    5.204
 5904.00    1.94304   1.94940    5.147
 5905.00    2.00337   1.95277    4.992
 5906.00    2.05782   1.95470    4.860
 5907.00    2.08729   1.95513    4.791
 5908.00    2.10250   1.95542    4.756
 5909.00    2.10520   1.95534    4.750
 5910.00    2.08549   1.95605    4.795
 5911.00    2.04129   1.95715    4.899
 5912.00    1.98296   1.95928    5.043
 5913.00    1.93229   1.96198    5.175
 5914.00    1.91317   1.96530    5.227
 5915.00    1.93284   1.96885    5.174
 5916.00    1.97908   1.97230    5.053
 5917.00    2.02340   1.97547    4.942
 5918.00    2.03957   1.97796    4.903
 5919.00    2.03452   1.97983    4.915
 5920.00    2.03077   1.98089    4.924
 5921.00    2.02850   1.98131    4.930
 5922.00    2.01867   1.98122    4.954
 5923.00    2.01257   1.98076    4.969
 5924.00    2.02595   1.98029    4.936
 5925.00    2.05061   1.97979    4.877
 5926.00    2.06806   1.97968    4.835
 5927.00    2.07304   1.97983    4.824
 5928.00    2.07087   1.98046    4.829
 5929.00    2.07004   1.98144    4.831
 5930.00    2.07888   1.98273    4.810
 5931.00    2.10238   1.98429    4.757
 5932.00    2.13681   1.98590    4.680
 5933.00    2.16564   1.98760    4.618
 5934.00    2.17459   1.98910    4.599
 5935.00    2.16636   1.99053    4.616
 5936.00    2.15263   1.99158    4.645
 5937.00    2.14487   1.99237    4.662
 5938.00    2.14950   1.99260    4.652
 5939.00    2.16464   1.99244    4.620
 5940.00    2.18192   1.99161    4.583
 5941.00    2.18931   1.99031    4.568
 5942.00    2.18049   1.98842    4.586
 5943.00    2.16072   1.98625    4.628
 5944.00    2.13962   1.98384    4.674
 5945.00    2.12485   1.98160    4.706
 5946.00    2.11523   1.97966    4.728
 5947.00    2.09931   1.97848    4.763
 5948.00    2.07212   1.97810    4.826
 5949.00    2.04280   1.97893    4.895
 5950.00    2.01993   1.98087    4.951
 5951.00    2.00486   1.98410    4.988
 5952.00    2.00111   1.98835    4.997
 5953.00    2.01561   1.99360    4.961
 5954.00    2.04023   1.99944    4.901
 5955.00    2.05171   2.00572    4.874
 5956.00    2.05024   2.01206    4.877
 5957.00    2.06603   2.01825    4.840
 5958.00    2.11512   2.02406    4.728
 5959.00    2.18307   2.02923    4.581
 5960.00    2.23497   2.03379    4.474
 5961.00    2.23146   2.03733    4.481
 5962.00    2.16949   2.04006    4.609
 5963.00    2.08384   2.04143    4.799
 5964.00    2.00568   2.04178    4.986
 5965.00    1.95003   2.04051    5.128
 5966.00    1.92079   2.03812    5.206
 5967.00    1.91527   2.03416    5.221
 5968.00    1.93173   2.02929    5.177
 5969.00    1.96672   2.02335    5.085
 5970.00    2.00330   2.01698    4.992
 5971.00    2.01991   2.01029    4.951
 5972.00    2.01852   2.00379    4.954
 5973.00    2.01722   1.99770    4.957
 5974.00    2.01908   1.99228    4.953
 5975.00    2.01344   1.98779    4.967
 5976.00    1.99348   1.98432    5.016
 5977.00    1.96273   1.98210    5.095
 5978.00    1.93998   1.98109    5.155
 5979.00    1.94359   1.98145    5.145
 5980.00    1.96339   1.98299    5.093
 5981.00    1.97651   1.98570    5.059
 5982.00    1.98135   1.98917    5.047
 5983.00    1.99221   1.99325    5.020
 5984.00    2.02224   1.99737    4.945
 5985.00    2.07418   2.00130    4.821
 5986.00    2.13174   2.00452    4.691
 5987.00    2.16893   2.00683    4.611
 5988.00    2.16465   2.00803    4.620
 5989.00    2.11360   2.00799    4.731
 5990.00    2.03623   2.00688    4.911
 5991.00    1.96532   2.00464    5.088
 5992.00    1.92862   2.00167    5.185
 5993.00    1.93844   1.99800    5.159
 5994.00    1.98344   1.99399    5.042
 5995.00    2.03732   1.98970    4.908
 5996.00    2.07003   1.98538    4.831
 5997.00    2.06631   1.98115    4.840
 5998.00    2.03949   1.97710    4.903
 5999.00    2.00960   1.97339    4.976
 6000.00    1.98488   1.97005    5.038
 6001.00    1.97193   1.96718    5.071
 6002.00    1.98269   1.96481    5.044
 6003.00    2.01736   1.96281    4.957
 6004.00    2.05460   1.96127    4.867
 6005.00    2.07294   1.95996    4.824
 6006.00    2.06676   1.95888    4.838
 6007.00    2.05031   1.95791    4.877
 6008.00    2.05290   1.95702    4.871
 6009.00    2.07989   1.95632    4.808
 6010.00    2.09690   1.95582    4.769
 6011.00    2.07090   1.95586    4.829
 6012.00    1.99429   1.95650    5.014
 6013.00    1.88794   1.95809    5.297
 6014.00    1.79549   1.96079    5.570
 6015.00    1.75157   1.96469    5.709
 6016.00    1.76601   1.97006    5.662
 6017.00    1.82137   1.97653    5.490
 6018.00    1.88117   1.98444    5.316
 6019.00    1.92454   1.99303    5.196
 6020.00    1.95369   2.00259    5.119
 6021.00    1.96824   2.01229    5.081
 6022.00    1.96236   2.02218    5.096
 6023.00    1.94861   2.03170    5.132
 6024.00    1.95467   2.04068    5.116
 6025.00    1.98637   2.04892    5.034
 6026.00    2.02447   2.05609    4.940
 6027.00    2.05111   2.06240    4.875
 6028.00    2.05881   2.06745    4.857
 6029.00    2.05239   2.07173    4.872
 6030.00    2.04689   2.07496    4.885
 6031.00    2.06108   2.07768    4.852
 6032.00    2.10706   2.07982    4.746
 6033.00    2.17072   2.08174    4.607
 6034.00    2.22041   2.08365    4.504
 6035.00    2.23600   2.08547    4.472
 6036.00    2.21423   2.08765    4.516
 6037.00    2.16616   2.08960    4.616
 6038.00    2.10963   2.09186    4.740
 6039.00    2.05647   2.09357    4.863
 6040.00    2.01619   2.09511    4.960
 6041.00    2.00563   2.09573    4.986
 6042.00    2.03051   2.09558    4.925
 6043.00    2.05508   2.09442    4.866
 6044.00    2.03631   2.09209    4.911
 6045.00    1.98118   2.08900    5.048
 6046.00    1.92615   2.08480    5.192
 6047.00    1.89635   2.08032    5.273
 6048.00    1.89770   2.07519    5.270
 6049.00    1.91510   2.07030    5.222
 6050.00    1.92654   2.06537    5.191
 6051.00    1.92074   2.06097    5.206
 6052.00    1.90200   2.05706    5.258
 6053.00    1.89164   2.05387    5.286
 6054.00    1.90854   2.05150    5.240
 6055.00    1.94920   2.05011    5.130
 6056.00    1.99498   2.04980    5.013
 6057.00    2.02272   2.05083    4.944
 6058.00    2.02037   2.05309    4.950
 6059.00    1.99916   2.05691    5.002
 6060.00    1.98230   2.06184    5.045
 6061.00    1.99252   2.06797    5.019
 6062.00    2.03459   2.07454    4.915
 6063.00    2.08625   2.08129    4.793
 6064.00    2.12666   2.08738    4.702
 6065.00    2.15504   2.09229    4.640
 6066.00    2.17197   2.09547    4.604
 6067.00    2.16860   2.09647    4.611
 6068.00    2.14338   2.09525    4.666
 6069.00    2.11086   2.09165    4.737
 6070.00    2.08854   2.08614    4.788
 6071.00    2.08819   2.07891    4.789
 6072.00    2.11204   2.07073    4.735
 6073.00    2.15136   2.06195    4.648
 6074.00    2.18839   2.05331    4.570
 6075.00    2.20178   2.04514    4.542
 6076.00    2.18577   2.03784    4.575
 6077.00    2.15571   2.03168    4.639
 6078.00    2.13269   2.02660    4.689
 6079.00    2.13259   2.02284    4.689
 6080.00    2.14996   2.01997    4.651
 6081.00    2.15938   2.01827    4.631
 6082.00    2.14327   2.01718    4.666
 6083.00    2.10180   2.01702    4.758
 6084.00    2.05053   2.01723    4.877
 6085.00    2.01300   2.01804    4.968
 6086.00    2.00112   2.01902    4.997
 6087.00    2.01046   2.02011    4.974
 6088.00    2.02525   2.02108    4.938
 6089.00    2.02797   2.02151    4.931
 6090.00    2.01986   2.02158    4.951
 6091.00    2.01582   2.02058    4.961
 6092.00    2.01802   2.01928    4.955
 6093.00    2.01817   2.01693    4.955
 6094.00    2.01842   2.01481    4.954
 6095.00    2.02928   2.01236    4.928
 6096.00    2.05474   2.01088    4.867
 6097.00    2.09006   2.01014    4.785
 6098.00    2.12423   2.01084    4.708
 6099.00    2.14317   2.01303    4.666
 6100.00    2.13497   2.01645    4.684
 6101.00    2.09696   2.02125    4.769
 6102.00    2.04539   2.02647    4.889
 6103.00    2.00604   2.03219    4.985
 6104.00    1.99635   2.03726    5.009
 6105.00    2.01654   2.04165    4.959
 6106.00    2.04229   2.04445    4.896
 6107.00    2.04704   2.04569    4.885
 6108.00    2.03288   2.04485    4.919
 6109.00    2.01568   2.04224    4.961
 6110.00    2.00091   2.03775    4.998
 6111.00    1.98652   2.03197    5.034
 6112.00    1.96992   2.02520    5.076
 6113.00    1.94846   2.01815    5.132
 6114.00    1.91945   2.01138    5.210
 6115.00    1.88333   2.00540    5.310
 6116.00    1.84662   2.00076    5.415
 6117.00    1.81797   1.99750    5.501
 6118.00    1.80380   1.99589    5.544
 6119.00    1.80532   1.99549    5.539
 6120.00    1.81741   1.99601    5.502
 6121.00    1.83809   1.99684    5.440
 6122.00    1.87412   1.99736    5.336
 6123.00    1.92180   1.99704    5.203
 6124.00    1.95670   1.99540    5.111
 6125.00    1.96886   1.99229    5.079
 6126.00    1.98164   1.98783    5.046
 6127.00    2.00453   1.98224    4.989
 6128.00    2.00843   1.97640    4.979
 6129.00    1.97311   1.97079    5.068
 6130.00    1.91415   1.96649    5.224
 6131.00    1.86347   1.96403    5.366
 6132.00    1.85166   1.96401    5.401
 6133.00    1.87879   1.96664    5.323
 6134.00    1.90964   1.97167    5.237
 6135.00    1.92394   1.97877    5.198
 6136.00    1.93446   1.98706    5.169
 6137.00    1.95475   1.99578    5.116
 6138.00    1.98433   2.00408    5.039
 6139.00    2.01146   2.01117    4.972
 6140.00    2.02049   2.01652    4.949
 6141.00    2.01394   2.01975    4.965
 6142.00    2.01264   2.02066    4.969
 6143.00    2.02491   2.01923    4.938
 6144.00    2.04021   2.01551    4.901
 6145.00    2.04581   2.00959    4.888
 6146.00    2.03503   2.00163    4.914
 6147.00    2.01384   1.99157    4.966
 6148.00    1.99447   1.97967    5.014
 6149.00    1.97196   1.96578    5.071
 6150.00    1.92884   1.95036    5.184
 6151.00    1.86536   1.93356    5.361
 6152.00    1.79975   1.91604    5.556
 6153.00    1.74865   1.89850    5.719
 6154.00    1.72278   1.88158    5.805
 6155.00    1.72847   1.86651    5.785
 6156.00    1.76569   1.85358    5.664
 6157.00    1.82342   1.84380    5.484
 6158.00    1.88188   1.83724    5.314
 6159.00    1.91903   1.83418    5.211
 6160.00    1.92052   1.83450    5.207
 6161.00    1.89450   1.83764    5.278
 6162.00    1.86037   1.84362    5.375
 6163.00    1.82570   1.85134    5.477
 6164.00    1.78976   1.86082    5.587
 6165.00    1.75542   1.87113    5.697
 6166.00    1.73307   1.88224    5.770
 6167.00    1.74235   1.89345    5.739
 6168.00    1.79487   1.90457    5.571
 6169.00    1.87160   1.91535    5.343
 6170.00    1.93883   1.92514    5.158
 6171.00    1.97258   1.93417    5.070
 6172.00    1.96472   1.94153    5.090
 6173.00    1.92615   1.94758    5.192
 6174.00    1.87773   1.95148    5.326
 6175.00    1.83920   1.95341    5.437
 6176.00    1.82055   1.95313    5.493
 6177.00    1.81477   1.95077    5.510
 6178.00    1.80297   1.94656    5.546
 6179.00    1.76268   1.94075    5.673
 6180.00    1.69565   1.93405    5.897
 6181.00    1.64579   1.92682    6.076
 6182.00    1.64992   1.91993    6.061
 6183.00    1.69967   1.91395    5.883
 6184.00    1.76622   1.90938    5.662
 6185.00    1.82258   1.90680    5.487
 6186.00    1.85217   1.90611    5.399
 6187.00    1.85322   1.90774    5.396
 6188.00    1.83369   1.91102    5.453
 6189.00    1.80682   1.91591    5.535
 6190.00    1.78567   1.92175    5.600
 6191.00    1.77771   1.92818    5.625
 6192.00    1.77266   1.93489   -2.000
 6193.00    1.74429   1.94134   -2.000
 6194.00    1.69409   1.94745   -2.000
 6195.00    1.66433   1.95276   -2.000
 6196.00    1.69033   1.95727   -2.000
 6197.00    1.77613   1.96040   -2.000
 6198.00    1.89297   1.96225   -2.000
 6199.00    1.98985   1.96206   -2.000
 6200.00    2.03677   1.96001   -2.000
 6201.00    2.03738   1.95569   -2.000
 6202.00    2.00710   1.94928   -2.000
 6203.00    1.96382   1.94074   -2.000
 6204.00    1.92609   1.93051    5.192
 6205.00    1.90812   1.91874    5.241
 6206.00    1.90572   1.90625    5.247
 6207.00    1.90044   1.89376    5.262
 6208.00    1.88580   1.88194    5.303
 6209.00    1.87097   1.87139    5.345
 6210.00    1.86775   1.86230    5.354
 6211.00    1.88293   1.85540    5.311
 6212.00    1.90860   1.85037    5.239
 6213.00    1.92723   1.84743    5.189
 6214.00    1.92963   1.84599    5.182
 6215.00    1.91810   1.84582    5.213
 6216.00    1.90318   1.84612    5.254
 6217.00    1.89643   1.84673    5.273
 6218.00    1.89763   1.84744    5.270
 6219.00    1.89779   1.84746    5.269
 6220.00    1.89012   1.84777    5.291
 6221.00    1.87108   1.84711    5.345
 6222.00    1.83867   1.84707    5.439
 6223.00    1.79804   1.84641    5.562
 6224.00    1.77036   1.84667    5.649
 6225.00    1.77739   1.84690    5.626
 6226.00    1.81610   1.84770    5.506
 6227.00    1.86434   1.84901    5.364
 6228.00    1.89543   1.85001    5.276
 6229.00    1.89476   1.85121    5.278
 6230.00    1.87748   1.85140    5.326
 6231.00    1.86780   1.85102    5.354
 6232.00    1.87106   1.84944    5.345
 6233.00    1.87724   1.84742    5.327
 6234.00    1.87020   1.84459    5.347
 6235.00    1.84492   1.84159    5.420
 6236.00    1.82271   1.83888    5.486
 6237.00    1.82897   1.83627    5.468
 6238.00    1.86994   1.83420    5.348
 6239.00    1.93762   1.83270    5.161
 6240.00    2.01694   1.83112    4.958
 6241.00    2.09116   1.82995    4.782
 6242.00    2.14675   1.82805    4.658
 6243.00    2.17968   1.82600    4.588
 6244.00    2.19732   1.82255    4.551
 6245.00    2.19739   1.81861    4.551
 6246.00    2.15732   1.81395    4.635
 6247.00    2.07052   1.80912    4.830
 6248.00    1.96657   1.80548    5.085
 6249.00    1.87614   1.80211    5.330
 6250.00    1.80921   1.80126    5.527
 6251.00    1.76525   1.80175    5.665
 6252.00    1.74027   1.80537    5.746
 6253.00    1.72789   1.81017    5.787
 6254.00    1.72122   1.81791    5.810
 6255.00    1.72041   1.82711    5.813
 6256.00    1.73334   1.83746    5.769
 6257.00    1.76145   1.84816    5.677
 6258.00    1.79553   1.85883    5.569
 6259.00    1.82738   1.86925    5.472
 6260.00    1.85455   1.87866    5.392
 6261.00    1.87837   1.88739    5.324
 6262.00    1.90118   1.89462    5.260
 6263.00    1.91981   1.90102    5.209
 6264.00    1.92549   1.90633    5.193
 6265.00    1.91210   1.91081    5.230
 6266.00    1.88130   1.91438    5.315
 6267.00    1.84902   1.91737    5.408
 6268.00    1.83867   1.91926    5.439
 6269.00    1.85565   1.92101    5.389
 6270.00    1.88620   1.92226    5.302
 6271.00    1.91601   1.92354    5.219
 6272.00    1.93492   1.92505    5.168
 6273.00    1.93543   1.92645    5.167
 6274.00    1.91590   1.92871    5.219
 6275.00    1.88856   1.93123    5.295
 6276.00    1.87124   1.93466    5.344
 6277.00    1.86561   1.93843    5.360
 6278.00    1.86299   1.94250    5.368
 6279.00    1.86577   1.94638    5.360
 6280.00    1.88400   1.94989    0.000
 6281.00    1.92031   1.95246    0.000
 6282.00    1.96704   1.95420    0.000
 6283.00    2.00699   1.95445    0.000
 6284.00    2.02700   1.95320    0.000
 6285.00    2.03871   1.95036    0.000
 6286.00    2.06172   1.94616    0.000
 6287.00    2.09364   1.94101    0.000
 6288.00    2.11657   1.93519    0.000
 6289.00    2.11328   1.92914    0.000
 6290.00    2.07741   1.92310    0.000
 6291.00    2.02289   1.91780    0.000
 6292.00    1.96919   1.91340    0.000
 6293.00    1.92251   1.91060    0.000
 6294.00    1.88149   1.90917    0.000
 6295.00    1.84665   1.90952    0.000
 6296.00    1.82522   1.91098    0.000
 6297.00    1.83332   1.91414    0.000
 6298.00    1.87471   1.91768    0.000
 6299.00    1.92309   1.92173    0.000
 6300.00    1.95291   1.92522    0.000
 6301.00    1.96666   1.92822    0.000
 6302.00    1.97528   1.93005    0.000
 6303.00    1.97977   1.93058    0.000
 6304.00    1.97252   1.92988    0.000
 6305.00    1.94208   1.92723    0.000
 6306.00    1.89224   1.92389    0.000
 6307.00    1.85106   1.91991    0.000
 6308.00    1.83865   1.91540    0.000
 6309.00    1.84747   1.91166    0.000
 6310.00    1.86067   1.90910    0.000
 6311.00    1.86579   1.90784    0.000
 6312.00    1.86254   1.90830    0.000
 6313.00    1.86385   1.91030    0.000
 6314.00    1.87935   1.91482    0.000
 6315.00    1.90716   1.92004    0.000
 6316.00    1.93816   1.92712    0.000
 6317.00    1.96008   1.93430    0.000
 6318.00    1.96424   1.94189    0.000
 6319.00    1.94861   1.94956    0.000
 6320.00    1.91668   1.95546    0.000
 6321.00    1.87744   1.96092    5.326
 6322.00    1.84721   1.96449    5.414
 6323.00    1.84447   1.96680    5.422
 6324.00    1.86888   1.96701    5.351
 6325.00    1.89882   1.96521    5.266
 6326.00    1.90999   1.96237    5.236
 6327.00    1.88733   1.95875    5.298
 6328.00    1.84119   1.95542    5.431
 6329.00    1.80196   1.95093    5.550
 6330.00    1.79002   1.94763    5.587
 6331.00    1.80696   1.94463    5.534
 6332.00    1.83703   1.94219    5.444
 6333.00    1.85851   1.94064    5.381
 6334.00    1.87027   1.93950    5.347
 6335.00    1.88801   1.94050    5.297
 6336.00    1.91976   1.94191    5.209
 6337.00    1.96050   1.94431    5.101
 6338.00    1.99361   1.94692    5.016
 6339.00    2.00245   1.95003    4.994
 6340.00    1.99176   1.95264    5.021
 6341.00    1.97989   1.95492    5.051
 6342.00    1.97610   1.95650    5.060
 6343.00    1.97536   1.95663    5.062
 6344.00    1.95808   1.95496    5.107
 6345.00    1.91239   1.95128    5.229
 6346.00    1.86771   1.94647    5.354
 6347.00    1.86271   1.93974    5.369
 6348.00    1.89113   1.93110    5.288
 6349.00    1.92087   1.92138    5.206
 6350.00    1.93151   1.91158    5.177
 6351.00    1.91892   1.90183    5.211
 6352.00    1.89362   1.89279    5.281
 6353.00    1.86832   1.88561    5.352
 6354.00    1.84407   1.88083    5.423
 6355.00    1.82134   1.87886    5.490
 6356.00    1.81259   1.87999    5.517
 6357.00    1.82727   1.88412    5.473
 6358.00    1.85603   1.89151    5.388
 6359.00    1.88139   1.90099    5.315
 6360.00    1.89042   1.91251    5.290
 6361.00    1.88316   1.92530    5.310
 6362.00    1.87712   1.93896    5.327
 6363.00    1.88975   1.95253    5.292
 6364.00    1.92378   1.96527    5.198
 6365.00    1.97042   1.97692    5.075
 6366.00    2.01364   1.98693    4.966
 6367.00    2.03806   1.99517    4.907
 6368.00    2.03546   2.00130    4.913
 6369.00    2.01177   2.00571    4.971
 6370.00    1.98800   2.00859    5.030
 6371.00    1.97956   2.00983    5.052
 6372.00    1.98476   2.01067    5.038
 6373.00    1.99385   2.01048    5.015
 6374.00    1.99707   2.01003    5.007
 6375.00    1.99677   2.00929    5.008
 6376.00    2.00852   2.00862    4.979
 6377.00    2.03521   2.00804    4.913
 6378.00    2.05910   2.00733    4.856
 6379.00    2.06485   2.00656    4.843
 6380.00    2.05017   2.00534    4.878
 6381.00    2.02465   2.00373    4.939
 6382.00    2.00392   2.00158    4.990
 6383.00    1.99045   1.99827    5.024
 6384.00    1.97327   1.99492    5.068
 6385.00    1.95448   1.99125    5.116
 6386.00    1.94981   1.98792    5.129
 6387.00    1.95829   1.98534    5.107
 6388.00    1.96041   1.98270    5.101
 6389.00    1.94501   1.98065    5.141
 6390.00    1.91868   1.97815    5.212
 6391.00    1.90745   1.97766    5.243
 6392.00    1.94068   1.97702    5.153
 6393.00    2.00850   1.97836    4.979
 6394.00    2.07077   1.98073    4.829
 6395.00    2.10671   1.98267    4.747
 6396.00    2.11929   1.98513    4.719
 6397.00    2.11569   1.98680    4.727
 6398.00    2.10134   1.98841    4.759
 6399.00    2.07733   1.98961    4.814
 6400.00    2.04441   1.99025    4.891
 6401.00    2.01168   1.99059    4.971
 6402.00    1.98986   1.99071    5.025
 6403.00    1.97630   1.98963    5.060
 6404.00    1.96122   1.98863    5.099
 6405.00    1.94281   1.98797    5.147
 6406.00    1.92592   1.98732    5.192
 6407.00    1.91599   1.98668    5.219
 6408.00    1.91707   1.98649    5.216
 6409.00    1.93015   1.98605    5.181
 6410.00    1.94950   1.98583    5.130
 6411.00    1.95887   1.98600    5.105
 6412.00    1.94347   1.98645    5.145
 6413.00    1.90555   1.98806    5.248
 6414.00    1.86097   1.99023    5.374
 6415.00    1.83214   1.99383    5.458
 6416.00    1.83792   1.99658    5.441
 6417.00    1.88313   1.99945    5.310
 6418.00    1.95519   2.00239    5.115
 6419.00    2.02360   2.00509    4.942
 6420.00    2.05881   2.00708    4.857
 6421.00    2.05046   2.00772    4.877
 6422.00    2.01019   2.00797    4.975
 6423.00    1.96958   2.00688    5.077
 6424.00    1.95256   2.00741    5.121
 6425.00    1.95489   2.00740    5.115
 6426.00    1.95956   2.00774    5.103
 6427.00    1.95160   2.00815    5.124
 6428.00    1.93093   2.00871    5.179
 6429.00    1.91723   2.00992    5.216
 6430.00    1.92537   2.01108    5.194
 6431.00    1.95041   2.01264    5.127
 6432.00    1.97618   2.01603    5.060
 6433.00    1.98364   2.01991    5.041
 6434.00    1.96519   2.02293    5.089
 6435.00    1.93146   2.02534    5.177
 6436.00    1.90501   2.02678    5.249
 6437.00    1.91086   2.02724    5.233
 6438.00    1.94812   2.02651    5.133
 6439.00    1.98498   2.02413    5.038
 6440.00    1.99709   2.02004    5.007
 6441.00    1.98330   2.01436    5.042
 6442.00    1.95722   2.00793    5.109
 6443.00    1.93699   2.00468    5.163
 6444.00    1.92211   2.00195    5.203
 6445.00    1.89602   2.00031    5.274
 6446.00    1.86665   1.99980    5.357
 6447.00    1.86659   1.99942    5.357
 6448.00    1.90538   2.00069    5.248
 6449.00    1.96127   2.00358    5.099
 6450.00    2.00523   2.00760    4.987
 6451.00    2.01490   2.01138    4.963
 6452.00    1.99134   2.01491    5.022
 6453.00    1.95339   2.01779    5.119
 6454.00    1.91116   2.01916    5.232
 6455.00    1.86659   2.02033    5.357
 6456.00    1.83188   2.02349    5.459
 6457.00    1.82511   2.02557    5.479
 6458.00    1.85026   2.02788    5.405
 6459.00    1.89778   2.02955    5.269
 6460.00    1.95538   2.03190    5.114
 6461.00    2.01170   2.03333    4.971
 6462.00    2.05860   2.03495    4.858
 6463.00    2.09148   2.03631    4.781
 6464.00    2.10897   2.03701    4.742
 6465.00    2.11195   2.03883    4.735
 6466.00    2.10214   2.03876    4.757
 6467.00    2.08481   2.03852    4.797
 6468.00    2.07274   2.03735    4.825
 6469.00    2.07602   2.03646    4.817
 6470.00    2.08712   2.03402    4.791
 6471.00    2.08974   2.03093    4.785
 6472.00    2.07371   2.02760    4.822
 6473.00    2.04306   2.02296    4.895
 6474.00    2.02136   2.01781    4.947
 6475.00    2.02555   2.01245    4.937
 6476.00    2.03746   2.00772    4.908
 6477.00    2.03475   2.00208    4.915
 6478.00    2.02528   1.99600    4.938
 6479.00    2.02498   1.98849    4.938
 6480.00    2.03253   1.98014    4.920
 6481.00    2.03317   1.96980    4.918
 6482.00    2.00673   1.95774    4.983
 6483.00    1.94897   1.94447    5.131
 6484.00    1.88586   1.92984    5.303
 6485.00    1.84334   1.91486    5.425
 6486.00    1.82358   1.89868    5.484
 6487.00    1.81653   1.88471    5.505
 6488.00    1.81131   1.87379    5.521
 6489.00    1.80546   1.86552    5.539
 6490.00    1.80821   1.86259    5.530
 6491.00    1.82273   1.86199    5.486
 6492.00    1.83713   1.86696    5.443
 6493.00    1.84055   1.87510    5.433
 6494.00    1.83256   1.88645    5.457
 6495.00    1.81968   1.90052    5.495
 6496.00    1.81243   1.91552    5.517
 6497.00    1.82183   1.93144    5.489
 6498.00    1.85524   1.94685    5.390
 6499.00    1.90529   1.96155    5.249
 6500.00    1.95041   1.97416    5.127
 6501.00    1.97974   1.98517    5.051
 6502.00    1.99848   1.99413    5.004
 6503.00    2.00473   2.00135    4.988
 6504.00    1.98729   2.00647    5.032
 6505.00    1.95401   2.01020    5.118
 6506.00    1.93273   2.01228    5.174
 6507.00    1.93679   2.01328    5.163
 6508.00    1.95783   2.01347    5.108
 6509.00    1.98264   2.01345    5.044
 6510.00    2.00200   2.01317    4.995
 6511.00    2.01931   2.01289    4.952
 6512.00    2.04466   2.01402    4.891
 6513.00    2.07176   2.01472    4.827
 6514.00    2.08209   2.01669    4.803
 6515.00    2.07211   2.01796    4.826
 6516.00    2.05280   2.01976    4.871
 6517.00    2.03202   2.02142    4.921
 6518.00    2.01338   2.02260    4.967
 6519.00    2.00334   2.02359    4.992
 6520.00    2.00803   2.02441    4.980
 6521.00    2.02372   2.02528    4.941
 6522.00    2.04056   2.02611    4.901
 6523.00    2.05319   2.02734    4.870
 6524.00    2.05725   2.02779    4.861
 6525.00    2.04029   2.02865    4.901
 6526.00    1.99522   2.02931    5.012
 6527.00    1.94374   2.03079    5.145
 6528.00    1.91894   2.03208    0.000
 6529.00    1.93309   2.03311    0.000
 6530.00    1.97600   2.03357    0.000
 6531.00    2.02061   2.03360    0.000
 6532.00    2.04073   2.03299    0.000
 6533.00    2.03280   2.03121    0.000
 6534.00    2.00977   2.02831    0.000
 6535.00    1.98954   2.02386    0.000
 6536.00    1.98459   2.01829    0.000
 6537.00    1.99231   2.01218    0.000
 6538.00    2.00247   2.00447    0.000
 6539.00    2.00667   1.99714    0.000
 6540.00    2.00293   1.98878    0.000
 6541.00    1.99844   1.98063    0.000
 6542.00    1.99972   1.97260    0.000
 6543.00    2.00410   1.96328    0.000
 6544.00    2.00562   1.95363    0.000
 6545.00    2.00086   1.94194    0.000
 6546.00    1.99033   1.92947    0.000
 6547.00    1.97860   1.91650    0.000
 6548.00    1.96997   1.90229    0.000
 6549.00    1.96424   1.88772    0.000
 6550.00    1.95073   1.87230    0.000
 6551.00    1.90953   1.85779    0.000
 6552.00    1.84467   1.84272    0.000
 6553.00    1.79634   1.82886    0.000
 6554.00    1.78891   1.81574    0.000
 6555.00    1.80613   1.80437    0.000
 6556.00    1.82595   1.79813    0.000
 6557.00    1.84024   1.79446    0.000
 6558.00    1.85288   1.79858    0.000
 6559.00    1.87497   1.80639    0.000
 6560.00    1.91000   1.81563    0.000
 6561.00    1.94920   1.82683    0.000
 6562.00    1.98204   1.83878    0.000
 6563.00    2.00211   1.85160    0.000
 6564.00    2.01155   1.86405    0.000
 6565.00    2.01809   1.87688    0.000
 6566.00    2.01836   1.88855    0.000
 6567.00    1.99878   1.89979    0.000
 6568.00    1.95996   1.91133    0.000
 6569.00    1.91956   1.92083    0.000
 6570.00    1.89425   1.93064    0.000
 6571.00    1.89193   1.93923    0.000
 6572.00    1.90715   1.94667    0.000
 6573.00    1.92750   1.95322    0.000
 6574.00    1.95426   1.95911    0.000
 6575.00    1.99870   1.96417    0.000
 6576.00    2.05862   1.96828    0.000
 6577.00    2.11816   1.97230    0.000
 6578.00    2.16172   1.97416    0.000
 6579.00    2.18046   1.97562    0.000
 6580.00    2.17838   1.97555    0.000
 6581.00    2.16405   1.97413    0.000
 6582.00    2.13188   1.97268    0.000
 6583.00    2.07277   1.96907    0.000
 6584.00    2.00020   1.96565    0.000
 6585.00    1.94081   1.96131    0.000
 6586.00    1.90958   1.95761    0.000
 6587.00    1.90566   1.95408    0.000
 6588.00    1.91355   1.95243    0.000
 6589.00    1.91733   1.95320    0.000
 6590.00    1.92068   1.95354    0.000
 6591.00    1.93472   1.95496    0.000
 6592.00    1.95759   1.95630    0.000
 6593.00    1.98241   1.95836    0.000
 6594.00    2.01030   1.96080    0.000
 6595.00    2.04080   1.96305    0.000
 6596.00    2.05953   1.96445    0.000
 6597.00    2.05308   1.96523    0.000
 6598.00    2.02658   1.96610    0.000
 6599.00    1.99678   1.96585    0.000
 6600.00    1.98177   1.96626    0.000
 6601.00    1.98720   1.96632    0.000
 6602.00    1.99642   1.96736    0.000
 6603.00    1.99398   1.96878    0.000
 6604.00    1.98565   1.97180    0.000
 6605.00    1.98078   1.97637    0.000
 6606.00    1.97741   1.98021    0.000
 6607.00    1.97289   1.98436    0.000
 6608.00    1.97174   1.98757    0.000
 6609.00    1.97688   1.99194    5.058
 6610.00    1.98412   1.99502    5.040
 6611.00    1.99004   1.99693    5.025
 6612.00    1.99662   1.99778    5.008
 6613.00    2.00519   1.99778    4.987
 6614.00    2.01256   1.99690    4.969
 6615.00    2.01179   1.99418    4.971
 6616.00    1.99461   1.99034    5.014
 6617.00    1.96128   1.98486    5.099
 6618.00    1.92460   1.97936    5.196
 6619.00    1.90352   1.97284    5.253
 6620.00    1.91557   1.96822    5.220
 6621.00    1.95796   1.96309    5.107
 6622.00    2.00464   1.95788    4.988
 6623.00    2.03062   1.95328    4.925
 6624.00    2.02499   1.94871    4.938
 6625.00    1.99964   1.94520    5.001
 6626.00    1.98247   1.94219    5.044
 6627.00    1.98214   1.94003    5.045
 6628.00    1.98378   1.93827    5.041
 6629.00    1.97852   1.93902    5.054
 6630.00    1.96937   1.94056    5.078
 6631.00    1.95713   1.94184    5.110
 6632.00    1.94006   1.94319    5.154
 6633.00    1.92571   1.94420    5.193
 6634.00    1.92747   1.94548    5.188
 6635.00    1.94625   1.94735    5.138
 6636.00    1.97033   1.94917    5.075
 6637.00    1.98788   1.94926    5.030
 6638.00    1.99145   1.95012    5.021
 6639.00    1.98084   1.95219    5.048
 6640.00    1.96186   1.95347    5.097
 6641.00    1.94218   1.95390    5.149
 6642.00    1.92834   1.95395    5.186
 6643.00    1.92165   1.95461    5.204
 6644.00    1.92005   1.95478    5.208
 6645.00    1.92277   1.95417    5.201
 6646.00    1.92837   1.95271    5.186
 6647.00    1.93015   1.95144    5.181
 6648.00    1.92181   1.94913    5.203
 6649.00    1.90704   1.94699    5.244
 6650.00    1.89140   1.94388    5.287
 6651.00    1.86897   1.93984    5.351
 6652.00    1.83408   1.93651    5.452
 6653.00    1.79872   1.93237    5.560
 6654.00    1.77811   1.92861    5.624
 6655.00    1.77022   1.92469    5.649
 6656.00    1.76830   1.92230    5.655
 6657.00    1.77754   1.91921    5.626
 6658.00    1.80354   1.91788    5.545
 6659.00    1.83841   1.91886    5.439
 6660.00    1.87136   1.91934    5.344
 6661.00    1.90053   1.92099    5.262
 6662.00    1.92872   1.92232    5.185
 6663.00    1.95797   1.92416    5.107
 6664.00    1.98690   1.92636    5.033
 6665.00    2.00915   1.92793    4.977
 6666.00    2.01665   1.92851    4.959
 6667.00    2.00271   1.92859    4.993
 6668.00    1.96351   1.92846    5.093
 6669.00    1.90060   1.92791    5.261
 6670.00    1.83242   1.92656    5.457
 6671.00    1.79649   1.92481    5.566
 6672.00    1.81160   1.92239    5.520
 6673.00    1.85657   1.92267    5.386
 6674.00    1.89569   1.92483    5.275
 6675.00    1.90004   1.92550    5.263
 6676.00    1.87389   1.92756    5.337
 6677.00    1.85800   1.92972    5.382
 6678.00    1.87106   1.93236    5.345
 6679.00    1.88930   1.93485    5.293
 6680.00    1.89942   1.93648    5.265
 6681.00    1.91613   1.93781    5.219
 6682.00    1.94151   1.93838    5.151
 6683.00    1.95413   1.93911    5.117
 6684.00    1.94293   1.93874    5.147
 6685.00    1.91879   1.93751    5.212
 6686.00    1.90270   1.93603    5.256
 6687.00    1.91240   1.93406    5.229
 6688.00    1.93345   1.93172    5.172
 6689.00    1.92844   1.92919    5.186
 6690.00    1.90038   1.92593    5.262
 6691.00    1.89100   1.92396    5.288
 6692.00    1.91067   1.92265    5.234
 6693.00    1.93208   1.92174    5.176
 6694.00    1.93528   1.92184    5.167
 6695.00    1.91982   1.92090    5.209
 6696.00    1.90116   1.92029    0.000
 6697.00    1.89887   1.91889    0.000
 6698.00    1.91146   1.91714    0.000
 6699.00    1.92153   1.91556    0.000
 6700.00    1.92124   1.91362    0.000
 6701.00    1.91343   1.91145    0.000
 6702.00    1.90151   1.90773    0.000
 6703.00    1.88738   1.90431    0.000
 6704.00    1.87155   1.89941    0.000
 6705.00    1.85416   1.89457    0.000
 6706.00    1.83671   1.89069    0.000
 6707.00    1.82206   1.88582    0.000
 6708.00    1.81384   1.88253    0.000
 6709.00    1.81397   1.87926    0.000
 6710.00    1.81949   1.87731    0.000
 6711.00    1.82787   1.87622    0.000
 6712.00    1.84435   1.87644    0.000
 6713.00    1.86691   1.87925    0.000
 6714.00    1.86689   1.88206    0.000
 6715.00    1.82230   1.88616    0.000
 6716.00    1.75963   1.88975    0.000
 6717.00    1.71975   1.89441    0.000
 6718.00    1.71366   1.89904    0.000
 6719.00    1.73488   1.90298    0.000
 6720.00    1.77795   1.90629    0.000
 6721.00    1.83457   1.90960    0.000
 6722.00    1.88877   1.91293    0.000
 6723.00    1.92777   1.91505    0.000
 6724.00    1.95166   1.91661    0.000
 6725.00    1.96656   1.91681    0.000
 6726.00    1.97763   1.91681    0.000
 6727.00    1.98617   1.91564    0.000
 6728.00    1.98852   1.91427    0.000
 6729.00    1.98264   1.91215    0.000
 6730.00    1.97244   1.91000    0.000
 6731.00    1.96295   1.90756    0.000
 6732.00    1.95616   1.90428    0.000
 6733.00    1.94725   1.90111    0.000
 6734.00    1.92574   1.89812    0.000
 6735.00    1.89523   1.89547    0.000
 6736.00    1.87919   1.89290    0.000
 6737.00    1.88620   1.88992    0.000
 6738.00    1.89680   1.88836    0.000
 6739.00    1.89725   1.88721    0.000
 6740.00    1.89289   1.88549    0.000
 6741.00    1.88601   1.88549    0.000
 6742.00    1.86904   1.88517    0.000
 6743.00    1.84358   1.88682    0.000
 6744.00    1.82456   1.88837    0.000
 6745.00    1.82240   1.89147    0.000
 6746.00    1.83517   1.89519    0.000
 6747.00    1.84804   1.89841    0.000
 6748.00    1.83910   1.90405    0.000
 6749.00    1.79942   1.90811    0.000
 6750.00    1.73929   1.91330    0.000
 6751.00    1.68463   1.91818    0.000
 6752.00    1.66537   1.92234    0.000
 6753.00    1.68578   1.92560    5.932
 6754.00    1.72764   1.92758    5.788
 6755.00    1.78448   1.92917    5.604
 6756.00    1.86260   1.92922    5.369
 6757.00    1.95833   1.92929    5.106
 6758.00    2.05423   1.92832    4.868
 6759.00    2.12480   1.92736    4.706
 6760.00    2.14883   1.92632    4.654
 6761.00    2.13280   1.92533    4.689
 6762.00    2.10238   1.92482    4.757
 6763.00    2.07458   1.92550    4.820
 6764.00    2.05481   1.92646    4.867
 6765.00    2.04258   1.92771    4.896
 6766.00    2.03249   1.93017    4.920
 6767.00    2.01437   1.93247    4.964
 6768.00    1.98391   1.93506    5.041
 6769.00    1.95860   1.93646    5.106
 6770.00    1.95617   1.93731    5.112
 6771.00    1.95957   1.93674    5.103
 6772.00    1.94640   1.93571    5.138
 6773.00    1.93584   1.93416    5.166
 6774.00    1.95167   1.93114    5.124
 6775.00    1.96838   1.92854    5.080
 6776.00    1.95576   1.92429    5.113
 6777.00    1.93842   1.92012    5.159
 6778.00    1.95145   1.91602    5.124
 6779.00    1.98417   1.91288    5.040
 6780.00    2.00833   1.91038    4.979
 6781.00    2.01408   1.90865    4.965
 6782.00    2.00839   1.90898    4.979
 6783.00    2.00837   1.90824    4.979
 6784.00    2.02573   1.90899    4.936
 6785.00    2.05337   1.90973    4.870
 6786.00    2.06887   1.91066    4.834
 6787.00    2.04292   1.91206    4.895
 6788.00    1.97678   1.91339    5.059
 6789.00    1.92266   1.91579    5.201
 6790.00    1.91745   1.91686    5.215
 6791.00    1.93976   1.91902    5.155
 6792.00    1.96118   1.92093    5.099
 6793.00    1.97998   1.92224    5.051
 6794.00    1.99775   1.92384    5.006
 6795.00    2.00545   1.92501    4.986
 6796.00    1.99653   1.92622    5.009
 6797.00    1.97520   1.92653    5.063
 6798.00    1.95605   1.92706    5.112
 6799.00    1.95821   1.92759    5.107
 6800.00    1.97819   1.92754    5.055
 6801.00    1.98535   1.92731    5.037
 6802.00    1.96493   1.92710    5.089
 6803.00    1.93298   1.92722    5.173
 6804.00    1.91104   1.92729    5.233
 6805.00    1.91317   1.92812    5.227
 6806.00    1.94025   1.92862    5.154
 6807.00    1.98149   1.92916    5.047
 6808.00    2.02739   1.93047    4.932
 6809.00    2.07238   1.93144    4.825
 6810.00    2.10665   1.93362    4.747
 6811.00    2.11754   1.93575    4.722
 6812.00    2.10279   1.93824    4.756
 6813.00    2.07148   1.94052    4.827
 6814.00    2.03377   1.94199    4.917
 6815.00    1.99844   1.94347    5.004
 6816.00    1.97461   1.94476    5.064
 6817.00    1.96933   1.94631    5.078
 6818.00    1.98024   1.94765    5.050
 6819.00    1.99797   1.94849    5.005
 6820.00    2.01599   1.94861    4.960
 6821.00    2.02979   1.94813    4.927
 6822.00    2.03004   1.94693    4.926
 6823.00    2.00819   1.94566    4.980
 6824.00    1.97049   1.94415    5.075
 6825.00    1.93104   1.94256    5.179
 6826.00    1.89420   1.94020    5.279
 6827.00    1.86003   1.93709    5.376
 6828.00    1.83945   1.93328    5.436
 6829.00    1.84639   1.92923    5.416
 6830.00    1.88082   1.92537    5.317
 6831.00    1.92568   1.92156    5.193
 6832.00    1.94796   1.91850    5.134
 6833.00    1.92704   1.91514    5.189
 6834.00    1.89124   1.91284    5.288
 6835.00    1.88184   1.91086    5.314
 6836.00    1.90096   1.90970    5.260
 6837.00    1.92206   1.91011    5.203
 6838.00    1.91315   1.91118    5.227
 6839.00    1.87040   1.91324    5.346
 6840.00    1.84688   1.91506    5.415
 6841.00    1.88222   1.91654    5.313
 6842.00    1.93299   1.91704    5.173
 6843.00    1.94391   1.91714    5.144
 6844.00    1.92013   1.91657    5.208
 6845.00    1.89365   1.91560    5.281
 6846.00    1.88584   1.91441    5.303
 6847.00    1.89511   1.91219    5.277
 6848.00    1.89417   1.90947    5.279
 6849.00    1.87076   1.90569    5.345
 6850.00    1.85364   1.90284    5.395
 6851.00    1.86747   1.90025    5.355
 6852.00    1.90195   1.89853    5.258
 6853.00    1.93413   1.89833    5.170
 6854.00    1.94641   1.89685    5.138
 6855.00    1.93548   1.89581    5.167
 6856.00    1.91466   1.89519    5.223
 6857.00    1.89831   1.89517    5.268
 6858.00    1.89177   1.89606    5.286
 6859.00    1.88758   1.89739    5.298
 6860.00    1.86901   1.89887    5.350
 6861.00    1.83608   1.89892    5.446
 6862.00    1.81313   1.89884    5.515
 6863.00    1.82353   1.89971    5.484
 6864.00    1.87501   1.90081    5.333
 6865.00    1.94997   1.90249    5.128
 6866.00    2.01018   1.90477    4.975
 6867.00    2.03044   1.90675    4.925
 6868.00    2.00933   1.90798    4.977
 6869.00    1.95788   1.90955    5.108
 6870.00    1.89491   1.91166    5.277
 6871.00    1.84603   1.91407    5.417
 6872.00    1.83538   1.91665    5.448
 6873.00    1.86177   1.91972    5.371
 6874.00    1.89949   1.92316    5.265
 6875.00    1.92260   1.92554    5.201
 6876.00    1.91711   1.92860    5.216
 6877.00    1.89318   1.93216    5.282
 6878.00    1.87669   1.93624    5.329
 6879.00    1.88055   1.94054    5.318
 6880.00    1.90220   1.94533    5.257
 6881.00    1.93475   1.95029    5.169
 6882.00    1.96987   1.95396    5.076
 6883.00    1.99826   1.95807    5.004
 6884.00    2.01254   1.96202    4.969
 6885.00    2.01252   1.96559    4.969
 6886.00    2.00197   1.96842    4.995
 6887.00    1.98094   1.97115    5.048
 6888.00    1.94847   1.97339    5.132
 6889.00    1.90958   1.97443    5.237
 6890.00    1.87380   1.97605    5.337
 6891.00    1.85062   1.97784    5.404
 6892.00    1.84701   1.97914    5.414
 6893.00    1.86470   1.98031    5.363
 6894.00    1.89959   1.98158    5.264
 6895.00    1.94146   1.98267    5.151
 6896.00    1.97405   1.98377    5.066
 6897.00    1.97688   1.98466    5.058
 6898.00    1.94632   1.98593    5.138
 6899.00    1.91702   1.98633    5.216
 6900.00    1.92025   1.98595    5.208
 6901.00    1.93883   1.98542    5.158
 6902.00    1.94639   1.98454    5.138
 6903.00    1.94982   1.98340    5.129
 6904.00    1.96199   1.98194    5.097
 6905.00    1.97371   1.98071    5.067
 6906.00    1.97184   1.97834    5.071
 6907.00    1.95680   1.97661    5.110
 6908.00    1.93520   1.97440    5.167
 6909.00    1.91288   1.97318    5.228
 6910.00    1.89656   1.97200    5.273
 6911.00    1.89445   1.97033    5.279
 6912.00    1.90855   1.97010    5.240
 6913.00    1.93060   1.96757    5.180
 6914.00    1.95204   1.96653    5.123
 6915.00    1.97019   1.96535    5.076
 6916.00    1.98428   1.96467    5.040
 6917.00    1.99325   1.96439    5.017
 6918.00    1.99817   1.96266    5.005
 6919.00    2.00089   1.96211    4.998
 6920.00    1.98912   1.96031    5.027
 6921.00    1.93912   1.95998    5.157
 6922.00    1.86689   1.95992    5.356
 6923.00    1.83372   1.96108    5.453
 6924.00    1.85796   1.96295    5.382
 6925.00    1.89351   1.96360    5.281
 6926.00    1.91006   1.96482    5.235
 6927.00    1.91623   1.96530    5.219
 6928.00    1.91440   1.96707    5.224
 6929.00    1.89181   1.96852    5.286
 6930.00    1.85390   1.97024    5.394
 6931.00    1.82633   1.97172    5.475
 6932.00    1.82069   1.97149    5.492
 6933.00    1.82881   1.97097    5.468
 6934.00    1.84151   1.96970    5.430
 6935.00    1.85170   1.96954    5.400
 6936.00    1.84682   1.96958    5.415
 6937.00    1.81846   1.96876    5.499
 6938.00    1.79246   1.96767    5.579
 6939.00    1.81182   1.96602    5.519
 6940.00    1.87631   1.96427    5.330
 6941.00    1.94500   1.96339    5.141
 6942.00    1.97711   1.96360    5.058
 6943.00    1.95615   1.96464    5.112
 6944.00    1.91844   1.96563    5.213
 6945.00    1.92033   1.96673    5.207
 6946.00    1.96384   1.96864    5.092
 6947.00    2.00904   1.96991    4.978
 6948.00    2.02347   1.97230    4.942
 6949.00    1.99957   1.97576    5.001
 6950.00    1.96681   1.97949    5.084
 6951.00    1.96282   1.98367    5.095
 6952.00    1.98647   1.98762    5.034
 6953.00    2.01150   1.99173    4.971
 6954.00    2.01722   1.99487    4.957
 6955.00    1.99437   1.99764    5.014
 6956.00    1.94692   2.00103    5.136
 6957.00    1.88955   2.00439    5.292
 6958.00    1.84341   2.00659    5.425
 6959.00    1.82457   2.00738    5.481
 6960.00    1.83209   2.00656    5.458
 6961.00    1.85956   2.00551    5.378
 6962.00    1.90739   2.00443    5.243
 6963.00    1.96607   2.00212    5.086
 6964.00    2.00166   1.99925    4.996
 6965.00    1.99292   1.99485    5.018
 6966.00    1.96344   1.98989    5.093
 6967.00    1.94536   1.98337    5.140
 6968.00    1.94658   1.97768    5.137
 6969.00    1.96160   1.97599    5.098
 6970.00    1.98287   1.97355    5.043
 6971.00    2.00306   1.97134    4.992
 6972.00    2.01565   1.97049    4.961
 6973.00    2.01013   1.97077    4.975
 6974.00    1.97314   1.97243    5.068
 6975.00    1.91775   1.97520    5.214
 6976.00    1.89093   1.98131    5.288
 6977.00    1.90309   1.98763    5.255
 6978.00    1.90059   1.99203    5.262
 6979.00    1.85272   1.99699    5.397
 6980.00    1.79120   2.00193    5.583
 6981.00    1.75514   2.00636    5.698
 6982.00    1.76047   2.01018    5.680
 6983.00    1.79795   2.01233    5.562
 6984.00    1.84183   2.01396    5.429
 6985.00    1.88831   2.01453    5.296
 6986.00    1.95815   2.01429    5.107
 6987.00    2.03689   2.01447    4.909
 6988.00    2.07205   2.01256    4.826
 6989.00    2.05640   2.00985    4.863
 6990.00    2.03575   2.00736    4.912
 6991.00    2.02246   2.00497    4.944
 6992.00    1.98774   2.00326    5.031
 6993.00    1.93834   2.00009    5.159
 6994.00    1.91603   1.99721    5.219
 6995.00    1.91901   1.99411    5.211
 6996.00    1.90618   1.99129    5.246
 6997.00    1.87597   1.99037    5.331
 6998.00    1.86248   1.98984    5.369
 6999.00    1.86719   1.98898    5.356
 7000.00    1.85996   1.98625    5.376
 7001.00    1.82536   1.98473   -2.000
 7002.00    1.77282   1.98461   -2.000
 7003.00    1.73262   1.98456   -2.000
 7004.00    1.72835   1.98387   -2.000
 7005.00    1.72476   1.98143   -2.000
 7006.00    1.67870   1.98017   -2.000
 7007.00    1.65275   1.97945   -2.000
 7008.00    1.73570   1.97935   -2.000
 7009.00    1.86757   1.98032   -2.000
 7010.00    1.92333   1.98077   -2.000
 7011.00    1.89922   1.98052   -2.000
 7012.00    1.86487   1.97894   -2.000
 7013.00    1.84406   1.97925   -2.000
 7014.00    1.82656   1.98287   -2.000
 7015.00    1.81130   1.98620   -2.000
 7016.00    1.80858   1.98823   -2.000
 7017.00    1.83372   1.99022   -2.000
 7018.00    1.88790   1.99251   -2.000
 7019.00    1.93858   1.99446   -2.000
 7020.00    1.95484   1.99713   -2.000
 7021.00    1.94812   2.00061   -2.000
 7022.00    1.94333   2.00447   -2.000
 7023.00    1.94449   2.00782   -2.000
 7024.00    1.94836   2.01071   -2.000
 7025.00    1.95969   2.01514   -2.000
 7026.00    1.97675   2.01900   -2.000
 7027.00    1.97921   2.02156   -2.000
 7028.00    1.95119   2.02504   -2.000
 7029.00    1.90105   2.02920   -2.000
 7030.00    1.85341   2.03484   -2.000
 7031.00    1.83689   2.04051   -2.000
 7032.00    1.84804   2.04620   -2.000
 7033.00    1.83726   2.05125   -2.000
 7034.00    1.79270   2.05286   -2.000
 7035.00    1.78289   2.05673   -2.000
 7036.00    1.85205   2.06199   -2.000
 7037.00    1.96075   2.06583   -2.000
 7038.00    2.04474   2.06747   -2.000
 7039.00    2.05784   2.06548   -2.000
 7040.00    2.00198   2.06275   -2.000
 7041.00    1.93170   2.05615   -2.000
 7042.00    1.89775   2.04914   -2.000
 7043.00    1.90866   2.04126   -2.000
 7044.00    1.89140   2.03019   -2.000
 7045.00    1.73041   2.01920   -2.000
 7046.00    1.50999   2.00576   -2.000
 7047.00    1.50761   1.99274   -2.000
 7048.00    1.74363   1.97866   -2.000
 7049.00    1.92405   1.96333   -2.000
 7050.00    1.92019   1.95089   -2.000
 7051.00    1.86525   1.93908   -2.000
 7052.00    1.84878   1.92910   -2.000
 7053.00    1.84775   1.92118   -2.000
 7054.00    1.85926   1.91354   -2.000
 7055.00    1.91604   1.90663   -2.000
 7056.00    2.00135   1.90028   -2.000
 7057.00    2.05313   1.89614   -2.000
 7058.00    2.04594   1.89492   -2.000
 7059.00    1.99833   1.89443   -2.000
 7060.00    1.93182   1.89563   -2.000
 7061.00    1.86536   1.89775   -2.000
 7062.00    1.82756   1.89958   -2.000
 7063.00    1.83805   1.90185   -2.000
 7064.00    1.86246   1.90475   -2.000
 7065.00    1.84868   1.90907   -2.000
 7066.00    1.81798   1.91434   -2.000
 7067.00    1.83312   1.91876   -2.000
 7068.00    1.90362   1.92019   -2.000
 7069.00    1.99062   1.92099   -2.000
 7070.00    2.04827   1.92181   -2.000
 7071.00    2.05010   1.92032   -2.000
 7072.00    2.01761   1.91746   -2.000
 7073.00    1.98474   1.91181   -2.000
 7074.00    1.93996   1.90478   -2.000
 7075.00    1.86671   1.89715   -2.000
 7076.00    1.80840   1.88792   -2.000
 7077.00    1.81406   1.87940   -2.000
 7078.00    1.85846   1.86940   -2.000
 7079.00    1.87700   1.85758   -2.000
 7080.00    1.82262   1.84714   -2.000
 7081.00    1.70316   1.83752   -2.000
 7082.00    1.60747   1.83122   -2.000
 7083.00    1.60883   1.82638   -2.000
 7084.00    1.66789   1.81958   -2.000
 7085.00    1.70802   1.81607   -2.000
 7086.00    1.69767   1.81292   -2.000
 7087.00    1.64893   1.81144   -2.000
 7088.00    1.60481   1.81344   -2.000
 7089.00    1.59761   1.81363   -2.000
 7090.00    1.61880   1.81596   -2.000
 7091.00    1.65327   1.81728   -2.000
 7092.00    1.70433   1.81861   -2.000
 7093.00    1.76584   1.82160   -2.000
 7094.00    1.80552   1.82325   -2.000
 7095.00    1.79961   1.82577   -2.000
 7096.00    1.75742   1.82707   -2.000
 7097.00    1.72220   1.82758   -2.000
 7098.00    1.75581   1.82767   -2.000
 7099.00    1.85162   1.82716   -2.000
 7100.00    1.90987   1.82810   -2.000
 7101.00    1.87792   1.82855   -2.000
 7102.00    1.80677   1.82767   -2.000
 7103.00    1.74635   1.82657   -2.000
 7104.00    1.70069   1.82617   -2.000
 7105.00    1.67301   1.82749   -2.000
 7106.00    1.67810   1.82682   -2.000
 7107.00    1.70138   1.82593   -2.000
 7108.00    1.69893   1.82586   -2.000
 7109.00    1.66819   1.82540   -2.000
 7110.00    1.65623   1.82547   -2.000
 7111.00    1.68503   1.82308   -2.000
 7112.00    1.73267   1.82185   -2.000
 7113.00    1.76615   1.81969   -2.000
 7114.00    1.75786   1.81570   -2.000
 7115.00    1.69965   1.81293   -2.000
 7116.00    1.61489   1.80813   -2.000
 7117.00    1.57874   1.80425   -2.000
 7118.00    1.66106   1.79968   -2.000
 7119.00    1.76327   1.79528   -2.000
 7120.00    1.71072   1.79284   -2.000
 7121.00    1.58669   1.78870   -2.000
 7122.00    1.62721   1.78502   -2.000
 7123.00    1.78736   1.78366   -2.000
 7124.00    1.83069   1.78386   -2.000
 7125.00    1.73684   1.78519   -2.000
 7126.00    1.66438   1.78564   -2.000
 7127.00    1.69738   1.78596   -2.000
 7128.00    1.81143   1.78949   -2.000
 7129.00    1.91119   1.79266   -2.000
 7130.00    1.91318   1.79584   -2.000
 7131.00    1.86967   1.79867   -2.000
 7132.00    1.88073   1.80050   -2.000
 7133.00    1.92425   1.80386   -2.000
 7134.00    1.91737   1.80498   -2.000
 7135.00    1.84605   1.80563   -2.000
 7136.00    1.75085   1.80657   -2.000
 7137.00    1.67944   1.80805   -2.000
 7138.00    1.66462   1.80960   -2.000
 7139.00    1.70447   1.80800   -2.000
 7140.00    1.76300   1.80885   -2.000
 7141.00    1.77873   1.81101   -2.000
 7142.00    1.72545   1.81263   -2.000
 7143.00    1.66980   1.81556   -2.000
 7144.00    1.67692   1.81585   -2.000
 7145.00    1.71464   1.81829   -2.000
 7146.00    1.73347   1.82196   -2.000
 7147.00    1.74570   1.82379   -2.000
 7148.00    1.76458   1.82806   -2.000
 7149.00    1.75167   1.82989   -2.000
 7150.00    1.68540   1.83056   -2.000
 7151.00    1.61377   1.83106   -2.000
 7152.00    1.59426   1.83129   -2.000
 7153.00    1.64376   1.83475   -2.000
 7154.00    1.73508   1.83506   -2.000
 7155.00    1.80848   1.83339   -2.000
 7156.00    1.84860   1.83267   -2.000
 7157.00    1.91438   1.83415   -2.000
 7158.00    2.00815   1.83843   -2.000
 7159.00    2.02676   1.84101   -2.000
 7160.00    1.95475   1.84154   -2.000
 7161.00    1.93089   1.84229   -2.000
 7162.00    2.00342   1.84607   -2.000
 7163.00    2.04437   1.85142   -2.000
 7164.00    1.98324   1.85566   -2.000
 7165.00    1.89575   1.85699   -2.000
 7166.00    1.86669   1.85690   -2.000
 7167.00    1.91661   1.85753   -2.000
 7168.00    1.97139   1.85880   -2.000
 7169.00    1.90229   1.86092   -2.000
 7170.00    1.72197   1.85954   -2.000
 7171.00    1.59372   1.85569   -2.000
 7172.00    1.58638   1.85167   -2.000
 7173.00    1.63411   1.84861   -2.000
 7174.00    1.70574   1.84938   -2.000
 7175.00    1.82373   1.84739   -2.000
 7176.00    1.94306   1.84219   -2.000
 7177.00    1.96408   1.83807   -2.000
 7178.00    1.87759   1.83388   -2.000
 7179.00    1.76905   1.83337   -2.000
 7180.00    1.71648   1.83302   -2.000
 7181.00    1.74905   1.83080   -2.000
 7182.00    1.81762   1.83068   -2.000
 7183.00    1.83834   1.82812   -2.000
 7184.00    1.80525   1.82738   -2.000
 7185.00    1.77021   1.82931   -2.000
 7186.00    1.74596   1.83106   -2.000
 7187.00    1.71413   1.83442   -2.000
 7188.00    1.68127   1.83423   -2.000
 7189.00    1.66082   1.83544   -2.000
 7190.00    1.62235   1.83866   -2.000
 7191.00    1.52969   1.84103   -2.000
 7192.00    1.41865   1.84370   -2.000
 7193.00    1.36328   1.84240   -2.000
 7194.00    1.40278   1.84380   -2.000
 7195.00    1.53807   1.84650   -2.000
 7196.00    1.74337   1.84712   -2.000
 7197.00    1.95447   1.84797   -2.000
 7198.00    2.05696   1.84467   -2.000
 7199.00    1.98114   1.84495   -2.000
 7200.00    1.81409   1.84748   -2.000
 7201.00    1.67922   1.84883   -2.000
 7202.00    1.58757   1.85177   -2.000
 7203.00    1.53423   1.85081   -2.000
 7204.00    1.60333   1.85215   -2.000
 7205.00    1.76812   1.85552   -2.000
 7206.00    1.72381   1.85907   -2.000
 7207.00    1.35457   1.86450   -2.000
 7208.00    1.11532   1.86794   -2.000
 7209.00    1.34060   1.87183   -2.000
 7210.00    1.68449   1.87522   -2.000
 7211.00    1.76203   1.87950   -2.000
 7212.00    1.66258   1.88434   -2.000
 7213.00    1.58346   1.88921   -2.000
 7214.00    1.54126   1.89413   -2.000
 7215.00    1.50344   1.89730   -2.000
 7216.00    1.48715   1.90282   -2.000
 7217.00    1.50958   1.90755   -2.000
 7218.00    1.55722   1.91282   -2.000
