###################################################################
## OUTPUT of StarlightChains_v04.for    [Cid@UFSC - 01/Apr/2007] ##
###################################################################

## Some input info
2006lv.txt                               [arq_obs]
Base.CB07.vall.4m                        [arq_base]
Masks.EmLines.NEW.gm                     [arq_masks]
StCv04.C11.config                        [arq_config]
   66                                    [N_base]
    0                                    [N_YAV_components = # of components with extra extinction!]
    0                                    [i_FitPowerLaw (1/0 = Yes/No)]
-9.99                                    [alpha_PowerLaw]
CCM                                      [red_law_option]
 1.458241                                [q_norm = A(l_norm)/A(V)]

## (Re)Sampling Parameters
 3741.00                                 [l_ini (A)]
 7218.00                                 [l_fin (A)]
    1.00                                 [dl    (A)]     (OBS: dl_cushion =    50.00 A)

## Normalization info
 4020.00                                 [l_norm (A) - for base]
 4010.00                                 [llow_norm (A) - window for f_obs]
 4060.00                                 [lupp_norm (A) - window for f_obs]
2.555572E-16                             [fobs_norm (in input units)]

## S/N
 3691.00                                 [llow_SN (A) - window for S/N]
 7268.00                                 [lupp_SN (A) - window for S/N]
   8.372                                 [S/N in S/N window]
   9.103                                 [S/N in norm. window]
  14.197                                 [S/N_err in S/N window]
  15.436                                 [S/N_err in norm. window]
  1.0000                                 [fscale_chi2]

## etc...
    -2007323                             [idum_orig]
  2386                                   [NOl_eff]
  2386                                   [Nl_eff]
     0    NSIGMA                         [Ntot_cliped & clip_method]
  1266930                                [Nglobal_steps]
   7                                     [N_chains]
  21                                     [NEX0s_base = N_base in EX0s-fits]
 0   0   1        2   2.0   2.643E+01    [Clip-Bug, RC-Crash & Burn-In warning-flags, n_censored_weights, wei_nsig_threshold & wei_limit]
    14     14.076     13.571      0.505  [idt_all, wdt_TotTime, wdt_UsrTime & wdt_SysTime (sec)]

## Synthesis Results - Best model ##

 1.89433E-01                             [chi2/Nl_eff]
     2.60897                             [adev (%)]

   109.77525                             [sum-of-x (%)]
 4.55543E-16                             [Flux_tot (units of input spectrum!)]
 1.79500E-12                             [Mini_tot (???)]
 1.07651E-12                             [Mcor_tot (???)]

  74.55                                  [v0_min  (km/s)]
 195.41                                  [vd_min  (km/s)]
 0.3609                                  [AV_min  (mag)]
 0.0000                                  [YAV_min (mag)]

# j     x_j(%)      Mini_j(%)     Mcor_j(%)     age_j(yr)     Z_j      (L/M)_j    YAV?  Mstars   component_j        a/Fe...       SSP_chi2r SSP_adev(%)   SSP_AV   SSP_x(%)
  1      0.0000     0.0000E+00    0.0000E+00    1.000000E+06  0.00400  1.094E-02    0   1.0000   age020_m42            0.0000     6.7363E-01     5.3381   2.7849    94.2912
  2      3.5715     2.0606E-02    3.4355E-02    3.160000E+06  0.00400  4.007E-02    0   0.9999   age045_m42            0.0000     4.7501E-01     4.1304   2.0769    99.9954
  3      0.0000     0.0000E+00    0.0000E+00    5.010000E+06  0.00400  2.539E-02    0   0.9488   age055_m42            0.0000     5.4546E-01     4.5847   2.3866    98.0026
  4      2.9616     2.6132E-02    4.0175E-02    6.610000E+06  0.00400  2.620E-02    0   0.9220   age061_m42            0.0000     4.6440E-01     4.0504   1.9984   100.4600
  5      0.0000     0.0000E+00    0.0000E+00    1.000000E+07  0.00400  1.322E-02    0   0.8862   age070_m42            0.0000     5.8962E-01     4.8920   1.6763   104.5126
  6      0.0000     0.0000E+00    0.0000E+00    1.445000E+07  0.00400  7.883E-03    0   0.8571   age078_m42            0.0000     6.0549E-01     4.9983   2.0038   101.8246
  7      0.0000     0.0000E+00    0.0000E+00    2.512000E+07  0.00400  5.251E-03    0   0.8174   age090_m42            0.0000     6.4009E-01     5.1272   1.5397   105.4168
  8      0.0000     0.0000E+00    0.0000E+00    4.000000E+07  0.00400  3.649E-03    0   0.7851   age104_m42            0.0000     5.8068E-01     4.8418   1.3178   106.0475
  9      2.6245     1.9585E-01    2.4914E-01    5.500000E+07  0.00400  3.098E-03    0   0.7629   age110_m42            0.0000     4.9250E-01     4.2038   1.4931   105.0006
 10      1.2206     1.2666E-01    1.5220E-01    1.015200E+08  0.00400  2.228E-03    0   0.7207   age116_m42            0.0000     4.5695E-01     3.9161   1.5278   104.5142
 11      0.0000     0.0000E+00    0.0000E+00    2.861200E+08  0.00400  1.093E-03    0   0.6648   age125_m42            0.0000     5.6637E-01     4.4744   0.9440   108.3671
 12      0.0000     0.0000E+00    0.0000E+00    5.088000E+08  0.00400  6.597E-04    0   0.6365   age130_m42            0.0000     4.4279E-01     3.9438   0.9555   108.2387
 13      0.0000     0.0000E+00    0.0000E+00    1.434000E+09  0.00400  2.132E-04    0   0.5798   age139_m42            0.0000     2.8779E-01     3.1665  -0.0042   109.9620
 14      0.0000     0.0000E+00    0.0000E+00    4.250000E+09  0.00400  5.895E-05    0   0.5377   age158_m42            0.0000     2.3926E-01     2.9073  -0.4253   104.9068
 15      1.0628     7.0001E+00    6.0835E+00    7.500000E+09  0.00400  3.510E-05    0   0.5212   age171_m42            0.0000     2.9798E-01     3.1976  -0.6015   103.7114
 16      0.0000     0.0000E+00    0.0000E+00    1.300000E+10  0.00400  2.005E-05    0   0.5034   age193_m42            0.0000     3.8328E-01     3.5557  -0.7565   102.7341
 17      0.5606     8.4984E+00    7.0384E+00    1.800000E+10  0.00400  1.525E-05    0   0.4967   age213_m42            0.0000     3.7657E-01     3.5416  -0.7833   102.4388
 18      0.0000     0.0000E+00    0.0000E+00    1.000000E+06  0.00800  1.238E-02    0   1.0000   age020_m52            0.0000     6.7260E-01     5.3356   2.7827    94.4210
 19      0.0000     0.0000E+00    0.0000E+00    3.160000E+06  0.00800  3.074E-02    0   0.9966   age045_m52            0.0000     6.5354E-01     5.2217   2.7082    95.1841
 20      0.0000     0.0000E+00    0.0000E+00    5.010000E+06  0.00800  2.668E-02    0   0.9443   age055_m52            0.0000     5.5802E-01     4.7124   2.4656    97.2909
 21     21.7994     2.3594E-01    3.6103E-01    6.610000E+06  0.00800  2.136E-02    0   0.9177   age061_m52            0.0000     4.3708E-01     4.4691   1.1757   105.8082
 22      0.0000     0.0000E+00    0.0000E+00    1.000000E+07  0.00800  1.215E-02    0   0.8827   age070_m52            0.0000     6.8618E-01     5.4147   1.8417   104.9347
 23      0.0000     0.0000E+00    0.0000E+00    1.445000E+07  0.00800  8.717E-03    0   0.8552   age078_m52            0.0000     5.8471E-01     4.9254   1.9682   103.2942
 24      0.0000     0.0000E+00    0.0000E+00    2.512000E+07  0.00800  5.592E-03    0   0.8162   age090_m52            0.0000     6.5313E-01     5.1884   1.6023   106.7350
 25      0.0000     0.0000E+00    0.0000E+00    4.000000E+07  0.00800  3.896E-03    0   0.7841   age104_m52            0.0000     5.9112E-01     4.8080   1.5256   107.0327
 26      0.0000     0.0000E+00    0.0000E+00    1.015200E+08  0.00800  2.148E-03    0   0.7226   age116_m52            0.0000     4.6393E-01     4.0733   1.4849   105.8666
 27      0.0000     0.0000E+00    0.0000E+00    2.861200E+08  0.00800  9.925E-04    0   0.6683   age125_m52            0.0000     4.2109E-01     3.8347   1.0199   109.2920
 28      0.0000     0.0000E+00    0.0000E+00    9.047900E+08  0.00800  3.141E-04    0   0.6138   age135_m52            0.0000     3.1060E-01     3.3050   0.2520   112.4029
 29      0.0000     0.0000E+00    0.0000E+00    1.434000E+09  0.00800  1.719E-04    0   0.5853   age139_m52            0.0000     2.9745E-01     3.1217  -0.3327   110.4367
 30      0.0000     0.0000E+00    0.0000E+00    2.500000E+09  0.00800  7.872E-05    0   0.5600   age150_m52            0.0000     3.0850E-01     3.2172  -0.5716   106.1773
 31      0.0000     0.0000E+00    0.0000E+00    4.250000E+09  0.00800  4.336E-05    0   0.5426   age158_m52            0.0000     3.3242E-01     3.3041  -0.5864   105.1563
 32      0.0000     0.0000E+00    0.0000E+00    6.250000E+09  0.00800  3.159E-05    0   0.5319   age166_m52            0.0000     4.5831E-01     3.8092  -0.7706   104.3713
 33      0.0000     0.0000E+00    0.0000E+00    1.300000E+10  0.00800  1.361E-05    0   0.5073   age193_m52            0.0000     1.0424E+00     6.1627  -1.0000    93.7007
 34      0.0000     0.0000E+00    0.0000E+00    1.800000E+10  0.00800  9.886E-06    0   0.4990   age213_m52            0.0000     1.5474E+00     7.5905  -1.0000    88.9649
 35      0.0000     0.0000E+00    0.0000E+00    1.000000E+06  0.02000  1.544E-02    0   1.0000   age020_m62            0.0000     6.8020E-01     5.3770   2.7776    94.6868
 36      0.0000     0.0000E+00    0.0000E+00    3.160000E+06  0.02000  3.762E-02    0   0.9858   age045_m62            0.0000     6.7744E-01     5.3363   2.7183    95.4718
 37      0.0000     0.0000E+00    0.0000E+00    5.010000E+06  0.02000  3.296E-02    0   0.9342   age055_m62            0.0000     5.0077E-01     4.2717   2.3541    98.8907
 38      0.0000     0.0000E+00    0.0000E+00    8.710000E+06  0.02000  1.154E-02    0   0.8861   age067_m62            0.0000     1.7741E+00     9.1711   1.2113   112.0233
 39      0.0000     0.0000E+00    0.0000E+00    1.445000E+07  0.02000  7.663E-03    0   0.8472   age078_m62            0.0000     9.1770E-01     6.4644   1.4626   108.6118
 40      0.0000     0.0000E+00    0.0000E+00    2.512000E+07  0.02000  4.532E-03    0   0.8099   age090_m62            0.0000     1.0275E+00     6.7331   1.4524   108.4353
 41      0.0000     0.0000E+00    0.0000E+00    5.500000E+07  0.02000  2.733E-03    0   0.7595   age110_m62            0.0000     5.7775E-01     4.7750   1.5055   106.4048
 42      0.0000     0.0000E+00    0.0000E+00    1.609000E+08  0.02000  1.369E-03    0   0.6985   age120_m62            0.0000     4.6750E-01     4.0222   1.3731   107.9280
 43      0.0000     0.0000E+00    0.0000E+00    2.861200E+08  0.02000  9.013E-04    0   0.6714   age125_m62            0.0000     4.2599E-01     3.9461   1.1374   110.3094
 44      3.0536     1.4040E+00    1.5098E+00    5.088000E+08  0.02000  5.028E-04    0   0.6449   age130_m62            0.0000     3.2220E-01     3.5435   0.7915   111.6945
 45      6.4814     6.1714E+00    6.3584E+00    9.047900E+08  0.02000  2.428E-04    0   0.6179   age135_m62            0.0000     2.4031E-01     2.9594   0.2155   110.6704
 46      0.0000     0.0000E+00    0.0000E+00    1.434000E+09  0.02000  1.263E-04    0   0.5908   age139_m62            0.0000     2.8102E-01     3.0507  -0.2247   108.9421
 47      0.0000     0.0000E+00    0.0000E+00    2.500000E+09  0.02000  5.985E-05    0   0.5673   age150_m62            0.0000     4.2589E-01     3.6793  -0.5685   106.4802
 48      0.0000     0.0000E+00    0.0000E+00    4.250000E+09  0.02000  3.271E-05    0   0.5468   age158_m62            0.0000     6.8076E-01     4.7251  -0.8464   104.3954
 49      0.0000     0.0000E+00    0.0000E+00    1.000000E+10  0.02000  1.360E-05    0   0.5167   age181_m62            0.0000     1.2731E+00     6.8544  -1.0000    95.7673
 50      0.0000     0.0000E+00    0.0000E+00    1.800000E+10  0.02000  7.124E-06    0   0.5013   age213_m62            0.0000     2.2306E+00     9.2485  -1.0000    86.7241
 51      0.0000     0.0000E+00    0.0000E+00    1.000000E+06  0.05000  2.592E-02    0   0.9998   age020_m72            0.0000     7.0769E-01     5.5263   2.7657    94.8561
 52      0.0000     0.0000E+00    0.0000E+00    3.160000E+06  0.05000  4.845E-02    0   0.9577   age045_m72            0.0000     6.1862E-01     4.9305   2.6105    96.3569
 53      0.0000     0.0000E+00    0.0000E+00    5.010000E+06  0.05000  3.072E-02    0   0.9147   age055_m72            0.0000     7.8351E-01     5.7676   2.0746   103.2620
 54      0.0000     0.0000E+00    0.0000E+00    6.610000E+06  0.05000  1.455E-02    0   0.8877   age061_m72            0.0000     3.2853E+00    12.0135   1.2291   114.6334
 55      0.0014     3.5432E-05    5.0360E-05    1.000000E+07  0.05000  9.074E-03    0   0.8524   age070_m72            0.0000     1.1377E+00     6.4459   2.2601   102.9332
 56      0.0000     0.0000E+00    0.0000E+00    2.512000E+07  0.05000  4.250E-03    0   0.7902   age090_m72            0.0000     9.1833E-01     5.8765   1.9609   104.7564
 57      0.0000     0.0000E+00    0.0000E+00    4.000000E+07  0.05000  3.087E-03    0   0.7618   age104_m72            0.0000     9.9609E-01     6.0616   1.7288   106.7028
 58      0.0000     0.0000E+00    0.0000E+00    1.015200E+08  0.05000  1.700E-03    0   0.7096   age116_m72            0.0000     5.9016E-01     4.5175   1.5018   108.1217
 59      0.0000     0.0000E+00    0.0000E+00    2.861200E+08  0.05000  7.384E-04    0   0.6633   age125_m72            0.0000     3.6170E-01     3.6999   1.0208   111.0622
 60     21.5032     1.3017E+01    1.3830E+01    5.088000E+08  0.05000  3.819E-04    0   0.6372   age130_m72            0.0000     2.4753E-01     3.1190   0.5530   111.7395
 61     44.6110     6.1536E+01    6.2692E+01    9.047900E+08  0.05000  1.676E-04    0   0.6110   age135_m72            0.0000     3.6836E-01     3.5322  -0.1119   108.4566
 62      0.0000     0.0000E+00    0.0000E+00    1.434000E+09  0.05000  8.837E-05    0   0.5874   age139_m72            0.0000     4.9245E-01     3.9518  -0.5661   107.9126
 63      0.3237     1.7678E+00    1.6501E+00    2.500000E+09  0.05000  4.233E-05    0   0.5598   age150_m72            0.0000     7.8335E-01     5.1107  -0.8386   104.9307
 64      0.0000     0.0000E+00    0.0000E+00    6.250000E+09  0.05000  1.435E-05    0   0.5249   age166_m72            0.0000     1.6496E+00     7.9278  -1.0000    91.4776
 65      0.0000     0.0000E+00    0.0000E+00    1.300000E+10  0.05000  6.513E-06    0   0.5036   age193_m72            0.0000     3.2884E+00    11.3138  -1.0000    81.5727
 66      0.0000     0.0000E+00    0.0000E+00    1.800000E+10  0.05000  4.527E-06    0   0.4945   age213_m72            0.0000     4.5398E+00    13.3642  -1.0000    75.6747


## Synthesis Results - Average & Chains ##

# j      x_j: min, <> & last-chain-values for 1 ...  7 chains
  1      0.0000      0.1393      0.0000      0.0000      0.3151      0.0770      0.2801      0.0000      0.0000
  2      3.5715      2.1008      2.8769      2.2157      2.1848      1.9454      2.1373      1.5759      1.9505
  3      0.0000      1.0552      0.0000      1.3342      0.0000      1.5491      1.2472      1.2498      2.5862
  4      2.9616      1.8145      2.1765      3.5218      2.7278      1.8563      1.3915      2.7341      3.8070
  5      0.0000      0.2105      0.0000      0.1942      0.0000      0.0000      0.0000      0.0655      0.0000
  6      0.0000      0.2319      1.2959      0.0000      0.0000      0.0000      1.3662      0.0000      0.0000
  7      0.0000      0.4384      0.0000      0.0167      0.1718      0.0560      0.7189      0.0000      0.8529
  8      0.0000      0.5443      4.3391      0.0000      0.3280      1.6808      0.0000      1.2824      2.7127
  9      2.6245      1.4757      0.0000      0.3009      2.3660      0.0000      0.6746      3.3535      0.0000
 10      1.2206      0.4740      0.0000      0.0000      0.0000      0.0000      0.4898      0.0000      0.0000
 11      0.0000      0.9582      1.3556      0.3711      0.0000      0.0000      0.0000      0.0896      0.0000
 12      0.0000      1.4053      0.1761      1.8036      2.9004      1.2367      0.3693      0.6473      0.7424
 13      0.0000      0.7119      0.0000      0.0000      0.0000      0.5715      0.0000      0.0000      0.0000
 14      0.0000      0.5149      0.0000      0.0000      0.9742      0.6526      0.0000      0.0000      0.8592
 15      1.0628      0.1550      0.0000      0.0000      0.0000      0.0000      0.4664      0.0000      0.0000
 16      0.0000      0.2207      0.2739      0.0000      0.4527      0.5445      0.1741      0.0000      0.0000
 17      0.5606      0.5124      0.0000      0.0000      0.0000      0.6482      0.8329      1.3353      0.6240
 18      0.0000      0.1612      0.3035      0.2201      0.0005      0.0000      0.0000      0.0000      0.4293
 19      0.0000      0.1992      0.0000      0.0000      0.0000      0.0000      0.0000      0.0000      0.0000
 20      0.0000      0.2805      0.2575      0.8166      0.7271      0.1829      0.0000      0.0000      0.0000
 21     21.7994      6.2116      9.3483      7.0745      8.4455      8.7044     11.7620      7.6483      7.2906
 22      0.0000      0.3481      0.0000      0.0000      0.0000      0.0000      0.0000      0.0000      0.0000
 23      0.0000      0.3700      0.0000      2.2759      0.0000      0.0000      0.0000      0.0000      0.0000
 24      0.0000      0.2598      0.0000      0.0000      0.3093      0.2980      0.0000      0.0506      0.0000
 25      0.0000      0.2908      2.6189      0.0000      0.0000      0.0504      2.3265      0.0000      0.0000
 26      0.0000      0.5830      0.0000      0.0000      0.0000      0.5047      0.0000      0.5083      0.5998
 27      0.0000      0.8823      0.0000      0.0000      2.3397      0.0000      0.0000      1.6660      0.2547
 28      0.0000      1.0716      0.5313      0.0000      0.0000      0.0000      0.4389      1.0469      1.5451
 29      0.0000      0.2061      0.0000      0.0000      0.0000      0.0000      0.0000      0.0000      1.0218
 30      0.0000      0.4461      0.4830      0.0000      0.0000      0.2905      0.0289      0.7910      0.0000
 31      0.0000      0.2645      0.2731      0.0000      0.0000      0.0000      0.5496      0.0000      1.0118
 32      0.0000      0.0653      0.3822      0.0000      0.0000      0.0000      0.0000      0.0000      0.0000
 33      0.0000      0.0579      0.0000      0.0000      0.1440      0.0000      0.0000      0.0000      0.0000
 34      0.0000      0.0153      0.0000      0.0000      0.0000      0.0000      0.0000      0.0000      0.0000
 35      0.0000      1.2598      1.1098      0.6968      0.7126      3.4780      2.4065      1.1731      1.8788
 36      0.0000      0.1257      0.0000      0.1238      0.0000      0.0000      0.0000      1.1870      0.3287
 37      0.0000      0.2170      0.0000      0.0000      0.0462      0.0800      0.0000      0.0000      0.0000
 38      0.0000      0.2010      0.0000      0.0000      0.0000      0.0000      0.0000      1.1932      0.3149
 39      0.0000      0.3372      0.0000      0.1963      0.0000      0.0000      0.0000      0.0000      0.0000
 40      0.0000      0.2350      0.1933      0.0000      0.0000      0.0000      0.0000      0.0000      0.0000
 41      0.0000      0.3902      0.0000      0.0000      0.7937      1.0507      0.2453      0.3139      0.0000
 42      0.0000      0.7927      0.0000      0.2299      0.0000      0.5256      0.0000      2.2681      0.0000
 43      0.0000      0.5813      0.0000      0.0000      0.0000      0.4327      0.0000      0.3088      0.0000
 44      3.0536      1.0186      0.0000      0.0000      0.0000      0.0000      2.3697      0.0000      2.2846
 45      6.4814     12.8223     13.2421     11.7555     14.3795     11.2681      8.5279      7.2776      9.4322
 46      0.0000      1.0884      0.0000      4.7736      0.0000      0.1474      0.2436      0.0551      0.0000
 47      0.0000      0.4152      0.5522      0.0000      0.9224      0.0000      0.0000      0.0000      0.0159
 48      0.0000      0.2338      0.0000      0.0000      0.8487      0.0585      0.0000      0.7684      0.0000
 49      0.0000      0.0457      0.0000      0.4009      0.0000      0.0000      0.0000      0.0000      0.0000
 50      0.0000      0.0235      0.0000      0.0000      0.0000      0.0665      0.0000      0.0000      0.0000
 51      0.0000      0.3100      0.0000      0.6775      1.3999      0.0000      0.0000      0.0000      0.0000
 52      0.0000      0.2016      0.0000      0.0000      0.3910      0.0000      0.0000      0.0000      0.0000
 53      0.0000      0.2257      0.0847      0.0000      0.0000      0.0000      0.0000      0.0000      0.0000
 54      0.0000      0.1111      0.0000      0.0000      0.0000      0.0000      0.1508      0.0000      0.0000
 55      0.0014      0.2314      0.0000      0.0000      0.0000      0.0000      0.5372      0.4541      0.1418
 56      0.0000      0.1433      0.0000      0.0000      0.1401      0.0000      0.0000      0.0000      0.0000
 57      0.0000      0.3590      0.0000      1.0157      0.0000      0.0000      0.0000      0.0000      0.2290
 58      0.0000      0.2429      0.2668      0.1088      0.0000      0.0000      0.0000      0.0000      0.0000
 59      0.0000      0.4815      0.0000      0.7096      0.0000      0.0000      0.6080      0.2138      0.2897
 60     21.5032     31.3674     32.4024     33.7629     33.5419     36.6657     31.3676     34.4027     32.8369
 61     44.6110     30.9333     33.0387     35.7534     31.4209     35.2698     36.6586     35.5701     34.9402
 62      0.0000      0.7908      2.7944      0.0000      1.3634      0.6587      0.9321      0.0000      1.4268
 63      0.3237      0.5524      0.0000      0.0000      0.0000      0.0000      1.0704      1.1353      0.0000
 64      0.0000      0.0233      0.0000      0.0000      0.0000      0.0000      0.0000      0.0000      0.0000
 65      0.0000      0.0293      0.0000      0.0000      0.0000      0.0000      0.0000      0.0000      0.0000
 66      0.0000      0.0088      0.0000      0.0000      0.0000      0.0000      0.0000      0.0000      0.0000

# j      m_j: min, <> & last-chain-values for 1 ...  7 chains
  1  0.0000E+00  4.5086E-03  0.0000E+00  0.0000E+00  1.0639E-02  2.5428E-03  9.0956E-03  0.0000E+00  0.0000E+00
  2  3.4355E-02  1.8563E-02  2.7975E-02  2.1417E-02  2.0137E-02  1.7527E-02  1.8947E-02  1.3543E-02  1.8095E-02
  3  0.0000E+00  1.3962E-02  0.0000E+00  1.9313E-02  0.0000E+00  2.0900E-02  1.6556E-02  1.6084E-02  3.5930E-02
  4  4.0175E-02  2.2609E-02  2.9846E-02  4.8008E-02  3.5456E-02  2.3585E-02  1.7395E-02  3.3134E-02  4.9808E-02
  5  0.0000E+00  4.9961E-03  0.0000E+00  5.0432E-03  0.0000E+00  0.0000E+00  0.0000E+00  1.5132E-03  0.0000E+00
  6  0.0000E+00  8.9270E-03  5.4904E-02  0.0000E+00  0.0000E+00  0.0000E+00  5.2768E-02  0.0000E+00  0.0000E+00
  7  0.0000E+00  2.4165E-02  0.0000E+00  1.0067E-03  9.8756E-03  3.1493E-03  3.9757E-02  0.0000E+00  4.9362E-02
  8  0.0000E+00  4.1463E-02  3.6380E-01  0.0000E+00  2.6065E-02  1.3057E-01  0.0000E+00  9.5019E-02  2.1699E-01
  9  2.4914E-01  1.2868E-01  0.0000E+00  2.8698E-02  2.1521E-01  0.0000E+00  5.9012E-02  2.8439E-01  0.0000E+00
 10  1.5220E-01  5.4296E-02  0.0000E+00  0.0000E+00  0.0000E+00  0.0000E+00  5.6288E-02  0.0000E+00  0.0000E+00
 11  0.0000E+00  2.0635E-01  3.2131E-01  8.7440E-02  0.0000E+00  0.0000E+00  0.0000E+00  1.8761E-02  0.0000E+00
 12  0.0000E+00  4.8010E-01  6.6206E-02  6.7406E-01  1.0336E+00  4.3082E-01  1.2659E-01  2.1507E-01  2.6631E-01
 13  0.0000E+00  6.8552E-01  0.0000E+00  0.0000E+00  0.0000E+00  5.6111E-01  0.0000E+00  0.0000E+00  0.0000E+00
 14  0.0000E+00  1.6631E+00  0.0000E+00  0.0000E+00  3.2820E+00  2.1492E+00  0.0000E+00  0.0000E+00  2.9138E+00
 15  6.0835E+00  8.1473E-01  0.0000E+00  0.0000E+00  0.0000E+00  0.0000E+00  2.4604E+00  0.0000E+00  0.0000E+00
 16  0.0000E+00  1.9619E+00  2.6798E+00  0.0000E+00  4.1985E+00  4.9362E+00  1.5526E+00  0.0000E+00  0.0000E+00
 17  7.0384E+00  5.9095E+00  0.0000E+00  0.0000E+00  0.0000E+00  7.6225E+00  9.6373E+00  1.4977E+01  7.5561E+00
 18  0.0000E+00  4.6120E-03  9.5540E-03  6.8870E-03  1.6092E-05  0.0000E+00  0.0000E+00  0.0000E+00  1.2893E-02
 19  0.0000E+00  2.2865E-03  0.0000E+00  0.0000E+00  0.0000E+00  0.0000E+00  0.0000E+00  0.0000E+00  0.0000E+00
 20  0.0000E+00  3.5157E-03  3.5516E-03  1.1195E-02  9.5049E-03  2.3373E-03  0.0000E+00  0.0000E+00  0.0000E+00
 21  3.6103E-01  9.4496E-02  1.5651E-01  1.1774E-01  1.3402E-01  1.3502E-01  1.7952E-01  1.1316E-01  1.1645E-01
 22  0.0000E+00  8.9541E-03  0.0000E+00  0.0000E+00  0.0000E+00  0.0000E+00  0.0000E+00  0.0000E+00  0.0000E+00
 23  0.0000E+00  1.2852E-02  0.0000E+00  8.6492E-02  0.0000E+00  0.0000E+00  0.0000E+00  0.0000E+00  0.0000E+00
 24  0.0000E+00  1.3428E-02  0.0000E+00  0.0000E+00  1.6674E-02  1.5702E-02  0.0000E+00  2.5438E-03  0.0000E+00
 25  0.0000E+00  2.0720E-02  2.0539E-01  0.0000E+00  0.0000E+00  3.6595E-03  1.6633E-01  0.0000E+00  0.0000E+00
 26  0.0000E+00  6.9448E-02  0.0000E+00  0.0000E+00  0.0000E+00  6.1303E-02  0.0000E+00  5.8884E-02  7.5017E-02
 27  0.0000E+00  2.1035E-01  0.0000E+00  0.0000E+00  5.8188E-01  0.0000E+00  0.0000E+00  3.8632E-01  6.3763E-02
 28  0.0000E+00  7.4150E-01  4.0460E-01  0.0000E+00  0.0000E+00  0.0000E+00  3.0468E-01  7.0450E-01  1.1225E+00
 29  0.0000E+00  2.4846E-01  0.0000E+00  0.0000E+00  0.0000E+00  0.0000E+00  0.0000E+00  0.0000E+00  1.2935E+00
 30  0.0000E+00  1.1237E+00  1.3391E+00  0.0000E+00  0.0000E+00  7.4615E-01  7.3025E-02  1.9378E+00  0.0000E+00
 31  0.0000E+00  1.1718E+00  1.3317E+00  0.0000E+00  0.0000E+00  0.0000E+00  2.4431E+00  0.0000E+00  4.7075E+00
 32  0.0000E+00  3.8943E-01  2.5076E+00  0.0000E+00  0.0000E+00  0.0000E+00  0.0000E+00  0.0000E+00  0.0000E+00
 33  0.0000E+00  7.6435E-01  0.0000E+00  0.0000E+00  1.9827E+00  0.0000E+00  0.0000E+00  0.0000E+00  0.0000E+00
 34  0.0000E+00  2.7358E-01  0.0000E+00  0.0000E+00  0.0000E+00  0.0000E+00  0.0000E+00  0.0000E+00  0.0000E+00
 35  0.0000E+00  2.8890E-02  2.8010E-02  1.7480E-02  1.7046E-02  8.1331E-02  5.5368E-02  2.6165E-02  4.5239E-02
 36  0.0000E+00  1.1660E-03  0.0000E+00  1.2568E-03  0.0000E+00  0.0000E+00  0.0000E+00  1.0711E-02  3.2027E-03
 37  0.0000E+00  2.1782E-03  0.0000E+00  0.0000E+00  4.8347E-04  8.1820E-04  0.0000E+00  0.0000E+00  0.0000E+00
 38  0.0000E+00  5.4660E-03  0.0000E+00  0.0000E+00  0.0000E+00  0.0000E+00  0.0000E+00  3.1551E-02  8.9889E-03
 39  0.0000E+00  1.3202E-02  0.0000E+00  8.4081E-03  0.0000E+00  0.0000E+00  0.0000E+00  0.0000E+00  0.0000E+00
 40  0.0000E+00  1.4869E-02  1.3461E-02  0.0000E+00  0.0000E+00  0.0000E+00  0.0000E+00  0.0000E+00  0.0000E+00
 41  0.0000E+00  3.8395E-02  0.0000E+00  0.0000E+00  8.1469E-02  1.0543E-01  2.4218E-02  3.0042E-02  0.0000E+00
 42  0.0000E+00  1.4322E-01  0.0000E+00  4.5429E-02  0.0000E+00  9.6820E-02  0.0000E+00  3.9854E-01  0.0000E+00
 43  0.0000E+00  1.5334E-01  0.0000E+00  0.0000E+00  0.0000E+00  1.1637E-01  0.0000E+00  7.9216E-02  0.0000E+00
 44  1.5098E+00  4.6263E-01  0.0000E+00  0.0000E+00  0.0000E+00  0.0000E+00  1.0797E+00  0.0000E+00  1.0894E+00
 45  6.3584E+00  1.1554E+01  1.3132E+01  1.1588E+01  1.3516E+01  1.0354E+01  7.7097E+00  6.3781E+00  8.9242E+00
 46  0.0000E+00  1.8028E+00  0.0000E+00  8.6497E+00  0.0000E+00  2.4897E-01  4.0477E-01  8.8822E-02  0.0000E+00
 47  0.0000E+00  1.3936E+00  2.0397E+00  0.0000E+00  3.2292E+00  0.0000E+00  0.0000E+00  0.0000E+00  5.5871E-02
 48  0.0000E+00  1.3839E+00  0.0000E+00  0.0000E+00  5.2399E+00  3.5306E-01  0.0000E+00  4.4236E+00  0.0000E+00
 49  0.0000E+00  6.1447E-01  0.0000E+00  5.8995E+00  0.0000E+00  0.0000E+00  0.0000E+00  0.0000E+00  0.0000E+00
 50  0.0000E+00  5.8570E-01  0.0000E+00  0.0000E+00  0.0000E+00  1.6885E+00  0.0000E+00  0.0000E+00  0.0000E+00
 51  0.0000E+00  4.2346E-03  0.0000E+00  1.0122E-02  1.9944E-02  0.0000E+00  0.0000E+00  0.0000E+00  0.0000E+00
 52  0.0000E+00  1.4109E-03  0.0000E+00  0.0000E+00  2.8550E-03  0.0000E+00  0.0000E+00  0.0000E+00  0.0000E+00
 53  0.0000E+00  2.3797E-03  9.8291E-04  0.0000E+00  0.0000E+00  0.0000E+00  0.0000E+00  0.0000E+00  0.0000E+00
 54  0.0000E+00  2.3996E-03  0.0000E+00  0.0000E+00  0.0000E+00  0.0000E+00  3.2687E-03  0.0000E+00  0.0000E+00
 55  5.0360E-05  7.6968E-03  0.0000E+00  0.0000E+00  0.0000E+00  0.0000E+00  1.7928E-02  1.4692E-02  4.9516E-03
 56  0.0000E+00  9.4326E-03  0.0000E+00  0.0000E+00  9.6219E-03  0.0000E+00  0.0000E+00  0.0000E+00  0.0000E+00
 57  0.0000E+00  3.1373E-02  0.0000E+00  9.7088E-02  0.0000E+00  0.0000E+00  0.0000E+00  0.0000E+00  2.1007E-02
 58  0.0000E+00  3.5903E-02  4.3403E-02  1.7587E-02  0.0000E+00  0.0000E+00  0.0000E+00  0.0000E+00  0.0000E+00
 59  0.0000E+00  1.5315E-01  0.0000E+00  2.4693E-01  0.0000E+00  0.0000E+00  1.9403E-01  6.6139E-02  9.6742E-02
 60  1.3830E+01  1.8532E+01  2.1067E+01  2.1821E+01  2.0671E+01  2.2088E+01  1.8592E+01  1.9768E+01  2.0369E+01
 61  6.2692E+01  3.9930E+01  4.6935E+01  5.0489E+01  4.2309E+01  4.6424E+01  4.7475E+01  4.4657E+01  4.7357E+01
 62  0.0000E+00  1.8612E+00  7.2382E+00  0.0000E+00  3.3474E+00  1.5808E+00  2.2011E+00  0.0000E+00  3.5261E+00
 63  1.6501E+00  2.5868E+00  0.0000E+00  0.0000E+00  0.0000E+00  0.0000E+00  5.0287E+00  5.1703E+00  0.0000E+00
 64  0.0000E+00  3.0229E-01  0.0000E+00  0.0000E+00  0.0000E+00  0.0000E+00  0.0000E+00  0.0000E+00  0.0000E+00
 65  0.0000E+00  8.0322E-01  0.0000E+00  0.0000E+00  0.0000E+00  0.0000E+00  0.0000E+00  0.0000E+00  0.0000E+00
 66  0.0000E+00  3.4155E-01  0.0000E+00  0.0000E+00  0.0000E+00  0.0000E+00  0.0000E+00  0.0000E+00  0.0000E+00

# AV, chi2 & Mass for <> & i_chain = 1 ...  7 solutions
AV       0.3609      0.3693      0.3602      0.3659      0.3659      0.3634      0.3640      0.3687      0.3678
chi2 1.8943E-01  1.9790E-01  1.9523E-01  1.9549E-01  1.9518E-01  1.9482E-01  1.9398E-01  1.9572E-01  1.9536E-01
Mass 1.0765E-12  1.1853E-12  1.0639E-12  1.0785E-12  1.1310E-12  1.1531E-12  1.1730E-12  1.2176E-12  1.1265E-12
  74.55                                  [v0_min (km/s) before EX0s...]
 195.41                                  [vd_min (km/s) before EX0s...]


## Synthetic spectrum (Best Model) ##l_obs f_obs f_syn wei
 3478    [Nl_obs]
 3741.00    0.58179   0.64797    0.000
 3742.00    0.61014   0.66139    0.000
 3743.00    0.63316   0.66167    0.000
 3744.00    0.64845   0.64995    0.000
 3745.00    0.65162   0.62865    4.864
 3746.00    0.63260   0.60059    4.870
 3747.00    0.58700   0.56925    4.940
 3748.00    0.52448   0.53937    4.983
 3749.00    0.46334   0.51678    4.929
 3750.00    0.42473   0.50722    4.903
 3751.00    0.42300   0.51427    4.989
 3752.00    0.45895   0.53763    5.090
 3753.00    0.51997   0.57257    5.120
 3754.00    0.58288   0.61129    5.141
 3755.00    0.63080   0.64549    5.214
 3756.00    0.66214   0.66924    5.287
 3757.00    0.67685   0.68079    5.312
 3758.00    0.66971   0.68254    5.317
 3759.00    0.64555   0.67953    5.330
 3760.00    0.62540   0.67683    5.343
 3761.00    0.62558   0.67719    5.365
 3762.00    0.64636   0.68029    5.438
 3763.00    0.68028   0.68343    5.532
 3764.00    0.71597   0.68312    5.520
 3765.00    0.73156   0.67654    5.436
 3766.00    0.69847   0.66252    5.524
 3767.00    0.62051   0.64193    5.821
 3768.00    0.54333   0.61772    5.973
 3769.00    0.49716   0.59450    5.831
 3770.00    0.47493   0.57743    5.755
 3771.00    0.47124   0.57080    5.928
 3772.00    0.49670   0.57665    6.165
 3773.00    0.55304   0.59415    6.247
 3774.00    0.62407   0.62017    6.151
 3775.00    0.69035   0.65087    6.008
 3776.00    0.73738   0.68318    5.988
 3777.00    0.76103   0.71528    6.109
 3778.00    0.76777   0.74611    6.223
 3779.00    0.76617   0.77468    6.249
 3780.00    0.76315   0.79967    6.259
 3781.00    0.76352   0.81962    6.289
 3782.00    0.76882   0.83316    6.295
 3783.00    0.77363   0.83923    6.291
 3784.00    0.76771   0.83728    6.359
 3785.00    0.74875   0.82744    6.489
 3786.00    0.72444   0.81098    6.561
 3787.00    0.70236   0.79047    6.560
 3788.00    0.68595   0.76910    6.594
 3789.00    0.67388   0.74936    6.664
 3790.00    0.66119   0.73193    6.647
 3791.00    0.64365   0.71537    6.561
 3792.00    0.61969   0.69691    6.564
 3793.00    0.59193   0.67391    6.728
 3794.00    0.56679   0.64530    6.988
 3795.00    0.55216   0.61244    7.166
 3796.00    0.55365   0.57924    7.057
 3797.00    0.56622   0.55144    6.717
 3798.00    0.57555   0.53522    6.401
 3799.00    0.56887   0.53530    6.303
 3800.00    0.54081   0.55310    6.506
 3801.00    0.50044   0.58592    6.861
 3802.00    0.46780   0.62764    7.010
 3803.00    0.46017   0.67090    6.925
 3804.00    0.48638   0.70950    6.913
 3805.00    0.54219   0.74026    7.054
 3806.00    0.61355   0.76345    7.192
 3807.00    0.68688   0.78177    7.240
 3808.00    0.75197   0.79820    7.227
 3809.00    0.80224   0.81390    7.179
 3810.00    0.83391   0.82736    7.100
 3811.00    0.84389   0.83543    7.016
 3812.00    0.83246   0.83561    6.971
 3813.00    0.80974   0.82802    7.015
 3814.00    0.79040   0.81581    7.166
 3815.00    0.77998   0.80342    7.324
 3816.00    0.77598   0.79428    7.346
 3817.00    0.77587   0.78912    7.291
 3818.00    0.77884   0.78633    7.338
 3819.00    0.78588   0.78367    7.534
 3820.00    0.79773   0.77983    7.783
 3821.00    0.81122   0.77471    7.906
 3822.00    0.81958   0.76841    7.783
 3823.00    0.81452   0.76030    7.604
 3824.00    0.79047   0.74935    7.633
 3825.00    0.75104   0.73510    7.867
 3826.00    0.70748   0.71828    8.126
 3827.00    0.67398   0.70015    8.272
 3828.00    0.66022   0.68138    8.258
 3829.00    0.66116   0.66128    8.105
 3830.00    0.66286   0.63820    7.909
 3831.00    0.65396   0.61069    7.845
 3832.00    0.62991   0.57890    8.022
 3833.00    0.59627   0.54534    8.299
 3834.00    0.56398   0.51452    8.423
 3835.00    0.54180   0.49166    8.388
 3836.00    0.53396   0.48095    8.365
 3837.00    0.53871   0.48425    8.482
 3838.00    0.55342   0.50087    8.755
 3839.00    0.58119   0.52827    9.021
 3840.00    0.62554   0.56316    9.051
 3841.00    0.68265   0.60224    8.814
 3842.00    0.74321   0.64243    8.473
 3843.00    0.79623   0.68091    8.243
 3844.00    0.83311   0.71539    8.240
 3845.00    0.85195   0.74451    8.393
 3846.00    0.85646   0.76795    8.555
 3847.00    0.85409   0.78627    0.000
 3848.00    0.85422   0.80051    0.000
 3849.00    0.86585   0.81190    0.000
 3850.00    0.89058   0.82171    0.000
 3851.00    0.91621   0.83080    0.000
 3852.00    0.92663   0.83929    0.000
 3853.00    0.91288   0.84636    0.000
 3854.00    0.87828   0.85085    0.000
 3855.00    0.84095   0.85205    0.000
 3856.00    0.81813   0.85030    0.000
 3857.00    0.81199   0.84694    0.000
 3858.00    0.81818   0.84387    0.000
 3859.00    0.83446   0.84305    0.000
 3860.00    0.85676   0.84590    0.000
 3861.00    0.87596   0.85278    0.000
 3862.00    0.88563   0.86259    0.000
 3863.00    0.88811   0.87314    0.000
 3864.00    0.88814   0.88209    0.000
 3865.00    0.88756   0.88800    0.000
 3866.00    0.88763   0.89065    0.000
 3867.00    0.89048   0.89050    0.000
 3868.00    0.89436   0.88781    0.000
 3869.00    0.89108   0.88226    0.000
 3870.00    0.87444   0.87342    0.000
 3871.00    0.84625   0.86176    0.000
 3872.00    0.81338   0.84913    0.000
 3873.00    0.78475   0.83813    0.000
 3874.00    0.76698   0.83047    0.000
 3875.00    0.76143   0.82577    0.000
 3876.00    0.76447   0.82172    0.000
 3877.00    0.76862   0.81573    0.000
 3878.00    0.76811   0.80652    0.000
 3879.00    0.76199   0.79450    0.000
 3880.00    0.75159   0.78066    0.000
 3881.00    0.73865   0.76525    8.857
 3882.00    0.72465   0.74726    9.031
 3883.00    0.71048   0.72502    9.348
 3884.00    0.69725   0.69725    9.643
 3885.00    0.68679   0.66402    9.699
 3886.00    0.68229   0.62742    9.535
 3887.00    0.68730   0.59163    9.454
 3888.00    0.69933   0.56214    9.606
 3889.00    0.70862   0.54456    9.855
 3890.00    0.70918   0.54267   10.032
 3891.00    0.70281   0.55680   10.093
 3892.00    0.69144   0.58364   10.112
 3893.00    0.67503   0.61756   10.236
 3894.00    0.65992   0.65280   10.521
 3895.00    0.65879   0.68520   10.866
 3896.00    0.67365   0.71304   11.072
 3897.00    0.69211   0.73650   10.971
 3898.00    0.70515   0.75658   10.748
 3899.00    0.71376   0.77444   10.826
 3900.00    0.72423   0.79074   11.109
 3901.00    0.74373   0.80548   10.935
 3902.00    0.77142   0.81805   10.363
 3903.00    0.79801   0.82768   10.158
 3904.00    0.81759   0.83431   10.401
 3905.00    0.83067   0.83927   10.449
 3906.00    0.83842   0.84520   10.087
 3907.00    0.84120   0.85467    9.772
 3908.00    0.84131   0.86862    9.728
 3909.00    0.84244   0.88582    9.835
 3910.00    0.84454   0.90322    9.923
 3911.00    0.84407   0.91722    9.882
 3912.00    0.84044   0.92531    9.757
 3913.00    0.83643   0.92690    9.707
 3914.00    0.83249   0.92298    9.813
 3915.00    0.82676   0.91539   10.046
 3916.00    0.82076   0.90604   10.284
 3917.00    0.81894   0.89633   10.367
 3918.00    0.82242   0.88704   10.288
 3919.00    0.82834   0.87888   10.197
 3920.00    0.83319   0.87255   10.223
 3921.00    0.83441   0.86837   10.400
 3922.00    0.83193   0.86592   10.576
 3923.00    0.82734   0.86365   10.523
 3924.00    0.82085   0.85893   10.350
 3925.00    0.81113   0.84885   10.378
 3926.00    0.79700   0.83122   10.635
 3927.00    0.77871   0.80501   10.869
 3928.00    0.75965   0.77061   10.883
 3929.00    0.74335   0.72949   10.695
 3930.00    0.72576   0.68387   10.572
 3931.00    0.69886   0.63702   10.811
 3932.00    0.66265   0.59350   11.344
 3933.00    0.62592   0.55892   11.786
 3934.00    0.60219   0.53892   11.897
 3935.00    0.60325   0.53752   11.738
 3936.00    0.62816   0.55552   11.473
 3937.00    0.66592   0.58972   11.257
 3938.00    0.70515   0.63380   11.181
 3939.00    0.73853   0.68044   11.232
 3940.00    0.76706   0.72346   11.212
 3941.00    0.79581   0.75898   10.950
 3942.00    0.82509   0.78585   10.705
 3943.00    0.85180   0.80530   10.778
 3944.00    0.87479   0.81999   10.885
 3945.00    0.89359   0.83237   10.575
 3946.00    0.90482   0.84369   10.148
 3947.00    0.90550   0.85376   10.111
 3948.00    0.89920   0.86159   10.428
 3949.00    0.89194   0.86670   10.724
 3950.00    0.88450   0.86977   10.724
 3951.00    0.87583   0.87183   10.472
 3952.00    0.86978   0.87324   10.391
 3953.00    0.87141   0.87365   10.791
 3954.00    0.88029   0.87247   11.245
 3955.00    0.89158   0.86905   11.067
 3956.00    0.89920   0.86269   10.579
 3957.00    0.89757   0.85308   10.428
 3958.00    0.88360   0.84040   10.670
 3959.00    0.85700   0.82433   11.061
 3960.00    0.82021   0.80338    0.000
 3961.00    0.77654   0.77575    0.000
 3962.00    0.72779   0.74076    0.000
 3963.00    0.67490   0.69916    0.000
 3964.00    0.61908   0.65236    0.000
 3965.00    0.56435   0.60170    0.000
 3966.00    0.51972   0.54901    0.000
 3967.00    0.49414   0.49757    0.000
 3968.00    0.49042   0.45244    0.000
 3969.00    0.50522   0.41969    0.000
 3970.00    0.53001   0.40474    0.000
 3971.00    0.55467   0.41043    0.000
 3972.00    0.57169   0.43590    0.000
 3973.00    0.58094   0.47702    0.000
 3974.00    0.59312   0.52792    0.000
 3975.00    0.61960   0.58293    0.000
 3976.00    0.66228   0.63763    0.000
 3977.00    0.71553   0.68892    0.000
 3978.00    0.76929   0.73491    0.000
 3979.00    0.81416   0.77449    0.000
 3980.00    0.84592   0.80694    0.000
 3981.00    0.86673   0.83206   10.542
 3982.00    0.88467   0.85069   10.928
 3983.00    0.90327   0.86494   11.074
 3984.00    0.91443   0.87748   10.881
 3985.00    0.91331   0.89015   10.558
 3986.00    0.90905   0.90336   10.425
 3987.00    0.91066   0.91661   10.614
 3988.00    0.91647   0.92921   10.922
 3989.00    0.92421   0.94081   11.087
 3990.00    0.93800   0.95109   11.049
 3991.00    0.96085   0.96006   10.919
 3992.00    0.98915   0.96762   10.869
 3993.00    1.01468   0.97304   10.930
 3994.00    1.02746   0.97524   10.923
 3995.00    1.02391   0.97392   10.770
 3996.00    1.01088   0.97034   10.663
 3997.00    0.99677   0.96710   10.694
 3998.00    0.98573   0.96697   10.700
 3999.00    0.97853   0.97152   10.644
 4000.00    0.97366   0.98003   10.771
 4001.00    0.96915   0.98928   11.076
 4002.00    0.96375   0.99556   11.064
 4003.00    0.95773   0.99685   10.659
 4004.00    0.95295   0.99335   10.504
 4005.00    0.95099   0.98713   10.804
 4006.00    0.95271   0.98179   10.992
 4007.00    0.96150   0.98122   10.724
 4008.00    0.98302   0.98683   10.401
 4009.00    1.01490   0.99682   10.265
 4010.00    1.04410   1.00822    9.995
 4011.00    1.06026   1.01874    8.753
 4012.00    1.06197   1.02715    6.602
 4013.00    1.05374   1.03328    5.187
 4014.00    1.04250   1.03789    5.262
 4015.00    1.02881   1.04188    7.146
 4016.00    1.00685   1.04584   10.160
 4017.00    0.98154   1.04991   10.766
 4018.00    0.97022   1.05377   10.288
 4019.00    0.97722   1.05715   10.700
 4020.00    0.98858   1.05911   10.961
 4021.00    0.99490   1.05802   10.546
 4022.00    0.99820   1.05328   10.544
 4023.00    1.00110   1.04608   11.204
 4024.00    1.00331   1.03848   11.473
 4025.00    1.00549   1.03243   10.975
 4026.00    1.00945   1.02907   10.637
 4027.00    1.01372   1.02762   10.796
 4028.00    1.01364   1.02502   11.044
 4029.00    1.00732   1.01824   11.023
 4030.00    0.99677   1.00657   10.751
 4031.00    0.98465   0.99232   10.500
 4032.00    0.97309   0.98026   10.569
 4033.00    0.96377   0.97497   10.948
 4034.00    0.95836   0.97870   11.308
 4035.00    0.95964   0.99119   11.374
 4036.00    0.96940   1.00978   11.161
 4037.00    0.98164   1.03031   10.966
 4038.00    0.98589   1.04832   11.091
 4039.00    0.98231   1.06021   11.280
 4040.00    0.98001   1.06431   10.935
 4041.00    0.98029   1.06086   10.339
 4042.00    0.97662   1.05150   10.199
 4043.00    0.96681   1.03825   10.391
 4044.00    0.95517   1.02300   10.262
 4045.00    0.94924   1.00860    9.968
 4046.00    0.95541   0.99925   10.201
 4047.00    0.97082   0.99842   10.971
 4048.00    0.98656   1.00587   11.557
 4049.00    1.00000   1.01722   11.511
 4050.00    1.01327   1.02759   11.138
 4051.00    1.02328   1.03379   10.944
 4052.00    1.02451   1.03414   11.234
 4053.00    1.01981   1.02897   11.737
 4054.00    1.01702   1.02056   11.782
 4055.00    1.01688   1.01182   11.359
 4056.00    1.01510   1.00524   11.009
 4057.00    1.01178   1.00191   10.994
 4058.00    1.01065   1.00138   11.298
 4059.00    1.01394   1.00259   11.701
 4060.00    1.02126   1.00390   11.885
 4061.00    1.02948   1.00299   11.816
 4062.00    1.03445   0.99830   11.669
 4063.00    1.03399   0.99068   11.467
 4064.00    1.02898   0.98325   11.198
 4065.00    1.02397   0.97948   11.082
 4066.00    1.02201   0.98027   11.254
 4067.00    1.01627   0.98385   11.215
 4068.00    0.99879   0.98841   10.478
 4069.00    0.97617   0.99258    9.651
 4070.00    0.95912   0.99442    9.361
 4071.00    0.94327   0.99237    9.426
 4072.00    0.92269   0.98689    9.443
 4073.00    0.91326   0.97962    9.472
 4074.00    0.93169   0.97097    9.780
 4075.00    0.96187   0.96009   10.318
 4076.00    0.97827   0.94740   10.827
 4077.00    0.98401   0.93574   11.206
 4078.00    0.99461   0.92927   11.460
 4079.00    1.00999   0.93103   11.455
 4080.00    1.02169   0.94051   11.154
 4081.00    1.02677   0.95381   10.918
 4082.00    1.02577   0.96600   11.066
 4083.00    1.01816   0.97357   11.464
 4084.00    1.00438   0.97597   11.773
 4085.00    0.98873   0.97528   11.867
 4086.00    0.97522   0.97431   11.782
 4087.00    0.96287   0.97497   11.535
 4088.00    0.94953   0.97719   11.241
 4089.00    0.93653   0.97908   11.214
 4090.00    0.92420   0.97829   11.595
 4091.00    0.90721   0.97322   11.975
 4092.00    0.88101   0.96303    0.000
 4093.00    0.84862   0.94746    0.000
 4094.00    0.81638   0.92648    0.000
 4095.00    0.78893   0.89982    0.000
 4096.00    0.76877   0.86740    0.000
 4097.00    0.75645   0.83030    0.000
 4098.00    0.75386   0.79017    0.000
 4099.00    0.76636   0.74899    0.000
 4100.00    0.79468   0.70979    0.000
 4101.00    0.82852   0.67703    0.000
 4102.00    0.85535   0.65644    0.000
 4103.00    0.86835   0.65288    0.000
 4104.00    0.86605   0.66714    0.000
 4105.00    0.85143   0.69525    0.000
 4106.00    0.83250   0.73085    0.000
 4107.00    0.82140   0.76758    0.000
 4108.00    0.82406   0.80077    0.000
 4109.00    0.83389   0.82858    0.000
 4110.00    0.84509   0.85160    0.000
 4111.00    0.86156   0.87182    0.000
 4112.00    0.88727   0.89126    0.000
 4113.00    0.91924   0.91070   12.504
 4114.00    0.94993   0.92944   12.356
 4115.00    0.97029   0.94585   12.377
 4116.00    0.97690   0.95815   12.536
 4117.00    0.97543   0.96516   12.718
 4118.00    0.97239   0.96672   12.767
 4119.00    0.97038   0.96445   12.550
 4120.00    0.97178   0.96139   12.138
 4121.00    0.98008   0.95989   11.809
 4122.00    0.99259   0.96059   11.797
 4123.00    0.99899   0.96323   12.203
 4124.00    0.99794   0.96720   12.784
 4125.00    1.00206   0.97103   12.818
 4126.00    1.01260   0.97268   12.144
 4127.00    1.01128   0.97083   11.520
 4128.00    0.99194   0.96579   11.323
 4129.00    0.97188   0.95918   11.359
 4130.00    0.96240   0.95294   11.435
 4131.00    0.95710   0.94835   11.533
 4132.00    0.94987   0.94658   11.609
 4133.00    0.94298   0.94925   11.535
 4134.00    0.94146   0.95767   11.362
 4135.00    0.94939   0.97152   11.350
 4136.00    0.96588   0.98878   11.611
 4137.00    0.98479   1.00628   11.997
 4138.00    1.00085   1.02096   12.193
 4139.00    1.01172   1.03073   11.914
 4140.00    1.01448   1.03374   11.441
 4141.00    1.00538   1.02902   11.413
 4142.00    0.98449   1.01765   11.938
 4143.00    0.95695   1.00316   12.482
 4144.00    0.93066   0.99086   12.635
 4145.00    0.91375   0.98516   12.545
 4146.00    0.90938   0.98650   12.441
 4147.00    0.91528   0.99182   12.416
 4148.00    0.92927   0.99759   12.512
 4149.00    0.95025   1.00132   12.737
 4150.00    0.97468   1.00202   12.925
 4151.00    0.99631   1.00019   12.817
 4152.00    1.00937   0.99665   12.518
 4153.00    1.01085   0.99197   12.411
 4154.00    1.00385   0.98701   12.538
 4155.00    0.99665   0.98315   12.619
 4156.00    0.99655   0.98189   12.554
 4157.00    1.00718   0.98409   12.496
 4158.00    1.02644   0.98983   12.519
 4159.00    1.04803   0.99827   12.556
 4160.00    1.06747   1.00774   12.509
 4161.00    1.08311   1.01676   12.352
 4162.00    1.09436   1.02479   12.300
 4163.00    1.10083   1.03165   12.634
 4164.00    1.10168   1.03659   13.154
 4165.00    1.09578   1.03898   13.258
 4166.00    1.08268   1.03859   12.943
 4167.00    1.06306   1.03522   12.738
 4168.00    1.03918   1.02911   12.755
 4169.00    1.01450   1.02052   12.774
 4170.00    0.99228   1.00883   12.796
 4171.00    0.97496   0.99343   12.972
 4172.00    0.96322   0.97570   13.171
 4173.00    0.95672   0.95903   13.079
 4174.00    0.95586   0.94701   12.742
 4175.00    0.96107   0.94111   12.476
 4176.00    0.97072   0.94030   12.476
 4177.00    0.98205   0.94260   12.765
 4178.00    0.99392   0.94680   13.158
 4179.00    1.00579   0.95291   13.327
 4180.00    1.01474   0.96085   13.109
 4181.00    1.01712   0.96932   12.655
 4182.00    1.01267   0.97670   12.381
 4183.00    1.00360   0.98265   12.610
 4184.00    0.99156   0.98757   13.139
 4185.00    0.97827   0.99152   13.433
 4186.00    0.96746   0.99424   13.353
 4187.00    0.96328   0.99569   13.125
 4188.00    0.96714   0.99742   12.858
 4189.00    0.97779   1.00156   12.611
 4190.00    0.99228   1.00813   12.615
 4191.00    1.00758   1.01545   13.042
 4192.00    1.02260   1.02224   13.604
 4193.00    1.03620   1.02729   13.750
 4194.00    1.04382   1.02824   13.398
 4195.00    1.04160   1.02296   12.873
 4196.00    1.03248   1.01198   12.447
 4197.00    1.02135   0.99806   12.277
 4198.00    1.00737   0.98402   12.448
 4199.00    0.98866   0.97238   12.945
 4200.00    0.96947   0.96527   13.512
 4201.00    0.95643   0.96267   13.769
 4202.00    0.95247   0.96329   13.586
 4203.00    0.95612   0.96693   13.171
 4204.00    0.96195   0.97355   12.901
 4205.00    0.96571   0.98236   13.001
 4206.00    0.96992   0.99272   13.309
 4207.00    0.97836   1.00392   13.518
 4208.00    0.98935   1.01452   13.518
 4209.00    0.99909   1.02319   13.294
 4210.00    1.00598   1.02942   12.778
 4211.00    1.00942   1.03352   12.168
 4212.00    1.00800   1.03557   12.055
 4213.00    1.00099   1.03502   12.743
 4214.00    0.98996   1.03172   13.632
 4215.00    0.97872   1.02691   13.797
 4216.00    0.97273   1.02362   13.413
 4217.00    0.97543   1.02490   13.068
 4218.00    0.98503   1.03070   12.813
 4219.00    0.99689   1.03779   12.613
 4220.00    1.00600   1.04258   12.694
 4221.00    1.00663   1.04229   13.144
 4222.00    0.99253   1.03469   13.548
 4223.00    0.96346   1.01914   13.523
 4224.00    0.92978   0.99763   13.348
 4225.00    0.90387   0.97423   13.342
 4226.00    0.89298   0.95432   13.370
 4227.00    0.89940   0.94377   13.301
 4228.00    0.92108   0.94645   13.325
 4229.00    0.95159   0.96089   13.521
 4230.00    0.98071   0.98054   13.573
 4231.00    0.99954   0.99840   13.295
 4232.00    1.00427   1.00959   12.995
 4233.00    0.99769   1.01263   12.940
 4234.00    0.98880   1.00993   13.088
 4235.00    0.98526   1.00511   13.340
 4236.00    0.98865   1.00057   13.666
 4237.00    0.99763   0.99831   13.974
 4238.00    1.01013   0.99956   14.030
 4239.00    1.02325   1.00413   13.746
 4240.00    1.03340   1.01168   13.340
 4241.00    1.03851   1.02155   13.031
 4242.00    1.03905   1.03171   12.910
 4243.00    1.03642   1.03993   13.034
 4244.00    1.03199   1.04495   13.451
 4245.00    1.02724   1.04548   13.971
 4246.00    1.02344   1.04060   14.045
 4247.00    1.01939   1.03156   13.510
 4248.00    1.01120   1.02136   12.888
 4249.00    0.99773   1.01232   12.605
 4250.00    0.98280   1.00526   12.781
 4251.00    0.97200   1.00118   13.341
 4252.00    0.97013   1.00110   13.995
 4253.00    0.97721   1.00395   14.386
 4254.00    0.98780   1.00762   14.300
 4255.00    0.99666   1.01143   13.821
 4256.00    1.00128   1.01530   13.268
 4257.00    1.00098   1.01793   12.960
 4258.00    0.99648   1.01769   13.115
 4259.00    0.99010   1.01499   13.650
 4260.00    0.98541   1.01244   14.111
 4261.00    0.98527   1.01334   14.180
 4262.00    0.99108   1.02007   13.970
 4263.00    1.00295   1.03203   13.642
 4264.00    1.01966   1.04585   13.251
 4265.00    1.03833   1.05757   12.900
 4266.00    1.05407   1.06385   12.749
 4267.00    1.05941   1.06219   12.935
 4268.00    1.04698   1.05213   13.515
 4269.00    1.01954   1.03542   14.196
 4270.00    0.98905   1.01469   14.305
 4271.00    0.96197   0.99315   13.784
 4272.00    0.93738   0.97528   13.293
 4273.00    0.91775   0.96527   13.219
 4274.00    0.90940   0.96404   13.577
 4275.00    0.91281   0.97036   14.095
 4276.00    0.92215   0.98289   14.281
 4277.00    0.93344   0.99886   14.015
 4278.00    0.94578   1.01405   13.622
 4279.00    0.95776   1.02500   13.285
 4280.00    0.96732   1.03033   13.003
 4281.00    0.97451   1.03065   12.840
 4282.00    0.98065   1.02734   12.913
 4283.00    0.98382   1.02168   13.197
 4284.00    0.98015   1.01465   13.539
 4285.00    0.96999   1.00636   13.828
 4286.00    0.95735   0.99647   14.022
 4287.00    0.94461   0.98510   14.055
 4288.00    0.93269   0.97256   13.903
 4289.00    0.92473   0.95994   13.772
 4290.00    0.92510   0.95003   13.926
 4291.00    0.93518   0.94626   14.256
 4292.00    0.95250   0.94905   14.386
 4293.00    0.97120   0.95473   14.229
 4294.00    0.98440   0.95872   13.983
 4295.00    0.98868   0.95868   13.730
 4296.00    0.98383   0.95379   13.471
 4297.00    0.97024   0.94338   13.334
 4298.00    0.94990   0.92764   13.462
 4299.00    0.92925   0.90823   13.762
 4300.00    0.91546   0.88882   14.001
 4301.00    0.90851   0.87360   14.156
 4302.00    0.90352   0.86411   14.310
 4303.00    0.89783   0.85996   14.289
 4304.00    0.89095   0.86047   13.893
 4305.00    0.88237   0.86353   13.412
 4306.00    0.87180   0.86670   13.260
 4307.00    0.86023   0.86915   13.482
 4308.00    0.84989   0.87155   13.823
 4309.00    0.84387   0.87589   13.839
 4310.00    0.84453   0.88417   13.301
 4311.00    0.85138   0.89634   12.699
 4312.00    0.86217   0.91062   12.561
 4313.00    0.87524   0.92550   12.819
 4314.00    0.89025   0.94102   13.100
 4315.00    0.90875   0.95838   -2.000
 4316.00    0.93302   0.97793   -2.000
 4317.00    0.96401   0.99711   -2.000
 4318.00    0.99607   1.01206   -2.000
 4319.00    1.01124   1.02038   -2.000
 4320.00    0.99357   1.02106   -2.000
 4321.00    0.94839   1.01427   -2.000
 4322.00    0.89365   1.00155   -2.000
 4323.00    0.84575   0.98446   -2.000
 4324.00    0.81550   0.96450   -2.000
 4325.00    0.80543   0.94494   -2.000
 4326.00    0.81156   0.93078   -2.000
 4327.00    0.82610   0.92583   -2.000
 4328.00    0.84109   0.92922   -2.000
 4329.00    0.85204   0.93619   -2.000
 4330.00    0.85643   0.94194   -2.000
 4331.00    0.85198   0.94414    0.000
 4332.00    0.83948   0.94176    0.000
 4333.00    0.82547   0.93323    0.000
 4334.00    0.81556   0.91695    0.000
 4335.00    0.80838   0.89214    0.000
 4336.00    0.80623   0.85818    0.000
 4337.00    0.82461   0.81584    0.000
 4338.00    0.87894   0.76967    0.000
 4339.00    0.97054   0.72648    0.000
 4340.00    1.07945   0.69274    0.000
 4341.00    1.16237   0.67460    0.000
 4342.00    1.18352   0.67587    0.000
 4343.00    1.14080   0.69462    0.000
 4344.00    1.05661   0.72546    0.000
 4345.00    0.96601   0.76339    0.000
 4346.00    0.89770   0.80333    0.000
 4347.00    0.85986   0.84016    0.000
 4348.00    0.84682   0.87068    0.000
 4349.00    0.84612   0.89334    0.000
 4350.00    0.84715   0.90722    0.000
 4351.00    0.84713   0.91343   14.402
 4352.00    0.84834   0.91687   14.741
 4353.00    0.85530   0.92340   14.869
 4354.00    0.87040   0.93501   14.753
 4355.00    0.89131   0.95017   14.533
 4356.00    0.91368   0.96715   14.281
 4357.00    0.93351   0.98398   13.913
 4358.00    0.94997   0.99843   13.511
 4359.00    0.96637   1.01030   13.395
 4360.00    0.98574   1.02175   13.663
 4361.00    1.00789   1.03412   14.001
 4362.00    1.02928   1.04657   14.118
 4363.00    1.04405   1.05763   14.057
 4364.00    1.04973   1.06644   13.943
 4365.00    1.04955   1.07183   13.812
 4366.00    1.04705   1.07209   13.655
 4367.00    1.04311   1.06683   13.467
 4368.00    1.03746   1.05822   13.344
 4369.00    1.02952   1.04923   13.461
 4370.00    1.01868   1.04141   13.784
 4371.00    1.00474   1.03495   13.962
 4372.00    0.98979   1.02955   13.835
 4373.00    0.97852   1.02420   13.630
 4374.00    0.97539   1.01861   13.438
 4375.00    0.98244   1.01504   13.106
 4376.00    0.99572   1.01660   12.758
 4377.00    1.00596   1.02327   12.803
 4378.00    1.00808   1.03106   13.321
 4379.00    1.00359   1.03526   13.912
 4380.00    0.99238   1.03305   14.292
 4381.00    0.97126   1.02350   14.592
 4382.00    0.94229   1.00644   14.787
 4383.00    0.91424   0.98372   14.567
 4384.00    0.89437   0.96119   14.064
 4385.00    0.88534   0.94622   13.817
 4386.00    0.88640   0.94209   13.947
 4387.00    0.89449   0.94681   14.130
 4388.00    0.90648   0.95681   14.191
 4389.00    0.92009   0.96948   14.268
 4390.00    0.93402   0.98239   14.457
 4391.00    0.94790   0.99379   14.698
 4392.00    0.96165   1.00349   14.790
 4393.00    0.97502   1.01093   14.535
 4394.00    0.98668   1.01529   14.124
 4395.00    0.99507   1.01783   13.977
 4396.00    1.00193   1.02131   14.146
 4397.00    1.01114   1.02595   14.357
 4398.00    1.02200   1.02891   14.504
 4399.00    1.02936   1.02823   14.690
 4400.00    1.02966   1.02461   14.824
 4401.00    1.02223   1.02052   14.665
 4402.00    1.00785   1.01783   14.343
 4403.00    0.98908   1.01528   14.237
 4404.00    0.97234   1.01113   14.397
 4405.00    0.96574   1.00737   14.579
 4406.00    0.97233   1.00715   14.614
 4407.00    0.98895   1.01010   14.512
 4408.00    1.00781   1.01451   14.427
 4409.00    1.02044   1.02094   14.534
 4410.00    1.02592   1.02961   14.813
 4411.00    1.02925   1.03815   15.060
 4412.00    1.03320   1.04389   15.081
 4413.00    1.03749   1.04504   14.826
 4414.00    1.04113   1.04042   14.512
 4415.00    1.04325   1.03169   14.423
 4416.00    1.04390   1.02378   14.593
 4417.00    1.04372   1.02028   14.864
 4418.00    1.04303   1.02198   15.073
 4419.00    1.04219   1.02852   15.137
 4420.00    1.04235   1.03760   15.150
 4421.00    1.04458   1.04549   15.239
 4422.00    1.04804   1.05028   15.280
 4423.00    1.05127   1.05303   15.077
 4424.00    1.05524   1.05534   14.796
 4425.00    1.06170   1.05702   14.736
 4426.00    1.06958   1.05747   14.900
 4427.00    1.07662   1.05692   15.108
 4428.00    1.08304   1.05587   15.268
 4429.00    1.08980   1.05392   15.390
 4430.00    1.09487   1.05018   15.506
 4431.00    1.09464   1.04552   15.618
 4432.00    1.08720   1.04127   15.651
 4433.00    1.07416   1.03717   15.518
 4434.00    1.06227   1.03331   15.246
 4435.00    1.05910   1.03165   14.956
 4436.00    1.06637   1.03462   14.815
 4437.00    1.08099   1.04235   14.928
 4438.00    1.09770   1.05190   15.219
 4439.00    1.11031   1.05934   15.507
 4440.00    1.11302   1.06164   15.646
 4441.00    1.10370   1.05790   15.594
 4442.00    1.08771   1.04996   15.455
 4443.00    1.07333   1.04168   15.349
 4444.00    1.06559   1.03746   15.276
 4445.00    1.06650   1.03962   15.172
 4446.00    1.07617   1.04638   14.999
 4447.00    1.09177   1.05421   14.829
 4448.00    1.10662   1.06132   14.890
 4449.00    1.11488   1.06629   15.313
 4450.00    1.11648   1.06716   15.835
 4451.00    1.11277   1.06393   16.050
 4452.00    1.10170   1.05774   15.879
 4453.00    1.08230   1.04842   15.494
 4454.00    1.05944   1.03572   15.086
 4455.00    1.03857   1.02167   14.818
 4456.00    1.02039   1.00978   14.830
 4457.00    1.00458   1.00145   15.139
 4458.00    0.99355   0.99571   15.533
 4459.00    0.98968   0.99199   15.758
 4460.00    0.99256   0.99061   15.780
 4461.00    1.00058   0.99124    0.000
 4462.00    1.01251   0.99406    0.000
 4463.00    1.02677   0.99979    0.000
 4464.00    1.04078   1.00672    0.000
 4465.00    1.05180   1.01223    0.000
 4466.00    1.05772   1.01571    0.000
 4467.00    1.05772   1.01737    0.000
 4468.00    1.05279   1.01745    0.000
 4469.00    1.04540   1.01733    0.000
 4470.00    1.03905   1.01958    0.000
 4471.00    1.03635   1.02602    0.000
 4472.00    1.03780   1.03698    0.000
 4473.00    1.04264   1.05148    0.000
 4474.00    1.04934   1.06700    0.000
 4475.00    1.05383   1.08034    0.000
 4476.00    1.04972   1.08953    0.000
 4477.00    1.03707   1.09396    0.000
 4478.00    1.02611   1.09247    0.000
 4479.00    1.02283   1.08423    0.000
 4480.00    1.02144   1.07092    0.000
 4481.00    1.01622   1.05704    0.000
 4482.00    1.00857   1.04806   13.346
 4483.00    1.00355   1.04714   13.314
 4484.00    1.00662   1.05282   13.176
 4485.00    1.01795   1.06134   13.086
 4486.00    1.03061   1.06939   12.997
 4487.00    1.03846   1.07417   12.948
 4488.00    1.04001   1.07395   13.141
 4489.00    1.03576   1.06958   13.592
 4490.00    1.02687   1.06409   13.975
 4491.00    1.01663   1.06006   14.110
 4492.00    1.01036   1.05828   14.217
 4493.00    1.01082   1.05785   14.358
 4494.00    1.01698   1.05774   14.241
 4495.00    1.02862   1.05887   13.792
 4496.00    1.04736   1.06261   13.315
 4497.00    1.07146   1.06892   13.011
 4498.00    1.09448   1.07700   12.878
 4499.00    1.10997   1.08564   12.871
 4500.00    1.11437   1.09354   12.958
 4501.00    1.11015   1.10080   13.125
 4502.00    1.10481   1.10961   13.373
 4503.00    1.10232   1.12086   13.684
 4504.00    1.10116   1.13199   14.011
 4505.00    1.10059   1.14025   14.260
 4506.00    1.10233   1.14485   14.319
 4507.00    1.10739   1.14597   14.152
 4508.00    1.11464   1.14460   13.859
 4509.00    1.12025   1.14241   13.707
 4510.00    1.11944   1.14007   14.000
 4511.00    1.11255   1.13657   14.645
 4512.00    1.10507   1.13109   15.097
 4513.00    1.10039   1.12402   15.136
 4514.00    1.09813   1.11607   15.113
 4515.00    1.09667   1.10828   15.254
 4516.00    1.09397   1.10199   15.483
 4517.00    1.08749   1.09728   15.573
 4518.00    1.07577   1.09349   15.336
 4519.00    1.06304   1.09075   14.981
 4520.00    1.05706   1.08874   14.919
 4521.00    1.05938   1.08607   15.171
 4522.00    1.06538   1.08087   15.419
 4523.00    1.07194   1.07294   15.560
 4524.00    1.07848   1.06361   15.736
 4525.00    1.08398   1.05302   15.862
 4526.00    1.08706   1.04130   15.707
 4527.00    1.08829   1.02952   15.434
 4528.00    1.08946   1.01880   15.402
 4529.00    1.09064   1.01049   15.470
 4530.00    1.09045   1.00598   15.221
 4531.00    1.08843   1.00528   14.841
 4532.00    1.08490   1.00739   14.840
 4533.00    1.07929   1.01075   15.237
 4534.00    1.07154   1.01506   15.648
 4535.00    1.06589   1.02230   15.824
 4536.00    1.06780   1.03397   15.775
 4537.00    1.07613   1.04861   15.638
 4538.00    1.08567   1.06223   15.546
 4539.00    1.09524   1.07175   15.478
 4540.00    1.10487   1.07695   15.282
 4541.00    1.10731   1.07926   14.789
 4542.00    1.09456   1.08023   14.078
 4543.00    1.07263   1.07982   13.711
 4544.00    1.05473   1.07667   14.181
 4545.00    1.04458   1.07125   15.156
 4546.00    1.03938   1.06558   15.709
 4547.00    1.03995   1.05996   15.700
 4548.00    1.04788   1.05290   15.679
 4549.00    1.05820   1.04403   15.697
 4550.00    1.06335   1.03613    0.000
 4551.00    1.06123   1.03186    0.000
 4552.00    1.05456   1.02989    0.000
 4553.00    1.04767   1.02837    0.000
 4554.00    1.04562   1.02771    0.000
 4555.00    1.05342   1.02964    0.000
 4556.00    1.07267   1.03600    0.000
 4557.00    1.09759   1.04654    0.000
 4558.00    1.12104   1.05817    0.000
 4559.00    1.14321   1.06862    0.000
 4560.00    1.16277   1.07752    0.000
 4561.00    1.16478   1.08431    0.000
 4562.00    1.13849   1.08767    0.000
 4563.00    1.10042   1.08675    0.000
 4564.00    1.07379   1.08309    0.000
 4565.00    1.06058   1.08016    0.000
 4566.00    1.05353   1.08042    0.000
 4567.00    1.05359   1.08381    0.000
 4568.00    1.06280   1.08838    0.000
 4569.00    1.07443   1.09231    0.000
 4570.00    1.08113   1.09468    0.000
 4571.00    1.08464   1.09478    0.000
 4572.00    1.08986   1.09405    0.000
 4573.00    1.09768   1.09491    0.000
 4574.00    1.10474   1.09630    0.000
 4575.00    1.10486   1.09597    0.000
 4576.00    1.09820   1.09398    0.000
 4577.00    1.09833   1.09073    0.000
 4578.00    1.11429   1.08558    0.000
 4579.00    1.13420   1.07760    0.000
 4580.00    1.13934   1.06728    0.000
 4581.00    1.11915   1.05699    0.000
 4582.00    1.07846   1.04865    0.000
 4583.00    1.04049   1.04269    0.000
 4584.00    1.02653   1.03994    0.000
 4585.00    1.03869   1.04127    0.000
 4586.00    1.06276   1.04584    0.000
 4587.00    1.07457   1.05217    0.000
 4588.00    1.06448   1.05878    0.000
 4589.00    1.05256   1.06424    0.000
 4590.00    1.05721   1.06746    0.000
 4591.00    1.07219   1.06796    0.000
 4592.00    1.08093   1.06643    0.000
 4593.00    1.07012   1.06476    0.000
 4594.00    1.04372   1.06385    0.000
 4595.00    1.02753   1.06325    0.000
 4596.00    1.03609   1.06317    0.000
 4597.00    1.05415   1.06417    0.000
 4598.00    1.06623   1.06608    0.000
 4599.00    1.07440   1.06811    0.000
 4600.00    1.08277   1.06915    0.000
 4601.00    1.08837   1.06974    0.000
 4602.00    1.08940   1.07148    0.000
 4603.00    1.08945   1.07447    0.000
 4604.00    1.09062   1.07821    0.000
 4605.00    1.09024   1.08273    0.000
 4606.00    1.08614   1.08868    0.000
 4607.00    1.07951   1.09656    0.000
 4608.00    1.07380   1.10543    0.000
 4609.00    1.07345   1.11330    0.000
 4610.00    1.08113   1.11838    0.000
 4611.00    1.09576   1.12028    0.000
 4612.00    1.11036   1.11996    0.000
 4613.00    1.11408   1.11808    0.000
 4614.00    1.10712   1.11534    0.000
 4615.00    1.10288   1.11224    0.000
 4616.00    1.10486   1.10863    0.000
 4617.00    1.10127   1.10550    0.000
 4618.00    1.09041   1.10336    0.000
 4619.00    1.08634   1.10178    0.000
 4620.00    1.09342   1.10201    0.000
 4621.00    1.10064   1.10475    0.000
 4622.00    1.10444   1.10834    0.000
 4623.00    1.11307   1.11154    0.000
 4624.00    1.12534   1.11365    0.000
 4625.00    1.12829   1.11405    0.000
 4626.00    1.12094   1.11339    0.000
 4627.00    1.11685   1.11220    0.000
 4628.00    1.11932   1.10962    0.000
 4629.00    1.11831   1.10571    0.000
 4630.00    1.11247   1.10263    0.000
 4631.00    1.11085   1.10143    0.000
 4632.00    1.11170   1.10005    0.000
 4633.00    1.10252   1.09668    0.000
 4634.00    1.08394   1.09220    0.000
 4635.00    1.07002   1.08834    0.000
 4636.00    1.06425   1.08558    0.000
 4637.00    1.05852   1.08295    0.000
 4638.00    1.05297   1.08032    0.000
 4639.00    1.05642   1.07884    0.000
 4640.00    1.06954   1.07878    0.000
 4641.00    1.08358   1.07950    0.000
 4642.00    1.09079   1.07951    0.000
 4643.00    1.08853   1.07722    0.000
 4644.00    1.08190   1.07263    0.000
 4645.00    1.07965   1.06621    0.000
 4646.00    1.08225   1.05829    0.000
 4647.00    1.08340   1.05100    0.000
 4648.00    1.08146   1.04681    0.000
 4649.00    1.07937   1.04667    0.000
 4650.00    1.07743   1.05013    0.000
 4651.00    1.07433   1.05547    0.000
 4652.00    1.07347   1.06133    0.000
 4653.00    1.07984   1.06702    0.000
 4654.00    1.08996   1.07111    0.000
 4655.00    1.09484   1.07356    0.000
 4656.00    1.09095   1.07599    0.000
 4657.00    1.08108   1.07970    0.000
 4658.00    1.07127   1.08554    0.000
 4659.00    1.06739   1.09227    0.000
 4660.00    1.07011   1.09681    0.000
 4661.00    1.07668   1.09707    0.000
 4662.00    1.08617   1.09238    0.000
 4663.00    1.09663   1.08334    0.000
 4664.00    1.09840   1.07150    0.000
 4665.00    1.08303   1.05757    0.000
 4666.00    1.06031   1.04167    0.000
 4667.00    1.04669   1.02642    0.000
 4668.00    1.04111   1.01663    0.000
 4669.00    1.03463   1.01463    0.000
 4670.00    1.03229   1.01919    0.000
 4671.00    1.04229   1.02813    0.000
 4672.00    1.05412   1.03915    0.000
 4673.00    1.05387   1.05059    0.000
 4674.00    1.05160   1.06169    0.000
 4675.00    1.06406   1.07135    0.000
 4676.00    1.08435   1.07828    0.000
 4677.00    1.09447   1.08131    0.000
 4678.00    1.08916   1.08019    0.000
 4679.00    1.07465   1.07683    0.000
 4680.00    1.06207   1.07348    0.000
 4681.00    1.06126   1.07095    0.000
 4682.00    1.07398   1.06965    0.000
 4683.00    1.09592   1.07020    0.000
 4684.00    1.12045   1.07216    0.000
 4685.00    1.13995   1.07449    0.000
 4686.00    1.14717   1.07670    0.000
 4687.00    1.14011   1.07844    0.000
 4688.00    1.12681   1.07947    0.000
 4689.00    1.11696   1.07983    0.000
 4690.00    1.11216   1.07953    0.000
 4691.00    1.10998   1.07894    0.000
 4692.00    1.10937   1.07902    0.000
 4693.00    1.10940   1.07991    0.000
 4694.00    1.10773   1.08094    0.000
 4695.00    1.10402   1.08163    0.000
 4696.00    1.10295   1.08113    0.000
 4697.00    1.10689   1.07806    0.000
 4698.00    1.10921   1.07183    0.000
 4699.00    1.10295   1.06416    0.000
 4700.00    1.08899   1.05714    0.000
 4701.00    1.07209   1.05069    0.000
 4702.00    1.05657   1.04398    0.000
 4703.00    1.04560   1.03803    0.000
 4704.00    1.04087   1.03512    0.000
 4705.00    1.04221   1.03534    0.000
 4706.00    1.04733   1.03627    0.000
 4707.00    1.05155   1.03638    0.000
 4708.00    1.04866   1.03661    0.000
 4709.00    1.03869   1.03838    0.000
 4710.00    1.03251   1.04218    0.000
 4711.00    1.04017   1.04725    0.000
 4712.00    1.06169   1.05194    0.000
 4713.00    1.08628   1.05562    0.000
 4714.00    1.09522   1.05931    0.000
 4715.00    1.08332   1.06482    0.000
 4716.00    1.06994   1.07276    0.000
 4717.00    1.07242   1.08139    0.000
 4718.00    1.08892   1.08930    0.000
 4719.00    1.10781   1.09705    0.000
 4720.00    1.11621   1.10474    0.000
 4721.00    1.11133   1.11093    0.000
 4722.00    1.10416   1.11407    0.000
 4723.00    1.10061   1.11434    0.000
 4724.00    1.09301   1.11279    0.000
 4725.00    1.07798   1.10898    0.000
 4726.00    1.06442   1.10159    0.000
 4727.00    1.05843   1.09067    0.000
 4728.00    1.05627   1.07869    0.000
 4729.00    1.05365   1.06854    0.000
 4730.00    1.05038   1.06081    0.000
 4731.00    1.04750   1.05523    0.000
 4732.00    1.04564   1.05285    0.000
 4733.00    1.04494   1.05436    0.000
 4734.00    1.04470   1.05856    0.000
 4735.00    1.04204   1.06351    0.000
 4736.00    1.03301   1.06742    0.000
 4737.00    1.02039   1.07105    0.000
 4738.00    1.01409   1.07618    0.000
 4739.00    1.01743   1.08141    0.000
 4740.00    1.02425   1.08485    0.000
 4741.00    1.03301   1.08730    0.000
 4742.00    1.04941   1.09059    0.000
 4743.00    1.07211   1.09475    0.000
 4744.00    1.09019   1.09800    0.000
 4745.00    1.09677   1.09986    0.000
 4746.00    1.09369   1.10185    0.000
 4747.00    1.08845   1.10400    0.000
 4748.00    1.08968   1.10486    0.000
 4749.00    1.09599   1.10433    0.000
 4750.00    1.09652   1.10301    0.000
 4751.00    1.08684   1.10049    0.000
 4752.00    1.07250   1.09625    0.000
 4753.00    1.06135   1.09094    0.000
 4754.00    1.05914   1.08579    0.000
 4755.00    1.06410   1.08153    0.000
 4756.00    1.06874   1.07814    0.000
 4757.00    1.07070   1.07579    0.000
 4758.00    1.07345   1.07449    0.000
 4759.00    1.07822   1.07344    0.000
 4760.00    1.08175   1.07125    0.000
 4761.00    1.07739   1.06641   15.965
 4762.00    1.05918   1.05905   15.971
 4763.00    1.03201   1.05133   15.858
 4764.00    1.00924   1.04488   15.795
 4765.00    0.99896   1.04014   15.877
 4766.00    1.00180   1.03783   16.072
 4767.00    1.01504   1.03924   16.244
 4768.00    1.03373   1.04467   16.232
 4769.00    1.05083   1.05278   16.057
 4770.00    1.05964   1.06142   15.878
 4771.00    1.05948   1.06885   15.775
 4772.00    1.05516   1.07556   15.745
 4773.00    1.05284   1.08278   15.793
 4774.00    1.05696   1.09009   15.901
 4775.00    1.06589   1.09573   15.919
 4776.00    1.07435   1.09924   15.687
 4777.00    1.08031   1.10208   15.338
 4778.00    1.08411   1.10409   15.133
 4779.00    1.08389   1.10354   15.103
 4780.00    1.07722   1.10067   15.134
 4781.00    1.06605   1.09691   15.192
 4782.00    1.05586   1.09229   15.298
 4783.00    1.05201   1.08633   15.379
 4784.00    1.05585   1.08057   15.343
 4785.00    1.05955   1.07605   15.254
 4786.00    1.05428   1.07177   15.241
 4787.00    1.04573   1.06840   15.296
 4788.00    1.04616   1.06740   15.324
 4789.00    1.05672   1.06860   15.281
 4790.00    1.07039   1.07173   15.181
 4791.00    1.08158   1.07672   15.067
 4792.00    1.08784   1.08345   14.987
 4793.00    1.08997   1.09128   14.971
 4794.00    1.09005   1.09871   15.023
 4795.00    1.08844   1.10429   15.114
 4796.00    1.08415   1.10696   15.191
 4797.00    1.07607   1.10662   15.190
 4798.00    1.06514   1.10396   15.100
 4799.00    1.05686   1.09984   15.041
 4800.00    1.05736   1.09551   15.128
 4801.00    1.06762   1.09232   15.294
 4802.00    1.08168   1.09051   15.411
 4803.00    1.08616   1.08876   15.471
 4804.00    1.07229   1.08602   15.526
 4805.00    1.05004   1.08292   15.564
 4806.00    1.03540   1.08080   15.560
 4807.00    1.03341   1.07915   15.543
 4808.00    1.04156   1.07721   15.562
 4809.00    1.05615   1.07603   15.622
 4810.00    1.07304   1.07658   15.700
 4811.00    1.08780   1.07868   15.764
 4812.00    1.09714   1.08153   15.782
 4813.00    1.10047   1.08512   15.737
 4814.00    1.09882   1.08976   15.672
 4815.00    1.09364   1.09479   15.709
 4816.00    1.08681   1.09952   15.891
 4817.00    1.08062   1.10349   16.035
 4818.00    1.07791   1.10592   16.002
 4819.00    1.08162   1.10611   15.967
 4820.00    1.09009   1.10377   16.082
 4821.00    1.09361   1.09917   16.177
 4822.00    1.08418   1.09212   16.113
 4823.00    1.06407   1.08249   16.097
 4824.00    1.04286   1.07331   16.288
 4825.00    1.03298   1.06802   16.475
 4826.00    1.03857   1.06582   16.441
 4827.00    1.04844   1.06419   16.291
 4828.00    1.05274   1.06238   16.206
 4829.00    1.05548   1.06214   16.220
 4830.00    1.06390   1.06362   16.271
 4831.00    1.07954   1.06394   16.254
 4832.00    1.09768   1.06230   16.153
 4833.00    1.10858   1.06088   16.099
 4834.00    1.10671   1.06048   16.142
 4835.00    1.09628   1.05959   16.124
 4836.00    1.08450   1.05729   15.988
 4837.00    1.07624   1.05477   15.940
 4838.00    1.07154   1.05208   16.051
 4839.00    1.06527   1.04786   16.071
 4840.00    1.05463   1.04291   15.876
 4841.00    1.04325   1.03925   15.701
 4842.00    1.03653   1.03653   15.725
 4843.00    1.03787   1.03294   15.877
 4844.00    1.04456   1.02922   16.021
 4845.00    1.04741   1.02674   16.081
 4846.00    1.04196   1.02411   16.028
 4847.00    1.03322   1.01871   15.888
 4848.00    1.02565   1.01052    0.000
 4849.00    1.01836   1.00216    0.000
 4850.00    1.00998   0.99412    0.000
 4851.00    1.00104   0.98376    0.000
 4852.00    0.99211   0.97006    0.000
 4853.00    0.98283   0.95392    0.000
 4854.00    0.97190   0.93466    0.000
 4855.00    0.95976   0.91097    0.000
 4856.00    0.96025   0.88406    0.000
 4857.00    1.00248   0.85619    0.000
 4858.00    1.11404   0.82742    0.000
 4859.00    1.30712   0.79727    0.000
 4860.00    1.55340   0.76795    0.000
 4861.00    1.78356   0.74509    0.000
 4862.00    1.93045   0.73439    0.000
 4863.00    1.95126   0.73628    0.000
 4864.00    1.84031   0.74711    0.000
 4865.00    1.63066   0.76517    0.000
 4866.00    1.38032   0.78969    0.000
 4867.00    1.15690   0.81767    0.000
 4868.00    1.00191   0.84420    0.000
 4869.00    0.92073   0.86613    0.000
 4870.00    0.89520   0.88238    0.000
 4871.00    0.89538   0.89315    0.000
 4872.00    0.90266   0.90208    0.000
 4873.00    0.91436   0.91261    0.000
 4874.00    0.93205   0.92414    0.000
 4875.00    0.95600   0.93537   16.833
 4876.00    0.98084   0.94720   16.822
 4877.00    0.99759   0.96083   16.872
 4878.00    1.00361   0.97493   17.001
 4879.00    1.00342   0.98776   17.163
 4880.00    1.00157   0.99740   17.264
 4881.00    1.00042   1.00236   17.207
 4882.00    0.99999   1.00396   17.003
 4883.00    0.99873   1.00393   16.778
 4884.00    0.99562   1.00190   16.674
 4885.00    0.99035   0.99719   16.787
 4886.00    0.98212   0.99139   17.039
 4887.00    0.97136   0.98732   17.223
 4888.00    0.96450   0.98575   17.243
 4889.00    0.96922   0.98570   17.162
 4890.00    0.98046   0.98662   17.127
 4891.00    0.98581   0.99011   17.243
 4892.00    0.98585   0.99944   17.375
 4893.00    0.99136   1.01394   17.276
 4894.00    1.00623   1.02953   17.027
 4895.00    1.02564   1.04400   16.907
 4896.00    1.04099   1.05714   16.971
 4897.00    1.04534   1.06868   17.080
 4898.00    1.04221   1.07604   17.127
 4899.00    1.04114   1.07725   17.088
 4900.00    1.04527   1.07470   17.030
 4901.00    1.05242   1.07232   17.032
 4902.00    1.06208   1.07038   17.050
 4903.00    1.07332   1.06740   16.993
 4904.00    1.07888   1.06487   16.923
 4905.00    1.07156   1.06499   16.948
 4906.00    1.05725   1.06608   17.003
 4907.00    1.04843   1.06478   16.948
 4908.00    1.04901   1.06108   16.825
 4909.00    1.05508   1.05652   16.763
 4910.00    1.06060   1.05154   16.775
 4911.00    1.06065   1.04745   16.799
 4912.00    1.05486   1.04563   16.814
 4913.00    1.04701   1.04513   16.839
 4914.00    1.04319   1.04424   16.891
 4915.00    1.04696   1.04263   16.958
 4916.00    1.05295   1.03932   16.974
 4917.00    1.05259   1.03193   16.917
 4918.00    1.04341   1.01948   16.943
 4919.00    1.02702   1.00405   17.176
 4920.00    1.00461   0.98928   17.405
 4921.00    0.98019   0.97868   17.346
 4922.00    0.96518   0.97414   17.104
 4923.00    0.96989   0.97445   16.938
 4924.00    0.99232   0.97934   16.892
 4925.00    1.02184   0.99093   16.870
 4926.00    1.04599   1.00833   16.760
 4927.00    1.05758   1.02617   16.539
 4928.00    1.06150   1.04099   16.356
 4929.00    1.06576   1.05303   16.357
 4930.00    1.07067   1.06195   16.512
 4931.00    1.07232   1.06649   16.665
 4932.00    1.06782   1.06535   16.615
 4933.00    1.05615   1.05837   16.329
 4934.00    1.03861   1.04882   16.098
 4935.00    1.01948   1.04092   16.128
 4936.00    1.00619   1.03470   16.225
 4937.00    1.00373   1.02806   16.136
 4938.00    1.00952   1.02230   15.929
 4939.00    1.01697   1.02169   15.787
 4940.00    1.01989   1.02762    0.000
 4941.00    1.01833   1.03636    0.000
 4942.00    1.02212   1.04480    0.000
 4943.00    1.03700   1.05411    0.000
 4944.00    1.05376   1.06472    0.000
 4945.00    1.06324   1.07367    0.000
 4946.00    1.06861   1.07943    0.000
 4947.00    1.07395   1.08390    0.000
 4948.00    1.07526   1.08763    0.000
 4949.00    1.07020   1.08932    0.000
 4950.00    1.06536   1.08934    0.000
 4951.00    1.06769   1.08887    0.000
 4952.00    1.07786   1.08633    0.000
 4953.00    1.09205   1.08000    0.000
 4954.00    1.10438   1.07219    0.000
 4955.00    1.11255   1.06510    0.000
 4956.00    1.12115   1.05665    0.000
 4957.00    1.13708   1.04585    0.000
 4958.00    1.16510   1.03906    0.000
 4959.00    1.20004   1.04082    0.000
 4960.00    1.22459   1.04607    0.000
 4961.00    1.22717   1.04974    0.000
 4962.00    1.21135   1.05380    0.000
 4963.00    1.18342   1.06043    0.000
 4964.00    1.14560   1.06538    0.000
 4965.00    1.10305   1.06473    0.000
 4966.00    1.06667   1.06104    0.000
 4967.00    1.04458   1.05820    0.000
 4968.00    1.03748   1.05627    0.000
 4969.00    1.03992   1.05462    0.000
 4970.00    1.04287   1.05453    0.000
 4971.00    1.04219   1.05729    0.000
 4972.00    1.04148   1.06191    0.000
 4973.00    1.04412   1.06637    0.000
 4974.00    1.04981   1.06974    0.000
 4975.00    1.05772   1.07134    0.000
 4976.00    1.06733   1.07022    0.000
 4977.00    1.07458   1.06522    0.000
 4978.00    1.07210   1.05570    0.000
 4979.00    1.05850   1.04315    0.000
 4980.00    1.04051   1.02946    0.000
 4981.00    1.02437   1.01469    0.000
 4982.00    1.01258   0.99941    0.000
 4983.00    1.00686   0.98742    0.000
 4984.00    1.00851   0.98176    0.000
 4985.00    1.01502   0.98137    0.000
 4986.00    1.02055   0.98492    0.000
 4987.00    1.02266   0.99264    0.000
 4988.00    1.02297   1.00299    0.000
 4989.00    1.01997   1.01264    0.000
 4990.00    1.00927   1.02007    0.000
 4991.00    0.99417   1.02600    0.000
 4992.00    0.98555   1.03075    0.000
 4993.00    0.98859   1.03314    0.000
 4994.00    0.99974   1.03357    0.000
 4995.00    1.01213   1.03401    0.000
 4996.00    1.01893   1.03408    0.000
 4997.00    1.01781   1.03211    0.000
 4998.00    1.01136   1.02781    0.000
 4999.00    1.00395   1.02177    0.000
 5000.00    0.99931   1.01417    0.000
 5001.00    0.99696   1.00522    0.000
 5002.00    0.99705   0.99621    0.000
 5003.00    1.01643   0.98899    0.000
 5004.00    1.08135   0.98363    0.000
 5005.00    1.19587   0.97874    0.000
 5006.00    1.33709   0.97516    0.000
 5007.00    1.46556   0.97548    0.000
 5008.00    1.53830   0.97859    0.000
 5009.00    1.53322   0.98037    0.000
 5010.00    1.45464   0.97964    0.000
 5011.00    1.33088   0.97818    0.000
 5012.00    1.20300   0.97550    0.000
 5013.00    1.10056   0.96993    0.000
 5014.00    1.03609   0.96237    0.000
 5015.00    1.00571   0.95633    0.000
 5016.00    0.99525   0.95291    0.000
 5017.00    0.99267   0.94992    0.000
 5018.00    0.99112   0.94754    0.000
 5019.00    0.98943   0.94956    0.000
 5020.00    0.99016   0.95613    0.000
 5021.00    0.99526   0.96282    0.000
 5022.00    1.00485   0.96836    0.000
 5023.00    1.01630   0.97560    0.000
 5024.00    1.02494   0.98496    0.000
 5025.00    1.02571   0.99336    0.000
 5026.00    1.01658   0.99910    0.000
 5027.00    1.00378   1.00309    0.000
 5028.00    0.99689   1.00789    0.000
 5029.00    0.99914   1.01415   18.229
 5030.00    1.00814   1.01926   18.340
 5031.00    1.01990   1.02196   18.283
 5032.00    1.02936   1.02460   18.047
 5033.00    1.03034   1.02792   17.853
 5034.00    1.02003   1.02791   17.917
 5035.00    1.00539   1.02201   18.133
 5036.00    0.99665   1.01293   18.245
 5037.00    0.99644   1.00399   18.188
 5038.00    1.00017   0.99457   18.065
 5039.00    0.99932   0.98385   18.004
 5040.00    0.98869   0.97399   18.076
 5041.00    0.97523   0.96861   18.203
 5042.00    0.96980   0.97029   18.260
 5043.00    0.97506   0.97732   18.221
 5044.00    0.98792   0.98567   18.136
 5045.00    1.00449   0.99473   18.066
 5046.00    1.01992   1.00519   18.049
 5047.00    1.02780   1.01326   18.075
 5048.00    1.02459   1.01541   18.123
 5049.00    1.01445   1.01423   18.200
 5050.00    1.00453   1.01309   18.310
 5051.00    0.99904   1.01148   18.415
 5052.00    0.99930   1.00988   18.463
 5053.00    1.00448   1.01169   18.441
 5054.00    1.01196   1.01765   18.374
 5055.00    1.01791   1.02483   18.319
 5056.00    1.02038   1.03191   18.343
 5057.00    1.02199   1.03999   18.490
 5058.00    1.02567   1.04827   18.696
 5059.00    1.03055   1.05413   18.724
 5060.00    1.03542   1.05674   18.494
 5061.00    1.04180   1.05734   18.348
 5062.00    1.04877   1.05630   18.516
 5063.00    1.04909   1.05202   18.721
 5064.00    1.03942   1.04373   18.693
 5065.00    1.02822   1.03441   18.632
 5066.00    1.02409   1.02751   18.745
 5067.00    1.02605   1.02125   18.859
 5068.00    1.02919   1.01373   18.820
 5069.00    1.03012   1.00862   18.812
 5070.00    1.02843   1.00811   18.928
 5071.00    1.02691   1.00736   18.891
 5072.00    1.02673   1.00424   18.620
 5073.00    1.02442   1.00286   18.553
 5074.00    1.01688   1.00306   18.901
 5075.00    1.00500   0.99977   19.220
 5076.00    0.99129   0.99400   19.173
 5077.00    0.97817   0.99004   19.089
 5078.00    0.96827   0.98572   19.240
 5079.00    0.96434   0.97747   19.413
 5080.00    0.96700   0.96981   19.414
 5081.00    0.97369   0.96769   19.387
 5082.00    0.98111   0.96830   19.419
 5083.00    0.98693   0.96852   19.350
 5084.00    0.99083   0.97191   19.146
 5085.00    0.99458   0.98058   19.047
 5086.00    0.99980   0.99011   19.118
 5087.00    1.00655   0.99741   19.095
 5088.00    1.01309   1.00482   18.870
 5089.00    1.01645   1.01342   18.682
 5090.00    1.01636   1.02026   18.674
 5091.00    1.01669   1.02431   18.717
 5092.00    1.02248   1.02747   18.650
 5093.00    1.03683   1.02956   18.427
 5094.00    1.05354   1.02826   18.211
 5095.00    1.05748   1.02333   18.293
 5096.00    1.04326   1.01656   18.649
 5097.00    1.02085   1.00876   18.837
 5098.00    0.99951   1.00002   18.703
 5099.00    0.98183   0.99179   18.600
 5100.00    0.97111   0.98695   18.677
 5101.00    0.97222   0.98610   18.695
 5102.00    0.98131   0.98711   18.553
 5103.00    0.98599   0.98845   18.433
 5104.00    0.98414   0.99074   18.380
 5105.00    0.98621   0.99343   18.244
 5106.00    0.99354   0.99410   18.030
 5107.00    0.99504   0.99229   17.932
 5108.00    0.98761   0.99071   17.974
 5109.00    0.98014   0.99048   17.978
 5110.00    0.97945   0.99063   17.873
 5111.00    0.98604   0.99238   17.763
 5112.00    0.99823   0.99719   17.725
 5113.00    1.01355   1.00345   17.754
 5114.00    1.02868   1.00962   17.819
 5115.00    1.03994   1.01582   17.885
 5116.00    1.04522   1.02148   17.944
 5117.00    1.04448   1.02538   18.013
 5118.00    1.03952   1.02654   18.096
 5119.00    1.03251   1.02419   18.180
 5120.00    1.02227   1.01882   18.241
 5121.00    1.00583   1.01152   18.276
 5122.00    0.98617   1.00236   18.373
 5123.00    0.97126   0.99129   18.650
 5124.00    0.96542   0.98033   19.027
 5125.00    0.96799   0.97166   19.270
 5126.00    0.97630   0.96530   19.333
 5127.00    0.98712   0.96072   19.362
 5128.00    0.99802   0.95840   19.346
 5129.00    1.00676   0.95858   19.153
 5130.00    1.00882   0.96102   18.854
 5131.00    0.99998   0.96524   18.665
 5132.00    0.98355   0.96957   18.672
 5133.00    0.96878   0.97289   18.818
 5134.00    0.96295   0.97626   18.952
 5135.00    0.96827   0.97964   18.932
 5136.00    0.97904   0.98034   18.831
 5137.00    0.98588   0.97816   18.842
 5138.00    0.98568   0.97506   19.014
 5139.00    0.98117   0.97140   19.247
 5140.00    0.97562   0.96825   19.421
 5141.00    0.97138   0.96588   19.457
 5142.00    0.96912   0.96226   19.402
 5143.00    0.96895   0.95927   19.335
 5144.00    0.97252   0.96025   19.165
 5145.00    0.98016   0.96160   18.815
 5146.00    0.98521   0.95986   18.567
 5147.00    0.98082   0.95870   18.744
 5148.00    0.97302   0.96000   19.171
 5149.00    0.97319   0.96087   19.387
 5150.00    0.98184   0.95985   19.281
 5151.00    0.99210   0.95890   19.040
 5152.00    0.99965   0.95976   18.799
 5153.00    1.00351   0.96161   18.585
 5154.00    1.00454   0.96350   18.357
 5155.00    1.00456   0.96694   18.085
 5156.00    1.00526   0.97278   17.847
 5157.00    1.00700   0.97915   17.774
 5158.00    1.00752   0.98423   17.977
 5159.00    1.00484   0.98791   18.454
 5160.00    1.00123   0.98985   18.938
 5161.00    1.00001   0.98766   19.127
 5162.00    1.00045   0.97958   19.128
 5163.00    0.99863   0.96720   19.218
 5164.00    0.98946   0.95187   19.415
 5165.00    0.96929   0.93277   19.628
 5166.00    0.93871   0.91118   19.899
 5167.00    0.90192   0.89002   20.250
 5168.00    0.86544   0.87116   20.452
 5169.00    0.83705   0.85731   20.315
 5170.00    0.82434   0.85084   20.069
 5171.00    0.82950   0.84885   19.980
 5172.00    0.84439   0.84988   19.943
 5173.00    0.85852   0.85901   19.803
 5174.00    0.86822   0.87715   19.697
 5175.00    0.87692   0.89576   19.720
 5176.00    0.89356   0.91053   19.602
 5177.00    0.92319   0.92600   19.216
 5178.00    0.95832   0.94135   18.999
 5179.00    0.98686   0.94862   19.054
 5180.00    1.00067   0.94672   18.497
 5181.00    0.99748   0.94149   17.069
 5182.00    0.98164   0.93368   15.976
 5183.00    0.95991   0.92139   15.846
 5184.00    0.93776   0.91053   16.129
 5185.00    0.91940   0.90766   16.300
 5186.00    0.90814   0.90971   16.783
 5187.00    0.90632   0.91206   17.979
 5188.00    0.91485   0.91638   19.192
 5189.00    0.92988   0.92540   19.489
 5190.00    0.94139   0.93487    0.000
 5191.00    0.94338   0.93784    0.000
 5192.00    0.94072   0.93594    0.000
 5193.00    0.94006   0.93720    0.000
 5194.00    0.94304   0.94055    0.000
 5195.00    0.94925   0.93994    0.000
 5196.00    0.95859   0.93976    0.000
 5197.00    0.97112   0.94502    0.000
 5198.00    0.98679   0.95132    0.000
 5199.00    1.00552   0.95555    0.000
 5200.00    1.02664   0.95922    0.000
 5201.00    1.04560   0.96104    0.000
 5202.00    1.05320   0.95956    0.000
 5203.00    1.04384   0.95619    0.000
 5204.00    1.02010   0.94968    0.000
 5205.00    0.98905   0.93990    0.000
 5206.00    0.95938   0.93186    0.000
 5207.00    0.93915   0.92774    0.000
 5208.00    0.93374   0.92436    0.000
 5209.00    0.94142   0.92378    0.000
 5210.00    0.95280   0.92973    0.000
 5211.00    0.96019   0.93862   18.727
 5212.00    0.96259   0.94687   18.549
 5213.00    0.96488   0.95605   18.655
 5214.00    0.97495   0.96524   18.811
 5215.00    0.99281   0.97132   18.900
 5216.00    1.00843   0.97581   19.079
 5217.00    1.01652   0.98071   19.365
 5218.00    1.02137   0.98525   19.512
 5219.00    1.02576   0.98831   19.478
 5220.00    1.02705   0.99029   19.539
 5221.00    1.02252   0.99137   19.779
 5222.00    1.01186   0.98962   19.954
 5223.00    0.99703   0.98344   19.960
 5224.00    0.98155   0.97421   19.971
 5225.00    0.96748   0.96394   20.093
 5226.00    0.95482   0.95217   20.256
 5227.00    0.94363   0.94163   20.374
 5228.00    0.93485   0.93738   20.397
 5229.00    0.93021   0.93724   20.283
 5230.00    0.93187   0.93768   20.024
 5231.00    0.94125   0.94147   19.773
 5232.00    0.95791   0.94848   19.758
 5233.00    0.97758   0.95406   19.916
 5234.00    0.99336   0.95860   19.927
 5235.00    1.00195   0.96457   19.779
 5236.00    1.00474   0.97093   19.783
 5237.00    1.00445   0.97738   20.019
 5238.00    1.00384   0.98493   20.263
 5239.00    1.00540   0.99262   20.286
 5240.00    1.01005   0.99985   20.034
 5241.00    1.01397   1.00654   19.797
 5242.00    1.01147   1.01068   19.967
 5243.00    1.00547   1.01167   20.391
 5244.00    1.00497   1.01195   20.479
 5245.00    1.01008   1.01155   20.189
 5246.00    1.01337   1.00699   19.997
 5247.00    1.01428   0.99985   20.008
 5248.00    1.01805   0.99504   19.975
 5249.00    1.02317   0.99103   19.839
 5250.00    1.02236   0.98459   19.747
 5251.00    1.01259   0.97955   19.780
 5252.00    0.99653   0.97935   19.909
 5253.00    0.97996   0.98084   20.039
 5254.00    0.96916   0.98158   20.062
 5255.00    0.96659   0.98372   19.952
 5256.00    0.97062   0.98852   19.769
 5257.00    0.97719   0.99272   19.604
 5258.00    0.98155   0.99327   19.535
 5259.00    0.98090   0.99048   19.572
 5260.00    0.97525   0.98497   19.654
 5261.00    0.96777   0.97475   19.654
 5262.00    0.96182   0.95914   19.505
 5263.00    0.95530   0.94132   19.424
 5264.00    0.94347   0.92376   19.631
 5265.00    0.92609   0.90589   19.815
 5266.00    0.90677   0.88940   19.538
 5267.00    0.88931   0.87957   19.208
 5268.00    0.87825   0.87510   19.423
 5269.00    0.88064   0.87053   19.807
 5270.00    0.89912   0.86983   19.592
 5271.00    0.92056   0.87792   19.108
 5272.00    0.92843   0.88785   19.084
 5273.00    0.92489   0.89544   19.384
 5274.00    0.92277   0.90651   19.444
 5275.00    0.92798   0.92046   19.214
 5276.00    0.93914   0.93255   19.006
 5277.00    0.95142   0.94416   18.990
 5278.00    0.96028   0.95532   19.164
 5279.00    0.96575   0.96281   19.377
 5280.00    0.96986   0.96772   19.469
 5281.00    0.97230   0.97255   19.472
 5282.00    0.97245   0.97640   19.468
 5283.00    0.97269   0.97846   19.359
 5284.00    0.97686   0.98103   19.082
 5285.00    0.98745   0.98743   18.870
 5286.00    1.00367   0.99659   18.920
 5287.00    1.01966   1.00523   19.025
 5288.00    1.02964   1.01353   18.873
 5289.00    1.03385   1.02257   18.486
 5290.00    1.03555   1.02991   18.137
 5291.00    1.03668   1.03324   18.162
 5292.00    1.03800   1.03286   18.550
 5293.00    1.03951   1.02937   18.536
 5294.00    1.04034   1.02339   18.009
 5295.00    1.03840   1.01565   18.710
 5296.00    1.03037   1.00643   21.019
 5297.00    1.01197   0.99620   19.194
 5298.00    0.98154   0.98760   13.474
 5299.00    0.94355   0.98326   10.546
 5300.00    0.90843   0.98186   10.378
 5301.00    0.89089   0.98166   11.255
 5302.00    0.89889   0.98459   11.395
 5303.00    0.92479   0.99164   10.796
 5304.00    0.95716   0.99978   10.306
 5305.00    0.99111   1.00678   10.108
 5306.00    1.02146   1.01328    9.988
 5307.00    1.03756   1.01944    9.595
 5308.00    1.03555   1.02459    9.196
 5309.00    1.02701   1.02819    9.901
 5310.00    1.02440   1.02987   12.839
 5311.00    1.02955   1.03014   17.147
 5312.00    1.03836   1.02910   17.886
 5313.00    1.04548   1.02607   16.576
 5314.00    1.04797   1.02219   16.714
 5315.00    1.04727   1.01810   17.500
 5316.00    1.04581   1.01249   17.522
 5317.00    1.04441   1.00705   17.298
 5318.00    1.04216   1.00421   17.529
 5319.00    1.03666   1.00160   17.857
 5320.00    1.02529   0.99718   17.879
 5321.00    1.00669   0.99291   17.844
 5322.00    0.98461   0.98915   18.003
 5323.00    0.96866   0.98261   18.215
 5324.00    0.96395   0.97203   18.299
 5325.00    0.96586   0.96133   18.272
 5326.00    0.96672   0.95288   18.194
 5327.00    0.96087   0.94355   18.086
 5328.00    0.95008   0.93371   18.021
 5329.00    0.94427   0.93058   18.132
 5330.00    0.95006   0.93467   18.363
 5331.00    0.96524   0.93995   18.405
 5332.00    0.98351   0.94610   18.177
 5333.00    0.99824   0.95587   17.983
 5334.00    1.00782   0.96696   17.959
 5335.00    1.01634   0.97509   17.918
 5336.00    1.02412   0.97914   17.805
 5337.00    1.02506   0.98083   17.823
 5338.00    1.01640   0.98204   18.002
 5339.00    1.00184   0.98137   18.100
 5340.00    0.98454   0.97809   18.078
 5341.00    0.96528   0.97639   18.212
 5342.00    0.94793   0.97775   18.557
 5343.00    0.94005   0.97899   18.803
 5344.00    0.94514   0.98013   18.767
 5345.00    0.96020   0.98232   18.591
 5346.00    0.97972   0.98472   18.461
 5347.00    0.99776   0.98743   18.488
 5348.00    1.00977   0.99001   18.724
 5349.00    1.01352   0.99181   19.112
 5350.00    1.00977   0.99536   19.254
 5351.00    1.00269   1.00192   18.762
 5352.00    0.99990   1.00855   18.716
 5353.00    1.00934   1.01482   20.764
 5354.00    1.02854   1.02313   21.689
 5355.00    1.04567   1.03192   15.679
 5356.00    1.05463   1.03814   10.584
 5357.00    1.05772   1.04227    8.985
 5358.00    1.05779   1.04489    9.210
 5359.00    1.05622   1.04473    9.609
 5360.00    1.05468   1.04153    9.518
 5361.00    1.05437   1.03571    9.528
 5362.00    1.05234   1.02764    9.629
 5363.00    1.04366   1.01887    9.296
 5364.00    1.03013   1.00956    9.266
 5365.00    1.01868   0.99949   11.231
 5366.00    1.01052   0.99018   16.857
 5367.00    1.00136   0.98177   22.448
 5368.00    0.98979   0.97417   20.875
 5369.00    0.97818   0.96845   19.198
 5370.00    0.96917   0.96441   19.745
 5371.00    0.96409   0.96243   20.238
 5372.00    0.96128   0.96482   19.755
 5373.00    0.95810   0.97080   19.341
 5374.00    0.95628   0.97764   19.388
 5375.00    0.96108   0.98608   19.557
 5376.00    0.97659   0.99534   19.634
 5377.00    1.00209   1.00237   19.623
 5378.00    1.02711   1.00728   19.548
 5379.00    1.03777   1.01035   19.434
 5380.00    1.03189   1.01031   19.381
 5381.00    1.01755   1.00907   19.468
 5382.00    1.00389   1.00815   19.568
 5383.00    0.99675   1.00614   19.501
 5384.00    0.99424   1.00454   19.417
 5385.00    0.99051   1.00475   19.568
 5386.00    0.98414   1.00420   19.793
 5387.00    0.97736   1.00253   19.738
 5388.00    0.97198   1.00115   19.469
 5389.00    0.96881   0.99837   19.308
 5390.00    0.96810   0.99342   19.374
 5391.00    0.96997   0.98830   19.568
 5392.00    0.97501   0.98295   19.625
 5393.00    0.98259   0.97608   19.358
 5394.00    0.98826   0.96961   19.029
 5395.00    0.98694   0.96535   18.991
 5396.00    0.97816   0.96073   19.207
 5397.00    0.96544   0.95544   19.431
 5398.00    0.95409   0.95358   19.570
 5399.00    0.94914   0.95370   19.649
 5400.00    0.95278   0.95124   19.668
 5401.00    0.96333   0.94846   19.622
 5402.00    0.97444   0.94752   19.555
 5403.00    0.97921   0.94446   19.533
 5404.00    0.97558   0.93877   19.611
 5405.00    0.96614   0.93401   19.772
 5406.00    0.95665   0.93053   19.877
 5407.00    0.95096   0.92808   19.834
 5408.00    0.94564   0.92800   19.797
 5409.00    0.93664   0.92996   -2.000
 5410.00    0.92755   0.93367   -2.000
 5411.00    0.92499   0.94020   -2.000
 5412.00    0.93207   0.94842   -2.000
 5413.00    0.94683   0.95632   -2.000
 5414.00    0.96184   0.96389   -2.000
 5415.00    0.97322   0.97162   -2.000
 5416.00    0.98899   0.97884   -2.000
 5417.00    1.01599   0.98394   -2.000
 5418.00    1.04664   0.98707   -2.000
 5419.00    1.06705   0.98949   -2.000
 5420.00    1.06683   0.99012   -2.000
 5421.00    1.04533   0.98860   -2.000
 5422.00    1.01551   0.98734   -2.000
 5423.00    0.99168   0.98571   18.881
 5424.00    0.97844   0.98256   19.431
 5425.00    0.97420   0.98025   19.744
 5426.00    0.97528   0.97867   19.822
 5427.00    0.97789   0.97646   19.832
 5428.00    0.97961   0.97380   19.887
 5429.00    0.98039   0.96978   19.984
 5430.00    0.98270   0.96591   19.996
 5431.00    0.98762   0.96373   19.856
 5432.00    0.99205   0.96065   19.691
 5433.00    0.99133   0.95759   19.651
 5434.00    0.98194   0.95820   19.783
 5435.00    0.96604   0.96145   19.984
 5436.00    0.95332   0.96552   20.003
 5437.00    0.95167   0.97203   19.796
 5438.00    0.96126   0.98097   19.692
 5439.00    0.97925   0.98965   19.833
 5440.00    1.00293   0.99697   19.907
 5441.00    1.02713   1.00230   19.734
 5442.00    1.04347   1.00476   19.591
 5443.00    1.04696   1.00375   19.649
 5444.00    1.03953   0.99992   19.707
 5445.00    1.02623   0.99470   19.636
 5446.00    1.01245   0.98836   19.599
 5447.00    1.00141   0.98272   19.671
 5448.00    0.99335   0.98028   19.686
 5449.00    0.98823   0.97961   19.611
 5450.00    0.98698   0.97951   19.671
 5451.00    0.98937   0.98069   19.864
 5452.00    0.99330   0.98181   19.824
 5453.00    0.99717   0.98190   19.543
 5454.00    1.00082   0.98125   19.551
 5455.00    1.00415   0.97930   19.959
 5456.00    1.00638   0.97781   20.194
 5457.00    1.00552   0.97840   20.016
 5458.00    0.99931   0.97909   19.898
 5459.00    0.98967   0.97923   20.070
 5460.00    0.98328   0.98036   20.227
 5461.00    0.98460   0.98218   20.131
 5462.00    0.99285   0.98214   19.863
 5463.00    1.00271   0.98048   19.589
 5464.00    1.00658   0.98060   19.428
 5465.00    1.00218   0.98164   19.453
 5466.00    0.99418   0.98087   19.682
 5467.00    0.98801   0.98072   20.055
 5468.00    0.98702   0.98274   20.424
 5469.00    0.99153   0.98301   20.624
 5470.00    0.99907   0.98060   20.558
 5471.00    1.00649   0.97871   20.351
 5472.00    1.01081   0.97579   20.272
 5473.00    1.00920   0.96873   20.360
 5474.00    1.00019   0.96168   20.433
 5475.00    0.98718   0.95684   20.501
 5476.00    0.97704   0.95010   20.762
 5477.00    0.97169   0.94364   21.080
 5478.00    0.96721   0.94228   21.043
 5479.00    0.95959   0.94319   20.780
 5480.00    0.94725   0.94364   20.856
 5481.00    0.93291   0.94668   21.242
 5482.00    0.92237   0.95296   21.354
 5483.00    0.91938   0.95846   21.114
 5484.00    0.92471   0.96264   20.974
 5485.00    0.93757   0.96797   20.966
 5486.00    0.95558   0.97254   20.753
 5487.00    0.97374   0.97418   20.371
 5488.00    0.98632   0.97577   20.168
 5489.00    0.99226   0.97784   20.240
 5490.00    0.99438   0.97770   20.428
 5491.00    0.99417   0.97747   20.550
 5492.00    0.99174   0.97881   20.503
 5493.00    0.98880   0.97870   20.365
 5494.00    0.98763   0.97761   20.264
 5495.00    0.98700   0.97837   20.074
 5496.00    0.98357   0.97878   19.609
 5497.00    0.97692   0.97682   19.143
 5498.00    0.96975   0.97563   19.098
 5499.00    0.96595   0.97571   19.396
 5500.00    0.96834   0.97369   19.631
 5501.00    0.97513   0.97057   19.674
 5502.00    0.98149   0.96861   19.679
 5503.00    0.98410   0.96618   19.762
 5504.00    0.98224   0.96329   19.893
 5505.00    0.97817   0.96111   19.840
 5506.00    0.97592   0.95855   19.405
 5507.00    0.97895   0.95681   18.846
 5508.00    0.98779   0.95644   18.543
 5509.00    0.99686   0.95502   18.502
 5510.00    0.99890   0.95396   18.506
 5511.00    0.99322   0.95466   18.424
 5512.00    0.98467   0.95501   18.318
 5513.00    0.97951   0.95562   18.511
 5514.00    0.98196   0.95826   19.219
 5515.00    0.99002   0.96199   19.876
 5516.00    0.99791   0.96599   19.725
 5517.00    1.00109   0.97083   19.305
 5518.00    0.99958   0.97639   19.400
 5519.00    1.00089   0.98106   19.473
 5520.00    1.00668   0.98428   -2.000
 5521.00    0.99594   0.98626   -2.000
 5522.00    0.96479   0.98636   -2.000
 5523.00    0.97403   0.98446   -2.000
 5524.00    1.01507   0.98077   -2.000
 5525.00    0.85101   0.97553   -2.000
 5526.00    0.34690   0.97033   -2.000
 5527.00   -0.12838   0.96549   -2.000
 5528.00   -0.18327   0.96052   -2.000
 5529.00   -0.00819   0.95771   -2.000
 5530.00    0.04353   0.95756   -2.000
 5531.00    0.00092   0.95751   -2.000
 5532.00    0.01187   0.95828   -2.000
 5533.00    0.00168   0.96125   -2.000
 5534.00   -0.08268   0.96375   -2.000
 5535.00   -0.00244   0.96515   -2.000
 5536.00    0.40295   0.96810   -2.000
 5537.00    0.84181   0.97139   -2.000
 5538.00    0.99774   0.97347   -2.000
 5539.00    0.96624   0.97612   -2.000
 5540.00    0.95868   0.97904   -2.000
 5541.00    0.98971   0.98103   -2.000
 5542.00    1.00130   0.98225   -2.000
 5543.00    0.99901   0.98273   19.223
 5544.00    1.00561   0.98333   20.696
 5545.00    1.01216   0.98421   18.621
 5546.00    1.00625   0.98455   12.850
 5547.00    0.99738   0.98580    9.882
 5548.00    0.99629   0.98830    9.465
 5549.00    0.99774   0.99024   10.094
 5550.00    0.99545   0.99178   10.427
 5551.00    0.99372   0.99330    9.984
 5552.00    0.99666   0.99384    9.490
 5553.00    1.00022   0.99328   10.225
 5554.00    1.00057   0.99186   13.585
 5555.00    0.99999   0.99013   20.351
 5556.00    1.00148   0.98848   23.830
 5557.00    1.00474   0.98634   17.658
 5558.00    1.00721   0.98419   11.948
 5559.00    1.00547   0.98242    9.725
 5560.00    0.99887   0.98018    9.617
 5561.00    0.99123   0.97777   10.175
 5562.00    0.98619   0.97504   10.311
 5563.00    0.98451   0.97165   10.111
 5564.00    0.98578   0.96888   10.027
 5565.00    0.98942   0.96615   10.163
 5566.00    0.99383   0.96257   10.270
 5567.00    0.99622   0.96041    9.906
 5568.00    0.99522   0.95966    9.537
 5569.00    0.99186   0.95750   10.577
 5570.00    0.98708   0.95626   14.660
 5571.00    0.98066   0.95798   22.137
 5572.00    0.97247   0.95814   24.011
 5573.00    0.96337   0.95778   17.192
 5574.00    0.95535   0.96108   12.045
 5575.00    0.95134   0.96368   10.176
 5576.00    0.95385   0.96445   10.158
 5577.00    0.96379   0.96778   10.490
 5578.00    0.97826   0.97078   10.326
 5579.00    0.99076   0.97116   10.062
 5580.00    0.99652   0.97208   10.022
 5581.00    0.99474   0.97199   10.041
 5582.00    0.98705   0.96891   10.075
 5583.00    0.97658   0.96477   10.316
 5584.00    0.96666   0.95935   10.544
 5585.00    0.96003   0.95203   10.178
 5586.00    0.95767   0.94394    9.890
 5587.00    0.95824   0.93625   11.404
 5588.00    0.95776   0.92965   16.389
 5589.00    0.95166   0.92450   22.495
 5590.00    0.94283   0.92175   21.858
 5591.00    0.94097   0.92140   19.680
 5592.00    0.94957   0.92306   19.646
 5593.00    0.96343   0.92676   20.295
 5594.00    0.97634   0.93051   20.330
 5595.00    0.98417   0.93394   19.885
 5596.00    0.98553   0.93827   19.559
 5597.00    0.98160   0.94089   19.778
 5598.00    0.97516   0.94115   20.339
 5599.00    0.96974   0.94203   20.503
 5600.00    0.96806   0.94281   20.162
 5601.00    0.97122   0.94269   19.926
 5602.00    0.97767   0.94397   20.064
 5603.00    0.98421   0.94741   20.397
 5604.00    0.98926   0.95239   20.654
 5605.00    0.99301   0.95862   20.646
 5606.00    0.99518   0.96585   20.473
 5607.00    0.99535   0.97344   20.417
 5608.00    0.99564   0.97998   20.553
 5609.00    0.99937   0.98458   20.741
 5610.00    1.00625   0.98726   20.826
 5611.00    1.01268   0.98719   20.739
 5612.00    1.01574   0.98390   20.604
 5613.00    1.01463   0.97940   20.599
 5614.00    1.01181   0.97387   20.649
 5615.00    1.01034   0.96629   20.548
 5616.00    1.00767   0.95996   20.407
 5617.00    0.99880   0.95610   20.481
 5618.00    0.98579   0.95230   20.626
 5619.00    0.97557   0.95021   20.484
 5620.00    0.97077   0.95065   20.136
 5621.00    0.96941   0.95073   19.928
 5622.00    0.96819   0.95090   19.908
 5623.00    0.96448   0.95193   19.895
 5624.00    0.95887   0.95190   19.777
 5625.00    0.95451   0.95198   19.584
 5626.00    0.95503   0.95392   19.505
 5627.00    0.96236   0.95587   19.707
 5628.00    0.97365   0.95820   20.020
 5629.00    0.98390   0.96258   20.083
 5630.00    0.99129   0.96669   19.788
 5631.00    0.99652   0.96941   19.286
 5632.00    1.00004   0.97195   18.793
 5633.00    1.00157   0.97303   18.459
 5634.00    1.00010   0.97168   18.263
 5635.00    0.99531   0.96947   18.076
 5636.00    0.98964   0.96679   17.736
 5637.00    0.98621   0.96285   17.208
 5638.00    0.98543   0.95896   16.731
 5639.00    0.98522   0.95660   16.515
 5640.00    0.98241   0.95453   16.413
 5641.00    0.97518   0.95270   16.208
 5642.00    0.96601   0.95298   15.986
 5643.00    0.95910   0.95419   15.968
 5644.00    0.95630   0.95522   16.272
 5645.00    0.95758   0.95744   16.857
 5646.00    0.96229   0.96006   17.417
 5647.00    0.96938   0.96203   17.659
 5648.00    0.97752   0.96401   17.788
 5649.00    0.98520   0.96536   18.136
 5650.00    0.99088   0.96575   18.601
 5651.00    0.99242   0.96521   18.928
 5652.00    0.98683   0.96331   19.191
 5653.00    0.97374   0.96082   19.523
 5654.00    0.95891   0.95688   19.729
 5655.00    0.94772   0.95084   19.654
 5656.00    0.93858   0.94564   19.634
 5657.00    0.92879   0.94065   19.937
 5658.00    0.92094   0.93390   20.217
 5659.00    0.91858   0.92935   20.142
 5660.00    0.92155   0.92794   20.087
 5661.00    0.92706   0.92634   20.392
 5662.00    0.93147   0.92615   20.662
 5663.00    0.93261   0.92915   20.517
 5664.00    0.93156   0.93262   20.346
 5665.00    0.93162   0.93578   20.466
 5666.00    0.93670   0.93988   20.457
 5667.00    0.94785   0.94416   20.073
 5668.00    0.96087   0.94788   19.912
 5669.00    0.97125   0.95175   20.302
 5670.00    0.97820   0.95591   20.559
 5671.00    0.98325   0.95994   20.189
 5672.00    0.98857   0.96395   19.868
 5673.00    0.99484   0.96820   20.079
 5674.00    1.00002   0.97188   20.316
 5675.00    1.00173   0.97420   20.135
 5676.00    0.99926   0.97584   19.926
 5677.00    0.99431   0.97661   20.010
 5678.00    0.99085   0.97529   20.115
 5679.00    0.99136   0.97249   20.030
 5680.00    0.99448   0.96940   20.018
 5681.00    0.99725   0.96533   20.228
 5682.00    0.99674   0.96011   20.371
 5683.00    0.99006   0.95546   20.260
 5684.00    0.97520   0.95167   20.121
 5685.00    0.95564   0.94805   20.154
 5686.00    0.94151   0.94574   20.290
 5687.00    0.93885   0.94508   20.345
 5688.00    0.94423   0.94540   20.165
 5689.00    0.94988   0.94725   19.914
 5690.00    0.94835   0.95029   20.048
 5691.00    0.94035   0.95350   20.584
 5692.00    0.93652   0.95729   20.841
 5693.00    0.94434   0.96115   20.549
 5694.00    0.96178   0.96358   20.340
 5695.00    0.98080   0.96489   20.528
 5696.00    0.99124   0.96558   20.725
 5697.00    0.99037   0.96455   20.628
 5698.00    0.98485   0.96165   20.387
 5699.00    0.97819   0.95860   20.254
 5700.00    0.96720   0.95511   20.380
 5701.00    0.95271   0.95041   20.697
 5702.00    0.94222   0.94598   20.920
 5703.00    0.93955   0.94197   20.898
 5704.00    0.94176   0.93771   20.752
 5705.00    0.94492   0.93319   20.658
 5706.00    0.94659   0.92863   20.715
 5707.00    0.94554   0.92502   20.820
 5708.00    0.94163   0.92138   20.724
 5709.00    0.93577   0.91780   20.470
 5710.00    0.92980   0.91732   20.387
 5711.00    0.92580   0.91819   20.539
 5712.00    0.92545   0.91956   20.642
 5713.00    0.92878   0.92486   20.462
 5714.00    0.93411   0.93130   20.006
 5715.00    0.93954   0.93711   19.543
 5716.00    0.94401   0.94517   19.370
 5717.00    0.94912   0.95283   19.242
 5718.00    0.95777   0.95863   18.586
 5719.00    0.96821   0.96510   17.596
 5720.00    0.97488   0.97048   16.957
 5721.00    0.97642   0.97394   16.779
 5722.00    0.97656   0.97752   16.751
 5723.00    0.97934   0.97994   16.805
 5724.00    0.98641   0.98060   17.132
 5725.00    0.99397   0.98112   17.756
 5726.00    0.99570   0.98083   18.466
 5727.00    0.99308   0.97920   19.071
 5728.00    0.99322   0.97758   19.454
 5729.00    0.99630   0.97624   19.446
 5730.00    0.99643   0.97467   18.951
 5731.00    0.99222   0.97325   18.271
 5732.00    0.98771   0.97279   17.833
 5733.00    0.98800   0.97301   17.681
 5734.00    0.99608   0.97306   17.635
 5735.00    1.00802   0.97356   17.735
 5736.00    1.01545   0.97457   18.138
 5737.00    1.01325   0.97500   18.671
 5738.00    1.00178   0.97513   18.881
 5739.00    0.98764   0.97525   18.593
 5740.00    0.97959   0.97489    0.000
 5741.00    0.97995   0.97427    0.000
 5742.00    0.98505   0.97369    0.000
 5743.00    0.98961   0.97294    0.000
 5744.00    0.98934   0.97206    0.000
 5745.00    0.98400   0.97112    0.000
 5746.00    0.97631   0.97010    0.000
 5747.00    0.96888   0.96859    0.000
 5748.00    0.96382   0.96656    0.000
 5749.00    0.96314   0.96464    0.000
 5750.00    0.96817   0.96226    0.000
 5751.00    0.97844   0.95937    0.000
 5752.00    0.99044   0.95716    0.000
 5753.00    0.99632   0.95531    0.000
 5754.00    0.98954   0.95360    0.000
 5755.00    0.97394   0.95314    0.000
 5756.00    0.95924   0.95343    0.000
 5757.00    0.95199   0.95371    0.000
 5758.00    0.95349   0.95470    0.000
 5759.00    0.95904   0.95557    0.000
 5760.00    0.96264   0.95563    0.000
 5761.00    0.96357   0.95615    0.000
 5762.00    0.96377   0.95653    0.000
 5763.00    0.96307   0.95672    0.000
 5764.00    0.96157   0.95849    0.000
 5765.00    0.96321   0.96072    0.000
 5766.00    0.97145   0.96280    0.000
 5767.00    0.98361   0.96604    0.000
 5768.00    0.99400   0.96883    0.000
 5769.00    0.99874   0.97021    0.000
 5770.00    0.99680   0.97146    0.000
 5771.00    0.99038   0.97169    0.000
 5772.00    0.98234   0.97042    0.000
 5773.00    0.97338   0.96923    0.000
 5774.00    0.96422   0.96750    0.000
 5775.00    0.95796   0.96471    0.000
 5776.00    0.95714   0.96232    0.000
 5777.00    0.96044   0.95925    0.000
 5778.00    0.96423   0.95472    0.000
 5779.00    0.96463   0.95030    0.000
 5780.00    0.96019   0.94530    0.000
 5781.00    0.95385   0.93920    0.000
 5782.00    0.94968   0.93394    0.000
 5783.00    0.94947   0.92996    0.000
 5784.00    0.95173   0.92656    0.000
 5785.00    0.95168   0.92469    0.000
 5786.00    0.94761   0.92551    0.000
 5787.00    0.94543   0.92753    0.000
 5788.00    0.94952   0.92981    0.000
 5789.00    0.95559   0.93399    0.000
 5790.00    0.95870   0.93844    0.000
 5791.00    0.95977   0.94159    0.000
 5792.00    0.96148   0.94556    0.000
 5793.00    0.96478   0.94918    0.000
 5794.00    0.96954   0.95125    0.000
 5795.00    0.97523   0.95388    0.000
 5796.00    0.98096   0.95642    0.000
 5797.00    0.98555   0.95784    0.000
 5798.00    0.98718   0.95951    0.000
 5799.00    0.98366   0.96167    0.000
 5800.00    0.97552   0.96304    0.000
 5801.00    0.96757   0.96381    0.000
 5802.00    0.96529   0.96505    0.000
 5803.00    0.97189   0.96558    0.000
 5804.00    0.98516   0.96483    0.000
 5805.00    0.99714   0.96443    0.000
 5806.00    1.00370   0.96393    0.000
 5807.00    1.00872   0.96288    0.000
 5808.00    1.01432   0.96256    0.000
 5809.00    1.01621   0.96263    0.000
 5810.00    1.01063   0.96277    0.000
 5811.00    0.99846   0.96338    0.000
 5812.00    0.98521   0.96382    0.000
 5813.00    0.97910   0.96404    0.000
 5814.00    0.98168   0.96447    0.000
 5815.00    0.98520   0.96470    0.000
 5816.00    0.98352   0.96476    0.000
 5817.00    0.97729   0.96557    0.000
 5818.00    0.97152   0.96698    0.000
 5819.00    0.97271   0.96822    0.000
 5820.00    0.98137   0.97009    0.000
 5821.00    0.99063   0.97247    0.000
 5822.00    0.99531   0.97418    0.000
 5823.00    0.99517   0.97564    0.000
 5824.00    0.99119   0.97715    0.000
 5825.00    0.98427   0.97803    0.000
 5826.00    0.97674   0.97848    0.000
 5827.00    0.97236   0.97886    0.000
 5828.00    0.97402   0.97895    0.000
 5829.00    0.98255   0.97884    0.000
 5830.00    0.99592   0.97856    0.000
 5831.00    1.00961   0.97789    0.000
 5832.00    1.01923   0.97714    0.000
 5833.00    1.02213   0.97640    0.000
 5834.00    1.01928   0.97527    0.000
 5835.00    1.01477   0.97420   -2.000
 5836.00    1.01189   0.97383   -2.000
 5837.00    1.01020   0.97347   -2.000
 5838.00    1.00100   0.97305   -2.000
 5839.00    0.97342   0.97360   -2.000
 5840.00    0.93750   0.97438   -2.000
 5841.00    0.92013   0.97449   -2.000
 5842.00    0.93170   0.97479   -2.000
 5843.00    0.95946   0.97498   -2.000
 5844.00    0.97862   0.97404   -2.000
 5845.00    0.96707   0.97252   -2.000
 5846.00    0.93557   0.97070   -2.000
 5847.00    0.91852   0.96792   -2.000
 5848.00    0.92757   0.96473   -2.000
 5849.00    0.94862   0.96139   -2.000
 5850.00    0.96678   0.95734   -2.000
 5851.00    0.97385   0.95322   -2.000
 5852.00    0.96982   0.94906   -2.000
 5853.00    0.96079   0.94431   -2.000
 5854.00    0.95315   0.93979   -2.000
 5855.00    0.95080   0.93595    0.000
 5856.00    0.95219   0.93218    0.000
 5857.00    0.95295   0.92901    0.000
 5858.00    0.95295   0.92778    0.000
 5859.00    0.95551   0.92755    0.000
 5860.00    0.96235   0.92768    0.000
 5861.00    0.97162   0.92979    0.000
 5862.00    0.97650   0.93281    0.000
 5863.00    0.97038   0.93561    0.000
 5864.00    0.95735   0.93932    0.000
 5865.00    0.94806   0.94294    0.000
 5866.00    0.94810   0.94583    0.000
 5867.00    0.95613   0.94895    0.000
 5868.00    0.96470   0.95194    0.000
 5869.00    0.96549   0.95395    0.000
 5870.00    0.95793   0.95562    0.000
 5871.00    0.94883   0.95732    0.000
 5872.00    0.94883   0.95807    0.000
 5873.00    0.96644   0.95799    0.000
 5874.00    0.99963   0.95767    0.000
 5875.00    1.03897   0.95659    0.000
 5876.00    1.07478   0.95477    0.000
 5877.00    1.09892   0.95269    0.000
 5878.00    1.10573   0.95040    0.000
 5879.00    1.09336   0.94759    0.000
 5880.00    1.06539   0.94424    0.000
 5881.00    1.02901   0.94076    0.000
 5882.00    0.99217   0.93661    0.000
 5883.00    0.96275   0.93076    0.000
 5884.00    0.94769   0.92347    0.000
 5885.00    0.94793   0.91489    0.000
 5886.00    0.95278   0.90338    0.000
 5887.00    0.94914   0.88940    0.000
 5888.00    0.93384   0.87544    0.000
 5889.00    0.91147   0.85991    0.000
 5890.00    0.88966   0.84406    0.000
 5891.00    0.87465   0.83301    0.000
 5892.00    0.86682   0.82313    0.000
 5893.00    0.86380   0.81469    0.000
 5894.00    0.86425   0.81455    0.000
 5895.00    0.86750   0.81652    0.000
 5896.00    0.87271   0.81883    0.000
 5897.00    0.87930   0.82840    0.000
 5898.00    0.88742   0.83908    0.000
 5899.00    0.89774   0.84874    0.000
 5900.00    0.91097   0.86354    0.000
 5901.00    0.92540   0.87851   13.460
 5902.00    0.93522   0.89032   10.638
 5903.00    0.93667   0.90250   10.209
 5904.00    0.93348   0.91340   10.739
 5905.00    0.93142   0.92100   10.935
 5906.00    0.93296   0.92712   10.702
 5907.00    0.93704   0.93199   10.544
 5908.00    0.93965   0.93494   10.663
 5909.00    0.93842   0.93666   10.875
 5910.00    0.93574   0.93762   10.631
 5911.00    0.93392   0.93781   10.172
 5912.00    0.93153   0.93723   10.943
 5913.00    0.92652   0.93593   14.435
 5914.00    0.91903   0.93455   19.891
 5915.00    0.91172   0.93371   20.857
 5916.00    0.90938   0.93266   18.861
 5917.00    0.91464   0.93224   18.444
 5918.00    0.92535   0.93312   18.935
 5919.00    0.93753   0.93404   18.946
 5920.00    0.94764   0.93571   18.584
 5921.00    0.95269   0.93777   18.361
 5922.00    0.95061   0.93909   18.349
 5923.00    0.94277   0.94069   18.459
 5924.00    0.93477   0.94181   18.606
 5925.00    0.93221   0.94184   18.664
 5926.00    0.93764   0.94190   18.479
 5927.00    0.94856   0.94123   18.100
 5928.00    0.95750   0.94005   17.823
 5929.00    0.95851   0.93904   17.857
 5930.00    0.95086   0.93751   18.200
 5931.00    0.93844   0.93658   18.732
 5932.00    0.92828   0.93620   19.249
 5933.00    0.92576   0.93572   19.598
 5934.00    0.93195   0.93604   19.761
 5935.00    0.94369   0.93686   19.765
 5936.00    0.95469   0.93793   19.630
 5937.00    0.95999   0.93871   19.437
 5938.00    0.95811   0.93928   19.334
 5939.00    0.95052   0.94048   19.416
 5940.00    0.94092   0.94094   19.663
 5941.00    0.93373   0.94061   19.892
 5942.00    0.93263   0.94087   19.817
 5943.00    0.93726   0.94069   19.508
 5944.00    0.94299   0.93990   19.394
 5945.00    0.94544   0.93947   19.547
 5946.00    0.94293   0.93883   19.586
 5947.00    0.93802   0.93790   19.371
 5948.00    0.93646   0.93684   19.175
 5949.00    0.94095   0.93547   19.153
 5950.00    0.94933   0.93441   19.207
 5951.00    0.95737   0.93348   19.168
 5952.00    0.96084   0.93215   18.936
 5953.00    0.95895   0.93146   18.706
 5954.00    0.95448   0.93176   18.832
 5955.00    0.94975   0.93179   19.226
 5956.00    0.94523   0.93182   19.381
 5957.00    0.93973   0.93302   19.289
 5958.00    0.93172   0.93457   19.487
 5959.00    0.92313   0.93600   20.037
 5960.00    0.91891   0.93784   20.419
 5961.00    0.92191   0.94002   20.413
 5962.00    0.93135   0.94213   20.302
 5963.00    0.94299   0.94393   20.286
 5964.00    0.95082   0.94578   20.361
 5965.00    0.95152   0.94718   20.492
 5966.00    0.94580   0.94805   20.630
 5967.00    0.93850   0.94929   20.633
 5968.00    0.93608   0.95007   20.386
 5969.00    0.93994   0.95039   20.149
 5970.00    0.94652   0.95097   20.309
 5971.00    0.95192   0.95106   20.670
 5972.00    0.95333   0.95035   20.644
 5973.00    0.94943   0.94924   20.302
 5974.00    0.94102   0.94762   20.201
 5975.00    0.93202   0.94518   20.377
 5976.00    0.92802   0.94239   20.438
 5977.00    0.93232   0.93984   20.233
 5978.00    0.94427   0.93709   19.924
 5979.00    0.95766   0.93441   19.745
 5980.00    0.96420   0.93252   19.832
 5981.00    0.96117   0.93043   20.014
 5982.00    0.95146   0.92849   19.997
 5983.00    0.94004   0.92707   19.867
 5984.00    0.93172   0.92506   19.911
 5985.00    0.92827   0.92389   20.077
 5986.00    0.92894   0.92344   20.126
 5987.00    0.93241   0.92265   20.118
 5988.00    0.93650   0.92310   20.253
 5989.00    0.93691   0.92449   20.429
 5990.00    0.93032   0.92574   20.430
 5991.00    0.91981   0.92704   20.392
 5992.00    0.91187   0.92857   20.577
 5993.00    0.90991   0.93019   20.858
 5994.00    0.91315   0.93083   20.930
 5995.00    0.91684   0.93103   20.824
 5996.00    0.91608   0.93139   20.785
 5997.00    0.91161   0.93070   20.908
 5998.00    0.90741   0.92973   21.140
 5999.00    0.90587   0.92891   21.352
 6000.00    0.90770   0.92741   21.430
 6001.00    0.91275   0.92626   21.420
 6002.00    0.92014   0.92502   21.402
 6003.00    0.92820   0.92323   21.293
 6004.00    0.93437   0.92225   21.024
 6005.00    0.93510   0.92068   20.770
 6006.00    0.92803   0.91875   20.714
 6007.00    0.91464   0.91785   20.780
 6008.00    0.89910   0.91632   20.818
 6009.00    0.88640   0.91533   20.873
 6010.00    0.88103   0.91530   21.008
 6011.00    0.88555   0.91444   21.074
 6012.00    0.89881   0.91421   20.923
 6013.00    0.91447   0.91427   20.676
 6014.00    0.92561   0.91374   20.523
 6015.00    0.92996   0.91342   20.504
 6016.00    0.92881   0.91232   20.564
 6017.00    0.92523   0.91112   20.636
 6018.00    0.92121   0.91078   20.666
 6019.00    0.91538   0.90955   20.634
 6020.00    0.90627   0.90833   20.578
 6021.00    0.89562   0.90841   20.599
 6022.00    0.88651   0.90857   20.766
 6023.00    0.88130   0.90910   21.036
 6024.00    0.88063   0.91037   21.296
 6025.00    0.88289   0.91266   21.421
 6026.00    0.88596   0.91549   21.379
 6027.00    0.88880   0.91796   21.307
 6028.00    0.89190   0.92148   21.321
 6029.00    0.89719   0.92515   21.380
 6030.00    0.90569   0.92801   21.410
 6031.00    0.91558   0.93111   21.415
 6032.00    0.92409   0.93401   21.411
 6033.00    0.92905   0.93632   21.386
 6034.00    0.92981   0.93811   21.382
 6035.00    0.92779   0.93946   21.508
 6036.00    0.92615   0.94049   21.549
 6037.00    0.92893   0.94086   20.907
 6038.00    0.93580   0.94091   20.230
 6039.00    0.93970   0.94068   21.579
 6040.00    0.93593   0.94016   24.076
 6041.00    0.92790   0.93983   19.966
 6042.00    0.92272   0.93933   13.347
 6043.00    0.92710   0.93919   10.482
 6044.00    0.94120   0.93949   10.163
 6045.00    0.95639   0.93958   10.559
 6046.00    0.96490   0.94004   10.519
 6047.00    0.96552   0.94074   10.324
 6048.00    0.96077   0.94087   10.376
 6049.00    0.95468   0.94068   10.472
 6050.00    0.94976   0.94037   10.480
 6051.00    0.94565   0.93938   10.623
 6052.00    0.94080   0.93786   10.822
 6053.00    0.93365   0.93604   10.552
 6054.00    0.92410   0.93421   10.268
 6055.00    0.91406   0.93245   11.581
 6056.00    0.90654   0.93057   16.103
 6057.00    0.90464   0.92938   22.016
 6058.00    0.90894   0.92868   21.811
 6059.00    0.91692   0.92797   19.533
 6060.00    0.92569   0.92748   19.275
 6061.00    0.93323   0.92711   19.882
 6062.00    0.93772   0.92651   20.060
 6063.00    0.93758   0.92579   19.845
 6064.00    0.93286   0.92541   19.678
 6065.00    0.92554   0.92476   19.823
 6066.00    0.91850   0.92497   20.201
 6067.00    0.91469   0.92658   20.432
 6068.00    0.91596   0.92799   20.439
 6069.00    0.92261   0.93021   20.560
 6070.00    0.93356   0.93330   20.862
 6071.00    0.94650   0.93578   21.010
 6072.00    0.95805   0.93801   20.898
 6073.00    0.96441   0.93936   20.785
 6074.00    0.96327   0.93962   20.810
 6075.00    0.95468   0.93912   20.899
 6076.00    0.94123   0.93732   20.979
 6077.00    0.92732   0.93479   21.039
 6078.00    0.91664   0.93155   21.055
 6079.00    0.91091   0.92788   20.989
 6080.00    0.90894   0.92482   20.878
 6081.00    0.90785   0.92150   20.808
 6082.00    0.90782   0.91826   20.776
 6083.00    0.91174   0.91640   20.706
 6084.00    0.92018   0.91484   20.601
 6085.00    0.93004   0.91335   20.538
 6086.00    0.93515   0.91274   20.520
 6087.00    0.92965   0.91246   20.473
 6088.00    0.91604   0.91240   20.344
 6089.00    0.90325   0.91254   20.152
 6090.00    0.89583   0.91254   20.034
 6091.00    0.89309   0.91302   20.142
 6092.00    0.89406   0.91375   20.399
 6093.00    0.89873   0.91408   20.545
 6094.00    0.90782   0.91471   20.467
 6095.00    0.92055   0.91567   20.274
 6096.00    0.92975   0.91598   20.227
 6097.00    0.92675   0.91559   20.547
 6098.00    0.91425   0.91498   21.040
 6099.00    0.90292   0.91360   21.237
 6100.00    0.89788   0.91132   21.070
 6101.00    0.89783   0.90901   20.821
 6102.00    0.89952   0.90596   20.596
 6103.00    0.90031   0.90324   20.363
 6104.00    0.90117   0.90280   20.192
 6105.00    0.90533   0.90227   20.186
 6106.00    0.91431   0.90242   20.277
 6107.00    0.92681   0.90476   20.286
 6108.00    0.93815   0.90705   20.121
 6109.00    0.94249   0.90988   19.833
 6110.00    0.93688   0.91276   19.644
 6111.00    0.92288   0.91439   19.766
 6112.00    0.90769   0.91628   20.147
 6113.00    0.89949   0.91772   20.574
 6114.00    0.89951   0.91780   20.931
 6115.00    0.90417   0.91752   21.154
 6116.00    0.91046   0.91630   21.068
 6117.00    0.91603   0.91439   20.594
 6118.00    0.91809   0.91249   20.043
 6119.00    0.91425   0.90936   19.785
 6120.00    0.90393   0.90603   19.887
 6121.00    0.88893   0.90336   20.218
 6122.00    0.87365   0.90011   20.601
 6123.00    0.86310   0.89814   20.905
 6124.00    0.85998   0.89761   21.182
 6125.00    0.86374   0.89673   21.425
 6126.00    0.87018   0.89721   21.261
 6127.00    0.87543   0.89871   20.880
 6128.00    0.88082   0.89963   21.984
 6129.00    0.88912   0.90063   24.861
 6130.00    0.89934   0.90135   22.298
 6131.00    0.90748   0.90098   14.899
 6132.00    0.90846   0.89960   11.097
 6133.00    0.89997   0.89733   10.511
 6134.00    0.88625   0.89392   11.264
 6135.00    0.87274   0.88963   11.699
 6136.00    0.86031   0.88484   11.627
 6137.00    0.84900   0.87996   11.690
 6138.00    0.84236   0.87696   11.871
 6139.00    0.84342   0.87562   11.889
 6140.00    0.85039   0.87498   11.759
 6141.00    0.85950   0.87600   11.624
 6142.00    0.86821   0.87873   11.518
 6143.00    0.87573   0.88283   11.421
 6144.00    0.88307   0.88667   11.324
 6145.00    0.89164   0.88974   11.218
 6146.00    0.90171   0.89321   11.090
 6147.00    0.91066   0.89587   10.971
 6148.00    0.91233   0.89735   10.963
 6149.00    0.90379   0.89820   11.093
 6150.00    0.89056   0.89840   11.221
 6151.00    0.88042   0.89857   11.275
 6152.00    0.87784   0.89833   11.418
 6153.00    0.88262   0.89770   11.568
 6154.00    0.88964   0.89667   11.160
 6155.00    0.89395   0.89480   10.571
 6156.00    0.89424   0.89258   11.481
 6157.00    0.89014   0.88920   15.736
 6158.00    0.88052   0.88471   22.820
 6159.00    0.86665   0.88013   23.995
 6160.00    0.85373   0.87475   21.419
 6161.00    0.84618   0.86864   21.134
 6162.00    0.84465   0.86345   21.918
 6163.00    0.84779   0.85961   21.900
 6164.00    0.85367   0.85675   21.677
 6165.00    0.86048   0.85533   21.955
 6166.00    0.86678   0.85524   22.106
 6167.00    0.87093   0.85671   21.637
 6168.00    0.87107   0.85902   21.033
 6169.00    0.86737   0.86071   20.711
 6170.00    0.86287   0.86312   20.596
 6171.00    0.86049   0.86671   20.613
 6172.00    0.86127   0.86987   20.875
 6173.00    0.86442   0.87273   21.386
 6174.00    0.86788   0.87624   21.893
 6175.00    0.87112   0.87993   22.200
 6176.00    0.87618   0.88329   22.340
 6177.00    0.88550   0.88634   22.348
 6178.00    0.90018   0.88939   22.129
 6179.00    0.91680   0.89234   21.487
 6180.00    0.92735   0.89452   20.286
 6181.00    0.92584   0.89643   18.826
 6182.00    0.91169   0.89793   17.620
 6183.00    0.89112   0.89837   16.859
 6184.00    0.87530   0.89832   16.481
 6185.00    0.87070   0.89756   16.516
 6186.00    0.87591   0.89544   17.114
 6187.00    0.88577   0.89301   18.142
 6188.00    0.89426   0.89026   18.998
 6189.00    0.89866   0.88712   19.373
 6190.00    0.90032   0.88460   19.646
 6191.00    0.90113   0.88185   20.017
 6192.00    0.90196   0.88047   20.250
 6193.00    0.90198   0.88121   20.336
 6194.00    0.89909   0.88165   20.609
 6195.00    0.89207   0.88300   21.142
 6196.00    0.88137   0.88561   21.625
 6197.00    0.86896   0.88818   21.867
 6198.00    0.85808   0.89069   21.974
 6199.00    0.85235   0.89236   22.137
 6200.00    0.85447   0.89383   22.413
 6201.00    0.86320   0.89594   22.304
 6202.00    0.87364   0.89757   21.138
 6203.00    0.88110   0.89870   19.423
 6204.00    0.88300   0.90002   18.145
 6205.00    0.88072   0.90120   17.432
 6206.00    0.87881   0.90212   16.990
 6207.00    0.88140   0.90229   16.932
 6208.00    0.88998   0.90142   17.622
 6209.00    0.90014   0.90001   18.868
 6210.00    0.90382   0.89754   19.780
 6211.00    0.89688   0.89407   19.985
 6212.00    0.88067   0.89014   19.968
 6213.00    0.86079   0.88538   19.976
 6214.00    0.84423   0.88053   19.934
 6215.00    0.83358   0.87636   20.018
 6216.00    0.82746   0.87256   20.534
 6217.00    0.82457   0.86986   21.294
 6218.00    0.82456   0.86816   21.725
 6219.00    0.82775   0.86681   21.755
 6220.00    0.83406   0.86681   21.770
 6221.00    0.84074   0.86766   21.826
 6222.00    0.84389   0.86864   21.718
 6223.00    0.84240   0.87006   21.481
 6224.00    0.83771   0.87100   21.346
 6225.00    0.83166   0.87165   21.467
 6226.00    0.82600   0.87212   21.829
 6227.00    0.82213   0.87143   22.117
 6228.00    0.82064   0.87020   22.037
 6229.00    0.82062   0.86868   21.989
 6230.00    0.82039   0.86646   22.398
 6231.00    0.81893   0.86472   22.385
 6232.00    0.81608   0.86382   20.948
 6233.00    0.81244   0.86292   19.236
 6234.00    0.80981   0.86310   18.486
 6235.00    0.81170   0.86380   18.350
 6236.00    0.81989   0.86428   18.129
 6237.00    0.82920   0.86477   18.189
 6238.00    0.83350   0.86421   19.212
 6239.00    0.83552   0.86331   20.790
 6240.00    0.84229   0.86175   21.722
 6241.00    0.85624   0.85955   21.901
 6242.00    0.87520   0.85755   21.760
 6243.00    0.89396   0.85485   -2.000
 6244.00    0.90320   0.85296   -2.000
 6245.00    0.88862   0.85197   -2.000
 6246.00    0.84481   0.85062   -2.000
 6247.00    0.79218   0.85038   -2.000
 6248.00    0.75883   0.85075   -2.000
 6249.00    0.75533   0.85092   -2.000
 6250.00    0.77536   0.85122   -2.000
 6251.00    0.80112   0.85087   -2.000
 6252.00    0.81617   0.84964   -2.000
 6253.00    0.81913   0.84835   -2.000
 6254.00    0.81635   0.84677   -2.000
 6255.00    0.81205   0.84508   17.147
 6256.00    0.80835   0.84365   17.549
 6257.00    0.80640   0.84284   18.854
 6258.00    0.80655   0.84316   20.512
 6259.00    0.80855   0.84439   21.909
 6260.00    0.81249   0.84689   22.625
 6261.00    0.81964   0.84987   22.750
 6262.00    0.83046   0.85349   22.658
 6263.00    0.84273   0.85783   22.585
 6264.00    0.85270   0.86140   22.545
 6265.00    0.85653   0.86449   22.332
 6266.00    0.85277   0.86753   21.833
 6267.00    0.84433   0.87008   21.241
 6268.00    0.83673   0.87196   20.761
 6269.00    0.83592   0.87325   20.415
 6270.00    0.84354   0.87433   20.323
 6271.00    0.85386   0.87554   20.826
 6272.00    0.86089   0.87655   21.722
 6273.00    0.86387   0.87726   21.596
 6274.00    0.86419   0.87773   20.248
 6275.00    0.86281   0.87790   19.707
 6276.00    0.86163   0.87807   19.887
 6277.00    0.86393   0.87765   17.403
 6278.00    0.86986   0.87688   13.360
 6279.00    0.87400   0.87629   11.249
 6280.00    0.87223   0.87519    0.000
 6281.00    0.86611   0.87480    0.000
 6282.00    0.85954   0.87497    0.000
 6283.00    0.85609   0.87521    0.000
 6284.00    0.85690   0.87654    0.000
 6285.00    0.85993   0.87771    0.000
 6286.00    0.86279   0.87917    0.000
 6287.00    0.86453   0.88111    0.000
 6288.00    0.86507   0.88224    0.000
 6289.00    0.86472   0.88326    0.000
 6290.00    0.86300   0.88351    0.000
 6291.00    0.85851   0.88277    0.000
 6292.00    0.85176   0.88188    0.000
 6293.00    0.84621   0.88013    0.000
 6294.00    0.84564   0.87802    0.000
 6295.00    0.85239   0.87571    0.000
 6296.00    0.86632   0.87252    0.000
 6297.00    0.88487   0.86955    0.000
 6298.00    0.90591   0.86693    0.000
 6299.00    0.92853   0.86453    0.000
 6300.00    0.94990   0.86251    0.000
 6301.00    0.96454   0.86074    0.000
 6302.00    0.96804   0.86000    0.000
 6303.00    0.95900   0.86051    0.000
 6304.00    0.94027   0.86166    0.000
 6305.00    0.91806   0.86305    0.000
 6306.00    0.89675   0.86486    0.000
 6307.00    0.87728   0.86711    0.000
 6308.00    0.85962   0.86911    0.000
 6309.00    0.84434   0.87018    0.000
 6310.00    0.83392   0.87022    0.000
 6311.00    0.83175   0.86962    0.000
 6312.00    0.83658   0.86821    0.000
 6313.00    0.84232   0.86589    0.000
 6314.00    0.84480   0.86290    0.000
 6315.00    0.84371   0.85955    0.000
 6316.00    0.84077   0.85681    0.000
 6317.00    0.83840   0.85448    0.000
 6318.00    0.83808   0.85232    0.000
 6319.00    0.84001   0.85174    0.000
 6320.00    0.84408   0.85236    0.000
 6321.00    0.84984   0.85383   11.188
 6322.00    0.85550   0.85622   11.380
 6323.00    0.85851   0.85905   11.874
 6324.00    0.85830   0.86275   11.782
 6325.00    0.85657   0.86624   11.553
 6326.00    0.85595   0.86926   11.581
 6327.00    0.85857   0.87174   11.810
 6328.00    0.86360   0.87354   11.770
 6329.00    0.86784   0.87488   11.151
 6330.00    0.86911   0.87467   11.026
 6331.00    0.86754   0.87377   13.137
 6332.00    0.86636   0.87254   18.689
 6333.00    0.86927   0.87049   23.284
 6334.00    0.87368   0.86803   21.689
 6335.00    0.87266   0.86496   20.393
 6336.00    0.86341   0.86215   21.423
 6337.00    0.84866   0.86008   22.921
 6338.00    0.83514   0.85836   23.539
 6339.00    0.83024   0.85676   23.503
 6340.00    0.83569   0.85593   23.306
 6341.00    0.84774   0.85570   23.194
 6342.00    0.86071   0.85542   23.172
 6343.00    0.86957   0.85560   23.139
 6344.00    0.87345   0.85552   23.116
 6345.00    0.87431   0.85590   23.186
 6346.00    0.87296   0.85658   23.305
 6347.00    0.86948   0.85691   23.365
 6348.00    0.86536   0.85806   23.402
 6349.00    0.86365   0.85926   23.488
 6350.00    0.86840   0.86036   23.472
 6351.00    0.88121   0.86155   23.178
 6352.00    0.89584   0.86204   22.819
 6353.00    0.90303   0.86195   22.734
 6354.00    0.89988   0.86105   22.960
 6355.00    0.88935   0.85922   23.281
 6356.00    0.87669   0.85695   23.379
 6357.00    0.86636   0.85403   23.126
 6358.00    0.85824   0.85049   22.947
 6359.00    0.85071   0.84695   23.231
 6360.00    0.84590   0.84394   23.513
 6361.00    0.84682   0.84141   23.173
 6362.00    0.85247   0.83950   22.695
 6363.00    0.85993   0.83866   22.746
 6364.00    0.86809   0.83883   22.947
 6365.00    0.87672   0.84007   22.646
 6366.00    0.88449   0.84209   22.154
 6367.00    0.88979   0.84466   22.042
 6368.00    0.89205   0.84787   22.228
 6369.00    0.89145   0.85108   22.400
 6370.00    0.88832   0.85412   22.600
 6371.00    0.88347   0.85715   22.961
 6372.00    0.87869   0.86013   23.281
 6373.00    0.87578   0.86285   23.317
 6374.00    0.87556   0.86494   23.219
 6375.00    0.87786   0.86654   23.235
 6376.00    0.88173   0.86785   23.346
 6377.00    0.88539   0.86890   23.445
 6378.00    0.88637   0.86922   23.553
 6379.00    0.88373   0.86908   23.657
 6380.00    0.88002   0.86876   23.557
 6381.00    0.87787   0.86832   23.230
 6382.00    0.87669   0.86813   23.115
 6383.00    0.87531   0.86786   23.439
 6384.00    0.87468   0.86764   23.662
 6385.00    0.87541   0.86782   23.357
 6386.00    0.87561   0.86812   23.050
 6387.00    0.87341   0.86836   23.217
 6388.00    0.86919   0.86814   23.515
 6389.00    0.86402   0.86763   23.560
 6390.00    0.85825   0.86693   23.614
 6391.00    0.85273   0.86571   23.889
 6392.00    0.84951   0.86412   23.987
 6393.00    0.84918   0.86195   23.662
 6394.00    0.84906   0.86003   23.370
 6395.00    0.84661   0.85876   23.427
 6396.00    0.84209   0.85754   23.497
 6397.00    0.83730   0.85658   23.290
 6398.00    0.83453   0.85565   23.046
 6399.00    0.83531   0.85515   22.989
 6400.00    0.83963   0.85504   23.003
 6401.00    0.84588   0.85567   22.968
 6402.00    0.85134   0.85656   22.964
 6403.00    0.85521   0.85682   23.029
 6404.00    0.86001   0.85739   23.027
 6405.00    0.86720   0.85761   22.869
 6406.00    0.87469   0.85769   22.620
 6407.00    0.87863   0.85785   22.216
 6408.00    0.87529   0.85699   21.421
 6409.00    0.86489   0.85629   20.377
 6410.00    0.85284   0.85560   19.623
 6411.00    0.84417   0.85422   19.401
 6412.00    0.84037   0.85343   19.533
 6413.00    0.84002   0.85302   19.708
 6414.00    0.83989   0.85267   19.648
 6415.00    0.83854   0.85246   19.401
 6416.00    0.83764   0.85209   19.356
 6417.00    0.83920   0.85182   19.664
 6418.00    0.84377   0.85220   20.079
 6419.00    0.84883   0.85234   20.493
 6420.00    0.84944   0.85244   21.144
 6421.00    0.84462   0.85339   22.092
 6422.00    0.83913   0.85482   22.931
 6423.00    0.83778   0.85701   23.230
 6424.00    0.84247   0.85889   22.943
 6425.00    0.85092   0.86042   22.516
 6426.00    0.85784   0.86206   22.578
 6427.00    0.86163   0.86343   23.126
 6428.00    0.86534   0.86412   23.446
 6429.00    0.86883   0.86362   23.354
 6430.00    0.86740   0.86219   23.476
 6431.00    0.85833   0.86044   23.962
 6432.00    0.84333   0.85921   24.254
 6433.00    0.82736   0.85790   24.271
 6434.00    0.81694   0.85666   24.523
 6435.00    0.81570   0.85588   24.595
 6436.00    0.82301   0.85522   23.551
 6437.00    0.83492   0.85537   22.970
 6438.00    0.84601   0.85569   25.375
 6439.00    0.85405   0.85607   26.426
 6440.00    0.85983   0.85751   19.297
 6441.00    0.86176   0.85911   12.954
 6442.00    0.85576   0.86052   11.061
 6443.00    0.84019   0.86181   11.565
 6444.00    0.81837   0.86252   12.470
 6445.00    0.80123   0.86334   12.605
 6446.00    0.80173   0.86363   12.397
 6447.00    0.81760   0.86236   12.212
 6448.00    0.83358   0.86014   11.978
 6449.00    0.84038   0.85694   11.849
 6450.00    0.83806   0.85355   12.066
 6451.00    0.83075   0.85119   12.216
 6452.00    0.82387   0.84898   11.727
 6453.00    0.82082   0.84706   11.672
 6454.00    0.82259   0.84552   14.048
 6455.00    0.82866   0.84431   20.431
 6456.00    0.83743   0.84446   26.221
 6457.00    0.84653   0.84532   24.510
 6458.00    0.85358   0.84620   22.401
 6459.00    0.85782   0.84692   22.457
 6460.00    0.85952   0.84705   23.117
 6461.00    0.85817   0.84717   23.482
 6462.00    0.85307   0.84741   23.662
 6463.00    0.84534   0.84792   23.739
 6464.00    0.83746   0.84907   23.621
 6465.00    0.83145   0.84979   23.277
 6466.00    0.82853   0.85061   22.776
 6467.00    0.82925   0.85139   22.250
 6468.00    0.83330   0.85247   21.858
 6469.00    0.83924   0.85404   21.768
 6470.00    0.84503   0.85514   22.082
 6471.00    0.84904   0.85583   22.684
 6472.00    0.85157   0.85624   23.290
 6473.00    0.85681   0.85691   23.655
 6474.00    0.86844   0.85714   23.552
 6475.00    0.88197   0.85717   22.704
 6476.00    0.88864   0.85707   21.213
 6477.00    0.88346   0.85686   19.841
 6478.00    0.86813   0.85669   19.168
 6479.00    0.85293   0.85591   19.084
 6480.00    0.84820   0.85474   19.317
 6481.00    0.85188   0.85327   19.986
 6482.00    0.85512   0.85183   21.287
 6483.00    0.85286   0.85058   22.750
 6484.00    0.84569   0.84940   23.456
 6485.00    0.83992   0.84831   23.279
 6486.00    0.84107   0.84675   22.734
 6487.00    0.84587   0.84470   22.079
 6488.00    0.84795   0.84223   21.428
 6489.00    0.84621   0.83878   21.025
 6490.00    0.84252   0.83405   21.044
 6491.00    0.83756   0.82797   21.396
 6492.00    0.83047   0.82086   21.935
 6493.00    0.81914   0.81346   22.714
 6494.00    0.80262   0.80560   23.554
 6495.00    0.78355   0.79891   23.442
 6496.00    0.76561   0.79428   21.868
 6497.00    0.75069   0.79154   20.030
 6498.00    0.74000   0.79174   18.900
 6499.00    0.73558   0.79335   18.435
 6500.00    0.73918   0.79748   18.485
 6501.00    0.75093   0.80397   19.294
 6502.00    0.76912   0.81093   20.993
 6503.00    0.79014   0.81866   22.733
 6504.00    0.80876   0.82559   23.227
 6505.00    0.81908   0.83186   22.594
 6506.00    0.82062   0.83750   21.732
 6507.00    0.82267   0.84170   21.080
 6508.00    0.83294   0.84471   20.719
 6509.00    0.84804   0.84667   20.580
 6510.00    0.85986   0.84771   20.628
 6511.00    0.86213   0.84794   20.956
 6512.00    0.85445   0.84740   21.524
 6513.00    0.84426   0.84615   21.931
 6514.00    0.83940   0.84458   21.888
 6515.00    0.84206   0.84284   21.661
 6516.00    0.84929   0.84098   21.695
 6517.00    0.85440   0.83950   22.265
 6518.00    0.85315   0.83840   23.064
 6519.00    0.84752   0.83771   22.895
 6520.00    0.84076   0.83771   21.423
 6521.00    0.83395   0.83794   19.965
 6522.00    0.82797   0.83870   19.299
 6523.00    0.82482   0.83954   19.236
 6524.00    0.82639   0.84015   19.569
 6525.00    0.83342   0.84087   20.415
 6526.00    0.84373   0.84093   21.757
 6527.00    0.85199   0.84051   23.016
 6528.00    0.85536   0.84001    0.000
 6529.00    0.85601   0.83936    0.000
 6530.00    0.85635   0.83864    0.000
 6531.00    0.85632   0.83762    0.000
 6532.00    0.85485   0.83650    0.000
 6533.00    0.85109   0.83586    0.000
 6534.00    0.84601   0.83547    0.000
 6535.00    0.84273   0.83522    0.000
 6536.00    0.84347   0.83493    0.000
 6537.00    0.84782   0.83431    0.000
 6538.00    0.85281   0.83375    0.000
 6539.00    0.85372   0.83309    0.000
 6540.00    0.84795   0.83209    0.000
 6541.00    0.83718   0.83044    0.000
 6542.00    0.82779   0.82804    0.000
 6543.00    0.82982   0.82521    0.000
 6544.00    0.85100   0.82204    0.000
 6545.00    0.89400   0.81853    0.000
 6546.00    0.95605   0.81449    0.000
 6547.00    1.02885   0.81066    0.000
 6548.00    1.09903   0.80690    0.000
 6549.00    1.14983   0.80299    0.000
 6550.00    1.16730   0.79876    0.000
 6551.00    1.14432   0.79376    0.000
 6552.00    1.08623   0.78841    0.000
 6553.00    1.01012   0.78221    0.000
 6554.00    0.93470   0.77457    0.000
 6555.00    0.87509   0.76525    0.000
 6556.00    0.83865   0.75429    0.000
 6557.00    0.83277   0.74212    0.000
 6558.00    0.89515   0.72859    0.000
 6559.00    1.09697   0.71424    0.000
 6560.00    1.51906   0.69943    0.000
 6561.00    2.21109   0.68544    0.000
 6562.00    3.09387   0.67331    0.000
 6563.00    3.96091   0.66431    0.000
 6564.00    4.57650   0.66115    0.000
 6565.00    4.74436   0.66237    0.000
 6566.00    4.41265   0.66729    0.000
 6567.00    3.68777   0.67540    0.000
 6568.00    2.78508   0.68629    0.000
 6569.00    1.95964   0.70027    0.000
 6570.00    1.36428   0.71481    0.000
 6571.00    1.02558   0.72845    0.000
 6572.00    0.88410   0.74061    0.000
 6573.00    0.83804   0.75118    0.000
 6574.00    0.82200   0.76036    0.000
 6575.00    0.81510   0.76849    0.000
 6576.00    0.81225   0.77607    0.000
 6577.00    0.81567   0.78266    0.000
 6578.00    0.83173   0.78842    0.000
 6579.00    0.87259   0.79342    0.000
 6580.00    0.96066   0.79781    0.000
 6581.00    1.11796   0.80177    0.000
 6582.00    1.34176   0.80519    0.000
 6583.00    1.59954   0.80809    0.000
 6584.00    1.83047   0.81010    0.000
 6585.00    1.96551   0.81164    0.000
 6586.00    1.96569   0.81246    0.000
 6587.00    1.83090   0.81310    0.000
 6588.00    1.60103   0.81355    0.000
 6589.00    1.34087   0.81326    0.000
 6590.00    1.11210   0.81264    0.000
 6591.00    0.95631   0.81131    0.000
 6592.00    0.87547   0.80996    0.000
 6593.00    0.84387   0.80859    0.000
 6594.00    0.83420   0.80795    0.000
 6595.00    0.82701   0.80810    0.000
 6596.00    0.81833   0.80844    0.000
 6597.00    0.81408   0.80932    0.000
 6598.00    0.81940   0.81053    0.000
 6599.00    0.83482   0.81264    0.000
 6600.00    0.85359   0.81516    0.000
 6601.00    0.86648   0.81729    0.000
 6602.00    0.86952   0.81888    0.000
 6603.00    0.86419   0.81983    0.000
 6604.00    0.85575   0.82026    0.000
 6605.00    0.84877   0.82027    0.000
 6606.00    0.84157   0.81999    0.000
 6607.00    0.83040   0.81938    0.000
 6608.00    0.81570   0.81886    0.000
 6609.00    0.80190   0.81843   23.528
 6610.00    0.79568   0.81861   23.463
 6611.00    0.80053   0.81947   23.195
 6612.00    0.81081   0.82059   23.047
 6613.00    0.81797   0.82209   23.333
 6614.00    0.81843   0.82371   23.829
 6615.00    0.81378   0.82583   24.128
 6616.00    0.80960   0.82789   24.182
 6617.00    0.81087   0.82957   24.157
 6618.00    0.81732   0.83088   24.168
 6619.00    0.82625   0.83188   24.244
 6620.00    0.83591   0.83256   24.336
 6621.00    0.84438   0.83268   24.393
 6622.00    0.84841   0.83228   24.444
 6623.00    0.84586   0.83139   24.526
 6624.00    0.83811   0.83025   24.616
 6625.00    0.82856   0.82876   24.657
 6626.00    0.82082   0.82736   24.603
 6627.00    0.81647   0.82573   24.447
 6628.00    0.81356   0.82398   24.246
 6629.00    0.81051   0.82222   24.055
 6630.00    0.80932   0.82037   23.889
 6631.00    0.81238   0.81875   23.755
 6632.00    0.81973   0.81715   23.681
 6633.00    0.82895   0.81578   23.707
 6634.00    0.83580   0.81479   23.864
 6635.00    0.83741   0.81441   24.138
 6636.00    0.83456   0.81441   24.437
 6637.00    0.83016   0.81471   24.613
 6638.00    0.82754   0.81524   24.523
 6639.00    0.82828   0.81591   24.228
 6640.00    0.83089   0.81671   24.039
 6641.00    0.83236   0.81750   24.060
 6642.00    0.82973   0.81812   23.985
 6643.00    0.82328   0.81836   23.706
 6644.00    0.81780   0.81855   23.604
 6645.00    0.81672   0.81897   23.843
 6646.00    0.81880   0.81947   24.033
 6647.00    0.82046   0.82000   23.890
 6648.00    0.81815   0.82052   23.625
 6649.00    0.81216   0.82129   23.425
 6650.00    0.80779   0.82213   23.192
 6651.00    0.80859   0.82289   22.843
 6652.00    0.81306   0.82347   22.463
 6653.00    0.81752   0.82391   22.234
 6654.00    0.81854   0.82403   22.351
 6655.00    0.81654   0.82393   22.801
 6656.00    0.81619   0.82345   23.277
 6657.00    0.81900   0.82264   23.529
 6658.00    0.82080   0.82164   23.587
 6659.00    0.81836   0.82016   23.591
 6660.00    0.81234   0.81852   23.671
 6661.00    0.80490   0.81655   23.878
 6662.00    0.79821   0.81470   24.161
 6663.00    0.79310   0.81283   24.407
 6664.00    0.78892   0.81135   24.498
 6665.00    0.78557   0.81049   24.481
 6666.00    0.78394   0.80994   24.563
 6667.00    0.78403   0.80995   24.741
 6668.00    0.78449   0.81037   24.765
 6669.00    0.78420   0.81130   24.620
 6670.00    0.78298   0.81239   24.590
 6671.00    0.78180   0.81332   24.675
 6672.00    0.78258   0.81400   24.543
 6673.00    0.78768   0.81428   24.197
 6674.00    0.79879   0.81403   24.002
 6675.00    0.81438   0.81318   23.986
 6676.00    0.82943   0.81195   23.828
 6677.00    0.83791   0.81035   23.544
 6678.00    0.83538   0.80890   23.502
 6679.00    0.82431   0.80812   23.733
 6680.00    0.81289   0.80813   23.878
 6681.00    0.80552   0.80855   23.764
 6682.00    0.80129   0.80954   23.543
 6683.00    0.79908   0.81106   23.444
 6684.00    0.79873   0.81309   23.630
 6685.00    0.79987   0.81537   24.007
 6686.00    0.80157   0.81748   24.287
 6687.00    0.80257   0.81944   24.394
 6688.00    0.80195   0.82076   24.478
 6689.00    0.80088   0.82170   24.544
 6690.00    0.80168   0.82214   24.473
 6691.00    0.80437   0.82214   24.363
 6692.00    0.80671   0.82172   24.443
 6693.00    0.80662   0.82091   24.656
 6694.00    0.80345   0.81981   24.726
 6695.00    0.79921   0.81855   24.603
 6696.00    0.79711   0.81712    0.000
 6697.00    0.79771   0.81587    0.000
 6698.00    0.79947   0.81492    0.000
 6699.00    0.80212   0.81405    0.000
 6700.00    0.80649   0.81358    0.000
 6701.00    0.81241   0.81303    0.000
 6702.00    0.81849   0.81272    0.000
 6703.00    0.82246   0.81240    0.000
 6704.00    0.82247   0.81213    0.000
 6705.00    0.81906   0.81201    0.000
 6706.00    0.81418   0.81173    0.000
 6707.00    0.80837   0.81138    0.000
 6708.00    0.80131   0.81065    0.000
 6709.00    0.79394   0.80990    0.000
 6710.00    0.78948   0.80882    0.000
 6711.00    0.79455   0.80759    0.000
 6712.00    0.82098   0.80624    0.000
 6713.00    0.88780   0.80457    0.000
 6714.00    1.01018   0.80284    0.000
 6715.00    1.18045   0.80101    0.000
 6716.00    1.36873   0.79941    0.000
 6717.00    1.52987   0.79825    0.000
 6718.00    1.61963   0.79752    0.000
 6719.00    1.61781   0.79772    0.000
 6720.00    1.52888   0.79827    0.000
 6721.00    1.37729   0.79925    0.000
 6722.00    1.20060   0.80062    0.000
 6723.00    1.03993   0.80225    0.000
 6724.00    0.92573   0.80406    0.000
 6725.00    0.86104   0.80568    0.000
 6726.00    0.83601   0.80712    0.000
 6727.00    0.84996   0.80843    0.000
 6728.00    0.90700   0.80943    0.000
 6729.00    1.00633   0.81028    0.000
 6730.00    1.13504   0.81090    0.000
 6731.00    1.26178   0.81128    0.000
 6732.00    1.35055   0.81146    0.000
 6733.00    1.37828   0.81129    0.000
 6734.00    1.33858   0.81115    0.000
 6735.00    1.24332   0.81067    0.000
 6736.00    1.11820   0.81004    0.000
 6737.00    0.99630   0.80905    0.000
 6738.00    0.90356   0.80796    0.000
 6739.00    0.84472   0.80673    0.000
 6740.00    0.81260   0.80556    0.000
 6741.00    0.79928   0.80438    0.000
 6742.00    0.79752   0.80320    0.000
 6743.00    0.80130   0.80204    0.000
 6744.00    0.80623   0.80098    0.000
 6745.00    0.80998   0.80015    0.000
 6746.00    0.81185   0.79918    0.000
 6747.00    0.81225   0.79853    0.000
 6748.00    0.81063   0.79776    0.000
 6749.00    0.80422   0.79734    0.000
 6750.00    0.79239   0.79698    0.000
 6751.00    0.77984   0.79698    0.000
 6752.00    0.77163   0.79746    0.000
 6753.00    0.76901   0.79783   24.781
 6754.00    0.77064   0.79893   25.061
 6755.00    0.77392   0.80000   25.147
 6756.00    0.77620   0.80154   24.928
 6757.00    0.77573   0.80309   24.817
 6758.00    0.77283   0.80471   25.049
 6759.00    0.77035   0.80635   25.266
 6760.00    0.77077   0.80741   25.135
 6761.00    0.77439   0.80846   24.808
 6762.00    0.78044   0.80881   24.527
 6763.00    0.78794   0.80889   24.357
 6764.00    0.79483   0.80844   24.291
 6765.00    0.79785   0.80754   24.300
 6766.00    0.79482   0.80648   24.151
 6767.00    0.78604   0.80510   23.369
 6768.00    0.77332   0.80397   21.649
 6769.00    0.75929   0.80304   19.224
 6770.00    0.74722   0.80248   16.956
 6771.00    0.74068   0.80226   15.631
 6772.00    0.74264   0.80256   15.231
 6773.00    0.75428   0.80332   15.193
 6774.00    0.77122   0.80447   15.136
 6775.00    0.78355   0.80566   15.116
 6776.00    0.78698   0.80707   15.296
 6777.00    0.78715   0.80809   15.773
 6778.00    0.79138   0.80880   16.547
 6779.00    0.80344   0.80911   17.497
 6780.00    0.81899   0.80895   18.568
 6781.00    0.82636   0.80821   19.863
 6782.00    0.81979   0.80695   21.172
 6783.00    0.80411   0.80546   21.727
 6784.00    0.78693   0.80377   21.399
 6785.00    0.77458   0.80236   21.098
 6786.00    0.77030   0.80116   21.357
 6787.00    0.77344   0.80032   21.991
 6788.00    0.77964   0.79977   22.636
 6789.00    0.78252   0.79950   23.021
 6790.00    0.78023   0.79944   23.267
 6791.00    0.77660   0.79950   23.760
 6792.00    0.77524   0.79970   24.086
 6793.00    0.77745   0.79980   23.314
 6794.00    0.78329   0.79981   22.794
 6795.00    0.79195   0.79990   25.000
 6796.00    0.80201   0.79986   26.426
 6797.00    0.81157   0.79988   20.090
 6798.00    0.81853   0.79995   13.692
 6799.00    0.82063   0.80012   11.585
 6800.00    0.81518   0.80025   11.914
 6801.00    0.80028   0.80043   12.732
 6802.00    0.77892   0.80058   12.979
 6803.00    0.75745   0.80068   13.104
 6804.00    0.73696   0.80059   13.510
 6805.00    0.71475   0.80045   14.043
 6806.00    0.69587   0.80020   14.411
 6807.00    0.69145   0.79973   14.408
 6808.00    0.70430   0.79937   14.140
 6809.00    0.72811   0.79889   13.840
 6810.00    0.75669   0.79841   13.340
 6811.00    0.78555   0.79805   12.486
 6812.00    0.80932   0.79780   12.058
 6813.00    0.82324   0.79766   13.066
 6814.00    0.82842   0.79757   15.468
 6815.00    0.83025   0.79770   17.253
 6816.00    0.83150   0.79800   17.454
 6817.00    0.83199   0.79841   18.019
 6818.00    0.83170   0.79882   19.505
 6819.00    0.83102   0.79937   20.534
 6820.00    0.82937   0.79983   20.446
 6821.00    0.82636   0.80040   20.039
 6822.00    0.82457   0.80096   19.852
 6823.00    0.82719   0.80140   19.919
 6824.00    0.83192   0.80177   20.095
 6825.00    0.83262   0.80176   20.263
 6826.00    0.82520   0.80163   20.641
 6827.00    0.81076   0.80128   21.420
 6828.00    0.79889   0.80084   21.807
 6829.00    0.79964   0.80050   20.762
 6830.00    0.80808   0.80007   19.106
 6831.00    0.81112   0.79964   18.087
 6832.00    0.80471   0.79901   17.787
 6833.00    0.79371   0.79834   17.874
 6834.00    0.78623   0.79746   18.341
 6835.00    0.78813   0.79631   19.303
 6836.00    0.79593   0.79492   20.381
 6837.00    0.80104   0.79310   20.942
 6838.00    0.79842   0.79115   21.156
 6839.00    0.78914   0.78882   21.498
 6840.00    0.78171   0.78672   21.429
 6841.00    0.78375   0.78479   20.314
 6842.00    0.79007   0.78349   18.972
 6843.00    0.79263   0.78283   18.335
 6844.00    0.79646   0.78286   18.377
 6845.00    0.80773   0.78356   18.803
 6846.00    0.81564   0.78468   19.698
 6847.00    0.80836   0.78618   21.214
 6848.00    0.79602   0.78775   22.797
 6849.00    0.79447   0.78925   23.401
 6850.00    0.80161   0.79043   22.836
 6851.00    0.80773   0.79121   21.657
 6852.00    0.81135   0.79135   20.251
 6853.00    0.81472   0.79092   18.892
 6854.00    0.81665   0.78999   17.891
 6855.00    0.81577   0.78866   17.429
 6856.00    0.81477   0.78734   17.488
 6857.00    0.81549   0.78607   18.072
 6858.00    0.81376   0.78486   19.382
 6859.00    0.80787   0.78390   21.423
 6860.00    0.80668   0.78325   23.058
 6861.00    0.81527   0.78281   22.695
 6862.00    0.82138   0.78271   20.709
 6863.00    0.81507   0.78296   18.477
 6864.00    0.80761   0.78337   16.713
 6865.00    0.81237   0.78359   15.614
 6866.00    0.82627   0.78377   15.216
 6867.00    0.84003   0.78382   15.587
 6868.00    0.84880   0.78370   16.941
 6869.00    0.85076   0.78368   19.344
 6870.00    0.84525   0.78355   21.806
 6871.00    0.83385   0.78351   22.803
 6872.00    0.82089   0.78329   22.803
 6873.00    0.80973   0.78324   22.985
 6874.00    0.80020   0.78329   23.334
 6875.00    0.79321   0.78342   23.447
 6876.00    0.79359   0.78371   23.290
 6877.00    0.80215   0.78396   22.819
 6878.00    0.81086   0.78428   21.768
 6879.00    0.81213   0.78428   20.315
 6880.00    0.80568   0.78434   19.135
 6881.00    0.79619   0.78427   18.540
 6882.00    0.79061   0.78428   18.346
 6883.00    0.79308   0.78442   18.484
 6884.00    0.80206   0.78475   19.234
 6885.00    0.81379   0.78537   20.638
 6886.00    0.82447   0.78605   21.870
 6887.00    0.82975   0.78707   21.633
 6888.00    0.82517   0.78829   19.546
 6889.00    0.81227   0.78951   16.910
 6890.00    0.80018   0.79080   15.131
 6891.00    0.79445   0.79188   14.396
 6892.00    0.79180   0.79285   14.296
 6893.00    0.78874   0.79338   14.784
 6894.00    0.78592   0.79382   16.450
 6895.00    0.78516   0.79396   19.479
 6896.00    0.78755   0.79395   21.778
 6897.00    0.79339   0.79394   21.928
 6898.00    0.80198   0.79381   22.910
 6899.00    0.81062   0.79376   24.292
 6900.00    0.81520   0.79366   19.913
 6901.00    0.81480   0.79383   14.166
 6902.00    0.81274   0.79393   11.845
 6903.00    0.81080   0.79420   11.917
 6904.00    0.80738   0.79434   12.553
 6905.00    0.80151   0.79463   12.623
 6906.00    0.79388   0.79466   12.543
 6907.00    0.78333   0.79473   12.738
 6908.00    0.76716   0.79451   13.026
 6909.00    0.74860   0.79408   13.294
 6910.00    0.73746   0.79347   13.661
 6911.00    0.74025   0.79251   13.747
 6912.00    0.75615   0.79145   12.930
 6913.00    0.77720   0.79027   12.269
 6914.00    0.79159   0.78914   13.723
 6915.00    0.79484   0.78812   18.489
 6916.00    0.79158   0.78744   23.171
 6917.00    0.78710   0.78696   21.600
 6918.00    0.78388   0.78678   18.636
 6919.00    0.78060   0.78694   17.238
 6920.00    0.77434   0.78710   16.833
 6921.00    0.76867   0.78741   16.943
 6922.00    0.77162   0.78746   17.486
 6923.00    0.78143   0.78749   18.512
 6924.00    0.78701   0.78716   20.087
 6925.00    0.78262   0.78687   21.945
 6926.00    0.77092   0.78647   23.322
 6927.00    0.75815   0.78606   23.818
 6928.00    0.75110   0.78581   23.834
 6929.00    0.75283   0.78542   23.794
 6930.00    0.76196   0.78534   23.815
 6931.00    0.77416   0.78511   23.734
 6932.00    0.78431   0.78525   23.289
 6933.00    0.79077   0.78528   22.551
 6934.00    0.79505   0.78554   21.863
 6935.00    0.79813   0.78585   21.538
 6936.00    0.79987   0.78606   21.711
 6937.00    0.79988   0.78632   22.092
 6938.00    0.79811   0.78635   22.168
 6939.00    0.79557   0.78642   22.009
 6940.00    0.79388   0.78617   22.032
 6941.00    0.79389   0.78577   22.065
 6942.00    0.79495   0.78511   21.623
 6943.00    0.79422   0.78411   20.932
 6944.00    0.78845   0.78322   20.566
 6945.00    0.77786   0.78206   20.583
 6946.00    0.76547   0.78121   20.741
 6947.00    0.75421   0.78037   21.037
 6948.00    0.74622   0.77977   21.541
 6949.00    0.74264   0.77918   21.835
 6950.00    0.74349   0.77886   21.385
 6951.00    0.74762   0.77856   20.552
 6952.00    0.75306   0.77849   20.016
 6953.00    0.75778   0.77864   19.837
 6954.00    0.76015   0.77893   19.822
 6955.00    0.75955   0.77942   20.135
 6956.00    0.75632   0.78005   21.064
 6957.00    0.75160   0.78084   22.415
 6958.00    0.74752   0.78155   23.548
 6959.00    0.74745   0.78248   24.003
 6960.00    0.75338   0.78327   23.822
 6961.00    0.76218   0.78413   23.465
 6962.00    0.76854   0.78491   23.383
 6963.00    0.77011   0.78554   23.603
 6964.00    0.76764   0.78600   23.892
 6965.00    0.76404   0.78638   24.023
 6966.00    0.76221   0.78656   23.924
 6967.00    0.76243   0.78660   23.802
 6968.00    0.76343   0.78651   23.864
 6969.00    0.76431   0.78601   23.971
 6970.00    0.76484   0.78535   23.899
 6971.00    0.76536   0.78421   23.706
 6972.00    0.76578   0.78275   23.576
 6973.00    0.76441   0.78085   23.567
 6974.00    0.76005   0.77854   23.599
 6975.00    0.75441   0.77589   23.491
 6976.00    0.75021   0.77313   23.211
 6977.00    0.74880   0.77058   23.106
 6978.00    0.75020   0.76842   23.338
 6979.00    0.75362   0.76689   23.353
 6980.00    0.75813   0.76631   22.717
 6981.00    0.76343   0.76661   21.997
 6982.00    0.76876   0.76762   21.761
 6983.00    0.77213   0.76929   21.853
 6984.00    0.77328   0.77132   21.897
 6985.00    0.77622   0.77359   21.750
 6986.00    0.78426   0.77587   21.398
 6987.00    0.79539   0.77788   20.828
 6988.00    0.80432   0.77965   20.177
 6989.00    0.80538   0.78103   19.790
 6990.00    0.79806   0.78213   19.856
 6991.00    0.79050   0.78276   20.200
 6992.00    0.78894   0.78311   20.567
 6993.00    0.78957   0.78308   20.873
 6994.00    0.78657   0.78281   21.134
 6995.00    0.77908   0.78224   21.390
 6996.00    0.76996   0.78147   21.696
 6997.00    0.76407   0.78036   22.117
 6998.00    0.76379   0.77902   22.595
 6999.00    0.76649   0.77755   22.855
 7000.00    0.76928   0.77605   22.704
 7001.00    0.77224   0.77462   -2.000
 7002.00    0.77642   0.77325   -2.000
 7003.00    0.78221   0.77204   -2.000
 7004.00    0.78898   0.77101   -2.000
 7005.00    0.79485   0.77034   -2.000
 7006.00    0.79635   0.76995   -2.000
 7007.00    0.78920   0.76983   -2.000
 7008.00    0.77428   0.76985   -2.000
 7009.00    0.76000   0.76989   -2.000
 7010.00    0.75366   0.76991   -2.000
 7011.00    0.75640   0.76980   -2.000
 7012.00    0.76378   0.76944   -2.000
 7013.00    0.76777   0.76887   -2.000
 7014.00    0.76426   0.76797   -2.000
 7015.00    0.75625   0.76707   -2.000
 7016.00    0.74873   0.76612   -2.000
 7017.00    0.74548   0.76545   -2.000
 7018.00    0.74754   0.76504   -2.000
 7019.00    0.75299   0.76489   -2.000
 7020.00    0.75934   0.76485   -2.000
 7021.00    0.76468   0.76498   -2.000
 7022.00    0.76729   0.76524   -2.000
 7023.00    0.76624   0.76561   -2.000
 7024.00    0.76465   0.76609   -2.000
 7025.00    0.76862   0.76670   -2.000
 7026.00    0.77585   0.76742   -2.000
 7027.00    0.77473   0.76832   -2.000
 7028.00    0.76151   0.76916   -2.000
 7029.00    0.74487   0.77014   -2.000
 7030.00    0.73423   0.77098   -2.000
 7031.00    0.73445   0.77188   -2.000
 7032.00    0.74442   0.77254   -2.000
 7033.00    0.75814   0.77321   -2.000
 7034.00    0.77038   0.77376   -2.000
 7035.00    0.77843   0.77429   -2.000
 7036.00    0.78048   0.77472   -2.000
 7037.00    0.77578   0.77534   -2.000
 7038.00    0.76708   0.77605   -2.000
 7039.00    0.75996   0.77714   -2.000
 7040.00    0.75746   0.77853   -2.000
 7041.00    0.75885   0.78015   -2.000
 7042.00    0.76161   0.78179   -2.000
 7043.00    0.76261   0.78339   -2.000
 7044.00    0.76012   0.78492   -2.000
 7045.00    0.75478   0.78620   -2.000
 7046.00    0.75075   0.78724   -2.000
 7047.00    0.75349   0.78784   -2.000
 7048.00    0.76277   0.78799   -2.000
 7049.00    0.77286   0.78765   -2.000
 7050.00    0.77880   0.78674   -2.000
 7051.00    0.77848   0.78538   -2.000
 7052.00    0.77334   0.78369   -2.000
 7053.00    0.76709   0.78172   -2.000
 7054.00    0.76224   0.77980   -2.000
 7055.00    0.75913   0.77789   -2.000
 7056.00    0.75610   0.77615   -2.000
 7057.00    0.75127   0.77454   -2.000
 7058.00    0.74686   0.77309   -2.000
 7059.00    0.74716   0.77194   -2.000
 7060.00    0.75210   0.77087   -2.000
 7061.00    0.75784   0.77015   -2.000
 7062.00    0.76135   0.76946   -2.000
 7063.00    0.76125   0.76900   -2.000
 7064.00    0.75733   0.76836   -2.000
 7065.00    0.75028   0.76790   -2.000
 7066.00    0.74140   0.76723   -2.000
 7067.00    0.73266   0.76676   -2.000
 7068.00    0.72687   0.76642   -2.000
 7069.00    0.72610   0.76634   -2.000
 7070.00    0.72876   0.76656   -2.000
 7071.00    0.73113   0.76700   -2.000
 7072.00    0.73092   0.76769   -2.000
 7073.00    0.72903   0.76851   -2.000
 7074.00    0.73102   0.76945   -2.000
 7075.00    0.74047   0.77027   -2.000
 7076.00    0.74818   0.77100   -2.000
 7077.00    0.74339   0.77136   -2.000
 7078.00    0.73397   0.77141   -2.000
 7079.00    0.73467   0.77092   -2.000
 7080.00    0.74448   0.76990   -2.000
 7081.00    0.75288   0.76828   -2.000
 7082.00    0.75458   0.76605   -2.000
 7083.00    0.74965   0.76334   -2.000
 7084.00    0.74064   0.76042   -2.000
 7085.00    0.73024   0.75733   -2.000
 7086.00    0.71884   0.75438   -2.000
 7087.00    0.70689   0.75156   -2.000
 7088.00    0.69818   0.74905   -2.000
 7089.00    0.69625   0.74693   -2.000
 7090.00    0.69929   0.74537   -2.000
 7091.00    0.70290   0.74414   -2.000
 7092.00    0.70425   0.74361   -2.000
 7093.00    0.70325   0.74330   -2.000
 7094.00    0.70314   0.74353   -2.000
 7095.00    0.70668   0.74404   -2.000
 7096.00    0.71213   0.74483   -2.000
 7097.00    0.71671   0.74598   -2.000
 7098.00    0.72088   0.74709   -2.000
 7099.00    0.72588   0.74842   -2.000
 7100.00    0.73084   0.74953   -2.000
 7101.00    0.73383   0.75064   -2.000
 7102.00    0.73344   0.75150   -2.000
 7103.00    0.73123   0.75216   -2.000
 7104.00    0.73324   0.75254   -2.000
 7105.00    0.74189   0.75248   -2.000
 7106.00    0.74906   0.75219   -2.000
 7107.00    0.74674   0.75151   -2.000
 7108.00    0.73676   0.75064   -2.000
 7109.00    0.72569   0.74953   -2.000
 7110.00    0.71930   0.74840   -2.000
 7111.00    0.72029   0.74718   -2.000
 7112.00    0.72704   0.74620   -2.000
 7113.00    0.73574   0.74524   -2.000
 7114.00    0.74270   0.74466   -2.000
 7115.00    0.74864   0.74403   -2.000
 7116.00    0.76035   0.74379   -2.000
 7117.00    0.77824   0.74345   -2.000
 7118.00    0.78889   0.74334   -2.000
 7119.00    0.78235   0.74316   -2.000
 7120.00    0.76396   0.74300   -2.000
 7121.00    0.74381   0.74287   -2.000
 7122.00    0.72866   0.74271   -2.000
 7123.00    0.72164   0.74253   -2.000
 7124.00    0.72247   0.74237   -2.000
 7125.00    0.72846   0.74211   -2.000
 7126.00    0.73563   0.74188   -2.000
 7127.00    0.74203   0.74161   -2.000
 7128.00    0.74889   0.74134   -2.000
 7129.00    0.75404   0.74114   -2.000
 7130.00    0.75022   0.74111   -2.000
 7131.00    0.73828   0.74129   -2.000
 7132.00    0.73184   0.74183   -2.000
 7133.00    0.73886   0.74265   -2.000
 7134.00    0.75338   0.74367   -2.000
 7135.00    0.76923   0.74503   -2.000
 7136.00    0.78625   0.74634   -2.000
 7137.00    0.80175   0.74774   -2.000
 7138.00    0.80782   0.74887   -2.000
 7139.00    0.80136   0.74991   -2.000
 7140.00    0.78765   0.75047   -2.000
 7141.00    0.77258   0.75076   -2.000
 7142.00    0.75895   0.75060   -2.000
 7143.00    0.74805   0.75005   -2.000
 7144.00    0.74036   0.74924   -2.000
 7145.00    0.73522   0.74816   -2.000
 7146.00    0.73114   0.74690   -2.000
 7147.00    0.72820   0.74583   -2.000
 7148.00    0.72790   0.74488   -2.000
 7149.00    0.72849   0.74438   -2.000
 7150.00    0.72498   0.74431   -2.000
 7151.00    0.71732   0.74469   -2.000
 7152.00    0.71136   0.74546   -2.000
 7153.00    0.71014   0.74654   -2.000
 7154.00    0.71151   0.74776   -2.000
 7155.00    0.71230   0.74916   -2.000
 7156.00    0.71060   0.75024   -2.000
 7157.00    0.70802   0.75125   -2.000
 7158.00    0.70876   0.75167   -2.000
 7159.00    0.71385   0.75181   -2.000
 7160.00    0.71979   0.75144   -2.000
 7161.00    0.72057   0.75078   -2.000
 7162.00    0.71190   0.74975   -2.000
 7163.00    0.70172   0.74866   -2.000
 7164.00    0.70477   0.74771   -2.000
 7165.00    0.71643   0.74710   -2.000
 7166.00    0.71604   0.74700   -2.000
 7167.00    0.70017   0.74737   -2.000
 7168.00    0.68391   0.74822   -2.000
 7169.00    0.67678   0.74946   -2.000
 7170.00    0.67885   0.75105   -2.000
 7171.00    0.68947   0.75267   -2.000
 7172.00    0.70881   0.75426   -2.000
 7173.00    0.73546   0.75544   -2.000
 7174.00    0.76602   0.75624   -2.000
 7175.00    0.79579   0.75649   -2.000
 7176.00    0.81951   0.75634   -2.000
 7177.00    0.83292   0.75560   -2.000
 7178.00    0.83418   0.75446   -2.000
 7179.00    0.82629   0.75294   -2.000
 7180.00    0.81662   0.75127   -2.000
 7181.00    0.81418   0.74959   -2.000
 7182.00    0.82252   0.74790   -2.000
 7183.00    0.82648   0.74628   -2.000
 7184.00    0.80533   0.74471   -2.000
 7185.00    0.76528   0.74310   -2.000
 7186.00    0.73078   0.74169   -2.000
 7187.00    0.71398   0.74040   -2.000
 7188.00    0.71212   0.73932   -2.000
 7189.00    0.71483   0.73858   -2.000
 7190.00    0.71208   0.73797   -2.000
 7191.00    0.70562   0.73779   -2.000
 7192.00    0.70314   0.73779   -2.000
 7193.00    0.70443   0.73831   -2.000
 7194.00    0.70424   0.73894   -2.000
 7195.00    0.70139   0.73988   -2.000
 7196.00    0.69778   0.74091   -2.000
 7197.00    0.69433   0.74199   -2.000
 7198.00    0.69101   0.74298   -2.000
 7199.00    0.68802   0.74384   -2.000
 7200.00    0.68631   0.74441   -2.000
 7201.00    0.68797   0.74480   -2.000
 7202.00    0.69380   0.74493   -2.000
 7203.00    0.69990   0.74477   -2.000
 7204.00    0.70130   0.74437   -2.000
 7205.00    0.69762   0.74357   -2.000
 7206.00    0.69221   0.74285   -2.000
 7207.00    0.68955   0.74206   -2.000
 7208.00    0.69323   0.74151   -2.000
 7209.00    0.70376   0.74122   -2.000
 7210.00    0.72152   0.74107   -2.000
 7211.00    0.75036   0.74122   -2.000
 7212.00    0.79197   0.74148   -2.000
 7213.00    0.83837   0.74201   -2.000
 7214.00    0.87045   0.74257   -2.000
 7215.00    0.85983   0.74327   -2.000
 7216.00    0.80162   0.74391   -2.000
 7217.00    0.74667   0.74444   -2.000
 7218.00    0.74077   0.74488   -2.000
