###################################################################
## OUTPUT of StarlightChains_v04.for    [Cid@UFSC - 01/Apr/2007] ##
###################################################################

## Some input info
2006be.txt                               [arq_obs]
Base.CB07.vall.4m                        [arq_base]
Masks.EmLines.NEW.gm                     [arq_masks]
StCv04.C11.config                        [arq_config]
   66                                    [N_base]
    0                                    [N_YAV_components = # of components with extra extinction!]
    0                                    [i_FitPowerLaw (1/0 = Yes/No)]
-9.99                                    [alpha_PowerLaw]
CCM                                      [red_law_option]
 1.458241                                [q_norm = A(l_norm)/A(V)]

## (Re)Sampling Parameters
 3741.00                                 [l_ini (A)]
 7218.00                                 [l_fin (A)]
    1.00                                 [dl    (A)]     (OBS: dl_cushion =    50.00 A)

## Normalization info
 4020.00                                 [l_norm (A) - for base]
 4010.00                                 [llow_norm (A) - window for f_obs]
 4060.00                                 [lupp_norm (A) - window for f_obs]
4.229104E-16                             [fobs_norm (in input units)]

## S/N
 3691.00                                 [llow_SN (A) - window for S/N]
 7268.00                                 [lupp_SN (A) - window for S/N]
  10.141                                 [S/N in S/N window]
  12.558                                 [S/N in norm. window]
  14.902                                 [S/N_err in S/N window]
  18.455                                 [S/N_err in norm. window]
  1.0000                                 [fscale_chi2]

## etc...
    -2007313                             [idum_orig]
  2389                                   [NOl_eff]
  2389                                   [Nl_eff]
     0    NSIGMA                         [Ntot_cliped & clip_method]
  2057230                                [Nglobal_steps]
   7                                     [N_chains]
  34                                     [NEX0s_base = N_base in EX0s-fits]
 0   0   1        0   2.0   3.400E+01    [Clip-Bug, RC-Crash & Burn-In warning-flags, n_censored_weights, wei_nsig_threshold & wei_limit]
    16     16.317     15.823      0.493  [idt_all, wdt_TotTime, wdt_UsrTime & wdt_SysTime (sec)]

## Synthesis Results - Best model ##

 1.83024E-01                             [chi2/Nl_eff]
     2.23510                             [adev (%)]

    97.94642                             [sum-of-x (%)]
 8.67348E-16                             [Flux_tot (units of input spectrum!)]
 6.53983E-12                             [Mini_tot (???)]
 3.47988E-12                             [Mcor_tot (???)]

 -15.13                                  [v0_min  (km/s)]
 177.85                                  [vd_min  (km/s)]
 0.5502                                  [AV_min  (mag)]
 0.0000                                  [YAV_min (mag)]

# j     x_j(%)      Mini_j(%)     Mcor_j(%)     age_j(yr)     Z_j      (L/M)_j    YAV?  Mstars   component_j        a/Fe...       SSP_chi2r SSP_adev(%)   SSP_AV   SSP_x(%)
  1      6.2095     7.6856E-02    1.4444E-01    1.000000E+06  0.00400  1.094E-02    0   1.0000   age020_m42            0.0000     1.0189E+00     5.6967   2.7931    80.2900
  2      0.0000     0.0000E+00    0.0000E+00    3.160000E+06  0.00400  4.007E-02    0   0.9999   age045_m42            0.0000     7.9115E-01     4.8171   2.0450    86.8532
  3      0.0000     0.0000E+00    0.0000E+00    5.010000E+06  0.00400  2.539E-02    0   0.9488   age055_m42            0.0000     8.3617E-01     5.0231   2.3702    84.4586
  4      0.0000     0.0000E+00    0.0000E+00    6.610000E+06  0.00400  2.620E-02    0   0.9220   age061_m42            0.0000     7.3065E-01     4.5954   1.9631    87.4145
  5      0.0000     0.0000E+00    0.0000E+00    1.000000E+07  0.00400  1.322E-02    0   0.8862   age070_m42            0.0000     3.8762E-01     3.2542   1.6357    91.3117
  6      0.0000     0.0000E+00    0.0000E+00    1.445000E+07  0.00400  7.883E-03    0   0.8571   age078_m42            0.0000     4.7136E-01     3.6294   1.9755    88.4129
  7      0.0000     0.0000E+00    0.0000E+00    2.512000E+07  0.00400  5.251E-03    0   0.8174   age090_m42            0.0000     3.4829E-01     3.0585   1.4950    92.3212
  8      0.0145     5.3815E-04    7.9401E-04    4.000000E+07  0.00400  3.649E-03    0   0.7851   age104_m42            0.0000     3.3641E-01     3.0098   1.2684    93.0770
  9      0.0000     0.0000E+00    0.0000E+00    5.500000E+07  0.00400  3.098E-03    0   0.7629   age110_m42            0.0000     4.7085E-01     3.5373   1.4389    92.3261
 10      0.0000     0.0000E+00    0.0000E+00    1.015200E+08  0.00400  2.228E-03    0   0.7207   age116_m42            0.0000     6.0049E-01     3.9668   1.4694    92.0472
 11      0.0011     1.3470E-04    1.6829E-04    2.861200E+08  0.00400  1.093E-03    0   0.6648   age125_m42            0.0000     5.2539E-01     3.5186   0.8770    95.9480
 12      0.0000     0.0000E+00    0.0000E+00    5.088000E+08  0.00400  6.597E-04    0   0.6365   age130_m42            0.0000     7.0808E-01     4.0446   0.8870    95.8288
 13      5.4171     3.4405E+00    3.7488E+00    1.434000E+09  0.00400  2.132E-04    0   0.5798   age139_m42            0.0000     6.7329E-01     4.0896  -0.0770    97.4066
 14      0.2667     6.1264E-01    6.1908E-01    4.250000E+09  0.00400  5.895E-05    0   0.5377   age158_m42            0.0000     9.2295E-01     5.2451  -0.4707    91.5304
 15      0.0000     0.0000E+00    0.0000E+00    7.500000E+09  0.00400  3.510E-05    0   0.5212   age171_m42            0.0000     1.1226E+00     5.8080  -0.6401    90.1462
 16      3.0103     2.0330E+01    1.9233E+01    1.300000E+10  0.00400  2.005E-05    0   0.5034   age193_m42            0.0000     1.3309E+00     6.3319  -0.7879    88.9492
 17      0.0000     0.0000E+00    0.0000E+00    1.800000E+10  0.00400  1.525E-05    0   0.4967   age213_m42            0.0000     1.2863E+00     6.2405  -0.8146    88.6970
 18      2.9195     3.1932E-02    6.0011E-02    1.000000E+06  0.00800  1.238E-02    0   1.0000   age020_m52            0.0000     1.0188E+00     5.7015   2.7895    80.4432
 19      0.0000     0.0000E+00    0.0000E+00    3.160000E+06  0.00800  3.074E-02    0   0.9966   age045_m52            0.0000     1.0035E+00     5.6508   2.7118    81.2008
 20      0.0000     0.0000E+00    0.0000E+00    5.010000E+06  0.00800  2.668E-02    0   0.9443   age055_m52            0.0000     8.3333E-01     5.0707   2.4538    83.6485
 21      0.0000     0.0000E+00    0.0000E+00    6.610000E+06  0.00800  2.136E-02    0   0.9177   age061_m52            0.0000     3.3027E-01     3.1302   1.1447    91.9330
 22      0.0033     3.6731E-05    6.0932E-05    1.000000E+07  0.00800  1.215E-02    0   0.8827   age070_m52            0.0000     3.5394E-01     3.1072   1.8070    91.4637
 23      0.0009     1.3903E-05    2.2345E-05    1.445000E+07  0.00800  8.717E-03    0   0.8552   age078_m52            0.0000     4.2380E-01     3.4466   1.9358    89.8725
 24      2.4475     5.9265E-02    9.0907E-02    2.512000E+07  0.00800  5.592E-03    0   0.8162   age090_m52            0.0000     3.1594E-01     2.9109   1.5543    93.6393
 25      0.0108     3.7454E-04    5.5192E-04    4.000000E+07  0.00800  3.896E-03    0   0.7841   age104_m52            0.0000     3.4252E-01     3.0210   1.4722    94.1477
 26      0.0000     0.0000E+00    0.0000E+00    1.015200E+08  0.00800  2.148E-03    0   0.7226   age116_m52            0.0000     4.7369E-01     3.4864   1.4273    93.2422
 27      0.9491     1.2949E-01    1.6263E-01    2.861200E+08  0.00800  9.925E-04    0   0.6683   age125_m52            0.0000     6.7204E-01     3.8805   0.9491    96.8821
 28      3.2936     1.4199E+00    1.6378E+00    9.047900E+08  0.00800  3.141E-04    0   0.6138   age135_m52            0.0000     9.2298E-01     4.7858   0.1791    99.6073
 29      0.0000     0.0000E+00    0.0000E+00    1.434000E+09  0.00800  1.719E-04    0   0.5853   age139_m52            0.0000     8.6786E-01     4.9031  -0.3913    97.0824
 30      1.3329     2.2928E+00    2.4130E+00    2.500000E+09  0.00800  7.872E-05    0   0.5600   age150_m52            0.0000     1.2488E+00     6.1014  -0.6142    92.4503
 31      0.0000     0.0000E+00    0.0000E+00    4.250000E+09  0.00800  4.336E-05    0   0.5426   age158_m52            0.0000     1.2864E+00     6.1837  -0.6245    91.3688
 32      3.6899     1.5816E+01    1.5810E+01    6.250000E+09  0.00800  3.159E-05    0   0.5319   age166_m52            0.0000     1.6398E+00     7.0036  -0.8027    90.3627
 33      0.0000     0.0000E+00    0.0000E+00    1.300000E+10  0.00800  1.361E-05    0   0.5073   age193_m52            0.0000     2.5318E+00     8.6065  -1.0000    79.6979
 34      2.4399     3.3418E+01    3.1339E+01    1.800000E+10  0.00800  9.886E-06    0   0.4990   age213_m52            0.0000     3.2292E+00     9.7060  -1.0000    75.5391
 35      4.4213     3.8774E-02    7.2870E-02    1.000000E+06  0.02000  1.544E-02    0   1.0000   age020_m62            0.0000     1.0277E+00     5.7337   2.7863    80.5946
 36      4.0095     1.4431E-02    2.6736E-02    3.160000E+06  0.02000  3.762E-02    0   0.9858   age045_m62            0.0000     1.0332E+00     5.7539   2.7251    81.3131
 37      0.0000     0.0000E+00    0.0000E+00    5.010000E+06  0.02000  3.296E-02    0   0.9342   age055_m62            0.0000     8.4114E-01     5.0507   2.3304    85.5136
 38     27.1370     3.1842E-01    5.3025E-01    8.710000E+06  0.02000  1.154E-02    0   0.8861   age067_m62            0.0000     7.0774E-01     4.2743   1.1890    97.3512
 39      0.0011     1.8796E-05    2.9926E-05    1.445000E+07  0.02000  7.663E-03    0   0.8472   age078_m62            0.0000     3.1975E-01     2.9286   1.4287    94.7434
 40      0.0000     0.0000E+00    0.0000E+00    2.512000E+07  0.02000  4.532E-03    0   0.8099   age090_m62            0.0000     3.5204E-01     3.0344   1.4137    94.8451
 41      0.0000     0.0000E+00    0.0000E+00    5.500000E+07  0.02000  2.733E-03    0   0.7595   age110_m62            0.0000     3.4263E-01     3.0081   1.4566    93.3739
 42      0.0000     0.0000E+00    0.0000E+00    1.609000E+08  0.02000  1.369E-03    0   0.6985   age120_m62            0.0000     5.7923E-01     3.6868   1.3082    95.4006
 43      0.0000     0.0000E+00    0.0000E+00    2.861200E+08  0.02000  9.013E-04    0   0.6714   age125_m62            0.0000     7.8180E-01     4.1225   1.0628    97.9279
 44      8.1045     2.1826E+00    2.6452E+00    5.088000E+08  0.02000  5.028E-04    0   0.6449   age130_m62            0.0000     1.0904E+00     5.1099   0.7167    99.0749
 45      0.0054     2.9883E-03    3.4701E-03    9.047900E+08  0.02000  2.428E-04    0   0.6179   age135_m62            0.0000     1.0925E+00     5.4081   0.1543    97.3971
 46      0.6638     7.1169E-01    7.9020E-01    1.434000E+09  0.02000  1.263E-04    0   0.5908   age139_m62            0.0000     1.1885E+00     5.8298  -0.2743    95.2482
 47      0.5893     1.3333E+00    1.4215E+00    2.500000E+09  0.02000  5.985E-05    0   0.5673   age150_m62            0.0000     1.6129E+00     6.9644  -0.6025    92.2860
 48      0.7760     3.2124E+00    3.3012E+00    4.250000E+09  0.02000  3.271E-05    0   0.5468   age158_m62            0.0000     2.2131E+00     8.2963  -0.8692    89.8925
 49      0.0000     0.0000E+00    0.0000E+00    1.000000E+10  0.02000  1.360E-05    0   0.5167   age181_m62            0.0000     3.1872E+00     9.7965  -1.0000    81.3772
 50      0.0000     0.0000E+00    0.0000E+00    1.800000E+10  0.02000  7.124E-06    0   0.5013   age213_m62            0.0000     4.3153E+00    11.2765  -1.0000    73.4869
 51      3.3846     1.7681E-02    3.3222E-02    1.000000E+06  0.05000  2.592E-02    0   0.9998   age020_m72            0.0000     1.0441E+00     5.7948   2.7776    80.6093
 52      0.0000     0.0000E+00    0.0000E+00    3.160000E+06  0.05000  4.845E-02    0   0.9577   age045_m72            0.0000     9.9045E-01     5.5740   2.6054    82.5349
 53      0.0065     2.8588E-05    4.9144E-05    5.010000E+06  0.05000  3.072E-02    0   0.9147   age055_m72            0.0000     5.1536E-01     3.8535   2.0591    89.1952
 54      0.0000     0.0000E+00    0.0000E+00    6.610000E+06  0.05000  1.455E-02    0   0.8877   age061_m72            0.0000     1.8669E+00     6.6756   1.2181    99.3924
 55      0.0000     0.0000E+00    0.0000E+00    1.000000E+07  0.05000  9.074E-03    0   0.8524   age070_m72            0.0000     8.4326E-01     4.7153   2.2514    88.7488
 56      0.0000     0.0000E+00    0.0000E+00    2.512000E+07  0.05000  4.250E-03    0   0.7902   age090_m72            0.0000     5.5519E-01     3.8211   1.9276    91.3629
 57      0.0000     0.0000E+00    0.0000E+00    4.000000E+07  0.05000  3.087E-03    0   0.7618   age104_m72            0.0000     5.3860E-01     3.7343   1.6836    93.6174
 58      0.0036     2.8539E-04    3.8059E-04    1.015200E+08  0.05000  1.700E-03    0   0.7096   age116_m72            0.0000     5.0812E-01     3.4396   1.4375    95.6203
 59      5.1635     9.4687E-01    1.1803E+00    2.861200E+08  0.05000  7.384E-04    0   0.6633   age125_m72            0.0000     9.3415E-01     4.5615   0.9460    98.5756
 60      8.3026     2.9438E+00    3.5252E+00    5.088000E+08  0.05000  3.819E-04    0   0.6372   age130_m72            0.0000     1.1183E+00     5.4330   0.4855    98.6712
 61      0.0000     0.0000E+00    0.0000E+00    9.047900E+08  0.05000  1.676E-04    0   0.6110   age135_m72            0.0000     1.5919E+00     6.8961  -0.1531    94.3675
 62      0.0815     1.2491E-01    1.3789E-01    1.434000E+09  0.05000  8.837E-05    0   0.5874   age139_m72            0.0000     1.7438E+00     7.2075  -0.6006    93.5411
 63      3.2898     1.0523E+01    1.1071E+01    2.500000E+09  0.05000  4.233E-05    0   0.5598   age150_m72            0.0000     2.4300E+00     8.6938  -0.8577    90.1681
 64      0.0000     0.0000E+00    0.0000E+00    6.250000E+09  0.05000  1.435E-05    0   0.5249   age166_m72            0.0000     3.6088E+00    10.4526  -1.0000    77.6162
 65      0.0000     0.0000E+00    0.0000E+00    1.300000E+10  0.05000  6.513E-06    0   0.5036   age193_m72            0.0000     5.3449E+00    12.6451  -1.0000    68.9944
 66      0.0000     0.0000E+00    0.0000E+00    1.800000E+10  0.05000  4.527E-06    0   0.4945   age213_m72            0.0000     6.5509E+00    14.1615  -1.0000    63.9177


## Synthesis Results - Average & Chains ##

# j      x_j: min, <> & last-chain-values for 1 ...  7 chains
  1      6.2095      4.1062      4.1421      3.1101      5.4558      4.3979      5.5371      4.4705      4.3546
  2      0.0000      0.3202      0.0000      0.1449      0.0000      0.8173      0.0000      0.5105      0.0000
  3      0.0000      0.5518      0.0000      0.0000      0.9271      0.8793      0.0000      0.0000      0.3159
  4      0.0000      0.5187      0.2821      0.7560      0.0000      0.8102      0.0000      0.0000      0.0000
  5      0.0000      0.8546      0.2603      0.1443      0.0000      0.6738      0.2032      0.7036      0.1736
  6      0.0000      0.7177      0.0000      0.4057      3.2061      0.0000      0.4212      2.9081      1.0332
  7      0.0000      0.6475      0.9588      1.6307      0.3865      0.7156      0.1182      0.0000      0.0000
  8      0.0145      1.5704      1.5640      3.2742      1.7988      0.0000      2.5475      0.7299      0.7599
  9      0.0000      0.5915      1.5046      0.0000      0.7768      0.7990      0.0000      0.0000      1.6035
 10      0.0000      0.7979      0.0000      0.0000      0.0000      0.2363      1.2530      0.4721      0.4555
 11      0.0011      1.0187      0.4183      0.0000      0.2055      0.0000      0.5378      0.2917      0.0000
 12      0.0000      0.7694      0.0000      0.3727      0.0000      0.2151      0.0000      0.4241      0.0000
 13      5.4171      2.1862      2.4084      2.5642      2.7339      4.5887      1.7578      4.2999      2.7714
 14      0.2667      0.2221      0.0000      0.0000      0.0000      0.5141      1.0531      0.0000      0.4567
 15      0.0000      0.1266      0.4266      0.0000      0.0328      0.1004      0.0414      0.0000      0.0000
 16      3.0103      0.6435      0.0000      0.0000      0.8764      1.9980      0.6641      0.0000      1.7313
 17      0.0000      0.0890      0.0000      0.8554      0.0808      0.0000      0.0000      0.0000      0.0000
 18      2.9195      1.3851      1.3538      1.5675      1.8157      2.3654      1.1380      0.9775      1.4940
 19      0.0000      0.5696      1.0731      3.3902      0.0000      0.0000      0.3619      0.3481      0.6373
 20      0.0000      0.2819      0.9260      0.0000      0.0000      0.0000      0.0000      0.7622      0.7640
 21      0.0000      1.5428      1.2373      2.5618      1.9885      1.5077      0.0000      2.7072      1.7826
 22      0.0033      0.9496      2.8457      1.9951      0.0953      0.7796      2.2822      1.3194      0.4669
 23      0.0009      0.5613      0.2042      0.0000      0.0000      0.0000      1.6342      0.7636      0.0000
 24      2.4475      2.6445      3.2369      2.2620      2.7098      0.9858      1.9970      5.7879      1.0715
 25      0.0108      1.5749      1.6122      2.3089      1.1085      0.0000      1.7135      1.1477      1.2731
 26      0.0000      0.8058      0.6693      0.0000      0.3390      1.2339      0.0000      0.2136      0.0000
 27      0.9491      1.2773      1.4862      3.1823      1.9111      1.9636      2.6614      0.9119      0.2530
 28      3.2936      1.9581      3.3685      1.4935      2.2036      2.8365      4.5203      2.6854      4.7887
 29      0.0000      0.5285      0.4662      0.1748      0.1764      0.0000      0.0000      1.8334      0.3462
 30      1.3329      2.2260      2.8332      2.3959      1.8294      2.3044      2.7276      2.2939      2.2852
 31      0.0000      0.1569      0.0808      0.6294      0.5441      0.0000      0.0000      0.0000      0.0000
 32      3.6899      3.2068      3.2291      3.6024      2.6234      3.6239      2.4837      2.9053      3.8165
 33      0.0000      0.1296      0.0000      0.0000      0.1277      0.0000      0.3615      0.0000      0.0000
 34      2.4399      1.2965      1.3557      1.3356      2.3356      1.1400      1.2544      1.3589      1.3134
 35      4.4213      1.4762      2.9505      1.4813      1.9208      1.6197      2.3957      1.2633      2.2611
 36      4.0095      3.4192      3.4434      3.2541      5.3862      3.9273      3.1020      3.5926      4.6034
 37      0.0000      0.7927      1.0159      0.0000      0.8522      1.8990      0.0000      0.0000      1.1853
 38     27.1370     21.3904     22.7888     23.1479     21.6286     22.5361     22.6360     24.5037     21.8001
 39      0.0011      1.7928      0.8915      1.7342      0.9326      3.0679      1.9403      0.0000      3.5378
 40      0.0000      2.3424      1.7249      2.3466      2.2190      2.5133      0.0281      0.0000      1.1150
 41      0.0000      1.1325      0.3070      0.0000      1.2496      0.5091      0.0000      1.2928      2.7359
 42      0.0000      0.4084      0.0000      1.1412      0.8289      1.4655      0.0000      0.0000      0.0000
 43      0.0000      0.9733      0.0000      1.0560      1.1149      0.0000      0.1189      0.6253      1.6960
 44      8.1045      4.9631      7.3211      4.6370      5.1311      5.0468      4.8301      5.7315      2.8446
 45      0.0054      1.6326      0.0000      0.4016      0.7097      2.4798      2.0702      0.4398      2.3182
 46      0.6638      3.4167      3.2781      0.8140      2.6186      3.0787      3.4174      3.7732      2.0389
 47      0.5893      1.2942      1.2530      2.2487      1.3491      1.4394      1.3210      1.1648      1.3753
 48      0.7760      1.2764      1.1218      1.5694      1.0565      1.1609      1.4970      0.9929      1.3372
 49      0.0000      0.1736      0.3152      0.0000      0.0000      0.0000      0.0000      0.0734      0.0000
 50      0.0000      0.0212      0.0000      0.0000      0.0000      0.0000      0.0000      0.0000      0.0000
 51      3.3846      1.4908      1.8567      1.3940      1.4503      1.8756      4.0084      1.9785      1.6897
 52      0.0000      0.5909      0.3102      0.0000      0.0000      0.0698      1.2255      0.0000      1.0964
 53      0.0065      0.5463      0.4291      0.0000      0.4480      0.4250      0.7558      0.0000      0.7681
 54      0.0000      0.5500      0.0000      0.0000      0.1659      0.0000      0.0946      0.0000      0.0000
 55      0.0000      0.1769      0.0000      0.0000      0.0000      0.0000      0.0000      0.0922      0.0000
 56      0.0000      0.3434      0.0000      0.2330      0.0000      0.0000      0.0000      0.2231      0.0433
 57      0.0000      0.3471      0.0000      0.0000      0.0511      0.0000      0.0000      0.0195      0.0097
 58      0.0036      1.0700      0.8942      0.0000      0.0000      2.8199      1.1321      0.6193      1.3514
 59      5.1635      1.8418      2.7984      1.6426      2.6196      1.2443      1.8518      3.6236      2.3553
 60      8.3026      2.0191      1.3092      5.3003      3.1357      1.4476      3.7185      0.6865      2.7872
 61      0.0000      1.7944      1.6221      1.6585      2.9785      0.0000      0.0000      2.9807      1.3276
 62      0.0815      0.2894      1.0410      0.0000      0.1502      0.1757      0.8249      0.6342      0.0000
 63      3.2898      2.9284      2.9153      3.2542      3.1475      3.0376      3.2771      2.5574      3.2509
 64      0.0000      0.0479      0.0000      0.0000      0.0000      0.0000      0.0000      0.0000      0.0000
 65      0.0000      0.0092      0.0000      0.0000      0.0000      0.0000      0.0000      0.0000      0.0000
 66      0.0000      0.0177      0.0000      0.0000      0.0000      0.0000      0.0000      0.0000      0.0000

# j      m_j: min, <> & last-chain-values for 1 ...  7 chains
  1  1.4444E-01  1.2077E-01  1.2815E-01  8.9339E-02  1.4484E-01  1.2458E-01  1.6439E-01  1.4915E-01  1.2100E-01
  2  0.0000E+00  2.5712E-03  0.0000E+00  1.1364E-03  0.0000E+00  6.3203E-03  0.0000E+00  4.6496E-03  0.0000E+00
  3  0.0000E+00  6.6354E-03  0.0000E+00  0.0000E+00  1.0062E-02  1.0183E-02  0.0000E+00  0.0000E+00  3.5879E-03
  4  0.0000E+00  5.8736E-03  3.3598E-03  8.3608E-03  0.0000E+00  8.8365E-03  0.0000E+00  0.0000E+00  0.0000E+00
  5  0.0000E+00  1.8432E-02  5.9060E-03  3.0394E-03  0.0000E+00  1.3999E-02  4.4247E-03  1.7215E-02  3.5365E-03
  6  0.0000E+00  2.5109E-02  0.0000E+00  1.3863E-02  1.0124E-01  0.0000E+00  1.4875E-02  1.1540E-01  3.4147E-02
  7  0.0000E+00  3.2432E-02  5.0520E-02  7.9772E-02  1.7474E-02  3.4520E-02  5.9762E-03  0.0000E+00  0.0000E+00
  8  7.9401E-04  1.0872E-01  1.1389E-01  2.2138E-01  1.1240E-01  0.0000E+00  1.7802E-01  5.7321E-02  4.9702E-02
  9  0.0000E+00  4.6866E-02  1.2541E-01  0.0000E+00  5.5561E-02  6.0980E-02  0.0000E+00  0.0000E+00  1.2004E-01
 10  0.0000E+00  8.3048E-02  0.0000E+00  0.0000E+00  0.0000E+00  2.3690E-02  1.3164E-01  5.5740E-02  4.4789E-02
 11  1.6829E-04  1.9937E-01  8.6107E-02  0.0000E+00  3.6294E-02  0.0000E+00  1.0624E-01  6.4755E-02  0.0000E+00
 12  0.0000E+00  2.3885E-01  0.0000E+00  1.1301E-01  0.0000E+00  6.4306E-02  0.0000E+00  1.4934E-01  0.0000E+00
 13  3.7488E+00  1.9130E+00  2.2169E+00  2.1914E+00  2.1594E+00  3.8673E+00  1.5526E+00  4.2680E+00  2.2911E+00
 14  6.1908E-01  6.5181E-01  0.0000E+00  0.0000E+00  0.0000E+00  1.4533E+00  3.1198E+00  0.0000E+00  1.2662E+00
 15  0.0000E+00  6.0489E-01  2.1441E+00  0.0000E+00  1.4154E-01  4.6211E-01  1.9955E-01  0.0000E+00  0.0000E+00
 16  1.9233E+01  5.1986E+00  0.0000E+00  0.0000E+00  6.3905E+00  1.5547E+01  5.4153E+00  0.0000E+00  1.3213E+01
 17  0.0000E+00  9.3288E-01  0.0000E+00  8.7557E+00  7.6451E-01  0.0000E+00  0.0000E+00  0.0000E+00  0.0000E+00
 18  6.0011E-02  3.5999E-02  3.7013E-02  3.9788E-02  4.2597E-02  5.9213E-02  2.9856E-02  2.8818E-02  3.6684E-02
 19  0.0000E+00  5.9419E-03  1.1775E-02  3.4540E-02  0.0000E+00  0.0000E+00  3.8103E-03  4.1185E-03  6.2805E-03
 20  0.0000E+00  3.2108E-03  1.1093E-02  0.0000E+00  0.0000E+00  0.0000E+00  0.0000E+00  9.8461E-03  8.2200E-03
 21  0.0000E+00  2.1328E-02  1.7993E-02  3.4588E-02  2.4813E-02  2.0075E-02  0.0000E+00  4.2452E-02  2.3280E-02
 22  6.0932E-05  2.2197E-02  6.9977E-02  4.5550E-02  2.0112E-03  1.7552E-02  5.3851E-02  3.4985E-02  1.0312E-02
 23  2.2345E-05  1.7718E-02  6.7810E-03  0.0000E+00  0.0000E+00  0.0000E+00  5.2071E-02  2.7341E-02  0.0000E+00
 24  9.0907E-02  1.2420E-01  1.5991E-01  1.0375E-01  1.1487E-01  4.4589E-02  9.4668E-02  3.0834E-01  4.7540E-02
 25  5.5192E-04  1.0198E-01  1.0982E-01  1.4603E-01  6.4797E-02  0.0000E+00  1.1201E-01  8.4307E-02  7.7889E-02
 26  0.0000E+00  8.7221E-02  7.6205E-02  0.0000E+00  3.3118E-02  1.2864E-01  0.0000E+00  2.6229E-02  0.0000E+00
 27  1.6263E-01  2.7674E-01  3.3873E-01  6.7338E-01  3.7374E-01  4.0975E-01  5.8204E-01  2.2412E-01  5.1785E-02
 28  1.6378E+00  1.2312E+00  2.2280E+00  9.1714E-01  1.2506E+00  1.7178E+00  2.8690E+00  1.9153E+00  2.8446E+00
 29  0.0000E+00  5.7900E-01  5.3723E-01  1.8707E-01  1.7445E-01  0.0000E+00  0.0000E+00  2.2784E+00  3.5833E-01
 30  2.4130E+00  5.0952E+00  6.8218E+00  5.3560E+00  3.7798E+00  5.0805E+00  6.3021E+00  5.9560E+00  4.9417E+00
 31  0.0000E+00  6.3187E-01  3.4216E-01  2.4752E+00  1.9775E+00  0.0000E+00  0.0000E+00  0.0000E+00  0.0000E+00
 32  1.5810E+01  1.7373E+01  1.8403E+01  1.9061E+01  1.2829E+01  1.8910E+01  1.3583E+01  1.7854E+01  1.9534E+01
 33  0.0000E+00  1.5549E+00  0.0000E+00  0.0000E+00  1.3830E+00  0.0000E+00  4.3765E+00  0.0000E+00  0.0000E+00
 34  3.1339E+01  2.1057E+01  2.3161E+01  2.1185E+01  3.4240E+01  1.7833E+01  2.0565E+01  2.5035E+01  2.0152E+01
 35  7.2870E-02  3.0763E-02  6.4681E-02  3.0149E-02  3.6131E-02  3.2510E-02  5.0394E-02  2.9863E-02  4.4517E-02
 36  2.6736E-02  2.8829E-02  3.0541E-02  2.6796E-02  4.0992E-02  3.1893E-02  2.6401E-02  3.4361E-02  3.6669E-02
 37  0.0000E+00  7.2298E-03  9.7461E-03  0.0000E+00  7.0154E-03  1.6681E-02  0.0000E+00  0.0000E+00  1.0212E-02
 38  5.3025E-01  5.2848E-01  5.9227E-01  5.5856E-01  4.8234E-01  5.3628E-01  5.6452E-01  6.8673E-01  5.0884E-01
 39  2.9926E-05  6.3775E-02  3.3359E-02  6.0250E-02  2.9947E-02  1.0511E-01  6.9671E-02  0.0000E+00  1.1890E-01
 40  0.0000E+00  1.3469E-01  1.0433E-01  1.3178E-01  1.1517E-01  1.3919E-01  1.6337E-03  0.0000E+00  6.0571E-02
 41  0.0000E+00  1.0126E-01  2.8874E-02  0.0000E+00  1.0086E-01  4.3843E-02  0.0000E+00  1.3113E-01  2.3112E-01
 42  0.0000E+00  6.7041E-02  0.0000E+00  1.8297E-01  1.2284E-01  2.3173E-01  0.0000E+00  0.0000E+00  0.0000E+00
 43  0.0000E+00  2.3330E-01  0.0000E+00  2.4721E-01  2.4122E-01  0.0000E+00  2.8768E-02  1.7001E-01  3.8405E-01
 44  2.6452E+00  2.0483E+00  3.1783E+00  1.8690E+00  1.9114E+00  2.0061E+00  2.0121E+00  2.6831E+00  1.1091E+00
 45  3.4701E-03  1.3369E+00  0.0000E+00  3.2120E-01  5.2457E-01  1.9558E+00  1.7112E+00  4.0854E-01  1.7934E+00
 46  7.9020E-01  5.1426E+00  5.1901E+00  1.1966E+00  3.5575E+00  4.4632E+00  5.1920E+00  6.4421E+00  2.8992E+00
 47  1.4215E+00  3.9471E+00  4.0201E+00  6.6982E+00  3.7141E+00  4.2282E+00  4.0668E+00  4.0299E+00  3.9629E+00
 48  3.3012E+00  6.8654E+00  6.3474E+00  8.2443E+00  5.1293E+00  6.0139E+00  8.1277E+00  6.0581E+00  6.7951E+00
 49  0.0000E+00  2.1218E+00  4.0532E+00  0.0000E+00  0.0000E+00  0.0000E+00  0.0000E+00  1.0174E+00  0.0000E+00
 50  0.0000E+00  4.7977E-01  0.0000E+00  0.0000E+00  0.0000E+00  0.0000E+00  0.0000E+00  0.0000E+00  0.0000E+00
 51  3.3222E-02  1.8502E-02  2.4241E-02  1.6898E-02  1.6247E-02  2.2421E-02  5.0217E-02  2.7855E-02  1.9813E-02
 52  0.0000E+00  3.7583E-03  2.0754E-03  0.0000E+00  0.0000E+00  4.2763E-04  7.8675E-03  0.0000E+00  6.5878E-03
 53  4.9144E-05  5.2341E-03  4.3249E-03  0.0000E+00  3.8739E-03  3.9219E-03  7.3091E-03  0.0000E+00  6.9522E-03
 54  0.0000E+00  1.0798E-02  0.0000E+00  0.0000E+00  2.9403E-03  0.0000E+00  1.8747E-03  0.0000E+00  0.0000E+00
 55  0.0000E+00  5.3477E-03  0.0000E+00  0.0000E+00  0.0000E+00  0.0000E+00  0.0000E+00  3.1597E-03  0.0000E+00
 56  0.0000E+00  2.0542E-02  0.0000E+00  1.3617E-02  0.0000E+00  0.0000E+00  0.0000E+00  1.5141E-02  2.4500E-03
 57  0.0000E+00  2.7557E-02  0.0000E+00  0.0000E+00  3.6623E-03  0.0000E+00  0.0000E+00  1.7535E-03  7.3013E-04
 58  3.8059E-04  1.4370E-01  1.2633E-01  0.0000E+00  0.0000E+00  3.6478E-01  1.5348E-01  9.4354E-02  1.7147E-01
 59  1.1803E+00  5.3236E-01  8.5086E-01  4.6370E-01  6.8345E-01  3.4640E-01  5.4028E-01  1.1881E+00  6.4315E-01
 60  3.5252E+00  1.0840E+00  7.3935E-01  2.7791E+00  1.5195E+00  7.4854E-01  2.0151E+00  4.1806E-01  1.4137E+00
 61  0.0000E+00  2.1049E+00  2.0016E+00  1.9000E+00  3.1537E+00  0.0000E+00  0.0000E+00  3.9660E+00  1.4712E+00
 62  1.3789E-01  6.1896E-01  2.3420E+00  0.0000E+00  2.8990E-01  3.6192E-01  1.7808E+00  1.5387E+00  0.0000E+00
 63  1.1071E+01  1.2461E+01  1.3049E+01  1.3524E+01  1.2089E+01  1.2450E+01  1.4076E+01  1.2344E+01  1.3069E+01
 64  0.0000E+00  5.6422E-01  0.0000E+00  0.0000E+00  0.0000E+00  0.0000E+00  0.0000E+00  0.0000E+00  0.0000E+00
 65  0.0000E+00  2.2958E-01  0.0000E+00  0.0000E+00  0.0000E+00  0.0000E+00  0.0000E+00  0.0000E+00  0.0000E+00
 66  0.0000E+00  6.2386E-01  0.0000E+00  0.0000E+00  0.0000E+00  0.0000E+00  0.0000E+00  0.0000E+00  0.0000E+00

# AV, chi2 & Mass for <> & i_chain = 1 ...  7 solutions
AV       0.5502      0.6106      0.6182      0.5992      0.6023      0.5897      0.6041      0.6009      0.5851
chi2 1.8302E-01  1.9054E-01  1.8894E-01  1.8881E-01  1.8835E-01  1.8873E-01  1.8806E-01  1.8899E-01  1.8891E-01
Mass 3.4799E-12  2.9846E-12  2.8663E-12  3.0095E-12  3.2696E-12  3.0129E-12  2.9308E-12  2.5971E-12  3.0526E-12
 -15.13                                  [v0_min (km/s) before EX0s...]
 177.85                                  [vd_min (km/s) before EX0s...]


## Synthetic spectrum (Best Model) ##l_obs f_obs f_syn wei
 3478    [Nl_obs]
 3741.00    0.79799   0.76288    0.000
 3742.00    0.82610   0.76281    0.000
 3743.00    0.79887   0.75264    0.000
 3744.00    0.72738   0.73419    0.000
 3745.00    0.65505   0.70958   15.266
 3746.00    0.61061   0.68104   16.377
 3747.00    0.59971   0.65203   16.675
 3748.00    0.60505   0.62821   16.527
 3749.00    0.60606   0.61593   16.500
 3750.00    0.60769   0.61909   16.456
 3751.00    0.62361   0.63733   16.036
 3752.00    0.64585   0.66635   15.483
 3753.00    0.65890   0.69949   15.177
 3754.00    0.66537   0.72981   15.029
 3755.00    0.67390   0.75234   14.839
 3756.00    0.67834   0.76582   14.742
 3757.00    0.66973   0.77239   14.931
 3758.00    0.65575   0.77556   15.250
 3759.00    0.65399   0.77810   15.291
 3760.00    0.67900   0.78084   14.728
 3761.00    0.72857   0.78274   13.726
 3762.00    0.77091   0.78195   12.972
 3763.00    0.77834   0.77660   12.848
 3764.00    0.76766   0.76509   13.027
 3765.00    0.76671   0.74694   13.043
 3766.00    0.77098   0.72321   12.970
 3767.00    0.76481   0.69622   13.075
 3768.00    0.75038   0.66983   13.327
 3769.00    0.73700   0.64978   13.569
 3770.00    0.72611   0.64151   13.772
 3771.00    0.71513   0.64732   13.983
 3772.00    0.70361   0.66584   14.212
 3773.00    0.69626   0.69316   14.362
 3774.00    0.70474   0.72446   14.190
 3775.00    0.73884   0.75567   13.535
 3776.00    0.79728   0.78439   12.543
 3777.00    0.86531   0.80991   11.557
 3778.00    0.91560   0.83220   10.922
 3779.00    0.93200   0.85102   10.730
 3780.00    0.92939   0.86585   10.760
 3781.00    0.92869   0.87628   10.768
 3782.00    0.93284   0.88181   10.720
 3783.00    0.93169   0.88188   10.733
 3784.00    0.90994   0.87645   10.990
 3785.00    0.86316   0.86659   11.585
 3786.00    0.80897   0.85388   12.361
 3787.00    0.76714   0.83983   13.036
 3788.00    0.74296   0.82545   13.460
 3789.00    0.73249   0.81076   13.652
 3790.00    0.72855   0.79459   13.726
 3791.00    0.72726   0.77499   13.750
 3792.00    0.73129   0.75028   13.674
 3793.00    0.73783   0.71998   13.553
 3794.00    0.73161   0.68540   13.668
 3795.00    0.70178   0.65005   14.250
 3796.00    0.65414   0.62003   15.287
 3797.00    0.60678   0.60245   16.480
 3798.00    0.58343   0.60214   17.140
 3799.00    0.59364   0.61951   16.845
 3800.00    0.62320   0.65070   16.046
 3801.00    0.66133   0.68922   15.121
 3802.00    0.71534   0.72792   13.979
 3803.00    0.78529   0.76140   12.734
 3804.00    0.85049   0.78748   11.758
 3805.00    0.89134   0.80732   11.219
 3806.00    0.90335   0.82380   11.070
 3807.00    0.89598   0.83913   11.161
 3808.00    0.88808   0.85379   11.260
 3809.00    0.88882   0.86639   11.251
 3810.00    0.89004   0.87463   11.235
 3811.00    0.88646   0.87692   11.281
 3812.00    0.88415   0.87361   11.310
 3813.00    0.88264   0.86658   11.330
 3814.00    0.86945   0.85813   11.501
 3815.00    0.84424   0.84967   11.845
 3816.00    0.82645   0.84081   12.100
 3817.00    0.82766   0.83063   12.082
 3818.00    0.83986   0.82016   11.907
 3819.00    0.84990   0.81198   11.766
 3820.00    0.84853   0.80776   11.785
 3821.00    0.83754   0.80695   11.940
 3822.00    0.82925   0.80702   12.059
 3823.00    0.82942   0.80513   12.057
 3824.00    0.83210   0.79950   12.018
 3825.00    0.83291   0.78988   12.006
 3826.00    0.83279   0.77705   12.008
 3827.00    0.82793   0.76160   12.078
 3828.00    0.80795   0.74313   12.377
 3829.00    0.76697   0.72033   13.038
 3830.00    0.70919   0.69205   14.101
 3831.00    0.65176   0.65881   15.343
 3832.00    0.61847   0.62334   16.169
 3833.00    0.61161   0.59069   16.350
 3834.00    0.61001   0.56702   16.393
 3835.00    0.60332   0.55700   16.575
 3836.00    0.59934   0.56221   16.685
 3837.00    0.60171   0.58131   16.619
 3838.00    0.60549   0.61070   16.516
 3839.00    0.61097   0.64613   16.368
 3840.00    0.62576   0.68378   15.981
 3841.00    0.65443   0.72047   15.280
 3842.00    0.69472   0.75386   14.394
 3843.00    0.73730   0.78250   13.563
 3844.00    0.76943   0.80586   12.997
 3845.00    0.78597   0.82418   12.723
 3846.00    0.79192   0.83797   12.628
 3847.00    0.79860   0.84793    0.000
 3848.00    0.81707   0.85521    0.000
 3849.00    0.84273   0.86122    0.000
 3850.00    0.85852   0.86674    0.000
 3851.00    0.85747   0.87167    0.000
 3852.00    0.84640   0.87530    0.000
 3853.00    0.83734   0.87684    0.000
 3854.00    0.83884   0.87613    0.000
 3855.00    0.84016   0.87387    0.000
 3856.00    0.82203   0.87095    0.000
 3857.00    0.79496   0.86834    0.000
 3858.00    0.79118   0.86724    0.000
 3859.00    0.81896   0.86852    0.000
 3860.00    0.86111   0.87220    0.000
 3861.00    0.90038   0.87738    0.000
 3862.00    0.92731   0.88262    0.000
 3863.00    0.94323   0.88650    0.000
 3864.00    0.95650   0.88824    0.000
 3865.00    0.97249   0.88798    0.000
 3866.00    0.99156   0.88634    0.000
 3867.00    1.00964   0.88357    0.000
 3868.00    1.01886   0.87919    0.000
 3869.00    1.00861   0.87281    0.000
 3870.00    0.97229   0.86500    0.000
 3871.00    0.92043   0.85738    0.000
 3872.00    0.87300   0.85147    0.000
 3873.00    0.83889   0.84753    0.000
 3874.00    0.81571   0.84430    0.000
 3875.00    0.79763   0.83989    0.000
 3876.00    0.77856   0.83305    0.000
 3877.00    0.75533   0.82397    0.000
 3878.00    0.73069   0.81338    0.000
 3879.00    0.71736   0.80158    0.000
 3880.00    0.72483   0.78828    0.000
 3881.00    0.73620   0.77255   13.583
 3882.00    0.72723   0.75286   13.751
 3883.00    0.70459   0.72776   14.193
 3884.00    0.69173   0.69692   14.457
 3885.00    0.69519   0.66177   14.385
 3886.00    0.70751   0.62614   14.134
 3887.00    0.72089   0.59631   13.872
 3888.00    0.72963   0.57903   13.706
 3889.00    0.73054   0.57855   13.689
 3890.00    0.72441   0.59490   13.804
 3891.00    0.71768   0.62396   13.934
 3892.00    0.71546   0.65934   13.977
 3893.00    0.71188   0.69507   14.047
 3894.00    0.70196   0.72727   14.246
 3895.00    0.69912   0.75437   14.304
 3896.00    0.71741   0.77634   13.939
 3897.00    0.74539   0.79421   13.416
 3898.00    0.76450   0.80925   13.080
 3899.00    0.77669   0.82239   12.875
 3900.00    0.79006   0.83393   12.657
 3901.00    0.79706   0.84378   12.546
 3902.00    0.78793   0.85163   12.691
 3903.00    0.76997   0.85758   12.988
 3904.00    0.75870   0.86274   13.180
 3905.00    0.76443   0.86870   13.082
 3906.00    0.79061   0.87658   12.648
 3907.00    0.83357   0.88637   11.997
 3908.00    0.88272   0.89692   11.329
 3909.00    0.92153   0.90648   10.852
 3910.00    0.93867   0.91353   10.653
 3911.00    0.93911   0.91746   10.648
 3912.00    0.93517   0.91854   10.693
 3913.00    0.93555   0.91738   10.689
 3914.00    0.94195   0.91447   10.616
 3915.00    0.94743   0.90992   10.555
 3916.00    0.94426   0.90363   10.590
 3917.00    0.93181   0.89585   10.732
 3918.00    0.91555   0.88755   10.922
 3919.00    0.90448   0.88018   11.056
 3920.00    0.90179   0.87487   11.089
 3921.00    0.89799   0.87185   11.136
 3922.00    0.88623   0.87007   11.284
 3923.00    0.87498   0.86760   11.429
 3924.00    0.87246   0.86265   11.462
 3925.00    0.87300   0.85418   11.455
 3926.00    0.86419   0.84201   11.572
 3927.00    0.83481   0.82653   11.979
 3928.00    0.78448   0.80813   12.747
 3929.00    0.72948   0.78710   13.708
 3930.00    0.69039   0.76429   14.485
 3931.00    0.68063   0.74203   14.692
 3932.00    0.69643   0.72417   14.359
 3933.00    0.71327   0.71478   14.020
 3934.00    0.71323   0.71665   14.021
 3935.00    0.70317   0.72983   14.221
 3936.00    0.69646   0.75161   14.358
 3937.00    0.69938   0.77744   14.298
 3938.00    0.71470   0.80267   13.992
 3939.00    0.74395   0.82389   13.442
 3940.00    0.78246   0.83944   12.780
 3941.00    0.81770   0.84945   12.229
 3942.00    0.84171   0.85554   11.881
 3943.00    0.85768   0.85986   11.659
 3944.00    0.87016   0.86397   11.492
 3945.00    0.87864   0.86851   11.381
 3946.00    0.87909   0.87326   11.375
 3947.00    0.86678   0.87753   11.537
 3948.00    0.84656   0.88065   11.813
 3949.00    0.83540   0.88231   11.970
 3950.00    0.84284   0.88257   11.865
 3951.00    0.86170   0.88149   11.605
 3952.00    0.88053   0.87897   11.357
 3953.00    0.89078   0.87494   11.226
 3954.00    0.88681   0.86950   11.276
 3955.00    0.86663   0.86275   11.539
 3956.00    0.83716   0.85457   11.945
 3957.00    0.81339   0.84431   12.294
 3958.00    0.80131   0.83093   12.480
 3959.00    0.79194   0.81337   12.627
 3960.00    0.77491   0.79103    0.000
 3961.00    0.74599   0.76397    0.000
 3962.00    0.70976   0.73282    0.000
 3963.00    0.67738   0.69812    0.000
 3964.00    0.65127   0.66004    0.000
 3965.00    0.62326   0.61910    0.000
 3966.00    0.59700   0.57721    0.000
 3967.00    0.59063   0.53845    0.000
 3968.00    0.60568   0.50855    0.000
 3969.00    0.62098   0.49321    0.000
 3970.00    0.62228   0.49593    0.000
 3971.00    0.61323   0.51661    0.000
 3972.00    0.60823   0.55151    0.000
 3973.00    0.62447   0.59484    0.000
 3974.00    0.66351   0.64075    0.000
 3975.00    0.70958   0.68489    0.000
 3976.00    0.74966   0.72473    0.000
 3977.00    0.78028   0.75913    0.000
 3978.00    0.80384   0.78768    0.000
 3979.00    0.82538   0.81041    0.000
 3980.00    0.84644   0.82783    0.000
 3981.00    0.86413   0.84105   11.572
 3982.00    0.87564   0.85165   11.420
 3983.00    0.88073   0.86125   11.354
 3984.00    0.88462   0.87097   11.304
 3985.00    0.89464   0.88099   11.178
 3986.00    0.90717   0.89086   11.023
 3987.00    0.91036   0.89993   10.985
 3988.00    0.90439   0.90782   11.057
 3989.00    0.90139   0.91443   11.094
 3990.00    0.90694   0.91979   11.026
 3991.00    0.91796   0.92380   10.894
 3992.00    0.93271   0.92618   10.721
 3993.00    0.95049   0.92666   10.521
 3994.00    0.96317   0.92549   10.382
 3995.00    0.95900   0.92371   10.428
 3996.00    0.93872   0.92283   10.653
 3997.00    0.91621   0.92403   10.914
 3998.00    0.90877   0.92766   11.004
 3999.00    0.92760   0.93283   10.781
 4000.00    0.96149   0.93766   10.401
 4001.00    0.98493   0.94013   10.153
 4002.00    0.98693   0.93914   10.132
 4003.00    0.97276   0.93495   10.280
 4004.00    0.95160   0.92910   10.509
 4005.00    0.93318   0.92379   10.716
 4006.00    0.92703   0.92096   10.787
 4007.00    0.93845   0.92141   10.656
 4008.00    0.96049   0.92473   10.411
 4009.00    0.97946   0.92991   10.210
 4010.00    0.98977   0.93589   10.103
 4011.00    0.99373   0.94192   10.063
 4012.00    0.99443   0.94748   10.056
 4013.00    0.99449   0.95224   10.055
 4014.00    0.99622   0.95610   10.038
 4015.00    1.00000   0.95910   10.000
 4016.00    1.00127   0.96138    9.987
 4017.00    0.99456   0.96297   10.055
 4018.00    0.98186   0.96358   10.185
 4019.00    0.97048   0.96242   10.304
 4020.00    0.96643   0.95844   10.347
 4021.00    0.97258   0.95103   10.282
 4022.00    0.98762   0.94062   10.125
 4023.00    1.00681   0.92899    9.932
 4024.00    1.02385   0.91880    9.767
 4025.00    1.03439   0.91244    9.668
 4026.00    1.04092   0.91082    9.607
 4027.00    1.04762   0.91275    9.545
 4028.00    1.05143   0.91563    9.511
 4029.00    1.04737   0.91713    9.548
 4030.00    1.03851   0.91665    9.629
 4031.00    1.03283   0.91552    9.682
 4032.00    1.03642   0.91604    9.649
 4033.00    1.04987   0.92011    9.525
 4034.00    1.06520   0.92822    9.388
 4035.00    1.07286   0.93927    9.321
 4036.00    1.07171   0.95102    9.331
 4037.00    1.06254   0.96091    9.411
 4038.00    1.03882   0.96700    9.626
 4039.00    1.00054   0.96839    9.995
 4040.00    0.97180   0.96522   10.290
 4041.00    0.97420   0.95820   10.265
 4042.00    0.99269   0.94841   10.074
 4043.00    1.00033   0.93751    9.997
 4044.00    0.99253   0.92791   10.075
 4045.00    0.97911   0.92236   10.213
 4046.00    0.97000   0.92262   10.309
 4047.00    0.97136   0.92833   10.295
 4048.00    0.98318   0.93709   10.171
 4049.00    0.99998   0.94561   10.000
 4050.00    1.01259   0.95116    9.876
 4051.00    1.01663   0.95254    9.836
 4052.00    1.02007   0.95012    9.803
 4053.00    1.02850   0.94532    9.723
 4054.00    1.03067   0.93982    9.702
 4055.00    1.01616   0.93506    9.841
 4056.00    0.99312   0.93179   10.069
 4057.00    0.97353   0.93005   10.272
 4058.00    0.95827   0.92917   10.436
 4059.00    0.94689   0.92800   10.561
 4060.00    0.94664   0.92537   10.564
 4061.00    0.95866   0.92092   10.431
 4062.00    0.96702   0.91550   10.341
 4063.00    0.96012   0.91080   10.415
 4064.00    0.94857   0.90826   10.542
 4065.00    0.94884   0.90817   10.539
 4066.00    0.96746   0.90955   10.336
 4067.00    0.99574   0.91087   10.043
 4068.00    1.00913   0.91088    9.910
 4069.00    0.99099   0.90916   10.091
 4070.00    0.94991   0.90621   10.527
 4071.00    0.90515   0.90284   11.048
 4072.00    0.87349   0.89945   11.448
 4073.00    0.86262   0.89571   11.593
 4074.00    0.86796   0.89106   11.521
 4075.00    0.88202   0.88571   11.338
 4076.00    0.90098   0.88124   11.099
 4077.00    0.92170   0.87981   10.849
 4078.00    0.93956   0.88268   10.643
 4079.00    0.94950   0.88912   10.532
 4080.00    0.94768   0.89662   10.552
 4081.00    0.93654   0.90229   10.678
 4082.00    0.92638   0.90443   10.795
 4083.00    0.92407   0.90323   10.822
 4084.00    0.92677   0.90026   10.790
 4085.00    0.92878   0.89728   10.767
 4086.00    0.92668   0.89515   10.791
 4087.00    0.92331   0.89350   10.831
 4088.00    0.92758   0.89120   10.781
 4089.00    0.93963   0.88699   10.642
 4090.00    0.94566   0.87994   10.575
 4091.00    0.93681   0.86946   10.674
 4092.00    0.91767   0.85514    0.000
 4093.00    0.89333   0.83659    0.000
 4094.00    0.86376   0.81353    0.000
 4095.00    0.83278   0.78594    0.000
 4096.00    0.81063   0.75418    0.000
 4097.00    0.80222   0.71920    0.000
 4098.00    0.80324   0.68285    0.000
 4099.00    0.81093   0.64851    0.000
 4100.00    0.82666   0.62109    0.000
 4101.00    0.84242   0.60591    0.000
 4102.00    0.83984   0.60664    0.000
 4103.00    0.81574   0.62338    0.000
 4104.00    0.78830   0.65235    0.000
 4105.00    0.77163   0.68740    0.000
 4106.00    0.76677   0.72243    0.000
 4107.00    0.77351   0.75325    0.000
 4108.00    0.79395   0.77830    0.000
 4109.00    0.82521   0.79817    0.000
 4110.00    0.85858   0.81452    0.000
 4111.00    0.88818   0.82898    0.000
 4112.00    0.91364   0.84240    0.000
 4113.00    0.93642   0.85462   10.679
 4114.00    0.95698   0.86481   10.449
 4115.00    0.97015   0.87202   10.308
 4116.00    0.96691   0.87576   10.342
 4117.00    0.94717   0.87647   10.558
 4118.00    0.92155   0.87548   10.851
 4119.00    0.90100   0.87467   11.099
 4120.00    0.89294   0.87573   11.199
 4121.00    0.90110   0.87945   11.098
 4122.00    0.92460   0.88544   10.815
 4123.00    0.95541   0.89227   10.467
 4124.00    0.98005   0.89808   10.204
 4125.00    0.98767   0.90132   10.125
 4126.00    0.97401   0.90133   10.267
 4127.00    0.94495   0.89844   10.583
 4128.00    0.91408   0.89375   10.940
 4129.00    0.89216   0.88858   11.209
 4130.00    0.88397   0.88428   11.313
 4131.00    0.88866   0.88210   11.253
 4132.00    0.90209   0.88307   11.085
 4133.00    0.92290   0.88766   10.835
 4134.00    0.95078   0.89544   10.518
 4135.00    0.97775   0.90497   10.228
 4136.00    0.99123   0.91424   10.089
 4137.00    0.98807   0.92113   10.121
 4138.00    0.97555   0.92385   10.251
 4139.00    0.96431   0.92128   10.370
 4140.00    0.96285   0.91343   10.386
 4141.00    0.96900   0.90198   10.320
 4142.00    0.97318   0.89018   10.276
 4143.00    0.97077   0.88182   10.301
 4144.00    0.96291   0.87950   10.385
 4145.00    0.95162   0.88326   10.508
 4146.00    0.94015   0.89075   10.637
 4147.00    0.93616   0.89866   10.682
 4148.00    0.94589   0.90446   10.572
 4149.00    0.96083   0.90717   10.408
 4150.00    0.96430   0.90721   10.370
 4151.00    0.95079   0.90560   10.518
 4152.00    0.92808   0.90336   10.775
 4153.00    0.91313   0.90142   10.951
 4154.00    0.92020   0.90059   10.867
 4155.00    0.94072   0.90149   10.630
 4156.00    0.95388   0.90438   10.483
 4157.00    0.95343   0.90896   10.488
 4158.00    0.94715   0.91445   10.558
 4159.00    0.94649   0.91991   10.565
 4160.00    0.95776   0.92451   10.441
 4161.00    0.97078   0.92778   10.301
 4162.00    0.96915   0.92951   10.318
 4163.00    0.95071   0.92966   10.518
 4164.00    0.92636   0.92828   10.795
 4165.00    0.91209   0.92559   10.964
 4166.00    0.91913   0.92189   10.880
 4167.00    0.94112   0.91743   10.626
 4168.00    0.96158   0.91218   10.400
 4169.00    0.96872   0.90593   10.323
 4170.00    0.96083   0.89871   10.408
 4171.00    0.95006   0.89116   10.526
 4172.00    0.94893   0.88459   10.538
 4173.00    0.95108   0.88030   10.514
 4174.00    0.94447   0.87890   10.588
 4175.00    0.93293   0.88002   10.719
 4176.00    0.92789   0.88275   10.777
 4177.00    0.93315   0.88628   10.716
 4178.00    0.94371   0.89007   10.597
 4179.00    0.94763   0.89386   10.553
 4180.00    0.93746   0.89734   10.667
 4181.00    0.92328   0.90021   10.831
 4182.00    0.91738   0.90221   10.901
 4183.00    0.91461   0.90321   10.934
 4184.00    0.90488   0.90317   11.051
 4185.00    0.89027   0.90229   11.233
 4186.00    0.88028   0.90112   11.360
 4187.00    0.88350   0.90053   11.319
 4188.00    0.90130   0.90137   11.095
 4189.00    0.92266   0.90396   10.838
 4190.00    0.93532   0.90786   10.691
 4191.00    0.93787   0.91189   10.662
 4192.00    0.93319   0.91450   10.716
 4193.00    0.92084   0.91422   10.860
 4194.00    0.90135   0.91024   11.094
 4195.00    0.88104   0.90284   11.350
 4196.00    0.86901   0.89336   11.507
 4197.00    0.87310   0.88381   11.453
 4198.00    0.89248   0.87610   11.205
 4199.00    0.91248   0.87153   10.959
 4200.00    0.91918   0.87053   10.879
 4201.00    0.91269   0.87283   10.957
 4202.00    0.90075   0.87779   11.102
 4203.00    0.89177   0.88463   11.214
 4204.00    0.89218   0.89251   11.208
 4205.00    0.90432   0.90057   11.058
 4206.00    0.92367   0.90794   10.826
 4207.00    0.93818   0.91390   10.659
 4208.00    0.94032   0.91804   10.635
 4209.00    0.93587   0.92028   10.685
 4210.00    0.93373   0.92073   10.710
 4211.00    0.93752   0.91952   10.666
 4212.00    0.94520   0.91681   10.580
 4213.00    0.95023   0.91314   10.524
 4214.00    0.94823   0.90960   10.546
 4215.00    0.94138   0.90769   10.623
 4216.00    0.93391   0.90846   10.708
 4217.00    0.92841   0.91178   10.771
 4218.00    0.92386   0.91610   10.824
 4219.00    0.91546   0.91900   10.923
 4220.00    0.90254   0.91811   11.080
 4221.00    0.89217   0.91195   11.209
 4222.00    0.88796   0.90042   11.262
 4223.00    0.88436   0.88507   11.308
 4224.00    0.87764   0.86890   11.394
 4225.00    0.87166   0.85582   11.472
 4226.00    0.86942   0.84932   11.502
 4227.00    0.86878   0.85108   11.510
 4228.00    0.86949   0.85995   11.500
 4229.00    0.87589   0.87243   11.417
 4230.00    0.88807   0.88421   11.262
 4231.00    0.89844   0.89209   11.129
 4232.00    0.90075   0.89506   11.098
 4233.00    0.89510   0.89420   11.175
 4234.00    0.88691   0.89159   11.287
 4235.00    0.88413   0.88921   11.301
 4236.00    0.88685   0.88831   11.243
 4237.00    0.88600   0.88941   11.316
 4238.00    0.88312   0.89244   11.415
 4239.00    0.89416   0.89705   11.101
 4240.00    0.91959   0.90265   10.639
 4241.00    0.93694   0.90849   10.944
 4242.00    0.93424   0.91361   12.238
 4243.00    0.92105   0.91697   13.359
 4244.00    0.90631   0.91762   13.290
 4245.00    0.89030   0.91514   12.939
 4246.00    0.87482   0.90987   12.976
 4247.00    0.86612   0.90291   13.116
 4248.00    0.86746   0.89574   13.069
 4249.00    0.87602   0.88966   12.903
 4250.00    0.88345   0.88544   12.792
 4251.00    0.87965   0.88321   12.863
 4252.00    0.86585   0.88273   13.043
 4253.00    0.85477   0.88363   13.091
 4254.00    0.85148   0.88549   12.999
 4255.00    0.85015   0.88768   13.026
 4256.00    0.84939   0.88931   13.237
 4257.00    0.85534   0.88969   13.422
 4258.00    0.87154   0.88886   13.433
 4259.00    0.89590   0.88798   13.298
 4260.00    0.92267   0.88878   13.065
 4261.00    0.94458   0.89245   12.778
 4262.00    0.95702   0.89869   12.591
 4263.00    0.95982   0.90564   12.682
 4264.00    0.95853   0.91072   12.905
 4265.00    0.96006   0.91190   12.867
 4266.00    0.95900   0.90832   12.623
 4267.00    0.94165   0.90043   12.620
 4268.00    0.91056   0.88951   12.936
 4269.00    0.88342   0.87723   13.251
 4270.00    0.86784   0.86544   13.378
 4271.00    0.85925   0.85601   13.400
 4272.00    0.85622   0.85054   13.417
 4273.00    0.86142   0.84994   13.455
 4274.00    0.87237   0.85417   13.476
 4275.00    0.88232   0.86210   13.418
 4276.00    0.88938   0.87185   13.292
 4277.00    0.89566   0.88117   13.171
 4278.00    0.89901   0.88812   13.118
 4279.00    0.89510   0.89170   13.143
 4280.00    0.88754   0.89200   13.157
 4281.00    0.88498   0.88994   13.056
 4282.00    0.88830   0.88663   12.947
 4283.00    0.89102   0.88275   12.986
 4284.00    0.88728   0.87841   12.931
 4285.00    0.87525   0.87333   12.429
 4286.00    0.86027   0.86728   11.805
 4287.00    0.85014   0.86057   11.600
 4288.00    0.84401   0.85423   11.795
 4289.00    0.83595   0.84973   12.025
 4290.00    0.82735   0.84824   12.108
 4291.00    0.82512   0.84980   12.087
 4292.00    0.83269   0.85308   11.994
 4293.00    0.84801   0.85594   11.828
 4294.00    0.86332   0.85633   11.606
 4295.00    0.86813   0.85301   11.441
 4296.00    0.85492   0.84587   11.635
 4297.00    0.82354   0.83572   12.473
 4298.00    0.78671   0.82414   13.630
 4299.00    0.76128   0.81301   14.204
 4300.00    0.75131   0.80405   14.151
 4301.00    0.75128   0.79821   14.163
 4302.00    0.75660   0.79536   14.291
 4303.00    0.76342   0.79448   14.196
 4304.00    0.76562   0.79419   13.991
 4305.00    0.75906   0.79349   14.017
 4306.00    0.74881   0.79231   14.321
 4307.00    0.74334   0.79155   14.665
 4308.00    0.74395   0.79260   14.634
 4309.00    0.74913   0.79660   14.004
 4310.00    0.76330   0.80384   13.161
 4311.00    0.78948   0.81382   12.551
 4312.00    0.81766   0.82574   12.215
 4313.00    0.83642   0.83896   11.998
 4314.00    0.85093   0.85292   11.759
 4315.00    0.86951   0.86677   11.470
 4316.00    0.88296   0.87907   11.319
 4317.00    0.87982   0.88803   11.422
 4318.00    0.86898   0.89210   11.523
 4319.00    0.86414   0.89051   11.421
 4320.00    0.86111   0.88337   -2.000
 4321.00    0.84970   0.87156   -2.000
 4322.00    0.83186   0.85664   -2.000
 4323.00    0.81863   0.84090   -2.000
 4324.00    0.82325   0.82720   -2.000
 4325.00    0.85071   0.81822   -2.000
 4326.00    0.88731   0.81533   -2.000
 4327.00    0.91089   0.81778   -2.000
 4328.00    0.90472   0.82294   -2.000
 4329.00    0.87049   0.82745   -2.000
 4330.00    0.83808   0.82862   -2.000
 4331.00    0.83102   0.82496   -2.000
 4332.00    0.83205   0.81578   -2.000
 4333.00    0.81802   0.80055   -2.000
 4334.00    0.79745   0.77855   -2.000
 4335.00    0.79195   0.74948    0.000
 4336.00    0.81377   0.71444    0.000
 4337.00    0.86205   0.67678    0.000
 4338.00    0.92191   0.64195    0.000
 4339.00    0.97095   0.61624    0.000
 4340.00    0.98699   0.60465    0.000
 4341.00    0.96165   0.60918    0.000
 4342.00    0.91041   0.62811    0.000
 4343.00    0.85700   0.65691    0.000
 4344.00    0.81810   0.68995    0.000
 4345.00    0.79627   0.72229    0.000
 4346.00    0.77759   0.75050    0.000
 4347.00    0.75453   0.77276    0.000
 4348.00    0.74199   0.78853    0.000
 4349.00    0.75230   0.79846    0.000
 4350.00    0.77645   0.80433    0.000
 4351.00    0.80094   0.80877   14.771
 4352.00    0.82107   0.81441   14.723
 4353.00    0.83584   0.82280   14.759
 4354.00    0.84378   0.83385   14.764
 4355.00    0.84554   0.84608   14.693
 4356.00    0.84570   0.85764   14.706
 4357.00    0.85020   0.86734   14.831
 4358.00    0.86358   0.87512   14.790
 4359.00    0.88253   0.88179   14.511
 4360.00    0.89448   0.88825   14.369
 4361.00    0.89593   0.89485   14.545
 4362.00    0.90088   0.90112   14.737
 4363.00    0.91595   0.90601   14.690
 4364.00    0.92785   0.90850   14.544
 4365.00    0.92534   0.90812   14.467
 4366.00    0.91220   0.90524   14.445
 4367.00    0.89955   0.90091   14.427
 4368.00    0.89897   0.89637   14.404
 4369.00    0.91138   0.89236   14.373
 4370.00    0.92383   0.88894   14.312
 4371.00    0.92693   0.88570   14.203
 4372.00    0.92279   0.88241   14.048
 4373.00    0.91476   0.87954   13.888
 4374.00    0.90289   0.87812   13.794
 4375.00    0.89094   0.87901   13.777
 4376.00    0.88787   0.88206   13.767
 4377.00    0.89646   0.88568   13.718
 4378.00    0.90895   0.88733   13.652
 4379.00    0.91467   0.88455   13.617
 4380.00    0.90544   0.87620   13.655
 4381.00    0.88213   0.86309   13.770
 4382.00    0.85557   0.84792   13.916
 4383.00    0.83658   0.83430   14.035
 4384.00    0.83024   0.82547   14.081
 4385.00    0.83141   0.82300   14.086
 4386.00    0.82738   0.82647   14.136
 4387.00    0.81669   0.83400   14.190
 4388.00    0.81253   0.84340   14.099
 4389.00    0.82318   0.85303   14.037
 4390.00    0.84541   0.86193   14.386
 4391.00    0.87123   0.86967   14.624
 4392.00    0.89251   0.87616   13.466
 4393.00    0.90701   0.88159   11.637
 4394.00    0.91848   0.88632   10.653
 4395.00    0.92799   0.89059   10.601
 4396.00    0.93239   0.89427   10.843
 4397.00    0.93035   0.89676   10.881
 4398.00    0.92357   0.89732   10.682
 4399.00    0.91288   0.89560   10.704
 4400.00    0.89857   0.89181   11.617
 4401.00    0.88587   0.88660   13.436
 4402.00    0.88292   0.88070   14.677
 4403.00    0.88851   0.87496   14.453
 4404.00    0.89295   0.87045   14.094
 4405.00    0.89371   0.86830   14.238
 4406.00    0.89649   0.86939   14.445
 4407.00    0.90354   0.87384   14.402
 4408.00    0.91151   0.88088   14.236
 4409.00    0.91620   0.88893   14.157
 4410.00    0.91452   0.89600   14.291
 4411.00    0.90582   0.90014   14.541
 4412.00    0.89174   0.90021   14.657
 4413.00    0.87451   0.89659   14.605
 4414.00    0.85730   0.89115   14.574
 4415.00    0.84600   0.88658   14.626
 4416.00    0.84643   0.88520   14.683
 4417.00    0.85606   0.88787   14.728
 4418.00    0.86629   0.89355   14.799
 4419.00    0.87331   0.90006   14.876
 4420.00    0.87831   0.90526   14.886
 4421.00    0.88117   0.90802   14.834
 4422.00    0.88069   0.90846   14.798
 4423.00    0.87857   0.90757   14.860
 4424.00    0.87843   0.90635   15.044
 4425.00    0.88146   0.90536   15.197
 4426.00    0.88550   0.90463   15.127
 4427.00    0.88533   0.90389   14.977
 4428.00    0.87748   0.90281   15.044
 4429.00    0.86971   0.90112   15.287
 4430.00    0.87250   0.89869   15.433
 4431.00    0.87816   0.89561   15.409
 4432.00    0.87113   0.89222   15.345
 4433.00    0.85609   0.88929   15.308
 4434.00    0.84927   0.88790   15.292
 4435.00    0.85170   0.88905   15.289
 4436.00    0.85448   0.89286   15.292
 4437.00    0.85800   0.89822   15.291
 4438.00    0.86765   0.90317   15.290
 4439.00    0.87999   0.90579   15.331
 4440.00    0.88791   0.90528   15.448
 4441.00    0.89334   0.90247   15.566
 4442.00    0.90166   0.89940   15.569
 4443.00    0.90895   0.89822   15.467
 4444.00    0.90811   0.90000   15.367
 4445.00    0.90200   0.90427   15.388
 4446.00    0.89881   0.90945   15.570
 4447.00    0.90160   0.91377   15.760
 4448.00    0.90883   0.91597   15.751
 4449.00    0.91761   0.91552   15.571
 4450.00    0.92476   0.91245   15.388
 4451.00    0.92763   0.90714   15.296
 4452.00    0.92444   0.90015   15.324
 4453.00    0.91460   0.89218   15.468
 4454.00    0.89863   0.88416   15.694
 4455.00    0.87803   0.87720   15.914
 4456.00    0.85611   0.87203   16.044
 4457.00    0.83883   0.86886   16.076
 4458.00    0.83092   0.86748   16.045
 4459.00    0.83104   0.86762   15.945
 4460.00    0.83681   0.86907   15.793
 4461.00    0.85113   0.87169    0.000
 4462.00    0.87349   0.87519    0.000
 4463.00    0.88951   0.87896    0.000
 4464.00    0.88689   0.88193    0.000
 4465.00    0.87444   0.88301    0.000
 4466.00    0.86814   0.88175    0.000
 4467.00    0.87300   0.87856    0.000
 4468.00    0.88430   0.87468    0.000
 4469.00    0.89213   0.87205    0.000
 4470.00    0.89137   0.87251    0.000
 4471.00    0.89074   0.87707    0.000
 4472.00    0.89952   0.88555    0.000
 4473.00    0.91353   0.89651    0.000
 4474.00    0.92276   0.90760    0.000
 4475.00    0.92092   0.91632    0.000
 4476.00    0.91081   0.92073    0.000
 4477.00    0.90694   0.91995    0.000
 4478.00    0.91692   0.91456    0.000
 4479.00    0.92595   0.90670    0.000
 4480.00    0.91902   0.89934    0.000
 4481.00    0.90132   0.89532    0.000
 4482.00    0.88662   0.89620   10.965
 4483.00    0.88493   0.90161   11.372
 4484.00    0.89700   0.90936   12.864
 4485.00    0.91187   0.91641   14.623
 4486.00    0.91966   0.92035   15.053
 4487.00    0.92142   0.92037   14.701
 4488.00    0.92100   0.91743   14.763
 4489.00    0.91831   0.91347   15.200
 4490.00    0.91320   0.91014   15.573
 4491.00    0.90840   0.90817   15.721
 4492.00    0.90581   0.90745   15.689
 4493.00    0.90398   0.90754   15.574
 4494.00    0.90224   0.90821   15.493
 4495.00    0.90324   0.90962   15.544
 4496.00    0.90968   0.91213   15.683
 4497.00    0.92150   0.91590   15.669
 4498.00    0.93430   0.92073   15.486
 4499.00    0.93982   0.92616   15.508
 4500.00    0.93600   0.93179   15.773
 4501.00    0.93170   0.93752   15.673
 4502.00    0.93376   0.94325   15.280
 4503.00    0.93988   0.94856   15.721
 4504.00    0.94772   0.95276   16.636
 4505.00    0.95949   0.95522   14.945
 4506.00    0.97323   0.95566   11.658
 4507.00    0.97951   0.95427    9.987
 4508.00    0.97326   0.95175    9.972
 4509.00    0.95952   0.94871   10.506
 4510.00    0.94607   0.94530   10.689
 4511.00    0.93844   0.94137   10.622
 4512.00    0.93686   0.93694   10.625
 4513.00    0.93586   0.93233   10.704
 4514.00    0.93028   0.92818   10.786
 4515.00    0.91886   0.92517   10.860
 4516.00    0.90564   0.92367   10.975
 4517.00    0.89865   0.92345   11.185
 4518.00    0.90001   0.92387   11.287
 4519.00    0.90348   0.92407   10.909
 4520.00    0.90601   0.92314   10.573
 4521.00    0.91092   0.92046   11.565
 4522.00    0.91667   0.91581   14.664
 4523.00    0.91456   0.90924   17.959
 4524.00    0.90267   0.90115   18.002
 4525.00    0.88904   0.89228   17.125
 4526.00    0.87850   0.88368   17.300
 4527.00    0.86873   0.87639   17.685
 4528.00    0.85838   0.87103   17.591
 4529.00    0.84995   0.86802   17.473
 4530.00    0.84698   0.86732   17.642
 4531.00    0.85214   0.86842   17.868
 4532.00    0.86461   0.87081   17.932
 4533.00    0.87989   0.87427   17.842
 4534.00    0.89264   0.87890   17.723
 4535.00    0.89855   0.88484   17.709
 4536.00    0.89692   0.89166   17.823
 4537.00    0.89094   0.89842   17.973
 4538.00    0.88534   0.90396   18.105
 4539.00    0.88440   0.90733   18.231
 4540.00    0.88844   0.90839   18.313
 4541.00    0.89358   0.90778   18.269
 4542.00    0.89520   0.90660   18.111
 4543.00    0.89013   0.90551   17.953
 4544.00    0.87962   0.90441   17.896
 4545.00    0.86865   0.90283   17.971
 4546.00    0.86049   0.90033   18.071
 4547.00    0.85581   0.89697   18.022
 4548.00    0.85484   0.89337   17.878
 4549.00    0.85767   0.89018   17.868
 4550.00    0.86321   0.88770    0.000
 4551.00    0.86963   0.88615    0.000
 4552.00    0.87663   0.88583    0.000
 4553.00    0.88550   0.88711    0.000
 4554.00    0.89765   0.89013    0.000
 4555.00    0.91312   0.89493    0.000
 4556.00    0.92769   0.90157    0.000
 4557.00    0.93502   0.90935    0.000
 4558.00    0.93363   0.91688    0.000
 4559.00    0.92699   0.92271    0.000
 4560.00    0.91932   0.92575    0.000
 4561.00    0.91394   0.92582    0.000
 4562.00    0.91210   0.92375    0.000
 4563.00    0.91315   0.92092    0.000
 4564.00    0.91586   0.91866    0.000
 4565.00    0.91899   0.91786    0.000
 4566.00    0.92198   0.91869    0.000
 4567.00    0.92472   0.92063    0.000
 4568.00    0.92681   0.92261    0.000
 4569.00    0.92791   0.92368    0.000
 4570.00    0.92876   0.92361    0.000
 4571.00    0.92989   0.92295    0.000
 4572.00    0.92879   0.92252    0.000
 4573.00    0.92322   0.92269    0.000
 4574.00    0.91846   0.92321    0.000
 4575.00    0.92182   0.92336    0.000
 4576.00    0.93014   0.92208    0.000
 4577.00    0.93447   0.91877    0.000
 4578.00    0.93280   0.91387    0.000
 4579.00    0.92763   0.90830    0.000
 4580.00    0.91807   0.90297    0.000
 4581.00    0.90307   0.89875    0.000
 4582.00    0.88917   0.89633    0.000
 4583.00    0.88435   0.89603    0.000
 4584.00    0.88634   0.89761    0.000
 4585.00    0.88883   0.90046    0.000
 4586.00    0.89409   0.90391    0.000
 4587.00    0.90620   0.90728    0.000
 4588.00    0.91815   0.90980    0.000
 4589.00    0.91912   0.91084    0.000
 4590.00    0.90811   0.91026    0.000
 4591.00    0.89170   0.90836    0.000
 4592.00    0.87783   0.90581    0.000
 4593.00    0.87348   0.90348    0.000
 4594.00    0.88256   0.90204    0.000
 4595.00    0.90220   0.90170    0.000
 4596.00    0.91876   0.90213    0.000
 4597.00    0.91952   0.90289    0.000
 4598.00    0.90796   0.90368    0.000
 4599.00    0.89594   0.90435    0.000
 4600.00    0.89130   0.90486    0.000
 4601.00    0.89657   0.90537    0.000
 4602.00    0.90954   0.90625    0.000
 4603.00    0.92428   0.90800    0.000
 4604.00    0.93288   0.91097    0.000
 4605.00    0.93198   0.91507    0.000
 4606.00    0.92929   0.91989    0.000
 4607.00    0.93310   0.92488    0.000
 4608.00    0.94041   0.92940    0.000
 4609.00    0.94427   0.93278    0.000
 4610.00    0.94292   0.93450    0.000
 4611.00    0.93742   0.93457    0.000
 4612.00    0.92833   0.93343    0.000
 4613.00    0.91778   0.93189    0.000
 4614.00    0.91137   0.93051    0.000
 4615.00    0.91155   0.92940    0.000
 4616.00    0.91185   0.92853    0.000
 4617.00    0.90573   0.92784    0.000
 4618.00    0.89517   0.92737    0.000
 4619.00    0.88731   0.92747    0.000
 4620.00    0.88983   0.92828    0.000
 4621.00    0.90370   0.92960    0.000
 4622.00    0.91837   0.93111    0.000
 4623.00    0.92437   0.93220    0.000
 4624.00    0.92388   0.93223    0.000
 4625.00    0.92366   0.93118    0.000
 4626.00    0.92819   0.92945    0.000
 4627.00    0.93676   0.92743    0.000
 4628.00    0.94262   0.92549    0.000
 4629.00    0.94144   0.92387    0.000
 4630.00    0.93713   0.92235    0.000
 4631.00    0.93393   0.92066    0.000
 4632.00    0.93066   0.91873    0.000
 4633.00    0.92590   0.91636    0.000
 4634.00    0.92148   0.91327    0.000
 4635.00    0.91855   0.90965    0.000
 4636.00    0.91526   0.90620    0.000
 4637.00    0.91225   0.90339    0.000
 4638.00    0.91522   0.90132    0.000
 4639.00    0.92634   0.89997    0.000
 4640.00    0.93930   0.89925    0.000
 4641.00    0.94605   0.89873    0.000
 4642.00    0.94194   0.89756    0.000
 4643.00    0.92865   0.89503    0.000
 4644.00    0.91443   0.89086    0.000
 4645.00    0.90505   0.88558    0.000
 4646.00    0.89926   0.88052    0.000
 4647.00    0.89436   0.87711    0.000
 4648.00    0.88971   0.87630    0.000
 4649.00    0.88667   0.87840    0.000
 4650.00    0.88767   0.88275    0.000
 4651.00    0.89275   0.88790    0.000
 4652.00    0.89840   0.89263    0.000
 4653.00    0.90256   0.89647    0.000
 4654.00    0.90696   0.89975    0.000
 4655.00    0.91540   0.90317    0.000
 4656.00    0.93159   0.90720    0.000
 4657.00    0.95307   0.91208    0.000
 4658.00    0.97038   0.91712    0.000
 4659.00    0.97710   0.92085    0.000
 4660.00    0.97371   0.92183    0.000
 4661.00    0.96201   0.91909    0.000
 4662.00    0.94317   0.91264    0.000
 4663.00    0.92116   0.90350    0.000
 4664.00    0.90325   0.89333    0.000
 4665.00    0.89532   0.88378    0.000
 4666.00    0.89920   0.87625    0.000
 4667.00    0.91041   0.87174    0.000
 4668.00    0.91938   0.87077    0.000
 4669.00    0.92016   0.87353    0.000
 4670.00    0.91296   0.87944    0.000
 4671.00    0.90015   0.88678    0.000
 4672.00    0.88511   0.89364    0.000
 4673.00    0.87424   0.89887    0.000
 4674.00    0.87515   0.90214    0.000
 4675.00    0.88733   0.90368    0.000
 4676.00    0.90169   0.90384    0.000
 4677.00    0.91143   0.90278    0.000
 4678.00    0.91532   0.90064    0.000
 4679.00    0.91503   0.89774    0.000
 4680.00    0.91347   0.89473    0.000
 4681.00    0.91247   0.89243    0.000
 4682.00    0.91224   0.89120    0.000
 4683.00    0.91204   0.89086    0.000
 4684.00    0.91111   0.89117    0.000
 4685.00    0.91071   0.89187    0.000
 4686.00    0.91379   0.89263    0.000
 4687.00    0.92208   0.89348    0.000
 4688.00    0.93434   0.89476    0.000
 4689.00    0.94413   0.89648    0.000
 4690.00    0.94298   0.89844    0.000
 4691.00    0.93101   0.90056    0.000
 4692.00    0.91668   0.90265    0.000
 4693.00    0.90802   0.90442    0.000
 4694.00    0.90857   0.90551    0.000
 4695.00    0.91354   0.90523    0.000
 4696.00    0.91437   0.90307    0.000
 4697.00    0.91238   0.89911    0.000
 4698.00    0.91500   0.89386    0.000
 4699.00    0.91789   0.88813    0.000
 4700.00    0.90959   0.88299    0.000
 4701.00    0.89292   0.87942    0.000
 4702.00    0.88122   0.87758    0.000
 4703.00    0.87796   0.87681    0.000
 4704.00    0.87722   0.87665    0.000
 4705.00    0.87549   0.87712    0.000
 4706.00    0.87268   0.87808    0.000
 4707.00    0.86821   0.87908    0.000
 4708.00    0.86188   0.87986    0.000
 4709.00    0.85727   0.88071    0.000
 4710.00    0.85950   0.88195    0.000
 4711.00    0.86957   0.88363    0.000
 4712.00    0.88436   0.88575    0.000
 4713.00    0.89906   0.88837    0.000
 4714.00    0.90921   0.89153    0.000
 4715.00    0.91352   0.89581    0.000
 4716.00    0.91396   0.90158    0.000
 4717.00    0.91482   0.90831    0.000
 4718.00    0.91923   0.91479    0.000
 4719.00    0.92364   0.91995    0.000
 4720.00    0.92193   0.92326    0.000
 4721.00    0.91408   0.92477    0.000
 4722.00    0.90489   0.92445    0.000
 4723.00    0.89929   0.92221    0.000
 4724.00    0.89915   0.91820    0.000
 4725.00    0.89983   0.91273    0.000
 4726.00    0.89471   0.90617    0.000
 4727.00    0.88295   0.89901    0.000
 4728.00    0.86878   0.89225    0.000
 4729.00    0.85830   0.88723    0.000
 4730.00    0.85653   0.88505    0.000
 4731.00    0.86382   0.88571    0.000
 4732.00    0.87703   0.88818    0.000
 4733.00    0.89179   0.89141    0.000
 4734.00    0.90276   0.89476    0.000
 4735.00    0.90375   0.89761    0.000
 4736.00    0.89304   0.89977    0.000
 4737.00    0.87981   0.90143    0.000
 4738.00    0.87626   0.90272    0.000
 4739.00    0.88644   0.90412    0.000
 4740.00    0.90492   0.90581    0.000
 4741.00    0.91787   0.90725    0.000
 4742.00    0.91506   0.90843    0.000
 4743.00    0.90336   0.90987    0.000
 4744.00    0.89522   0.91167    0.000
 4745.00    0.89380   0.91344    0.000
 4746.00    0.89679   0.91474    0.000
 4747.00    0.90256   0.91547    0.000
 4748.00    0.90913   0.91558    0.000
 4749.00    0.91252   0.91468    0.000
 4750.00    0.90984   0.91265    0.000
 4751.00    0.90247   0.90987    0.000
 4752.00    0.89440   0.90667    0.000
 4753.00    0.88981   0.90334    0.000
 4754.00    0.88951   0.90041    0.000
 4755.00    0.88831   0.89832    0.000
 4756.00    0.88240   0.89701    0.000
 4757.00    0.87599   0.89610    0.000
 4758.00    0.87356   0.89496    0.000
 4759.00    0.87264   0.89301    0.000
 4760.00    0.86980   0.88990    0.000
 4761.00    0.86635   0.88566   20.932
 4762.00    0.86526   0.88076   20.748
 4763.00    0.86801   0.87603   20.620
 4764.00    0.87293   0.87267   20.798
 4765.00    0.87479   0.87155   21.074
 4766.00    0.87079   0.87261   21.155
 4767.00    0.86471   0.87537   21.033
 4768.00    0.86060   0.87936   20.869
 4769.00    0.85795   0.88390   20.847
 4770.00    0.85730   0.88822   20.980
 4771.00    0.86361   0.89195   21.025
 4772.00    0.87829   0.89504   20.840
 4773.00    0.89416   0.89772   20.626
 4774.00    0.90486   0.90039   20.550
 4775.00    0.91101   0.90285   20.516
 4776.00    0.91368   0.90433   20.448
 4777.00    0.91035   0.90428   20.458
 4778.00    0.90106   0.90288   20.593
 4779.00    0.89161   0.90054   20.704
 4780.00    0.88580   0.89736   20.653
 4781.00    0.88119   0.89368   20.469
 4782.00    0.87517   0.89010   20.271
 4783.00    0.86870   0.88686   20.192
 4784.00    0.86407   0.88403   20.246
 4785.00    0.86347   0.88197   20.282
 4786.00    0.86943   0.88103   20.194
 4787.00    0.88395   0.88109   20.031
 4788.00    0.90191   0.88220   19.882
 4789.00    0.91011   0.88486   19.806
 4790.00    0.90359   0.88889   19.822
 4791.00    0.89238   0.89372   19.904
 4792.00    0.88798   0.89893   19.988
 4793.00    0.89517   0.90369   20.001
 4794.00    0.90934   0.90709   19.947
 4795.00    0.91813   0.90869   19.929
 4796.00    0.91581   0.90828   19.972
 4797.00    0.90821   0.90618   19.972
 4798.00    0.90007   0.90331   19.908
 4799.00    0.89041   0.90068   19.896
 4800.00    0.88001   0.89887   19.991
 4801.00    0.87343   0.89796   20.121
 4802.00    0.87065   0.89759   20.222
 4803.00    0.86572   0.89709   20.296
 4804.00    0.85789   0.89583   20.356
 4805.00    0.85424   0.89377   20.413
 4806.00    0.85936   0.89153   20.464
 4807.00    0.87198   0.88994   20.494
 4808.00    0.89009   0.88936   20.482
 4809.00    0.91200   0.88962   20.419
 4810.00    0.93192   0.89058   20.364
 4811.00    0.94064   0.89216   20.428
 4812.00    0.93483   0.89405   20.585
 4813.00    0.91945   0.89608   20.676
 4814.00    0.90254   0.89830   20.685
 4815.00    0.89223   0.90066   20.761
 4816.00    0.89293   0.90278   20.897
 4817.00    0.90372   0.90407   20.896
 4818.00    0.91721   0.90405   20.719
 4819.00    0.92240   0.90245   20.546
 4820.00    0.91509   0.89930   20.583
 4821.00    0.89982   0.89503   20.937
 4822.00    0.88422   0.89031   21.396
 4823.00    0.87545   0.88585   21.504
 4824.00    0.87512   0.88222   21.278
 4825.00    0.87906   0.87988   21.172
 4826.00    0.88175   0.87905   21.231
 4827.00    0.87920   0.87893   21.127
 4828.00    0.87322   0.87839   20.957
 4829.00    0.86992   0.87718   21.157
 4830.00    0.87196   0.87588   21.627
 4831.00    0.87718   0.87504   21.784
 4832.00    0.88094   0.87459   21.586
 4833.00    0.87882   0.87416   21.523
 4834.00    0.87161   0.87378   21.695
 4835.00    0.86405   0.87329   21.818
 4836.00    0.85823   0.87195   21.870
 4837.00    0.85325   0.86940   22.062
 4838.00    0.84895   0.86613   22.306
 4839.00    0.84585   0.86269   22.289
 4840.00    0.84294   0.85935   22.056
 4841.00    0.83875   0.85654   21.922
 4842.00    0.83500   0.85448   21.951
 4843.00    0.83486   0.85282   21.980
 4844.00    0.83721   0.85089   21.902
 4845.00    0.83742   0.84842   21.744
 4846.00    0.83195   0.84536   21.651
 4847.00    0.82072   0.84127   21.770
 4848.00    0.80958   0.83564    0.000
 4849.00    0.80525   0.82848    0.000
 4850.00    0.80419   0.82016    0.000
 4851.00    0.79778   0.81063    0.000
 4852.00    0.78681   0.79898    0.000
 4853.00    0.78004   0.78432    0.000
 4854.00    0.78586   0.76638    0.000
 4855.00    0.81407   0.74510    0.000
 4856.00    0.88172   0.72107    0.000
 4857.00    1.00267   0.69604    0.000
 4858.00    1.16721   0.67209    0.000
 4859.00    1.34154   0.65105    0.000
 4860.00    1.47433   0.63526    0.000
 4861.00    1.51705   0.62758    0.000
 4862.00    1.45583   0.63029    0.000
 4863.00    1.31155   0.64396    0.000
 4864.00    1.13022   0.66591    0.000
 4865.00    0.96389   0.69063    0.000
 4866.00    0.84340   0.71372    0.000
 4867.00    0.77661   0.73339    0.000
 4868.00    0.75286   0.74895    0.000
 4869.00    0.75252   0.76054    0.000
 4870.00    0.76003   0.76929    0.000
 4871.00    0.76657   0.77647    0.000
 4872.00    0.77100   0.78327    0.000
 4873.00    0.77699   0.79123    0.000
 4874.00    0.78878   0.80104    0.000
 4875.00    0.80727   0.81150   22.778
 4876.00    0.82595   0.82115   22.757
 4877.00    0.83746   0.82959   22.720
 4878.00    0.84243   0.83669   22.655
 4879.00    0.84501   0.84195   22.555
 4880.00    0.84587   0.84511   22.459
 4881.00    0.84359   0.84609   22.445
 4882.00    0.83747   0.84495   22.624
 4883.00    0.82920   0.84266   22.991
 4884.00    0.82403   0.84022   23.265
 4885.00    0.82589   0.83757   23.200
 4886.00    0.83196   0.83479   22.998
 4887.00    0.83598   0.83280   22.944
 4888.00    0.83302   0.83256   22.980
 4889.00    0.82358   0.83441   22.950
 4890.00    0.81664   0.83841   22.873
 4891.00    0.82002   0.84463   22.830
 4892.00    0.83052   0.85328   22.823
 4893.00    0.84085   0.86425   22.821
 4894.00    0.84749   0.87593   22.821
 4895.00    0.85025   0.88573   22.814
 4896.00    0.85094   0.89212   22.764
 4897.00    0.85147   0.89488   22.657
 4898.00    0.85222   0.89454   22.544
 4899.00    0.85302   0.89221   22.475
 4900.00    0.85419   0.88910   22.437
 4901.00    0.85590   0.88636   22.394
 4902.00    0.85769   0.88494   22.330
 4903.00    0.85938   0.88459   22.265
 4904.00    0.86179   0.88438   22.265
 4905.00    0.86607   0.88401   22.329
 4906.00    0.87289   0.88345   22.326
 4907.00    0.88070   0.88216   22.182
 4908.00    0.88484   0.87974   22.016
 4909.00    0.88184   0.87686   21.956
 4910.00    0.87256   0.87473   22.014
 4911.00    0.86070   0.87398   22.109
 4912.00    0.85117   0.87453   22.113
 4913.00    0.84770   0.87526   21.975
 4914.00    0.85092   0.87431   21.800
 4915.00    0.85662   0.87030   21.695
 4916.00    0.85586   0.86302   21.682
 4917.00    0.84444   0.85301   21.768
 4918.00    0.82798   0.84136   21.985
 4919.00    0.81268   0.83004   22.257
 4920.00    0.79953   0.82170   22.356
 4921.00    0.78928   0.81852   22.254
 4922.00    0.78521   0.82118   22.277
 4923.00    0.78949   0.82903   22.495
 4924.00    0.80115   0.84013   22.459
 4925.00    0.81879   0.85237   22.020
 4926.00    0.84163   0.86466   21.671
 4927.00    0.86589   0.87597   21.642
 4928.00    0.88381   0.88446   21.583
 4929.00    0.89044   0.88914   21.282
 4930.00    0.88680   0.89037   20.991
 4931.00    0.87535   0.88852   20.949
 4932.00    0.85810   0.88405   21.175
 4933.00    0.83973   0.87786   21.493
 4934.00    0.82789   0.87100   21.597
 4935.00    0.82572   0.86521   21.410
 4936.00    0.82930   0.86180   21.202
 4937.00    0.83452   0.86030   21.140
 4938.00    0.84030   0.86011   21.137
 4939.00    0.84710   0.86177   21.092
 4940.00    0.85581   0.86594    0.000
 4941.00    0.86619   0.87241    0.000
 4942.00    0.87624   0.87975    0.000
 4943.00    0.88242   0.88623    0.000
 4944.00    0.88125   0.89138    0.000
 4945.00    0.87550   0.89547    0.000
 4946.00    0.87393   0.89844    0.000
 4947.00    0.87939   0.90047    0.000
 4948.00    0.88602   0.90199    0.000
 4949.00    0.88870   0.90274    0.000
 4950.00    0.88721   0.90194    0.000
 4951.00    0.88676   0.89899    0.000
 4952.00    0.89617   0.89351    0.000
 4953.00    0.92076   0.88583    0.000
 4954.00    0.95997   0.87720    0.000
 4955.00    1.00894   0.86902    0.000
 4956.00    1.05979   0.86232    0.000
 4957.00    1.10370   0.85774    0.000
 4958.00    1.13201   0.85598    0.000
 4959.00    1.13678   0.85813    0.000
 4960.00    1.11282   0.86359    0.000
 4961.00    1.06333   0.86921    0.000
 4962.00    0.99998   0.87243    0.000
 4963.00    0.93717   0.87308    0.000
 4964.00    0.88836   0.87203    0.000
 4965.00    0.86110   0.86987    0.000
 4966.00    0.85500   0.86736    0.000
 4967.00    0.86065   0.86581    0.000
 4968.00    0.86433   0.86608    0.000
 4969.00    0.86192   0.86801    0.000
 4970.00    0.85886   0.87112    0.000
 4971.00    0.85847   0.87477    0.000
 4972.00    0.86017   0.87824    0.000
 4973.00    0.86379   0.88070    0.000
 4974.00    0.86965   0.88138    0.000
 4975.00    0.87572   0.87992    0.000
 4976.00    0.87777   0.87600    0.000
 4977.00    0.87192   0.86953    0.000
 4978.00    0.85674   0.86110    0.000
 4979.00    0.83681   0.85172    0.000
 4980.00    0.82057   0.84260    0.000
 4981.00    0.81340   0.83498    0.000
 4982.00    0.81612   0.82952    0.000
 4983.00    0.82538   0.82674    0.000
 4984.00    0.83522   0.82745    0.000
 4985.00    0.84034   0.83160    0.000
 4986.00    0.83833   0.83771    0.000
 4987.00    0.83285   0.84421    0.000
 4988.00    0.83051   0.84994    0.000
 4989.00    0.83325   0.85391    0.000
 4990.00    0.83886   0.85617    0.000
 4991.00    0.84527   0.85739    0.000
 4992.00    0.85137   0.85825    0.000
 4993.00    0.85691   0.85910    0.000
 4994.00    0.86182   0.85926    0.000
 4995.00    0.86529   0.85814    0.000
 4996.00    0.86579   0.85599    0.000
 4997.00    0.86164   0.85265    0.000
 4998.00    0.85363   0.84798    0.000
 4999.00    0.84938   0.84229    0.000
 5000.00    0.86449   0.83593    0.000
 5001.00    0.92273   0.82967    0.000
 5002.00    1.04432   0.82476    0.000
 5003.00    1.22666   0.82179    0.000
 5004.00    1.44110   0.82054    0.000
 5005.00    1.63382   0.82024    0.000
 5006.00    1.74517   0.82038    0.000
 5007.00    1.73954   0.82097    0.000
 5008.00    1.61608   0.82213    0.000
 5009.00    1.41637   0.82285    0.000
 5010.00    1.20238   0.82153    0.000
 5011.00    1.02238   0.81794    0.000
 5012.00    0.90130   0.81291    0.000
 5013.00    0.83495   0.80750    0.000
 5014.00    0.80436   0.80310    0.000
 5015.00    0.79616   0.80084    0.000
 5016.00    0.80203   0.80099    0.000
 5017.00    0.81432   0.80316    0.000
 5018.00    0.82653   0.80640    0.000
 5019.00    0.83458   0.81032    0.000
 5020.00    0.83721   0.81510    0.000
 5021.00    0.83610   0.82026    0.000
 5022.00    0.83346   0.82460    0.000
 5023.00    0.82925   0.82795    0.000
 5024.00    0.82364   0.83133    0.000
 5025.00    0.81989   0.83494    0.000
 5026.00    0.82125   0.83814    0.000
 5027.00    0.82732   0.84100    0.000
 5028.00    0.83529   0.84395    0.000
 5029.00    0.84197   0.84747   23.342
 5030.00    0.84515   0.85117   23.154
 5031.00    0.84477   0.85357   23.292
 5032.00    0.84199   0.85406   23.283
 5033.00    0.83798   0.85270   23.117
 5034.00    0.83310   0.84899   23.010
 5035.00    0.82634   0.84232   23.091
 5036.00    0.81633   0.83311   23.372
 5037.00    0.80265   0.82374   23.745
 5038.00    0.78773   0.81665   24.038
 5039.00    0.77808   0.81202   24.092
 5040.00    0.77877   0.80970   23.876
 5041.00    0.78876   0.81046   23.552
 5042.00    0.80331   0.81490   23.335
 5043.00    0.81675   0.82272   23.363
 5044.00    0.82600   0.83152   23.557
 5045.00    0.83259   0.83827   23.552
 5046.00    0.83725   0.84194   23.223
 5047.00    0.83612   0.84274   23.030
 5048.00    0.82772   0.84114   23.249
 5049.00    0.81802   0.83861   23.492
 5050.00    0.81442   0.83704   23.400
 5051.00    0.82059   0.83745   23.200
 5052.00    0.83340   0.83969   23.187
 5053.00    0.84268   0.84349   23.350
 5054.00    0.84342   0.84851   23.539
 5055.00    0.84289   0.85384   23.612
 5056.00    0.84786   0.85859   23.576
 5057.00    0.85622   0.86249   23.627
 5058.00    0.86331   0.86551   23.800
 5059.00    0.86654   0.86706   23.808
 5060.00    0.86480   0.86635   23.602
 5061.00    0.85796   0.86372   23.624
 5062.00    0.84737   0.85978   24.034
 5063.00    0.83585   0.85456   24.338
 5064.00    0.82616   0.84841   24.256
 5065.00    0.82010   0.84238   24.215
 5066.00    0.81962   0.83799   24.445
 5067.00    0.82664   0.83589   24.561
 5068.00    0.83841   0.83503   24.390
 5069.00    0.84672   0.83461   24.343
 5070.00    0.84793   0.83477   24.646
 5071.00    0.84678   0.83522   25.013
 5072.00    0.84665   0.83503   25.112
 5073.00    0.84529   0.83396   24.897
 5074.00    0.84079   0.83237   24.627
 5075.00    0.83437   0.82983   24.711
 5076.00    0.82780   0.82597   25.086
 5077.00    0.82194   0.82156   25.119
 5078.00    0.81600   0.81733   24.819
 5079.00    0.80827   0.81325   25.027
 5080.00    0.80063   0.80982   25.536
 5081.00    0.79914   0.80893   24.899
 5082.00    0.80681   0.81133   24.092
 5083.00    0.82070   0.81565   26.025
 5084.00    0.83356   0.82059   28.011
 5085.00    0.83705   0.82601   21.121
 5086.00    0.83094   0.83162   14.025
 5087.00    0.82419   0.83665   11.561
 5088.00    0.82318   0.84082   11.704
 5089.00    0.82770   0.84441   12.287
 5090.00    0.83508   0.84730   12.123
 5091.00    0.84218   0.84889   11.815
 5092.00    0.84648   0.84893   11.790
 5093.00    0.84674   0.84745   11.796
 5094.00    0.84393   0.84422   11.786
 5095.00    0.84079   0.83925   12.002
 5096.00    0.83882   0.83348   12.149
 5097.00    0.83769   0.82812   11.608
 5098.00    0.83687   0.82395   11.321
 5099.00    0.83592   0.82128   13.351
 5100.00    0.83370   0.82043   19.832
 5101.00    0.82876   0.82159   27.402
 5102.00    0.82148   0.82354   26.017
 5103.00    0.81377   0.82455   23.535
 5104.00    0.80583   0.82418   24.019
 5105.00    0.79680   0.82284   25.071
 5106.00    0.78954   0.82120   25.059
 5107.00    0.78972   0.81985   24.692
 5108.00    0.79888   0.81914   24.472
 5109.00    0.81372   0.81974   24.184
 5110.00    0.83003   0.82194   23.830
 5111.00    0.84417   0.82527   23.660
 5112.00    0.85387   0.82981   23.656
 5113.00    0.85857   0.83502   23.569
 5114.00    0.85974   0.83968   23.373
 5115.00    0.85971   0.84334   23.245
 5116.00    0.85886   0.84556   23.261
 5117.00    0.85577   0.84594   23.354
 5118.00    0.84971   0.84428   23.412
 5119.00    0.84119   0.84018   23.380
 5120.00    0.83168   0.83394   23.433
 5121.00    0.82294   0.82665   23.798
 5122.00    0.81564   0.81921   24.214
 5123.00    0.80932   0.81231   24.171
 5124.00    0.80318   0.80641   23.886
 5125.00    0.79689   0.80233   23.992
 5126.00    0.79181   0.80072   24.441
 5127.00    0.79004   0.80103   24.698
 5128.00    0.79183   0.80244   24.667
 5129.00    0.79597   0.80472   24.659
 5130.00    0.80160   0.80794   24.786
 5131.00    0.80813   0.81192   24.937
 5132.00    0.81430   0.81580   24.997
 5133.00    0.81851   0.81840   24.929
 5134.00    0.81960   0.81935   24.869
 5135.00    0.81717   0.81913   24.965
 5136.00    0.81174   0.81829   25.094
 5137.00    0.80476   0.81605   25.032
 5138.00    0.79872   0.81233   24.862
 5139.00    0.79540   0.80871   24.811
 5140.00    0.79323   0.80612   24.867
 5141.00    0.78967   0.80483   24.903
 5142.00    0.78584   0.80386   24.977
 5143.00    0.78479   0.80218   25.217
 5144.00    0.78738   0.80116   25.549
 5145.00    0.79201   0.80147   25.789
 5146.00    0.79529   0.80141   25.890
 5147.00    0.79465   0.80054   25.875
 5148.00    0.79174   0.79975   25.671
 5149.00    0.78974   0.79945   25.295
 5150.00    0.78865   0.79963   25.096
 5151.00    0.78732   0.80000   25.339
 5152.00    0.78711   0.80102   25.642
 5153.00    0.79000   0.80353   25.517
 5154.00    0.79547   0.80750   25.291
 5155.00    0.80155   0.81241   25.475
 5156.00    0.80686   0.81802   25.835
 5157.00    0.81101   0.82332   25.854
 5158.00    0.81462   0.82685   25.525
 5159.00    0.81814   0.82771   25.136
 5160.00    0.82022   0.82523   24.821
 5161.00    0.81866   0.81910   24.604
 5162.00    0.81174   0.80880   24.498
 5163.00    0.79890   0.79448   24.557
 5164.00    0.78128   0.77838   24.896
 5165.00    0.76111   0.76241   25.397
 5166.00    0.74098   0.74696   25.390
 5167.00    0.72322   0.73235   25.003
 5168.00    0.70943   0.72015   26.312
 5169.00    0.70109   0.71351   29.561
 5170.00    0.70004   0.71384   26.661
 5171.00    0.70726   0.71869   18.335
 5172.00    0.72146   0.72475   13.850
 5173.00    0.73961   0.73215   12.890
 5174.00    0.75774   0.74323   13.208
 5175.00    0.77295   0.75711   13.143
 5176.00    0.78503   0.76911   12.733
 5177.00    0.79387   0.77596   12.553
 5178.00    0.79701   0.77731   12.547
 5179.00    0.79212   0.77374   12.570
 5180.00    0.77935   0.76700   12.843
 5181.00    0.76183   0.75976   13.365
 5182.00    0.74560   0.75367   13.362
 5183.00    0.73651   0.74941   12.874
 5184.00    0.73749   0.74833   13.761
 5185.00    0.74800   0.75323   18.002
 5186.00    0.76404   0.76371   24.794
 5187.00    0.78032   0.77434   26.153
 5188.00    0.79215   0.78157   23.800
 5189.00    0.79674   0.78601   23.617
 5190.00    0.79403   0.78912    0.000
 5191.00    0.78634   0.79067    0.000
 5192.00    0.77785   0.79000    0.000
 5193.00    0.77419   0.78925    0.000
 5194.00    0.78133   0.79117    0.000
 5195.00    0.80036   0.79529    0.000
 5196.00    0.82479   0.79949    0.000
 5197.00    0.84662   0.80353    0.000
 5198.00    0.86084   0.80718    0.000
 5199.00    0.86576   0.80934    0.000
 5200.00    0.86272   0.80884    0.000
 5201.00    0.85279   0.80498    0.000
 5202.00    0.83544   0.79858    0.000
 5203.00    0.81284   0.79087    0.000
 5204.00    0.79166   0.78246    0.000
 5205.00    0.77742   0.77428    0.000
 5206.00    0.77140   0.76826    0.000
 5207.00    0.77280   0.76647    0.000
 5208.00    0.78015   0.76897    0.000
 5209.00    0.79152   0.77417    0.000
 5210.00    0.80453   0.78164    0.000
 5211.00    0.81642   0.79056   24.917
 5212.00    0.82426   0.79936   24.855
 5213.00    0.82651   0.80735   24.886
 5214.00    0.82380   0.81393   25.038
 5215.00    0.81871   0.81870   25.202
 5216.00    0.81521   0.82189   25.130
 5217.00    0.81602   0.82472   24.821
 5218.00    0.82131   0.82772   24.604
 5219.00    0.82849   0.82988   24.664
 5220.00    0.83300   0.82972   24.902
 5221.00    0.83223   0.82650   25.169
 5222.00    0.82675   0.82039   25.389
 5223.00    0.81799   0.81237   25.626
 5224.00    0.80737   0.80437   26.045
 5225.00    0.79768   0.79774   26.584
 5226.00    0.79296   0.79315   26.893
 5227.00    0.79579   0.79146   26.850
 5228.00    0.80581   0.79317   26.717
 5229.00    0.81872   0.79816   26.667
 5230.00    0.82754   0.80418   26.648
 5231.00    0.82898   0.80918   26.604
 5232.00    0.82511   0.81350   26.537
 5233.00    0.82002   0.81702   26.467
 5234.00    0.81787   0.82020   26.399
 5235.00    0.82068   0.82432   26.313
 5236.00    0.82767   0.82946   26.179
 5237.00    0.83586   0.83504   26.011
 5238.00    0.84133   0.83986   25.871
 5239.00    0.84267   0.84322   25.792
 5240.00    0.84128   0.84560   25.771
 5241.00    0.83884   0.84702   25.807
 5242.00    0.83629   0.84660   25.906
 5243.00    0.83377   0.84393   26.020
 5244.00    0.83070   0.84034   26.076
 5245.00    0.82596   0.83663   26.107
 5246.00    0.81875   0.83178   26.222
 5247.00    0.81060   0.82565   26.376
 5248.00    0.80493   0.82044   26.396
 5249.00    0.80384   0.81793   26.255
 5250.00    0.80729   0.81685   26.069
 5251.00    0.81342   0.81598   25.851
 5252.00    0.81879   0.81717   25.549
 5253.00    0.81873   0.82100   25.322
 5254.00    0.81033   0.82552   25.412
 5255.00    0.79944   0.82907   25.715
 5256.00    0.79697   0.83144   25.842
 5257.00    0.80516   0.83304   25.625
 5258.00    0.81732   0.83233   25.209
 5259.00    0.82599   0.82756   24.860
 5260.00    0.82636   0.81874   24.798
 5261.00    0.81932   0.80689   25.000
 5262.00    0.80946   0.79359   25.245
 5263.00    0.79915   0.78091   25.322
 5264.00    0.78848   0.76969   25.163
 5265.00    0.77831   0.75959   24.977
 5266.00    0.77015   0.75176   25.045
 5267.00    0.76442   0.74859   25.266
 5268.00    0.76083   0.75021   25.317
 5269.00    0.75987   0.75331   25.196
 5270.00    0.76269   0.75631   25.117
 5271.00    0.77034   0.76204   25.076
 5272.00    0.78272   0.77223   24.942
 5273.00    0.79708   0.78402   24.790
 5274.00    0.80953   0.79444   24.791
 5275.00    0.81838   0.80330   24.930
 5276.00    0.82392   0.81082   25.057
 5277.00    0.82688   0.81755   25.091
 5278.00    0.82737   0.82336   25.065
 5279.00    0.82374   0.82644   25.121
 5280.00    0.81514   0.82680   25.387
 5281.00    0.80619   0.82672   25.758
 5282.00    0.80313   0.82793   25.991
 5283.00    0.80648   0.83047   25.952
 5284.00    0.81319   0.83390   25.692
 5285.00    0.82168   0.83891   25.443
 5286.00    0.83117   0.84608   25.416
 5287.00    0.83942   0.85325   25.548
 5288.00    0.84428   0.85799   25.668
 5289.00    0.84635   0.86012   25.785
 5290.00    0.84687   0.86075   25.958
 5291.00    0.84432   0.85992   26.035
 5292.00    0.83703   0.85637   25.873
 5293.00    0.82733   0.84977   25.689
 5294.00    0.81954   0.84174   25.737
 5295.00    0.81645   0.83453   25.861
 5296.00    0.81787   0.82835   25.812
 5297.00    0.81974   0.82250   25.725
 5298.00    0.81841   0.81811   25.827
 5299.00    0.81597   0.81767   26.001
 5300.00    0.81677   0.82180   26.018
 5301.00    0.82237   0.82784   25.892
 5302.00    0.83167   0.83355   25.719
 5303.00    0.84181   0.83937   25.459
 5304.00    0.85033   0.84589   25.072
 5305.00    0.85724   0.85222   24.678
 5306.00    0.86246   0.85682   24.360
 5307.00    0.86299   0.85929   23.981
 5308.00    0.85602   0.86049   23.469
 5309.00    0.84258   0.86129   23.063
 5310.00    0.82751   0.86158   22.919
 5311.00    0.81837   0.86059   22.800
 5312.00    0.81949   0.85806   22.499
 5313.00    0.82667   0.85481   22.239
 5314.00    0.83441   0.85169   22.199
 5315.00    0.84304   0.84898   22.124
 5316.00    0.85295   0.84621   21.814
 5317.00    0.85909   0.84328   21.563
 5318.00    0.85700   0.84102   21.647
 5319.00    0.84844   0.83905   21.926
 5320.00    0.83764   0.83568   22.148
 5321.00    0.82747   0.83092   22.265
 5322.00    0.81900   0.82547   22.362
 5323.00    0.81138   0.81833   22.547
 5324.00    0.80270   0.80868   22.853
 5325.00    0.79102   0.79897   23.159
 5326.00    0.77757   0.79282   23.341
 5327.00    0.76848   0.78979   23.398
 5328.00    0.76809   0.78751   23.414
 5329.00    0.77414   0.78748   23.492
 5330.00    0.78265   0.79344   23.675
 5331.00    0.79192   0.80372   23.891
 5332.00    0.80228   0.81322   24.011
 5333.00    0.81518   0.82006   23.926
 5334.00    0.82879   0.82543   23.700
 5335.00    0.83635   0.82962   23.607
 5336.00    0.83561   0.83085   23.754
 5337.00    0.83399   0.82907   23.887
 5338.00    0.83750   0.82670   23.819
 5339.00    0.84388   0.82508   23.694
 5340.00    0.84847   0.82336   23.668
 5341.00    0.84859   0.82146   23.726
 5342.00    0.84525   0.82130   23.893
 5343.00    0.84306   0.82335   24.282
 5344.00    0.84351   0.82532   24.551
 5345.00    0.84229   0.82609   23.907
 5346.00    0.83697   0.82650   23.310
 5347.00    0.83094   0.82815   25.407
 5348.00    0.82837   0.83127   28.435
 5349.00    0.83108   0.83444   22.229
 5350.00    0.83793   0.83815   14.384
 5351.00    0.84532   0.84398   11.399
 5352.00    0.85090   0.85106   11.270
 5353.00    0.85525   0.85741   11.843
 5354.00    0.85946   0.86243   11.799
 5355.00    0.86371   0.86689   11.533
 5356.00    0.86595   0.87022   11.520
 5357.00    0.86253   0.87112   11.584
 5358.00    0.85412   0.86965   11.638
 5359.00    0.84693   0.86664   11.892
 5360.00    0.84536   0.86245   12.088
 5361.00    0.84867   0.85696   11.524
 5362.00    0.85227   0.85043   11.041
 5363.00    0.84995   0.84382   12.789
 5364.00    0.84032   0.83793   19.377
 5365.00    0.82803   0.83218   29.059
 5366.00    0.81698   0.82596   28.200
 5367.00    0.80786   0.82003   24.881
 5368.00    0.80069   0.81545   25.429
 5369.00    0.79595   0.81304   26.813
 5370.00    0.79498   0.81251   26.531
 5371.00    0.79951   0.81354   25.801
 5372.00    0.80953   0.81707   25.587
 5373.00    0.82283   0.82370   25.452
 5374.00    0.83633   0.83183   25.070
 5375.00    0.84714   0.83892   24.620
 5376.00    0.85425   0.84398   24.353
 5377.00    0.85849   0.84701   24.393
 5378.00    0.86046   0.84844   24.563
 5379.00    0.85994   0.84873   24.498
 5380.00    0.85660   0.84785   24.285
 5381.00    0.85066   0.84626   24.382
 5382.00    0.84417   0.84485   24.744
 5383.00    0.84018   0.84372   24.831
 5384.00    0.83897   0.84254   24.595
 5385.00    0.83812   0.84147   24.524
 5386.00    0.83639   0.84016   24.760
 5387.00    0.83437   0.83784   25.019
 5388.00    0.83310   0.83466   25.086
 5389.00    0.83295   0.83080   24.982
 5390.00    0.83203   0.82635   24.934
 5391.00    0.82741   0.82182   25.186
 5392.00    0.81931   0.81747   25.572
 5393.00    0.81073   0.81294   25.666
 5394.00    0.80303   0.80902   25.639
 5395.00    0.79659   0.80683   26.033
 5396.00    0.79496   0.80567   26.591
 5397.00    0.80248   0.80416   26.456
 5398.00    0.81593   0.80330   25.755
 5399.00    0.82618   0.80447   25.355
 5400.00    0.82702   0.80506   25.491
 5401.00    0.81769   0.80270   25.835
 5402.00    0.80309   0.79901   26.057
 5403.00    0.79067   0.79588   26.015
 5404.00    0.78316   0.79247   25.884
 5405.00    0.77906   0.78819   25.959
 5406.00    0.77713   0.78469   26.223
 5407.00    0.77730   0.78430   26.435
 5408.00    0.78058   0.78741   26.516
 5409.00    0.78775   0.79189   26.540
 5410.00    0.79683   0.79624   26.510
 5411.00    0.80461   0.80154   26.379
 5412.00    0.81065   0.80905   26.195
 5413.00    0.81629   0.81732   26.075
 5414.00    0.82133   0.82414   26.115
 5415.00    0.82487   0.82906   -2.000
 5416.00    0.82801   0.83290   -2.000
 5417.00    0.83313   0.83617   -2.000
 5418.00    0.84180   0.83822   -2.000
 5419.00    0.85284   0.83844   -2.000
 5420.00    0.85984   0.83700   -2.000
 5421.00    0.85604   0.83491   -2.000
 5422.00    0.84292   0.83364   -2.000
 5423.00    0.82760   0.83310   -2.000
 5424.00    0.81639   0.83137   -2.000
 5425.00    0.81268   0.82791   -2.000
 5426.00    0.81548   0.82465   -2.000
 5427.00    0.82108   0.82254   -2.000
 5428.00    0.82599   0.82002   -2.000
 5429.00    0.82760   0.81527   -2.000
 5430.00    0.82461   0.80952   24.757
 5431.00    0.81743   0.80641   24.845
 5432.00    0.80850   0.80627   24.881
 5433.00    0.80040   0.80665   25.030
 5434.00    0.79341   0.80801   25.290
 5435.00    0.78805   0.81200   25.521
 5436.00    0.78858   0.81826   25.539
 5437.00    0.79887   0.82546   25.288
 5438.00    0.81676   0.83246   25.017
 5439.00    0.83577   0.83858   24.990
 5440.00    0.84832   0.84265   25.165
 5441.00    0.84919   0.84369   25.342
 5442.00    0.83888   0.84142   25.383
 5443.00    0.82142   0.83668   25.375
 5444.00    0.80128   0.83120   25.717
 5445.00    0.78302   0.82596   26.375
 5446.00    0.77116   0.82100   26.069
 5447.00    0.76866   0.81685   24.816
 5448.00    0.77518   0.81513   25.760
 5449.00    0.78732   0.81607   29.706
 5450.00    0.79925   0.81703   26.281
 5451.00    0.80587   0.81621   16.840
 5452.00    0.80590   0.81433   12.390
 5453.00    0.80147   0.81306   11.758
 5454.00    0.79717   0.81250   12.561
 5455.00    0.79702   0.81167   12.856
 5456.00    0.80182   0.81091   12.459
 5457.00    0.80942   0.81212   12.168
 5458.00    0.81558   0.81495   12.279
 5459.00    0.81674   0.81684   12.551
 5460.00    0.81241   0.81726   12.261
 5461.00    0.80489   0.81756   11.675
 5462.00    0.79853   0.81794   12.714
 5463.00    0.79720   0.81765   17.917
 5464.00    0.80206   0.81754   28.122
 5465.00    0.81133   0.81883   30.560
 5466.00    0.82060   0.82015   26.308
 5467.00    0.82669   0.82026   25.576
 5468.00    0.83027   0.82004   26.770
 5469.00    0.83202   0.81935   26.803
 5470.00    0.83004   0.81698   26.221
 5471.00    0.82355   0.81346   26.324
 5472.00    0.81529   0.80961   26.750
 5473.00    0.80770   0.80486   26.863
 5474.00    0.80044   0.80004   26.785
 5475.00    0.79321   0.79740   26.729
 5476.00    0.78762   0.79615   26.521
 5477.00    0.78536   0.79439   26.128
 5478.00    0.78695   0.79409   25.914
 5479.00    0.79157   0.79721   26.030
 5480.00    0.79737   0.80134   26.136
 5481.00    0.80273   0.80434   26.018
 5482.00    0.80723   0.80708   25.928
 5483.00    0.81182   0.81052   26.012
 5484.00    0.81828   0.81372   26.041
 5485.00    0.82542   0.81620   25.904
 5486.00    0.82818   0.81801   25.831
 5487.00    0.82523   0.81869   25.963
 5488.00    0.82220   0.81877   26.149
 5489.00    0.82423   0.81927   26.230
 5490.00    0.83181   0.81987   26.197
 5491.00    0.84161   0.82009   26.082
 5492.00    0.84792   0.82055   25.916
 5493.00    0.84677   0.82067   25.811
 5494.00    0.83814   0.81980   25.948
 5495.00    0.82597   0.81939   26.292
 5496.00    0.81686   0.81980   26.512
 5497.00    0.81429   0.81896   26.438
 5498.00    0.81646   0.81673   26.259
 5499.00    0.81999   0.81537   26.179
 5500.00    0.82206   0.81500   26.240
 5501.00    0.82239   0.81341   26.238
 5502.00    0.82316   0.81047   25.869
 5503.00    0.82500   0.80804   25.474
 5504.00    0.82591   0.80709   25.861
 5505.00    0.82455   0.80662   26.513
 5506.00    0.82148   0.80543   25.683
 5507.00    0.81817   0.80393   24.844
 5508.00    0.81637   0.80330   27.660
 5509.00    0.81732   0.80310   30.715
 5510.00    0.82097   0.80227   22.103
 5511.00    0.82474   0.80146   14.050
 5512.00    0.82446   0.80139   11.494
 5513.00    0.81997   0.80215   11.746
 5514.00    0.81606   0.80429   12.512
 5515.00    0.81791   0.80804   12.423
 5516.00    0.82851   0.81255   11.938
 5517.00    0.84574   0.81699   11.686
 5518.00    0.86298   0.82121   11.748
 5519.00    0.87472   0.82499   11.679
 5520.00    0.87824   0.82724   11.028
 5521.00    0.87267   0.82746   10.839
 5522.00    0.85954   0.82620   13.174
 5523.00    0.84506   0.82386   20.438
 5524.00    0.83695   0.82033   27.799
 5525.00    0.83268   0.81616   25.741
 5526.00    0.82315   0.81273   -2.000
 5527.00    0.81335   0.81046   -2.000
 5528.00    0.81636   0.80873   -2.000
 5529.00    0.81928   0.80790   -2.000
 5530.00    0.79946   0.80903   -2.000
 5531.00    0.79434   0.81104   -2.000
 5532.00    0.86762   0.81246   -2.000
 5533.00    0.97067   0.81381   -2.000
 5534.00    0.97589   0.81555   -2.000
 5535.00    0.85674   0.81701   -2.000
 5536.00    0.69573   0.81849   -2.000
 5537.00    0.58456   0.82079   -2.000
 5538.00    0.57783   0.82300   -2.000
 5539.00    0.64685   0.82423   -2.000
 5540.00    0.71450   0.82517   -2.000
 5541.00    0.76037   0.82631   -2.000
 5542.00    0.81071   0.82686   -2.000
 5543.00    0.86022   0.82650   -2.000
 5544.00    0.87990   0.82644   -2.000
 5545.00    0.87289   0.82749   -2.000
 5546.00    0.86641   0.82883   -2.000
 5547.00    0.86888   0.82992   -2.000
 5548.00    0.87104   0.83135   -2.000
 5549.00    0.86713   0.83280   -2.000
 5550.00    0.85821   0.83311   11.106
 5551.00    0.84956   0.83240   11.297
 5552.00    0.84650   0.83146   14.562
 5553.00    0.84756   0.83015   23.562
 5554.00    0.84791   0.82812   31.094
 5555.00    0.84803   0.82611   27.243
 5556.00    0.85056   0.82481   24.875
 5557.00    0.85195   0.82370   25.891
 5558.00    0.84684   0.82210   26.910
 5559.00    0.83803   0.82025   26.793
 5560.00    0.83229   0.81861   26.719
 5561.00    0.83064   0.81687   26.898
 5562.00    0.83002   0.81453   26.755
 5563.00    0.82851   0.81188   26.187
 5564.00    0.82567   0.80985   25.535
 5565.00    0.82150   0.80834   25.146
 5566.00    0.81645   0.80659   25.205
 5567.00    0.81166   0.80547   25.584
 5568.00    0.80826   0.80556   25.988
 5569.00    0.80654   0.80544   26.205
 5570.00    0.80658   0.80517   26.204
 5571.00    0.80932   0.80646   26.171
 5572.00    0.81516   0.80838   26.294
 5573.00    0.82184   0.80915   26.480
 5574.00    0.82658   0.81036   26.500
 5575.00    0.82905   0.81285   26.268
 5576.00    0.83079   0.81478   25.887
 5577.00    0.83372   0.81570   25.614
 5578.00    0.83873   0.81638   25.580
 5579.00    0.84422   0.81630   25.518
 5580.00    0.84771   0.81515   25.230
 5581.00    0.84799   0.81299   25.120
 5582.00    0.84493   0.80922   25.351
 5583.00    0.83891   0.80390   24.969
 5584.00    0.83086   0.79808   23.988
 5585.00    0.82219   0.79221   25.081
 5586.00    0.81422   0.78642   29.054
 5587.00    0.80749   0.78155   26.221
 5588.00    0.80179   0.77851   17.071
 5589.00    0.79643   0.77757   12.580
 5590.00    0.79145   0.77833   11.910
 5591.00    0.78870   0.78042   12.681
 5592.00    0.78928   0.78375   12.945
 5593.00    0.79115   0.78758   12.636
 5594.00    0.79262   0.79023   12.526
 5595.00    0.79544   0.79145   12.574
 5596.00    0.80087   0.79274   12.506
 5597.00    0.80600   0.79374   12.407
 5598.00    0.80801   0.79269   12.403
 5599.00    0.80804   0.79083   12.370
 5600.00    0.80914   0.79082   12.258
 5601.00    0.81388   0.79280   12.307
 5602.00    0.82240   0.79543   12.451
 5603.00    0.83130   0.79910   11.965
 5604.00    0.83728   0.80453   11.204
 5605.00    0.84008   0.81102   12.147
 5606.00    0.84083   0.81685   17.324
 5607.00    0.84053   0.82119   27.915
 5608.00    0.83990   0.82399   30.734
 5609.00    0.83918   0.82525   26.371
 5610.00    0.83728   0.82462   25.602
 5611.00    0.83160   0.82145   26.913
 5612.00    0.82167   0.81629   27.225
 5613.00    0.81132   0.81134   26.763
 5614.00    0.80473   0.80721   26.638
 5615.00    0.80347   0.80254   26.643
 5616.00    0.80642   0.79811   26.392
 5617.00    0.81022   0.79652   26.062
 5618.00    0.81214   0.79734   25.897
 5619.00    0.81162   0.79804   25.902
 5620.00    0.80816   0.79792   26.035
 5621.00    0.80035   0.79777   26.281
 5622.00    0.78923   0.79830   26.399
 5623.00    0.77965   0.79916   25.897
 5624.00    0.77565   0.79933   24.871
 5625.00    0.77772   0.79944   24.124
 5626.00    0.78387   0.80138   23.972
 5627.00    0.79097   0.80482   23.989
 5628.00    0.79845   0.80791   23.930
 5629.00    0.80912   0.81040   24.090
 5630.00    0.82236   0.81274   24.542
 5631.00    0.83168   0.81425   24.821
 5632.00    0.83222   0.81431   24.769
 5633.00    0.82450   0.81302   24.882
 5634.00    0.81256   0.81075   25.373
 5635.00    0.80235   0.80824   25.807
 5636.00    0.79855   0.80586   25.809
 5637.00    0.80276   0.80328   25.474
 5638.00    0.81238   0.80083   25.041
 5639.00    0.82122   0.79967   24.679
 5640.00    0.82502   0.79955   24.428
 5641.00    0.82373   0.79944   24.212
 5642.00    0.82036   0.79968   23.952
 5643.00    0.81936   0.80100   23.619
 5644.00    0.82222   0.80280   23.241
 5645.00    0.82641   0.80434   22.898
 5646.00    0.82886   0.80576   22.664
 5647.00    0.82801   0.80718   22.582
 5648.00    0.82560   0.80856   22.611
 5649.00    0.82580   0.80966   22.645
 5650.00    0.82887   0.80988   22.713
 5651.00    0.83034   0.80887   22.973
 5652.00    0.82706   0.80737   23.388
 5653.00    0.81917   0.80584   23.705
 5654.00    0.80837   0.80265   23.936
 5655.00    0.79699   0.79727   24.390
 5656.00    0.78736   0.79282   25.000
 5657.00    0.78136   0.79065   25.257
 5658.00    0.77969   0.78782   25.127
 5659.00    0.78183   0.78430   25.125
 5660.00    0.78653   0.78387   25.308
 5661.00    0.79219   0.78637   25.243
 5662.00    0.79732   0.78832   24.974
 5663.00    0.80068   0.78957   25.009
 5664.00    0.80120   0.79196   25.369
 5665.00    0.79861   0.79515   25.574
 5666.00    0.79517   0.79779   25.526
 5667.00    0.79490   0.79965   25.560
 5668.00    0.79983   0.80145   25.684
 5669.00    0.80888   0.80401   25.603
 5670.00    0.81790   0.80715   25.421
 5671.00    0.82188   0.80977   25.526
 5672.00    0.82053   0.81183   25.818
 5673.00    0.81764   0.81432   25.829
 5674.00    0.81533   0.81667   25.640
 5675.00    0.81341   0.81728   25.732
 5676.00    0.81163   0.81653   25.987
 5677.00    0.81048   0.81592   25.880
 5678.00    0.81148   0.81477   25.581
 5679.00    0.81572   0.81184   25.714
 5680.00    0.82030   0.80849   26.233
 5681.00    0.82041   0.80619   26.563
 5682.00    0.81559   0.80397   26.589
 5683.00    0.80911   0.80115   26.641
 5684.00    0.80309   0.79901   26.774
 5685.00    0.79836   0.79843   26.812
 5686.00    0.79639   0.79868   26.818
 5687.00    0.79872   0.79931   26.977
 5688.00    0.80506   0.80061   27.142
 5689.00    0.81306   0.80302   27.020
 5690.00    0.81889   0.80595   26.777
 5691.00    0.81934   0.80842   26.782
 5692.00    0.81554   0.81023   26.957
 5693.00    0.81145   0.81166   26.959
 5694.00    0.80973   0.81193   26.743
 5695.00    0.81104   0.81046   26.516
 5696.00    0.81429   0.80838   26.428
 5697.00    0.81733   0.80609   26.492
 5698.00    0.81813   0.80276   26.539
 5699.00    0.81540   0.79896   26.387
 5700.00    0.80919   0.79615   26.154
 5701.00    0.80105   0.79380   26.069
 5702.00    0.79393   0.79077   26.122
 5703.00    0.79012   0.78775   26.177
 5704.00    0.78812   0.78546   26.234
 5705.00    0.78485   0.78289   26.323
 5706.00    0.77977   0.77969   26.302
 5707.00    0.77469   0.77732   26.058
 5708.00    0.77247   0.77595   25.846
 5709.00    0.77476   0.77522   25.944
 5710.00    0.77920   0.77651   26.167
 5711.00    0.78232   0.77985   26.172
 5712.00    0.78415   0.78381   26.013
 5713.00    0.78680   0.78866   25.920
 5714.00    0.79178   0.79463   25.907
 5715.00    0.79917   0.80022   25.874
 5716.00    0.80713   0.80512   25.798
 5717.00    0.81353   0.80968   25.760
 5718.00    0.81798   0.81352   25.922
 5719.00    0.82107   0.81658   26.328
 5720.00    0.82312   0.81899   26.647
 5721.00    0.82392   0.82054   26.516
 5722.00    0.82279   0.82143   26.056
 5723.00    0.81949   0.82145   25.577
 5724.00    0.81536   0.82028   25.190
 5725.00    0.81242   0.81892   24.833
 5726.00    0.81215   0.81796   24.373
 5727.00    0.81469   0.81640   23.827
 5728.00    0.81826   0.81437   23.529
 5729.00    0.82135   0.81367   23.726
 5730.00    0.82483   0.81419   24.248
 5731.00    0.82896   0.81436   24.789
 5732.00    0.83040   0.81440   25.253
 5733.00    0.82639   0.81522   25.669
 5734.00    0.81873   0.81636   26.031
 5735.00    0.81149   0.81692   26.284
 5736.00    0.80800   0.81702   26.325
 5737.00    0.80861   0.81699   26.143
 5738.00    0.80932   0.81692   25.909
 5739.00    0.80756   0.81669   25.787
 5740.00    0.80690   0.81619    0.000
 5741.00    0.81161   0.81600    0.000
 5742.00    0.82150   0.81627    0.000
 5743.00    0.83227   0.81641    0.000
 5744.00    0.83688   0.81594    0.000
 5745.00    0.83334   0.81530    0.000
 5746.00    0.82948   0.81498    0.000
 5747.00    0.83139   0.81437    0.000
 5748.00    0.83495   0.81281    0.000
 5749.00    0.83394   0.81085    0.000
 5750.00    0.82672   0.80931    0.000
 5751.00    0.81573   0.80806    0.000
 5752.00    0.80634   0.80712    0.000
 5753.00    0.80299   0.80667    0.000
 5754.00    0.80664   0.80660    0.000
 5755.00    0.81606   0.80712    0.000
 5756.00    0.82877   0.80804    0.000
 5757.00    0.84067   0.80863    0.000
 5758.00    0.84644   0.80855    0.000
 5759.00    0.84360   0.80795    0.000
 5760.00    0.83476   0.80721    0.000
 5761.00    0.82429   0.80711    0.000
 5762.00    0.81597   0.80751    0.000
 5763.00    0.81207   0.80822    0.000
 5764.00    0.81300   0.80999    0.000
 5765.00    0.81827   0.81276    0.000
 5766.00    0.82694   0.81511    0.000
 5767.00    0.83641   0.81674    0.000
 5768.00    0.84248   0.81796    0.000
 5769.00    0.84283   0.81833    0.000
 5770.00    0.83849   0.81790    0.000
 5771.00    0.83114   0.81693    0.000
 5772.00    0.82160   0.81549    0.000
 5773.00    0.80998   0.81386    0.000
 5774.00    0.79607   0.81206    0.000
 5775.00    0.78107   0.80970    0.000
 5776.00    0.76786   0.80686    0.000
 5777.00    0.75854   0.80335    0.000
 5778.00    0.75349   0.79877    0.000
 5779.00    0.75302   0.79407    0.000
 5780.00    0.75741   0.78990    0.000
 5781.00    0.76365   0.78560    0.000
 5782.00    0.76584   0.78174    0.000
 5783.00    0.76375   0.78024    0.000
 5784.00    0.76429   0.78077    0.000
 5785.00    0.77158   0.78181    0.000
 5786.00    0.78367   0.78397    0.000
 5787.00    0.79643   0.78744    0.000
 5788.00    0.80609   0.79105    0.000
 5789.00    0.81235   0.79460    0.000
 5790.00    0.81806   0.79819    0.000
 5791.00    0.82339   0.80111    0.000
 5792.00    0.82503   0.80374    0.000
 5793.00    0.82141   0.80656    0.000
 5794.00    0.81439   0.80846    0.000
 5795.00    0.80814   0.80982    0.000
 5796.00    0.80748   0.81191    0.000
 5797.00    0.81390   0.81375    0.000
 5798.00    0.82512   0.81458    0.000
 5799.00    0.83824   0.81578    0.000
 5800.00    0.85068   0.81743    0.000
 5801.00    0.85936   0.81796    0.000
 5802.00    0.86130   0.81773    0.000
 5803.00    0.85622   0.81770    0.000
 5804.00    0.84677   0.81730    0.000
 5805.00    0.83671   0.81629    0.000
 5806.00    0.82973   0.81559    0.000
 5807.00    0.82781   0.81550    0.000
 5808.00    0.83049   0.81548    0.000
 5809.00    0.83413   0.81533    0.000
 5810.00    0.83383   0.81520    0.000
 5811.00    0.82895   0.81516    0.000
 5812.00    0.82316   0.81470    0.000
 5813.00    0.82064   0.81388    0.000
 5814.00    0.82360   0.81355    0.000
 5815.00    0.82879   0.81387    0.000
 5816.00    0.83025   0.81421    0.000
 5817.00    0.82789   0.81493    0.000
 5818.00    0.82630   0.81656    0.000
 5819.00    0.82696   0.81841    0.000
 5820.00    0.82809   0.81973    0.000
 5821.00    0.82892   0.82087    0.000
 5822.00    0.83017   0.82206    0.000
 5823.00    0.83308   0.82270    0.000
 5824.00    0.83801   0.82287    0.000
 5825.00    0.84216   0.82311    0.000
 5826.00    0.84139   0.82347    0.000
 5827.00    0.83505   0.82350    0.000
 5828.00    0.82636   0.82322    0.000
 5829.00    0.82101   0.82301    0.000
 5830.00    0.82390   0.82279    0.000
 5831.00    0.83348   0.82203    0.000
 5832.00    0.84341   0.82093    0.000
 5833.00    0.84799   0.82040    0.000
 5834.00    0.84440   0.81999    0.000
 5835.00    0.83482   0.81912    0.000
 5836.00    0.82468   0.81875    0.000
 5837.00    0.81879   0.81939    0.000
 5838.00    0.81945   0.81993    0.000
 5839.00    0.82450   0.82012    0.000
 5840.00    0.82938   0.82066    0.000
 5841.00    0.83116   0.82110    0.000
 5842.00    0.82943   0.82074   -2.000
 5843.00    0.82651   0.81973   -2.000
 5844.00    0.82325   0.81821   -2.000
 5845.00    0.81311   0.81614   -2.000
 5846.00    0.79130   0.81366   -2.000
 5847.00    0.76935   0.81082   -2.000
 5848.00    0.76287   0.80778   -2.000
 5849.00    0.77100   0.80466   -2.000
 5850.00    0.78291   0.80121   -2.000
 5851.00    0.79134   0.79769   -2.000
 5852.00    0.79418   0.79457   -2.000
 5853.00    0.79382   0.79131   -2.000
 5854.00    0.79401   0.78776   -2.000
 5855.00    0.79591   0.78525   -2.000
 5856.00    0.79935   0.78404   -2.000
 5857.00    0.80516   0.78316   -2.000
 5858.00    0.81348   0.78292   -2.000
 5859.00    0.82160   0.78387   -2.000
 5860.00    0.82659   0.78554   -2.000
 5861.00    0.82855   0.78754   -2.000
 5862.00    0.82930   0.78974    0.000
 5863.00    0.83023   0.79145    0.000
 5864.00    0.83182   0.79302    0.000
 5865.00    0.83332   0.79502    0.000
 5866.00    0.83380   0.79663    0.000
 5867.00    0.83331   0.79756    0.000
 5868.00    0.83271   0.79855    0.000
 5869.00    0.83336   0.79939    0.000
 5870.00    0.83679   0.79938    0.000
 5871.00    0.84438   0.79865    0.000
 5872.00    0.85691   0.79738    0.000
 5873.00    0.87398   0.79536    0.000
 5874.00    0.89273   0.79313    0.000
 5875.00    0.90698   0.79117    0.000
 5876.00    0.91018   0.78902    0.000
 5877.00    0.89861   0.78683    0.000
 5878.00    0.87413   0.78533    0.000
 5879.00    0.84574   0.78421    0.000
 5880.00    0.82306   0.78202    0.000
 5881.00    0.81060   0.77897    0.000
 5882.00    0.80806   0.77528    0.000
 5883.00    0.81121   0.76941    0.000
 5884.00    0.81320   0.76092    0.000
 5885.00    0.80627   0.75067    0.000
 5886.00    0.78752   0.73797    0.000
 5887.00    0.76263   0.72347    0.000
 5888.00    0.73933   0.71075    0.000
 5889.00    0.72217   0.69954    0.000
 5890.00    0.71292   0.68887    0.000
 5891.00    0.71113   0.68257    0.000
 5892.00    0.71448   0.68087    0.000
 5893.00    0.71944   0.68033    0.000
 5894.00    0.72371   0.68309    0.000
 5895.00    0.72777   0.69005    0.000
 5896.00    0.73322   0.69698    0.000
 5897.00    0.74139   0.70531    0.000
 5898.00    0.75241   0.71755    0.000
 5899.00    0.76468   0.72952    0.000
 5900.00    0.77583   0.73982    0.000
 5901.00    0.78355   0.75071   23.930
 5902.00    0.78699   0.76052   23.922
 5903.00    0.78742   0.76749   23.875
 5904.00    0.78770   0.77308   23.665
 5905.00    0.79105   0.77777   23.745
 5906.00    0.79702   0.78074   24.203
 5907.00    0.80039   0.78252   24.360
 5908.00    0.79857   0.78392   23.914
 5909.00    0.79471   0.78463   23.459
 5910.00    0.79188   0.78417   23.324
 5911.00    0.79010   0.78312   23.210
 5912.00    0.78858   0.78218   23.059
 5913.00    0.78698   0.78103   23.314
 5914.00    0.78573   0.77982   24.103
 5915.00    0.78594   0.77919   24.886
 5916.00    0.78806   0.77932   25.160
 5917.00    0.79140   0.78005   24.962
 5918.00    0.79479   0.78123   24.603
 5919.00    0.79709   0.78248   24.396
 5920.00    0.79843   0.78381   24.462
 5921.00    0.80003   0.78531   24.689
 5922.00    0.80177   0.78625   24.800
 5923.00    0.80165   0.78669   24.499
 5924.00    0.79894   0.78709   23.970
 5925.00    0.79505   0.78718   23.773
 5926.00    0.79157   0.78677   23.901
 5927.00    0.78931   0.78612   23.751
 5928.00    0.78787   0.78550   23.366
 5929.00    0.78616   0.78509   23.491
 5930.00    0.78534   0.78472   24.083
 5931.00    0.78821   0.78423   24.157
 5932.00    0.79307   0.78433   23.677
 5933.00    0.79353   0.78508   23.661
 5934.00    0.78622   0.78547   23.831
 5935.00    0.77309   0.78559   22.736
 5936.00    0.75888   0.78631   20.989
 5937.00    0.74903   0.78705   20.431
 5938.00    0.74571   0.78684   21.141
 5939.00    0.74760   0.78668   21.781
 5940.00    0.75377   0.78709   22.010
 5941.00    0.76407   0.78691   22.956
 5942.00    0.77633   0.78644   24.754
 5943.00    0.78690   0.78661   25.872
 5944.00    0.79485   0.78680   25.672
 5945.00    0.80194   0.78638   25.322
 5946.00    0.80857   0.78568   25.433
 5947.00    0.81316   0.78513   25.721
 5948.00    0.81404   0.78451   25.897
 5949.00    0.81062   0.78321   25.885
 5950.00    0.80525   0.78175   25.701
 5951.00    0.80188   0.78123   25.410
 5952.00    0.80115   0.78096   25.129
 5953.00    0.80046   0.78010   24.973
 5954.00    0.79762   0.77988   24.961
 5955.00    0.79237   0.78082   25.014
 5956.00    0.78760   0.78175   25.026
 5957.00    0.78736   0.78266   24.916
 5958.00    0.79125   0.78441   24.700
 5959.00    0.79509   0.78652   24.477
 5960.00    0.79550   0.78832   24.325
 5961.00    0.79146   0.79012   24.294
 5962.00    0.78514   0.79169   24.412
 5963.00    0.78058   0.79271   24.670
 5964.00    0.78053   0.79366   24.967
 5965.00    0.78562   0.79455   25.177
 5966.00    0.79416   0.79501   25.364
 5967.00    0.80314   0.79556   25.659
 5968.00    0.81042   0.79641   25.916
 5969.00    0.81476   0.79671   25.882
 5970.00    0.81515   0.79652   25.722
 5971.00    0.81107   0.79615   25.799
 5972.00    0.80342   0.79499   26.077
 5973.00    0.79461   0.79304   26.277
 5974.00    0.78843   0.79096   26.396
 5975.00    0.78823   0.78869   26.589
 5976.00    0.79369   0.78630   26.748
 5977.00    0.80167   0.78432   26.670
 5978.00    0.80866   0.78269   26.513
 5979.00    0.81150   0.78134   26.556
 5980.00    0.80800   0.78034   26.721
 5981.00    0.79810   0.77929   26.746
 5982.00    0.78552   0.77836   26.623
 5983.00    0.77576   0.77808   26.527
 5984.00    0.77250   0.77789   26.569
 5985.00    0.77669   0.77772   26.707
 5986.00    0.78616   0.77868   26.661
 5987.00    0.79697   0.78036   26.229
 5988.00    0.80560   0.78162   25.726
 5989.00    0.81004   0.78310   25.544
 5990.00    0.81078   0.78519   25.576
 5991.00    0.80942   0.78675   25.537
 5992.00    0.80656   0.78745   25.456
 5993.00    0.80279   0.78808   25.498
 5994.00    0.80041   0.78846   25.655
 5995.00    0.80159   0.78799   25.804
 5996.00    0.80589   0.78702   25.835
 5997.00    0.81081   0.78600   25.762
 5998.00    0.81308   0.78495   25.793
 5999.00    0.81074   0.78366   26.084
 6000.00    0.80533   0.78225   26.443
 6001.00    0.80003   0.78114   26.611
 6002.00    0.79719   0.78006   26.678
 6003.00    0.79684   0.77866   26.799
 6004.00    0.79565   0.77751   26.826
 6005.00    0.79057   0.77662   26.708
 6006.00    0.78275   0.77558   26.914
 6007.00    0.77592   0.77497   27.669
 6008.00    0.77391   0.77490   28.082
 6009.00    0.77763   0.77475   27.526
 6010.00    0.78269   0.77478   27.195
 6011.00    0.78489   0.77508   27.804
 6012.00    0.78569   0.77518   27.663
 6013.00    0.78843   0.77478   26.324
 6014.00    0.79415   0.77412   27.271
 6015.00    0.80147   0.77382   30.936
 6016.00    0.80704   0.77337   26.152
 6017.00    0.80808   0.77225   16.532
 6018.00    0.80469   0.77167   12.305
 6019.00    0.79897   0.77204   11.807
 6020.00    0.79398   0.77221   12.648
 6021.00    0.79172   0.77243   12.939
 6022.00    0.79170   0.77389   12.601
 6023.00    0.79309   0.77599   12.414
 6024.00    0.79641   0.77780   12.593
 6025.00    0.80186   0.77999   12.795
 6026.00    0.80801   0.78303   12.289
 6027.00    0.81276   0.78570   11.553
 6028.00    0.81434   0.78774   12.591
 6029.00    0.81220   0.79018   17.871
 6030.00    0.80761   0.79245   28.044
 6031.00    0.80312   0.79386   30.479
 6032.00    0.80170   0.79509   26.609
 6033.00    0.80412   0.79625   26.184
 6034.00    0.80755   0.79685   27.655
 6035.00    0.80862   0.79701   28.024
 6036.00    0.80590   0.79700   27.635
 6037.00    0.80064   0.79681   27.641
 6038.00    0.79665   0.79657   27.838
 6039.00    0.79662   0.79633   27.799
 6040.00    0.80001   0.79620   27.619
 6041.00    0.80503   0.79654   27.513
 6042.00    0.81013   0.79713   27.542
 6043.00    0.81430   0.79768   27.631
 6044.00    0.81723   0.79862   27.615
 6045.00    0.81851   0.79961   27.435
 6046.00    0.81744   0.80000   27.218
 6047.00    0.81390   0.80027   27.111
 6048.00    0.80882   0.80038   27.171
 6049.00    0.80406   0.79972   27.316
 6050.00    0.80179   0.79852   27.318
 6051.00    0.80247   0.79729   27.027
 6052.00    0.80395   0.79581   26.505
 6053.00    0.80346   0.79400   26.085
 6054.00    0.79915   0.79244   26.215
 6055.00    0.79319   0.79132   26.795
 6056.00    0.79166   0.79034   27.009
 6057.00    0.79695   0.78956   26.522
 6058.00    0.80509   0.78917   25.955
 6059.00    0.81054   0.78863   25.774
 6060.00    0.80921   0.78794   25.956
 6061.00    0.80143   0.78744   26.268
 6062.00    0.79200   0.78665   26.427
 6063.00    0.78493   0.78594   26.360
 6064.00    0.78141   0.78630   26.257
 6065.00    0.78118   0.78725   26.217
 6066.00    0.78335   0.78845   26.159
 6067.00    0.78681   0.79088   26.032
 6068.00    0.79049   0.79397   25.877
 6069.00    0.79352   0.79643   25.737
 6070.00    0.79539   0.79871   25.638
 6071.00    0.79622   0.80068   25.644
 6072.00    0.79686   0.80140   25.847
 6073.00    0.79851   0.80104   26.245
 6074.00    0.80204   0.80000   26.700
 6075.00    0.80585   0.79801   26.979
 6076.00    0.80615   0.79517   26.890
 6077.00    0.80045   0.79237   26.660
 6078.00    0.78899   0.78959   26.792
 6079.00    0.77513   0.78638   27.293
 6080.00    0.76397   0.78385   27.641
 6081.00    0.75767   0.78239   27.628
 6082.00    0.75495   0.78080   27.511
 6083.00    0.75436   0.77952   27.389
 6084.00    0.75536   0.77931   27.148
 6085.00    0.75834   0.77923   26.855
 6086.00    0.76385   0.77885   26.730
 6087.00    0.77053   0.77863   26.784
 6088.00    0.77559   0.77872   26.821
 6089.00    0.77788   0.77894   26.744
 6090.00    0.77830   0.77893   26.591
 6091.00    0.77834   0.77914   26.412
 6092.00    0.77926   0.78022   26.234
 6093.00    0.78091   0.78118   26.079
 6094.00    0.78220   0.78160   25.972
 6095.00    0.78292   0.78241   25.954
 6096.00    0.78369   0.78268   26.058
 6097.00    0.78450   0.78160   26.227
 6098.00    0.78446   0.78029   26.361
 6099.00    0.78207   0.77839   26.474
 6100.00    0.77635   0.77546   26.657
 6101.00    0.76891   0.77329   26.890
 6102.00    0.76313   0.77199   27.064
 6103.00    0.76105   0.77067   27.145
 6104.00    0.76297   0.77090   27.177
 6105.00    0.76821   0.77270   27.199
 6106.00    0.77529   0.77442   27.201
 6107.00    0.78215   0.77668   27.088
 6108.00    0.78665   0.77935   26.782
 6109.00    0.78749   0.78140   26.434
 6110.00    0.78453   0.78325   26.283
 6111.00    0.77912   0.78463   26.367
 6112.00    0.77352   0.78517   26.533
 6113.00    0.76992   0.78526   26.547
 6114.00    0.77010   0.78472   26.272
 6115.00    0.77533   0.78347   25.930
 6116.00    0.78483   0.78126   25.827
 6117.00    0.79347   0.77826   25.884
 6118.00    0.79549   0.77540   25.868
 6119.00    0.79164   0.77213   25.908
 6120.00    0.78634   0.76861   26.261
 6121.00    0.78122   0.76671   26.797
 6122.00    0.77597   0.76558   27.145
 6123.00    0.77135   0.76461   27.159
 6124.00    0.76871   0.76560   26.932
 6125.00    0.76858   0.76742   26.623
 6126.00    0.77093   0.76864   26.384
 6127.00    0.77586   0.77059   26.322
 6128.00    0.78258   0.77258   26.479
 6129.00    0.78781   0.77314   26.805
 6130.00    0.78774   0.77297   27.181
 6131.00    0.78115   0.77185   27.469
 6132.00    0.76968   0.76919   27.626
 6133.00    0.75735   0.76571   27.852
 6134.00    0.74863   0.76170   28.279
 6135.00    0.74572   0.75755   28.539
 6136.00    0.74807   0.75472   28.265
 6137.00    0.75239   0.75332   27.831
 6138.00    0.75558   0.75296   27.721
 6139.00    0.75826   0.75461   27.775
 6140.00    0.76228   0.75800   27.639
 6141.00    0.76728   0.76161   27.373
 6142.00    0.77136   0.76512   27.198
 6143.00    0.77228   0.76875   27.159
 6144.00    0.76895   0.77182   27.176
 6145.00    0.76268   0.77346   27.146
 6146.00    0.75640   0.77410   26.993
 6147.00    0.75337   0.77439   26.723
 6148.00    0.75521   0.77394   26.460
 6149.00    0.76012   0.77283   26.446
 6150.00    0.76521   0.77188   26.755
 6151.00    0.76903   0.77087   27.038
 6152.00    0.76998   0.76929   27.033
 6153.00    0.76499   0.76760   27.090
 6154.00    0.75290   0.76552   27.490
 6155.00    0.73751   0.76201   27.789
 6156.00    0.72391   0.75759   27.544
 6157.00    0.71472   0.75272   27.084
 6158.00    0.71002   0.74655   26.905
 6159.00    0.70784   0.73974   27.128
 6160.00    0.70638   0.73377   27.613
 6161.00    0.70580   0.72864   28.041
 6162.00    0.70709   0.72450   28.164
 6163.00    0.71087   0.72207   28.068
 6164.00    0.71656   0.72145   28.021
 6165.00    0.72198   0.72235   28.265
 6166.00    0.72555   0.72382   28.516
 6167.00    0.72777   0.72542   27.834
 6168.00    0.72939   0.72806   26.880
 6169.00    0.73003   0.73101   28.424
 6170.00    0.72917   0.73310   31.490
 6171.00    0.72703   0.73581   26.044
 6172.00    0.72512   0.73957   17.266
 6173.00    0.72615   0.74262   13.448
 6174.00    0.73120   0.74522   13.041
 6175.00    0.73816   0.74857   13.661
 6176.00    0.74447   0.75170   13.661
 6177.00    0.74921   0.75374   13.305
 6178.00    0.75368   0.75571   13.191
 6179.00    0.76117   0.75786   13.153
 6180.00    0.77326   0.75891   12.959
 6181.00    0.78782   0.75904   12.688
 6182.00    0.80109   0.75907   12.474
 6183.00    0.80941   0.75806   12.357
 6184.00    0.81109   0.75579   12.333
 6185.00    0.80713   0.75311   12.388
 6186.00    0.79894   0.74991   12.514
 6187.00    0.78718   0.74646   12.705
 6188.00    0.77279   0.74321   12.945
 6189.00    0.75757   0.74033   13.196
 6190.00    0.74395   0.73893   13.429
 6191.00    0.73453   0.73873   13.625
 6192.00    0.73098   0.73896   13.717
 6193.00    0.73341   0.74068   13.603
 6194.00    0.74030   0.74328   13.410
 6195.00    0.74868   0.74535   13.445
 6196.00    0.75527   0.74741   13.507
 6197.00    0.75726   0.74933   12.959
 6198.00    0.75401   0.75071   12.550
 6199.00    0.74753   0.75191   14.358
 6200.00    0.74125   0.75299   20.659
 6201.00    0.73883   0.75421   29.357
 6202.00    0.74137   0.75567   29.358
 6203.00    0.74681   0.75699   26.461
 6204.00    0.75230   0.75809   26.463
 6205.00    0.75545   0.75873   27.323
 6206.00    0.75468   0.75873   27.423
 6207.00    0.74979   0.75780   27.725
 6208.00    0.74334   0.75567   28.351
 6209.00    0.73979   0.75282   27.707
 6210.00    0.73981   0.74918   25.683
 6211.00    0.73963   0.74463   23.866
 6212.00    0.73647   0.74029   22.890
 6213.00    0.73051   0.73620   22.535
 6214.00    0.72435   0.73224   22.683
 6215.00    0.72136   0.72954   23.413
 6216.00    0.72118   0.72775   24.625
 6217.00    0.71989   0.72643   25.873
 6218.00    0.71577   0.72629   26.647
 6219.00    0.71054   0.72671   26.708
 6220.00    0.70680   0.72723   26.353
 6221.00    0.70667   0.72810   26.178
 6222.00    0.71040   0.72891   26.365
 6223.00    0.71619   0.72954   26.685
 6224.00    0.72109   0.72961   27.025
 6225.00    0.72205   0.72895   27.437
 6226.00    0.71826   0.72819   27.776
 6227.00    0.71118   0.72676   27.758
 6228.00    0.70264   0.72473   27.535
 6229.00    0.69439   0.72367   27.543
 6230.00    0.68838   0.72301   27.675
 6231.00    0.68607   0.72246   27.457
 6232.00    0.68635   0.72346   27.101
 6233.00    0.68646   0.72505   27.253
 6234.00    0.68559   0.72604   27.813
 6235.00    0.68483   0.72724   28.088
 6236.00    0.68473   0.72803   28.085
 6237.00    0.68503   0.72726   28.318
 6238.00    0.68581   0.72586   28.391
 6239.00    0.68775   0.72454   27.401
 6240.00    0.69207   0.72229   25.744
 6241.00    0.69953   0.72000   24.471
 6242.00    0.70803   0.71921   23.866
 6243.00    0.71411   0.71847   23.787
 6244.00    0.71723   0.71788   24.292
 6245.00    0.71899   0.71900   25.503
 6246.00    0.71946   0.72008   26.966
 6247.00    0.71779   0.72044   27.788
 6248.00    0.71496   0.72131   28.024
 6249.00    0.71309   0.72137   28.185
 6250.00    0.71294   0.71997   -2.000
 6251.00    0.71415   0.71839   -2.000
 6252.00    0.71679   0.71623   -2.000
 6253.00    0.72126   0.71333   -2.000
 6254.00    0.72765   0.71107   -2.000
 6255.00    0.73528   0.70945   -2.000
 6256.00    0.74202   0.70827   -2.000
 6257.00    0.74575   0.70866   -2.000
 6258.00    0.74695   0.71039   -2.000
 6259.00    0.74766   0.71246   -2.000
 6260.00    0.74889   0.71578   -2.000
 6261.00    0.75044   0.71990   -2.000
 6262.00    0.75130   0.72317   22.541
 6263.00    0.75043   0.72633   22.651
 6264.00    0.74791   0.72965   23.574
 6265.00    0.74445   0.73175   25.331
 6266.00    0.74052   0.73311   27.236
 6267.00    0.73659   0.73473   28.205
 6268.00    0.73374   0.73594   28.334
 6269.00    0.73333   0.73660   28.487
 6270.00    0.73644   0.73762   28.786
 6271.00    0.74267   0.73860   28.854
 6272.00    0.74882   0.73912   28.518
 6273.00    0.75159   0.73971   27.877
 6274.00    0.75132   0.73999   27.195
 6275.00    0.74969   0.73968   26.700
 6276.00    0.74630   0.73942   26.434
 6277.00    0.73992   0.73886   26.430
 6278.00    0.73066   0.73806   26.878
 6279.00    0.72005   0.73785   27.711
 6280.00    0.71082   0.73785    0.000
 6281.00    0.70518   0.73825    0.000
 6282.00    0.70322   0.73953    0.000
 6283.00    0.70491   0.74108    0.000
 6284.00    0.71247   0.74298    0.000
 6285.00    0.72649   0.74505    0.000
 6286.00    0.74174   0.74673    0.000
 6287.00    0.75152   0.74811    0.000
 6288.00    0.75266   0.74875    0.000
 6289.00    0.74622   0.74868    0.000
 6290.00    0.73727   0.74802    0.000
 6291.00    0.73118   0.74647    0.000
 6292.00    0.73009   0.74469    0.000
 6293.00    0.73403   0.74262    0.000
 6294.00    0.74258   0.74012    0.000
 6295.00    0.75592   0.73796    0.000
 6296.00    0.77541   0.73600    0.000
 6297.00    0.80061   0.73415    0.000
 6298.00    0.82677   0.73296    0.000
 6299.00    0.84786   0.73228    0.000
 6300.00    0.85940   0.73211    0.000
 6301.00    0.85889   0.73278    0.000
 6302.00    0.84602   0.73401    0.000
 6303.00    0.82417   0.73559    0.000
 6304.00    0.80081   0.73776    0.000
 6305.00    0.78200   0.74009    0.000
 6306.00    0.76837   0.74188    0.000
 6307.00    0.75876   0.74342    0.000
 6308.00    0.75326   0.74455    0.000
 6309.00    0.75222   0.74443    0.000
 6310.00    0.75525   0.74360    0.000
 6311.00    0.76007   0.74257    0.000
 6312.00    0.76240   0.74051    0.000
 6313.00    0.76005   0.73811    0.000
 6314.00    0.75540   0.73653    0.000
 6315.00    0.75195   0.73473    0.000
 6316.00    0.75154   0.73313    0.000
 6317.00    0.75303   0.73316    0.000
 6318.00    0.75228   0.73371    0.000
 6319.00    0.74780   0.73457    0.000
 6320.00    0.74342   0.73671    0.000
 6321.00    0.74231   0.73938   24.399
 6322.00    0.74367   0.74188   26.377
 6323.00    0.74621   0.74459   28.031
 6324.00    0.74992   0.74728   28.972
 6325.00    0.75406   0.74925   29.212
 6326.00    0.75640   0.75090   29.197
 6327.00    0.75616   0.75215   29.257
 6328.00    0.75529   0.75250   29.328
 6329.00    0.75585   0.75255   29.210
 6330.00    0.75844   0.75201   28.762
 6331.00    0.76162   0.75072   28.121
 6332.00    0.76243   0.74932   27.661
 6333.00    0.76037   0.74743   27.514
 6334.00    0.75834   0.74544   27.477
 6335.00    0.75736   0.74403   27.416
 6336.00    0.75495   0.74265   27.401
 6337.00    0.75012   0.74171   27.426
 6338.00    0.74519   0.74164   27.306
 6339.00    0.74256   0.74155   26.897
 6340.00    0.74316   0.74158   26.240
 6341.00    0.74650   0.74184   25.681
 6342.00    0.75084   0.74186   25.726
 6343.00    0.75352   0.74206   26.476
 6344.00    0.75179   0.74233   27.505
 6345.00    0.74537   0.74271   28.352
 6346.00    0.73709   0.74371   28.823
 6347.00    0.73051   0.74476   29.011
 6348.00    0.72830   0.74570   29.181
 6349.00    0.72984   0.74666   29.400
 6350.00    0.73149   0.74701   29.489
 6351.00    0.73109   0.74663   29.456
 6352.00    0.72939   0.74548   29.538
 6353.00    0.72874   0.74339   29.750
 6354.00    0.73137   0.74082   29.837
 6355.00    0.73537   0.73770   29.694
 6356.00    0.73561   0.73406   29.475
 6357.00    0.73135   0.73080   29.346
 6358.00    0.72736   0.72790   29.380
 6359.00    0.72856   0.72526   29.467
 6360.00    0.73756   0.72368   29.370
 6361.00    0.75271   0.72327   29.013
 6362.00    0.76861   0.72369   28.558
 6363.00    0.77955   0.72525   28.296
 6364.00    0.78158   0.72783   28.450
 6365.00    0.77529   0.73093   28.682
 6366.00    0.76509   0.73448   28.346
 6367.00    0.75470   0.73816   27.746
 6368.00    0.74610   0.74161   27.787
 6369.00    0.74029   0.74483   28.386
 6370.00    0.73741   0.74765   28.610
 6371.00    0.73655   0.74995   28.308
 6372.00    0.73660   0.75173   28.145
 6373.00    0.73882   0.75290   28.258
 6374.00    0.74557   0.75358   28.279
 6375.00    0.75572   0.75362   28.174
 6376.00    0.76495   0.75302   28.248
 6377.00    0.76921   0.75231   28.628
 6378.00    0.76654   0.75137   29.190
 6379.00    0.75898   0.75018   29.675
 6380.00    0.75133   0.74951   29.837
 6381.00    0.74711   0.74910   29.779
 6382.00    0.74723   0.74869   29.784
 6383.00    0.74898   0.74883   29.781
 6384.00    0.74849   0.74912   29.527
 6385.00    0.74601   0.74912   29.231
 6386.00    0.74477   0.74914   29.280
 6387.00    0.74606   0.74889   29.492
 6388.00    0.74861   0.74793   29.357
 6389.00    0.74946   0.74687   28.849
 6390.00    0.74591   0.74563   28.364
 6391.00    0.73888   0.74386   28.257
 6392.00    0.73191   0.74256   28.645
 6393.00    0.72812   0.74176   29.131
 6394.00    0.72892   0.74071   29.154
 6395.00    0.73292   0.74027   28.893
 6396.00    0.73731   0.74065   28.886
 6397.00    0.74054   0.74062   29.103
 6398.00    0.74258   0.74078   29.182
 6399.00    0.74433   0.74198   29.096
 6400.00    0.74656   0.74278   29.046
 6401.00    0.74824   0.74365   29.086
 6402.00    0.74778   0.74527   29.160
 6403.00    0.74527   0.74619   29.259
 6404.00    0.74203   0.74696   29.399
 6405.00    0.73911   0.74758   29.534
 6406.00    0.73709   0.74710   29.574
 6407.00    0.73605   0.74682   29.436
 6408.00    0.73599   0.74626   29.150
 6409.00    0.73748   0.74498   28.969
 6410.00    0.74091   0.74457   29.050
 6411.00    0.74526   0.74422   29.040
 6412.00    0.74846   0.74349   28.577
 6413.00    0.74812   0.74354   27.999
 6414.00    0.74332   0.74359   27.656
 6415.00    0.73662   0.74319   27.117
 6416.00    0.73100   0.74311   26.007
 6417.00    0.72581   0.74309   24.914
 6418.00    0.72002   0.74295   24.439
 6419.00    0.71658   0.74315   24.444
 6420.00    0.71888   0.74395   24.571
 6421.00    0.72600   0.74518   24.770
 6422.00    0.73472   0.74655   25.076
 6423.00    0.74230   0.74826   25.287
 6424.00    0.74635   0.74995   25.310
 6425.00    0.74454   0.75083   25.565
 6426.00    0.73711   0.75121   26.440
 6427.00    0.72929   0.75115   27.631
 6428.00    0.72663   0.75011   28.504
 6429.00    0.72999   0.74888   28.809
 6430.00    0.73646   0.74788   28.749
 6431.00    0.74115   0.74673   28.749
 6432.00    0.74091   0.74618   29.018
 6433.00    0.73742   0.74601   29.215
 6434.00    0.73346   0.74588   29.069
 6435.00    0.72925   0.74643   28.963
 6436.00    0.72484   0.74689   29.230
 6437.00    0.72235   0.74732   29.542
 6438.00    0.72391   0.74863   29.565
 6439.00    0.72963   0.74987   29.586
 6440.00    0.73825   0.75122   29.792
 6441.00    0.74780   0.75303   29.692
 6442.00    0.75526   0.75427   29.042
 6443.00    0.75655   0.75501   28.500
 6444.00    0.74980   0.75482   28.564
 6445.00    0.73767   0.75343   28.937
 6446.00    0.72446   0.75152   29.148
 6447.00    0.71361   0.74849   29.040
 6448.00    0.70739   0.74527   28.420
 6449.00    0.70671   0.74300   26.941
 6450.00    0.71080   0.74071   25.012
 6451.00    0.71717   0.73951   23.741
 6452.00    0.72321   0.73990   23.553
 6453.00    0.72731   0.74042   23.988
 6454.00    0.72941   0.74155   24.584
 6455.00    0.73104   0.74338   25.374
 6456.00    0.73352   0.74473   26.380
 6457.00    0.73677   0.74549   27.211
 6458.00    0.73904   0.74619   27.557
 6459.00    0.73740   0.74647   27.633
 6460.00    0.73105   0.74579   27.745
 6461.00    0.72292   0.74538   28.000
 6462.00    0.71664   0.74544   28.508
 6463.00    0.71452   0.74513   29.411
 6464.00    0.71749   0.74560   30.019
 6465.00    0.72499   0.74677   28.834
 6466.00    0.73434   0.74754   27.307
 6467.00    0.74108   0.74850   29.170
 6468.00    0.74238   0.74964   32.478
 6469.00    0.73892   0.74991   25.426
 6470.00    0.73416   0.74990   16.487
 6471.00    0.73298   0.75013   13.098
 6472.00    0.73653   0.74979   12.983
 6473.00    0.74077   0.74924   13.706
 6474.00    0.74230   0.74905   13.724
 6475.00    0.74095   0.74862   13.389
 6476.00    0.73799   0.74779   13.369
 6477.00    0.73494   0.74691   13.742
 6478.00    0.73209   0.74589   14.001
 6479.00    0.72865   0.74446   13.403
 6480.00    0.72614   0.74303   12.925
 6481.00    0.72842   0.74183   14.953
 6482.00    0.73508   0.74074   22.071
 6483.00    0.74036   0.73997   30.601
 6484.00    0.74146   0.73946   27.848
 6485.00    0.74095   0.73872   23.981
 6486.00    0.74215   0.73757   23.908
 6487.00    0.74656   0.73578   24.753
 6488.00    0.75149   0.73267   24.846
 6489.00    0.75106   0.72811   25.566
 6490.00    0.74331   0.72280   27.441
 6491.00    0.73160   0.71647   28.751
 6492.00    0.71956   0.70958   28.526
 6493.00    0.70918   0.70373   28.019
 6494.00    0.70112   0.69866   27.811
 6495.00    0.69511   0.69531   27.339
 6496.00    0.69104   0.69465   26.631
 6497.00    0.68941   0.69559   26.390
 6498.00    0.69118   0.69884   26.789
 6499.00    0.69722   0.70387   27.396
 6500.00    0.70660   0.70936   27.899
 6501.00    0.71677   0.71560   28.259
 6502.00    0.72585   0.72159   28.234
 6503.00    0.73353   0.72674   27.456
 6504.00    0.74127   0.73133   26.084
 6505.00    0.75095   0.73490   24.696
 6506.00    0.76088   0.73742   23.741
 6507.00    0.76639   0.73919   23.473
 6508.00    0.76463   0.74031   23.971
 6509.00    0.75616   0.74077   25.158
 6510.00    0.74526   0.74064   26.618
 6511.00    0.73801   0.74017   27.497
 6512.00    0.73699   0.73944   27.077
 6513.00    0.74039   0.73824   25.480
 6514.00    0.74328   0.73702   23.770
 6515.00    0.74041   0.73611   22.930
 6516.00    0.73179   0.73518   23.011
 6517.00    0.72213   0.73473   23.572
 6518.00    0.71594   0.73490   24.354
 6519.00    0.71516   0.73529   25.307
 6520.00    0.71666   0.73616   26.263
 6521.00    0.71506   0.73703   26.945
 6522.00    0.71029   0.73772   27.277
 6523.00    0.70640   0.73848   27.456
 6524.00    0.70544   0.73869   27.785
 6525.00    0.70723   0.73855   28.388
 6526.00    0.71179   0.73835   28.636
 6527.00    0.71895   0.73781   27.720
 6528.00    0.72667   0.73726    0.000
 6529.00    0.73171   0.73679    0.000
 6530.00    0.73168   0.73639    0.000
 6531.00    0.72636   0.73620    0.000
 6532.00    0.71940   0.73610    0.000
 6533.00    0.71608   0.73624    0.000
 6534.00    0.71884   0.73656    0.000
 6535.00    0.72656   0.73678    0.000
 6536.00    0.73509   0.73689    0.000
 6537.00    0.73999   0.73678    0.000
 6538.00    0.74094   0.73610    0.000
 6539.00    0.74076   0.73497    0.000
 6540.00    0.74245   0.73315    0.000
 6541.00    0.74950   0.73046    0.000
 6542.00    0.76706   0.72762    0.000
 6543.00    0.79984   0.72438    0.000
 6544.00    0.84868   0.72065    0.000
 6545.00    0.90926   0.71729    0.000
 6546.00    0.97117   0.71393    0.000
 6547.00    1.01918   0.71054    0.000
 6548.00    1.03570   0.70740    0.000
 6549.00    1.00978   0.70378    0.000
 6550.00    0.94874   0.69979    0.000
 6551.00    0.87276   0.69533    0.000
 6552.00    0.80471   0.68979    0.000
 6553.00    0.76115   0.68324    0.000
 6554.00    0.74337   0.67534    0.000
 6555.00    0.75402   0.66622    0.000
 6556.00    0.81962   0.65591    0.000
 6557.00    0.98579   0.64345    0.000
 6558.00    1.30452   0.63068    0.000
 6559.00    1.78735   0.61955    0.000
 6560.00    2.35349   0.60843    0.000
 6561.00    2.86435   0.59969    0.000
 6562.00    3.17496   0.59638    0.000
 6563.00    3.18575   0.59642    0.000
 6564.00    2.89411   0.60044    0.000
 6565.00    2.38569   0.60916    0.000
 6566.00    1.81298   0.61978    0.000
 6567.00    1.32339   0.63158    0.000
 6568.00    0.98616   0.64371    0.000
 6569.00    0.80259   0.65429    0.000
 6570.00    0.72740   0.66355    0.000
 6571.00    0.70491   0.67163    0.000
 6572.00    0.70268   0.67790    0.000
 6573.00    0.70616   0.68321    0.000
 6574.00    0.71018   0.68830    0.000
 6575.00    0.71642   0.69266    0.000
 6576.00    0.73205   0.69663    0.000
 6577.00    0.77282   0.70071    0.000
 6578.00    0.86408   0.70431    0.000
 6579.00    1.02241   0.70737    0.000
 6580.00    1.23900   0.71037    0.000
 6581.00    1.47616   0.71278    0.000
 6582.00    1.66922   0.71484    0.000
 6583.00    1.75871   0.71687    0.000
 6584.00    1.71785   0.71814    0.000
 6585.00    1.56028   0.71925    0.000
 6586.00    1.34050   0.72009    0.000
 6587.00    1.12043   0.71985    0.000
 6588.00    0.94271   0.71917    0.000
 6589.00    0.82492   0.71828    0.000
 6590.00    0.75886   0.71677    0.000
 6591.00    0.72754   0.71498    0.000
 6592.00    0.71739   0.71373    0.000
 6593.00    0.71718   0.71292    0.000
 6594.00    0.71723   0.71266    0.000
 6595.00    0.71348   0.71341    0.000
 6596.00    0.70927   0.71462    0.000
 6597.00    0.70878   0.71633    0.000
 6598.00    0.71268   0.71852    0.000
 6599.00    0.71962   0.72032    0.000
 6600.00    0.72736   0.72180    0.000
 6601.00    0.73403   0.72297    0.000
 6602.00    0.73861   0.72334    0.000
 6603.00    0.73981   0.72310    0.000
 6604.00    0.73603   0.72242    0.000
 6605.00    0.72875   0.72161    0.000
 6606.00    0.72332   0.72090    0.000
 6607.00    0.72214   0.72022    0.000
 6608.00    0.72190   0.72013    0.000
 6609.00    0.71937   0.72072   28.486
 6610.00    0.71462   0.72178   28.389
 6611.00    0.71038   0.72318   28.599
 6612.00    0.71080   0.72480   28.855
 6613.00    0.71688   0.72677   28.929
 6614.00    0.72514   0.72854   28.789
 6615.00    0.73230   0.72992   28.599
 6616.00    0.73744   0.73109   28.615
 6617.00    0.74083   0.73180   28.769
 6618.00    0.74288   0.73209   28.646
 6619.00    0.74239   0.73174   28.317
 6620.00    0.73694   0.73090   28.429
 6621.00    0.72803   0.72996   29.098
 6622.00    0.72159   0.72848   29.641
 6623.00    0.72022   0.72684   29.690
 6624.00    0.72106   0.72549   29.630
 6625.00    0.72060   0.72394   29.705
 6626.00    0.71717   0.72254   29.759
 6627.00    0.71192   0.72138   29.744
 6628.00    0.70835   0.72001   29.817
 6629.00    0.70887   0.71891   29.875
 6630.00    0.71330   0.71801   29.567
 6631.00    0.71834   0.71700   29.044
 6632.00    0.71923   0.71638   28.893
 6633.00    0.71636   0.71629   29.137
 6634.00    0.71509   0.71636   29.199
 6635.00    0.71695   0.71676   28.914
 6636.00    0.71831   0.71757   28.694
 6637.00    0.71640   0.71827   28.766
 6638.00    0.71149   0.71877   29.019
 6639.00    0.70705   0.71939   29.223
 6640.00    0.70778   0.71976   29.187
 6641.00    0.71382   0.71960   29.036
 6642.00    0.72057   0.71954   29.111
 6643.00    0.72391   0.71961   29.447
 6644.00    0.72226   0.71962   29.746
 6645.00    0.71733   0.71974   29.808
 6646.00    0.71288   0.71989   29.644
 6647.00    0.71037   0.72026   29.328
 6648.00    0.70880   0.72070   28.956
 6649.00    0.70747   0.72084   28.655
 6650.00    0.70652   0.72096   28.518
 6651.00    0.70613   0.72103   28.452
 6652.00    0.70616   0.72088   28.282
 6653.00    0.70581   0.72064   28.128
 6654.00    0.70439   0.72012   28.237
 6655.00    0.70334   0.71942   28.384
 6656.00    0.70536   0.71866   28.094
 6657.00    0.71138   0.71753   27.572
 6658.00    0.71977   0.71606   27.401
 6659.00    0.72667   0.71465   27.522
 6660.00    0.72764   0.71320   27.480
 6661.00    0.72140   0.71149   27.406
 6662.00    0.71021   0.71032   27.794
 6663.00    0.69869   0.70967   28.554
 6664.00    0.69166   0.70926   29.124
 6665.00    0.69008   0.70962   29.338
 6666.00    0.69185   0.71037   29.434
 6667.00    0.69534   0.71150   29.447
 6668.00    0.69975   0.71299   29.282
 6669.00    0.70452   0.71411   29.122
 6670.00    0.70939   0.71490   29.203
 6671.00    0.71476   0.71532   29.291
 6672.00    0.72099   0.71474   28.996
 6673.00    0.72697   0.71344   28.547
 6674.00    0.73088   0.71189   28.407
 6675.00    0.73208   0.70965   28.472
 6676.00    0.73142   0.70721   28.357
 6677.00    0.73109   0.70566   28.104
 6678.00    0.73268   0.70471   27.986
 6679.00    0.73425   0.70424   28.011
 6680.00    0.73261   0.70471   28.044
 6681.00    0.72782   0.70587   28.112
 6682.00    0.72241   0.70754   28.287
 6683.00    0.71882   0.70940   28.441
 6684.00    0.71824   0.71104   28.480
 6685.00    0.71941   0.71257   28.761
 6686.00    0.72054   0.71389   29.422
 6687.00    0.72217   0.71474   29.296
 6688.00    0.72538   0.71515   28.006
 6689.00    0.72853   0.71531   28.501
 6690.00    0.72869   0.71510   32.215
 6691.00    0.72430   0.71454   29.848
 6692.00    0.71598   0.71393   19.858
 6693.00    0.70695   0.71312   14.440
 6694.00    0.70043   0.71209   13.459
 6695.00    0.69626   0.71143   14.290
 6696.00    0.69315   0.71089    0.000
 6697.00    0.69198   0.71046    0.000
 6698.00    0.69405   0.71045    0.000
 6699.00    0.69849   0.71042    0.000
 6700.00    0.70274   0.71060    0.000
 6701.00    0.70374   0.71088    0.000
 6702.00    0.70118   0.71085    0.000
 6703.00    0.70062   0.71099    0.000
 6704.00    0.70702   0.71110    0.000
 6705.00    0.71760   0.71084    0.000
 6706.00    0.72648   0.71056    0.000
 6707.00    0.73060   0.71012    0.000
 6708.00    0.73180   0.70918    0.000
 6709.00    0.73815   0.70817    0.000
 6710.00    0.76244   0.70677    0.000
 6711.00    0.81967   0.70487    0.000
 6712.00    0.91725   0.70292    0.000
 6713.00    1.04583   0.70076    0.000
 6714.00    1.18103   0.69881    0.000
 6715.00    1.28745   0.69704    0.000
 6716.00    1.33275   0.69568    0.000
 6717.00    1.30111   0.69534    0.000
 6718.00    1.19985   0.69545    0.000
 6719.00    1.06224   0.69603    0.000
 6720.00    0.92821   0.69711    0.000
 6721.00    0.82676   0.69850    0.000
 6722.00    0.76873   0.70017    0.000
 6723.00    0.74421   0.70159    0.000
 6724.00    0.74168   0.70275    0.000
 6725.00    0.76263   0.70402    0.000
 6726.00    0.81264   0.70510    0.000
 6727.00    0.89259   0.70585    0.000
 6728.00    0.99103   0.70652    0.000
 6729.00    1.08073   0.70700    0.000
 6730.00    1.13368   0.70734    0.000
 6731.00    1.13300   0.70749    0.000
 6732.00    1.07850   0.70733    0.000
 6733.00    0.98857   0.70701    0.000
 6734.00    0.88927   0.70656    0.000
 6735.00    0.80509   0.70582    0.000
 6736.00    0.74938   0.70490    0.000
 6737.00    0.71968   0.70391    0.000
 6738.00    0.70795   0.70288    0.000
 6739.00    0.70731   0.70207    0.000
 6740.00    0.71179   0.70109    0.000
 6741.00    0.71611   0.70003    0.000
 6742.00    0.71686   0.69939    0.000
 6743.00    0.71331   0.69869    0.000
 6744.00    0.70727   0.69796    0.000
 6745.00    0.70229   0.69730    0.000
 6746.00    0.69979   0.69664    0.000
 6747.00    0.69766   0.69621    0.000
 6748.00    0.69522   0.69571    0.000
 6749.00    0.69514   0.69567    0.000
 6750.00    0.69874   0.69589    0.000
 6751.00    0.70410   0.69618    0.000
 6752.00    0.70949   0.69733    0.000
 6753.00    0.71481   0.69859   29.268
 6754.00    0.71987   0.70014   29.385
 6755.00    0.72346   0.70209   29.264
 6756.00    0.72374   0.70377   29.053
 6757.00    0.71899   0.70553   29.055
 6758.00    0.71028   0.70708   29.302
 6759.00    0.70189   0.70803   29.462
 6760.00    0.69786   0.70852   29.346
 6761.00    0.69976   0.70864   29.087
 6762.00    0.70457   0.70819   28.787
 6763.00    0.70577   0.70738   28.436
 6764.00    0.70174   0.70633   28.181
 6765.00    0.69718   0.70497   28.301
 6766.00    0.69482   0.70389   28.682
 6767.00    0.69295   0.70324   28.797
 6768.00    0.68965   0.70277   28.626
 6769.00    0.68492   0.70270   28.724
 6770.00    0.68212   0.70327   29.026
 6771.00    0.68630   0.70433   28.789
 6772.00    0.69618   0.70571   28.129
 6773.00    0.70434   0.70717   27.973
 6774.00    0.70808   0.70857   28.203
 6775.00    0.71134   0.70975   27.605
 6776.00    0.71766   0.71046   25.808
 6777.00    0.72720   0.71065   23.595
 6778.00    0.73528   0.71011   21.621
 6779.00    0.73462   0.70895   20.162
 6780.00    0.72350   0.70732   19.340
 6781.00    0.70718   0.70523   19.189
 6782.00    0.69382   0.70316   19.472
 6783.00    0.69078   0.70136   19.725
 6784.00    0.69798   0.69977   19.743
 6785.00    0.70837   0.69874   19.724
 6786.00    0.71509   0.69828   20.048
 6787.00    0.71434   0.69807   21.091
 6788.00    0.70718   0.69822   22.747
 6789.00    0.69866   0.69863   24.245
 6790.00    0.69426   0.69910   24.987
 6791.00    0.69730   0.69940   25.083
 6792.00    0.70495   0.69973   24.963
 6793.00    0.71018   0.70007   25.050
 6794.00    0.70917   0.70034   25.590
 6795.00    0.70284   0.70088   26.599
 6796.00    0.69585   0.70127   27.684
 6797.00    0.69359   0.70177   28.202
 6798.00    0.69598   0.70254   28.171
 6799.00    0.69882   0.70304   28.167
 6800.00    0.70022   0.70362   28.313
 6801.00    0.70087   0.70407   28.340
 6802.00    0.70134   0.70411   28.244
 6803.00    0.70157   0.70436   28.237
 6804.00    0.70109   0.70427   28.331
 6805.00    0.69964   0.70386   28.368
 6806.00    0.69819   0.70379   28.272
 6807.00    0.69787   0.70339   28.096
 6808.00    0.69752   0.70292   27.975
 6809.00    0.69644   0.70277   27.748
 6810.00    0.70032   0.70237   26.383
 6811.00    0.71607   0.70228   23.418
 6812.00    0.74010   0.70221   20.389
 6813.00    0.76182   0.70191   18.454
 6814.00    0.77394   0.70220   17.417
 6815.00    0.77275   0.70257   16.870
 6816.00    0.75531   0.70285   16.883
 6817.00    0.72408   0.70333   17.689
 6818.00    0.69500   0.70369   19.080
 6819.00    0.68614   0.70437   20.352
 6820.00    0.69719   0.70512   20.922
 6821.00    0.71568   0.70555   20.790
 6822.00    0.73220   0.70593   20.562
 6823.00    0.74195   0.70611   20.849
 6824.00    0.74346   0.70624   21.649
 6825.00    0.73862   0.70613   22.556
 6826.00    0.73306   0.70568   23.216
 6827.00    0.73252   0.70538   23.467
 6828.00    0.73774   0.70516   23.368
 6829.00    0.74515   0.70498   23.127
 6830.00    0.74910   0.70470   22.954
 6831.00    0.74609   0.70430   22.977
 6832.00    0.73950   0.70410   23.191
 6833.00    0.73384   0.70374   23.543
 6834.00    0.72661   0.70291   24.045
 6835.00    0.71464   0.70178   24.584
 6836.00    0.70293   0.70035   24.644
 6837.00    0.69814   0.69872   23.892
 6838.00    0.69952   0.69715   22.877
 6839.00    0.70283   0.69552   22.260
 6840.00    0.70621   0.69429   22.180
 6841.00    0.70932   0.69378   22.525
 6842.00    0.71168   0.69372   23.150
 6843.00    0.71373   0.69430   23.900
 6844.00    0.71791   0.69513   24.643
 6845.00    0.72410   0.69619   25.146
 6846.00    0.72543   0.69752   24.993
 6847.00    0.71816   0.69850   24.359
 6848.00    0.71141   0.69914   24.422
 6849.00    0.71348   0.69940   24.850
 6850.00    0.71811   0.69915   22.022
 6851.00    0.71830   0.69868   16.882
 6852.00    0.71986   0.69772   13.852
 6853.00    0.72759   0.69630   13.252
 6854.00    0.73237   0.69522   13.671
 6855.00    0.72730   0.69419   13.865
 6856.00    0.72198   0.69316   13.852
 6857.00    0.72557   0.69262   13.923
 6858.00    0.73187   0.69215   13.631
 6859.00    0.73308   0.69193   13.107
 6860.00    0.73182   0.69217   13.805
 6861.00    0.73173   0.69261   17.052
 6862.00    0.72956   0.69326   21.733
 6863.00    0.72225   0.69373   23.003
 6864.00    0.71271   0.69396   22.060
 6865.00    0.70512   0.69412   22.661
 6866.00    0.70097   0.69417   24.504
 6867.00    0.69984   0.69427   25.865
 6868.00    0.70036   0.69432   26.104
 6869.00    0.70165   0.69417   25.385
 6870.00    0.70430   0.69406   23.813
 6871.00    0.71034   0.69433   21.797
 6872.00    0.72224   0.69487   20.001
 6873.00    0.73694   0.69546   18.829
 6874.00    0.74363   0.69609   18.435
 6875.00    0.73718   0.69674   18.886
 6876.00    0.72537   0.69744   20.226
 6877.00    0.71569   0.69797   22.331
 6878.00    0.70763   0.69823   24.528
 6879.00    0.70090   0.69823   25.962
 6880.00    0.69967   0.69814   26.525
 6881.00    0.70532   0.69811   26.619
 6882.00    0.71293   0.69831   26.602
 6883.00    0.71778   0.69875   26.695
 6884.00    0.71910   0.69917   26.949
 6885.00    0.71793   0.70007   26.976
 6886.00    0.71577   0.70135   26.045
 6887.00    0.71364   0.70263   24.352
 6888.00    0.71225   0.70397   22.976
 6889.00    0.71472   0.70514   22.285
 6890.00    0.72583   0.70607   21.885
 6891.00    0.74039   0.70683   21.699
 6892.00    0.74188   0.70733   22.199
 6893.00    0.72560   0.70743   23.474
 6894.00    0.70640   0.70747   24.666
 6895.00    0.69872   0.70746   24.547
 6896.00    0.70687   0.70743   22.706
 6897.00    0.72673   0.70748   20.281
 6898.00    0.74811   0.70736   18.655
 6899.00    0.76083   0.70756   18.130
 6900.00    0.75817   0.70807   18.412
 6901.00    0.73987   0.70851   19.334
 6902.00    0.71309   0.70901   20.941
 6903.00    0.69114   0.70942   23.063
 6904.00    0.68843   0.70993   24.928
 6905.00    0.70285   0.71051   25.847
 6906.00    0.71534   0.71065   25.991
 6907.00    0.71670   0.71054   25.838
 6908.00    0.71424   0.71025   25.696
 6909.00    0.71503   0.70955   25.628
 6910.00    0.71983   0.70874   25.530
 6911.00    0.72504   0.70778   25.453
 6912.00    0.72546   0.70650   25.587
 6913.00    0.72051   0.70571   25.815
 6914.00    0.71455   0.70507   25.718
 6915.00    0.70984   0.70444   25.235
 6916.00    0.70496   0.70441   24.708
 6917.00    0.69787   0.70431   24.279
 6918.00    0.68846   0.70448   23.852
 6919.00    0.68324   0.70479   23.455
 6920.00    0.69129   0.70481   23.272
 6921.00    0.70739   0.70483   23.456
 6922.00    0.71462   0.70449   24.040
 6923.00    0.70811   0.70415   24.764
 6924.00    0.69730   0.70394   25.044
 6925.00    0.69096   0.70391   24.411
 6926.00    0.69273   0.70390   22.934
 6927.00    0.70158   0.70393   21.364
 6928.00    0.71251   0.70423   20.476
 6929.00    0.71776   0.70459   20.476
 6930.00    0.71084   0.70510   21.237
 6931.00    0.69577   0.70537   22.494
 6932.00    0.68404   0.70582   23.825
 6933.00    0.68086   0.70645   24.895
 6934.00    0.68416   0.70679   25.581
 6935.00    0.69135   0.70719   25.797
 6936.00    0.70029   0.70742   25.558
 6937.00    0.70758   0.70772   25.223
 6938.00    0.70996   0.70793   25.246
 6939.00    0.70843   0.70786   25.614
 6940.00    0.70612   0.70754   25.968
 6941.00    0.70171   0.70700   26.157
 6942.00    0.69201   0.70643   26.278
 6943.00    0.68075   0.70561   26.430
 6944.00    0.67612   0.70516   26.612
 6945.00    0.68171   0.70491   26.668
 6946.00    0.69423   0.70453   26.471
 6947.00    0.70342   0.70442   26.299
 6948.00    0.69982   0.70429   26.474
 6949.00    0.68957   0.70421   26.564
 6950.00    0.68667   0.70446   25.935
 6951.00    0.69307   0.70459   25.091
 6952.00    0.70123   0.70475   24.793
 6953.00    0.70600   0.70517   24.574
 6954.00    0.70623   0.70573   23.871
 6955.00    0.70344   0.70653   24.023
 6956.00    0.70030   0.70737   26.018
 6957.00    0.69815   0.70835   25.380
 6958.00    0.69750   0.70930   19.295
 6959.00    0.69936   0.71031   14.765
 6960.00    0.70462   0.71124   13.531
 6961.00    0.71263   0.71192   13.912
 6962.00    0.72097   0.71264   14.097
 6963.00    0.72548   0.71306   13.819
 6964.00    0.72336   0.71327   13.769
 6965.00    0.71762   0.71363   13.934
 6966.00    0.71367   0.71386   13.963
 6967.00    0.71344   0.71374   13.989
 6968.00    0.71514   0.71331   14.199
 6969.00    0.71437   0.71241   14.080
 6970.00    0.70804   0.71140   13.505
 6971.00    0.69898   0.71007   14.074
 6972.00    0.69052   0.70800   17.978
 6973.00    0.67887   0.70570   25.917
 6974.00    0.66138   0.70326   29.632
 6975.00    0.64760   0.70095   26.561
 6976.00    0.64810   0.69882   25.030
 6977.00    0.65921   0.69721   25.484
 6978.00    0.67147   0.69692   25.804
 6979.00    0.68182   0.69737   25.632
 6980.00    0.69064   0.69854   25.598
 6981.00    0.69684   0.70025   25.728
 6982.00    0.69934   0.70225   25.813
 6983.00    0.69919   0.70473   25.999
 6984.00    0.69798   0.70697   26.441
 6985.00    0.69601   0.70871   26.840
 6986.00    0.69541   0.70999   26.781
 6987.00    0.70277   0.71066   26.246
 6988.00    0.71986   0.71115   25.544
 6989.00    0.73492   0.71151   25.076
 6990.00    0.73579   0.71163   25.008
 6991.00    0.72340   0.71158   25.075
 6992.00    0.70620   0.71113   24.934
 6993.00    0.69310   0.71075   24.521
 6994.00    0.69006   0.71048   23.905
 6995.00    0.69740   0.70996   23.113
 6996.00    0.70994   0.70925   22.259
 6997.00    0.71789   0.70808   21.596
 6998.00    0.71381   0.70698   21.361
 6999.00    0.69860   0.70626   21.672
 7000.00    0.68133   0.70559   22.312
 7001.00    0.67637   0.70496   -2.000
 7002.00    0.68425   0.70418   -2.000
 7003.00    0.68064   0.70375   -2.000
 7004.00    0.65641   0.70374   -2.000
 7005.00    0.64402   0.70392   -2.000
 7006.00    0.66487   0.70416   -2.000
 7007.00    0.69273   0.70427   -2.000
 7008.00    0.70090   0.70433   -2.000
 7009.00    0.69608   0.70412   -2.000
 7010.00    0.69127   0.70393   -2.000
 7011.00    0.68602   0.70374   -2.000
 7012.00    0.67906   0.70316   -2.000
 7013.00    0.67642   0.70240   -2.000
 7014.00    0.68012   0.70135   -2.000
 7015.00    0.68210   0.70091   -2.000
 7016.00    0.67791   0.70118   -2.000
 7017.00    0.67423   0.70130   -2.000
 7018.00    0.67676   0.70156   -2.000
 7019.00    0.68300   0.70185   -2.000
 7020.00    0.68744   0.70231   -2.000
 7021.00    0.68584   0.70291   -2.000
 7022.00    0.67940   0.70323   -2.000
 7023.00    0.67565   0.70361   -2.000
 7024.00    0.67891   0.70414   -2.000
 7025.00    0.68597   0.70457   -2.000
 7026.00    0.69289   0.70510   -2.000
 7027.00    0.69854   0.70582   -2.000
 7028.00    0.70192   0.70677   -2.000
 7029.00    0.70120   0.70787   -2.000
 7030.00    0.69718   0.70861   -2.000
 7031.00    0.69412   0.70915   -2.000
 7032.00    0.69435   0.70971   -2.000
 7033.00    0.69631   0.71030   -2.000
 7034.00    0.69820   0.71098   -2.000
 7035.00    0.69946   0.71152   -2.000
 7036.00    0.69891   0.71193   -2.000
 7037.00    0.69477   0.71295   -2.000
 7038.00    0.68864   0.71469   -2.000
 7039.00    0.68586   0.71663   -2.000
 7040.00    0.68863   0.71861   -2.000
 7041.00    0.69403   0.72034   -2.000
 7042.00    0.69895   0.72210   -2.000
 7043.00    0.70216   0.72380   -2.000
 7044.00    0.70370   0.72510   -2.000
 7045.00    0.70414   0.72568   -2.000
 7046.00    0.70291   0.72545   -2.000
 7047.00    0.69882   0.72451   -2.000
 7048.00    0.69424   0.72267   -2.000
 7049.00    0.69442   0.72040   -2.000
 7050.00    0.69861   0.71739   -2.000
 7051.00    0.69968   0.71378   -2.000
 7052.00    0.69499   0.71013   -2.000
 7053.00    0.68836   0.70631   -2.000
 7054.00    0.68274   0.70300   -2.000
 7055.00    0.67851   0.69996   -2.000
 7056.00    0.67647   0.69716   -2.000
 7057.00    0.67767   0.69492   -2.000
 7058.00    0.67896   0.69299   -2.000
 7059.00    0.67484   0.69165   -2.000
 7060.00    0.66742   0.69069   -2.000
 7061.00    0.66539   0.68965   -2.000
 7062.00    0.67106   0.68889   -2.000
 7063.00    0.67897   0.68829   -2.000
 7064.00    0.68398   0.68773   -2.000
 7065.00    0.68393   0.68762   -2.000
 7066.00    0.67981   0.68753   -2.000
 7067.00    0.67474   0.68797   -2.000
 7068.00    0.67122   0.68900   -2.000
 7069.00    0.67010   0.69007   -2.000
 7070.00    0.67017   0.69145   -2.000
 7071.00    0.66977   0.69298   -2.000
 7072.00    0.67124   0.69466   -2.000
 7073.00    0.67795   0.69636   -2.000
 7074.00    0.68440   0.69769   -2.000
 7075.00    0.68111   0.69845   -2.000
 7076.00    0.67217   0.69879   -2.000
 7077.00    0.67045   0.69849   -2.000
 7078.00    0.67653   0.69756   -2.000
 7079.00    0.68046   0.69607   -2.000
 7080.00    0.67714   0.69368   -2.000
 7081.00    0.66858   0.69072   -2.000
 7082.00    0.66069   0.68715   -2.000
 7083.00    0.65891   0.68336   -2.000
 7084.00    0.66057   0.67988   -2.000
 7085.00    0.65965   0.67619   -2.000
 7086.00    0.65947   0.67259   -2.000
 7087.00    0.66691   0.66959   -2.000
 7088.00    0.67626   0.66707   -2.000
 7089.00    0.67596   0.66546   -2.000
 7090.00    0.66744   0.66443   -2.000
 7091.00    0.66038   0.66344   -2.000
 7092.00    0.65702   0.66341   -2.000
 7093.00    0.65406   0.66358   -2.000
 7094.00    0.65114   0.66412   -2.000
 7095.00    0.65078   0.66524   -2.000
 7096.00    0.65522   0.66604   -2.000
 7097.00    0.66370   0.66755   -2.000
 7098.00    0.66913   0.66872   -2.000
 7099.00    0.66474   0.66985   -2.000
 7100.00    0.65556   0.67092   -2.000
 7101.00    0.65105   0.67168   -2.000
 7102.00    0.65099   0.67267   -2.000
 7103.00    0.65102   0.67323   -2.000
 7104.00    0.65409   0.67343   -2.000
 7105.00    0.66382   0.67334   -2.000
 7106.00    0.67250   0.67322   -2.000
 7107.00    0.67024   0.67314   -2.000
 7108.00    0.66019   0.67291   -2.000
 7109.00    0.65332   0.67252   -2.000
 7110.00    0.65774   0.67227   -2.000
 7111.00    0.67334   0.67243   -2.000
 7112.00    0.68753   0.67281   -2.000
 7113.00    0.68878   0.67315   -2.000
 7114.00    0.68426   0.67363   -2.000
 7115.00    0.68657   0.67416   -2.000
 7116.00    0.69481   0.67473   -2.000
 7117.00    0.70109   0.67516   -2.000
 7118.00    0.70152   0.67507   -2.000
 7119.00    0.69636   0.67486   -2.000
 7120.00    0.68869   0.67412   -2.000
 7121.00    0.68252   0.67320   -2.000
 7122.00    0.68078   0.67207   -2.000
 7123.00    0.68351   0.67033   -2.000
 7124.00    0.68656   0.66851   -2.000
 7125.00    0.68729   0.66663   -2.000
 7126.00    0.69005   0.66500   -2.000
 7127.00    0.69638   0.66356   -2.000
 7128.00    0.69580   0.66208   -2.000
 7129.00    0.68272   0.66097   -2.000
 7130.00    0.67262   0.66080   -2.000
 7131.00    0.68075   0.66110   -2.000
 7132.00    0.70127   0.66181   -2.000
 7133.00    0.72234   0.66277   -2.000
 7134.00    0.74144   0.66381   -2.000
 7135.00    0.75734   0.66541   -2.000
 7136.00    0.76237   0.66673   -2.000
 7137.00    0.75084   0.66789   -2.000
 7138.00    0.72683   0.66886   -2.000
 7139.00    0.70026   0.66960   -2.000
 7140.00    0.68219   0.67012   -2.000
 7141.00    0.67807   0.67015   -2.000
 7142.00    0.68318   0.67006   -2.000
 7143.00    0.68912   0.66974   -2.000
 7144.00    0.68993   0.66947   -2.000
 7145.00    0.68602   0.66911   -2.000
 7146.00    0.68561   0.66850   -2.000
 7147.00    0.69407   0.66860   -2.000
 7148.00    0.70642   0.66907   -2.000
 7149.00    0.71340   0.66985   -2.000
 7150.00    0.70749   0.67114   -2.000
 7151.00    0.69195   0.67239   -2.000
 7152.00    0.68368   0.67406   -2.000
 7153.00    0.69028   0.67575   -2.000
 7154.00    0.69783   0.67713   -2.000
 7155.00    0.69762   0.67850   -2.000
 7156.00    0.70033   0.67907   -2.000
 7157.00    0.70760   0.67906   -2.000
 7158.00    0.69902   0.67859   -2.000
 7159.00    0.67056   0.67774   -2.000
 7160.00    0.65141   0.67698   -2.000
 7161.00    0.65530   0.67548   -2.000
 7162.00    0.65797   0.67398   -2.000
 7163.00    0.64325   0.67277   -2.000
 7164.00    0.62618   0.67228   -2.000
 7165.00    0.62446   0.67251   -2.000
 7166.00    0.64108   0.67283   -2.000
 7167.00    0.66246   0.67348   -2.000
 7168.00    0.66429   0.67447   -2.000
 7169.00    0.64465   0.67595   -2.000
 7170.00    0.63292   0.67748   -2.000
 7171.00    0.64486   0.67863   -2.000
 7172.00    0.66478   0.67922   -2.000
 7173.00    0.67478   0.67943   -2.000
 7174.00    0.66980   0.67925   -2.000
 7175.00    0.65660   0.67889   -2.000
 7176.00    0.64883   0.67831   -2.000
 7177.00    0.64880   0.67728   -2.000
 7178.00    0.64444   0.67599   -2.000
 7179.00    0.63423   0.67475   -2.000
 7180.00    0.63226   0.67376   -2.000
 7181.00    0.64067   0.67315   -2.000
 7182.00    0.64512   0.67235   -2.000
 7183.00    0.64681   0.67115   -2.000
 7184.00    0.66649   0.67024   -2.000
 7185.00    0.70484   0.66913   -2.000
 7186.00    0.73573   0.66851   -2.000
 7187.00    0.74468   0.66811   -2.000
 7188.00    0.74004   0.66758   -2.000
 7189.00    0.73596   0.66775   -2.000
 7190.00    0.74243   0.66766   -2.000
 7191.00    0.75432   0.66815   -2.000
 7192.00    0.75551   0.66902   -2.000
 7193.00    0.74675   0.66992   -2.000
 7194.00    0.74483   0.67108   -2.000
 7195.00    0.74539   0.67165   -2.000
 7196.00    0.72423   0.67243   -2.000
 7197.00    0.68450   0.67308   -2.000
 7198.00    0.65851   0.67345   -2.000
 7199.00    0.66245   0.67363   -2.000
 7200.00    0.68602   0.67326   -2.000
 7201.00    0.70734   0.67316   -2.000
 7202.00    0.70578   0.67292   -2.000
 7203.00    0.68473   0.67227   -2.000
 7204.00    0.66718   0.67157   -2.000
 7205.00    0.66322   0.67045   -2.000
 7206.00    0.66568   0.67007   -2.000
 7207.00    0.66542   0.67010   -2.000
 7208.00    0.65772   0.67021   -2.000
 7209.00    0.64712   0.67085   -2.000
 7210.00    0.64308   0.67125   -2.000
 7211.00    0.64549   0.67225   -2.000
 7212.00    0.64726   0.67349   -2.000
 7213.00    0.65027   0.67483   -2.000
 7214.00    0.66283   0.67632   -2.000
 7215.00    0.68297   0.67750   -2.000
 7216.00    0.69622   0.67872   -2.000
 7217.00    0.68075   0.67966   -2.000
 7218.00    0.62669   0.68064   -2.000
