###################################################################
## OUTPUT of StarlightChains_v04.for    [Cid@UFSC - 01/Apr/2007] ##
###################################################################

## Some input info
2007bz.txt                               [arq_obs]
Base.CB07.vall.4m                        [arq_base]
Masks.EmLines.NEW.gm                     [arq_masks]
StCv04.C11.config                        [arq_config]
   66                                    [N_base]
    0                                    [N_YAV_components = # of components with extra extinction!]
    0                                    [i_FitPowerLaw (1/0 = Yes/No)]
-9.99                                    [alpha_PowerLaw]
CCM                                      [red_law_option]
 1.458241                                [q_norm = A(l_norm)/A(V)]

## (Re)Sampling Parameters
 3741.00                                 [l_ini (A)]
 7218.00                                 [l_fin (A)]
    1.00                                 [dl    (A)]     (OBS: dl_cushion =    50.00 A)

## Normalization info
 4020.00                                 [l_norm (A) - for base]
 4010.00                                 [llow_norm (A) - window for f_obs]
 4060.00                                 [lupp_norm (A) - window for f_obs]
1.710396E-16                             [fobs_norm (in input units)]

## S/N
 3691.00                                 [llow_SN (A) - window for S/N]
 7268.00                                 [lupp_SN (A) - window for S/N]
   4.824                                 [S/N in S/N window]
   6.621                                 [S/N in norm. window]
  20.450                                 [S/N_err in S/N window]
  28.071                                 [S/N_err in norm. window]
  1.0000                                 [fscale_chi2]

## etc...
    -2007332                             [idum_orig]
  2385                                   [NOl_eff]
  2382                                   [Nl_eff]
     3    NSIGMA                         [Ntot_cliped & clip_method]
   973420                                [Nglobal_steps]
   7                                     [N_chains]
  13                                     [NEX0s_base = N_base in EX0s-fits]
 0   0   1        0   2.0   7.199E+01    [Clip-Bug, RC-Crash & Burn-In warning-flags, n_censored_weights, wei_nsig_threshold & wei_limit]
    17     16.974     16.462      0.512  [idt_all, wdt_TotTime, wdt_UsrTime & wdt_SysTime (sec)]

## Synthesis Results - Best model ##

 3.70969E-01                             [chi2/Nl_eff]
     2.20428                             [adev (%)]

   107.37648                             [sum-of-x (%)]
 3.01739E-16                             [Flux_tot (units of input spectrum!)]
 3.90588E-13                             [Mini_tot (???)]
 2.53250E-13                             [Mcor_tot (???)]

  88.90                                  [v0_min  (km/s)]
 212.18                                  [vd_min  (km/s)]
 0.3697                                  [AV_min  (mag)]
 0.0000                                  [YAV_min (mag)]

# j     x_j(%)      Mini_j(%)     Mcor_j(%)     age_j(yr)     Z_j      (L/M)_j    YAV?  Mstars   component_j        a/Fe...       SSP_chi2r SSP_adev(%)   SSP_AV   SSP_x(%)
  1      0.0000     0.0000E+00    0.0000E+00    1.000000E+06  0.00400  1.094E-02    0   1.0000   age020_m42            0.0000     1.5209E+00     4.7456   2.1715    90.6277
  2      4.8408     8.6917E-02    1.3404E-01    3.160000E+06  0.00400  4.007E-02    0   0.9999   age045_m42            0.0000     8.1859E-01     3.2513   1.4287    97.8209
  3      0.0000     0.0000E+00    0.0000E+00    5.010000E+06  0.00400  2.539E-02    0   0.9488   age055_m42            0.0000     1.0368E+00     3.8472   1.7508    95.2515
  4      3.4372     9.4386E-02    1.3422E-01    6.610000E+06  0.00400  2.620E-02    0   0.9220   age061_m42            0.0000     7.3089E-01     3.1197   1.3446    98.5615
  5      0.0012     6.3487E-05    8.6773E-05    1.000000E+07  0.00400  1.322E-02    0   0.8862   age070_m42            0.0000     7.5063E-01     3.6010   1.0063   103.4701
  6      0.7818     7.1349E-02    9.4316E-02    1.445000E+07  0.00400  7.883E-03    0   0.8571   age078_m42            0.0000     8.7341E-01     3.7991   1.3466   100.1733
  7      0.0000     0.0000E+00    0.0000E+00    2.512000E+07  0.00400  5.251E-03    0   0.8174   age090_m42            0.0000     7.7533E-01     3.7107   0.8638   104.6971
  8      0.0000     0.0000E+00    0.0000E+00    4.000000E+07  0.00400  3.649E-03    0   0.7851   age104_m42            0.0000     6.6635E-01     3.4334   0.6391   105.4510
  9      3.2579     7.5659E-01    8.9022E-01    5.500000E+07  0.00400  3.098E-03    0   0.7629   age110_m42            0.0000     5.3329E-01     2.9073   0.8158   104.3104
 10     28.6867     9.2634E+00    1.0297E+01    1.015200E+08  0.00400  2.228E-03    0   0.7207   age116_m42            0.0000     5.1175E-01     2.7231   0.8491   103.8750
 11      0.0000     0.0000E+00    0.0000E+00    2.861200E+08  0.00400  1.093E-03    0   0.6648   age125_m42            0.0000     7.1444E-01     3.3048   0.2588   108.3309
 12      0.0000     0.0000E+00    0.0000E+00    5.088000E+08  0.00400  6.597E-04    0   0.6365   age130_m42            0.0000     6.4110E-01     3.1115   0.2734   107.9288
 13      0.0000     0.0000E+00    0.0000E+00    1.434000E+09  0.00400  2.132E-04    0   0.5798   age139_m42            0.0000     6.6083E-01     3.1451  -0.6826   109.1705
 14      0.0000     0.0000E+00    0.0000E+00    4.250000E+09  0.00400  5.895E-05    0   0.5377   age158_m42            0.0000     9.9558E-01     3.8051  -1.0000    99.1368
 15      0.0000     0.0000E+00    0.0000E+00    7.500000E+09  0.00400  3.510E-05    0   0.5212   age171_m42            0.0000     2.0377E+00     5.7757  -1.0000    90.4579
 16      0.0000     0.0000E+00    0.0000E+00    1.300000E+10  0.00400  2.005E-05    0   0.5034   age193_m42            0.0000     3.6448E+00     8.0258  -1.0000    83.4048
 17      0.0000     0.0000E+00    0.0000E+00    1.800000E+10  0.00400  1.525E-05    0   0.4967   age213_m42            0.0000     3.9385E+00     8.3634  -1.0000    82.1355
 18      0.0000     0.0000E+00    0.0000E+00    1.000000E+06  0.00800  1.238E-02    0   1.0000   age020_m52            0.0000     1.5177E+00     4.7483   2.1678    90.8000
 19      0.0000     0.0000E+00    0.0000E+00    3.160000E+06  0.00800  3.074E-02    0   0.9966   age045_m52            0.0000     1.4335E+00     4.6307   2.0910    91.6051
 20      4.1351     1.1151E-01    1.6240E-01    5.010000E+06  0.00800  2.668E-02    0   0.9443   age055_m52            0.0000     1.0861E+00     4.0029   1.8330    94.3773
 21     14.9254     5.0272E-01    7.1154E-01    6.610000E+06  0.00800  2.136E-02    0   0.9177   age061_m52            0.0000     7.3937E-01     3.4838   0.5183   103.9705
 22      0.0013     7.6152E-05    1.0367E-04    1.000000E+07  0.00800  1.215E-02    0   0.8827   age070_m52            0.0000     9.5909E-01     4.0833   1.1757   103.7588
 23      0.0000     0.0000E+00    0.0000E+00    1.445000E+07  0.00800  8.717E-03    0   0.8552   age078_m52            0.0000     8.1135E-01     3.6842   1.3073   101.7844
 24      0.0000     0.0000E+00    0.0000E+00    2.512000E+07  0.00800  5.592E-03    0   0.8162   age090_m52            0.0000     7.9804E-01     3.7563   0.9245   106.1262
 25      0.0069     1.2788E-03    1.5464E-03    4.000000E+07  0.00800  3.896E-03    0   0.7841   age104_m52            0.0000     6.7320E-01     3.3958   0.8469   106.4955
 26      0.0000     0.0000E+00    0.0000E+00    1.015200E+08  0.00800  2.148E-03    0   0.7226   age116_m52            0.0000     5.0852E-01     2.8420   0.8065   105.2461
 27      0.0000     0.0000E+00    0.0000E+00    2.861200E+08  0.00800  9.925E-04    0   0.6683   age125_m52            0.0000     5.6950E-01     3.0110   0.3358   109.0326
 28      0.0000     0.0000E+00    0.0000E+00    9.047900E+08  0.00800  3.141E-04    0   0.6138   age135_m52            0.0000     7.7836E-01     3.6017  -0.4169   111.1667
 29      0.0000     0.0000E+00    0.0000E+00    1.434000E+09  0.00800  1.719E-04    0   0.5853   age139_m52            0.0000     1.0459E+00     3.8173  -0.9842   108.2374
 30      0.0000     0.0000E+00    0.0000E+00    2.500000E+09  0.00800  7.872E-05    0   0.5600   age150_m52            0.0000     1.9657E+00     5.7993  -1.0000    93.8617
 31      0.0000     0.0000E+00    0.0000E+00    4.250000E+09  0.00800  4.336E-05    0   0.5426   age158_m52            0.0000     2.0520E+00     5.8962  -1.0000    92.3266
 32      0.0000     0.0000E+00    0.0000E+00    6.250000E+09  0.00800  3.159E-05    0   0.5319   age166_m52            0.0000     4.0106E+00     8.6085  -1.0000    84.1199
 33      0.0000     0.0000E+00    0.0000E+00    1.300000E+10  0.00800  1.361E-05    0   0.5073   age193_m52            0.0000     1.1565E+01    15.2455  -1.0000    66.8857
 34      0.0000     0.0000E+00    0.0000E+00    1.800000E+10  0.00800  9.886E-06    0   0.4990   age213_m52            0.0000     1.3524E+01    16.5495  -1.0000    63.2195
 35      0.0000     0.0000E+00    0.0000E+00    1.000000E+06  0.02000  1.544E-02    0   1.0000   age020_m62            0.0000     1.5392E+00     4.7978   2.1641    90.9940
 36      0.0000     0.0000E+00    0.0000E+00    3.160000E+06  0.02000  3.762E-02    0   0.9858   age045_m62            0.0000     1.5123E+00     4.7809   2.1048    91.7246
 37      0.0000     0.0000E+00    0.0000E+00    5.010000E+06  0.02000  3.296E-02    0   0.9342   age055_m62            0.0000     9.1491E-01     3.5261   1.7133    96.3323
 38      0.0000     0.0000E+00    0.0000E+00    8.710000E+06  0.02000  1.154E-02    0   0.8861   age067_m62            0.0000     3.3306E+00     7.6849   0.5347   111.6807
 39      0.0000     0.0000E+00    0.0000E+00    1.445000E+07  0.02000  7.663E-03    0   0.8472   age078_m62            0.0000     1.4601E+00     5.0301   0.7943   107.6916
 40      0.0000     0.0000E+00    0.0000E+00    2.512000E+07  0.02000  4.532E-03    0   0.8099   age090_m62            0.0000     1.6049E+00     5.2974   0.7777   107.9133
 41      0.0000     0.0000E+00    0.0000E+00    5.500000E+07  0.02000  2.733E-03    0   0.7595   age110_m62            0.0000     6.9414E-01     3.4511   0.8291   105.7244
 42      0.0000     0.0000E+00    0.0000E+00    1.609000E+08  0.02000  1.369E-03    0   0.6985   age120_m62            0.0000     5.2490E-01     2.8830   0.6876   107.6920
 43      0.0000     0.0000E+00    0.0000E+00    2.861200E+08  0.02000  9.013E-04    0   0.6714   age125_m62            0.0000     5.7663E-01     3.0766   0.4449   110.3816
 44      0.0000     0.0000E+00    0.0000E+00    5.088000E+08  0.02000  5.028E-04    0   0.6449   age130_m62            0.0000     7.1008E-01     3.4037   0.1128   110.9403
 45      0.0000     0.0000E+00    0.0000E+00    9.047900E+08  0.02000  2.428E-04    0   0.6179   age135_m62            0.0000     8.1812E-01     3.6173  -0.4392   108.5226
 46      0.0000     0.0000E+00    0.0000E+00    1.434000E+09  0.02000  1.263E-04    0   0.5908   age139_m62            0.0000     1.1025E+00     4.0020  -0.8642   105.9260
 47      0.0000     0.0000E+00    0.0000E+00    2.500000E+09  0.02000  5.985E-05    0   0.5673   age150_m62            0.0000     2.2006E+00     6.1481  -1.0000    94.1405
 48      0.0000     0.0000E+00    0.0000E+00    4.250000E+09  0.02000  3.271E-05    0   0.5468   age158_m62            0.0000     5.3536E+00    10.0803  -1.0000    81.0714
 49      0.0000     0.0000E+00    0.0000E+00    1.000000E+10  0.02000  1.360E-05    0   0.5167   age181_m62            0.0000     1.0931E+01    14.8530  -1.0000    68.4902
 50      0.0000     0.0000E+00    0.0000E+00    1.800000E+10  0.02000  7.124E-06    0   0.5013   age213_m62            0.0000     1.4921E+01    17.4933  -1.0000    61.4577
 51      0.0000     0.0000E+00    0.0000E+00    1.000000E+06  0.05000  2.592E-02    0   0.9998   age020_m72            0.0000     1.6110E+00     4.9304   2.1559    90.9902
 52      0.0000     0.0000E+00    0.0000E+00    3.160000E+06  0.05000  4.845E-02    0   0.9577   age045_m72            0.0000     1.2924E+00     4.3370   1.9874    92.9968
 53      0.0000     0.0000E+00    0.0000E+00    5.010000E+06  0.05000  3.072E-02    0   0.9147   age055_m72            0.0000     1.4044E+00     4.7421   1.4361   100.9526
 54      0.0000     0.0000E+00    0.0000E+00    6.610000E+06  0.05000  1.455E-02    0   0.8877   age061_m72            0.0000     6.7666E+00    10.3872   0.5731   114.1673
 55      0.0000     0.0000E+00    0.0000E+00    1.000000E+07  0.05000  9.074E-03    0   0.8524   age070_m72            0.0000     2.0292E+00     5.4534   1.6421   100.0844
 56      0.0000     0.0000E+00    0.0000E+00    2.512000E+07  0.05000  4.250E-03    0   0.7902   age090_m72            0.0000     1.4594E+00     4.7026   1.3090   103.2887
 57      0.0000     0.0000E+00    0.0000E+00    4.000000E+07  0.05000  3.087E-03    0   0.7618   age104_m72            0.0000     1.5649E+00     4.8157   1.0628   105.9502
 58      0.0000     0.0000E+00    0.0000E+00    1.015200E+08  0.05000  1.700E-03    0   0.7096   age116_m72            0.0000     6.7746E-01     3.3060   0.8149   108.0787
 59      0.0000     0.0000E+00    0.0000E+00    2.861200E+08  0.05000  7.384E-04    0   0.6633   age125_m72            0.0000     6.3479E-01     3.1468   0.3353   110.7048
 60     47.3022     8.9112E+01    8.7575E+01    5.088000E+08  0.05000  3.819E-04    0   0.6372   age130_m72            0.0000     7.2804E-01     3.4138  -0.1133   110.1268
 61      0.0000     0.0000E+00    0.0000E+00    9.047900E+08  0.05000  1.676E-04    0   0.6110   age135_m72            0.0000     1.4142E+00     4.6788  -0.7410   104.7602
 62      0.0000     0.0000E+00    0.0000E+00    1.434000E+09  0.05000  8.837E-05    0   0.5874   age139_m72            0.0000     2.3915E+00     6.4594  -1.0000    95.4756
 63      0.0000     0.0000E+00    0.0000E+00    2.500000E+09  0.05000  4.233E-05    0   0.5598   age150_m72            0.0000     5.4640E+00    10.1956  -1.0000    81.7489
 64      0.0000     0.0000E+00    0.0000E+00    6.250000E+09  0.05000  1.435E-05    0   0.5249   age166_m72            0.0000     1.2815E+01    16.1214  -1.0000    65.0955
 65      0.0000     0.0000E+00    0.0000E+00    1.300000E+10  0.05000  6.513E-06    0   0.5036   age193_m72            0.0000     1.8618E+01    19.5299  -1.0000    57.4128
 66      0.0000     0.0000E+00    0.0000E+00    1.800000E+10  0.05000  4.527E-06    0   0.4945   age213_m72            0.0000     2.2248E+01    21.3553  -1.0000    52.9812


## Synthesis Results - Average & Chains ##

# j      x_j: min, <> & last-chain-values for 1 ...  7 chains
  1      0.0000      0.0732      0.0000      0.0000      0.0000      0.0000      0.0000      0.0000      0.0000
  2      4.8408      0.4487      0.0000      1.0173      0.0000      0.1248      0.0000      1.2106      0.0000
  3      0.0000      0.2511      0.0000      0.0000      0.0000      0.0000      0.0000      0.1316      0.0000
  4      3.4372      0.6697      1.0527      0.4776      0.0000      0.9123      1.9862      0.0827      0.8174
  5      0.0012      0.3097      0.1084      1.0983      0.0000      0.0309      0.0000      0.0000      0.8351
  6      0.7818      0.3874      0.8770      0.6942      0.0000      0.0000      0.0000      0.9527      0.8403
  7      0.0000      1.0282      0.0000      0.0000      0.5792      0.0000      1.9498      3.1638      1.0093
  8      0.0000      1.3994      1.1345      0.0000      0.5901      0.0000      0.6661      0.0000      0.6433
  9      3.2579      2.8109      3.2070      4.6719      1.7444      3.6674      3.0318      2.7939      4.0028
 10     28.6867     14.6417     20.0645      8.6287     18.4320     19.2431     16.1227     16.7076     14.4039
 11      0.0000      0.1663      0.0000      0.0763      0.0965      0.0000      0.0000      0.1239      0.0000
 12      0.0000      0.2672      0.0000      0.3088      0.2316      0.0000      0.1655      0.0705      0.0000
 13      0.0000      0.0190      0.0000      0.0000      0.0000      0.0000      0.0000      0.0000      0.0000
 14      0.0000      0.0044      0.0000      0.0000      0.0000      0.0000      0.0000      0.0000      0.0000
 15      0.0000      0.0107      0.0000      0.0000      0.0000      0.0000      0.0000      0.0000      0.0028
 16      0.0000      0.0106      0.0000      0.0000      0.0000      0.0000      0.0000      0.0000      0.0000
 17      0.0000      0.0032      0.0000      0.0000      0.0000      0.0000      0.0000      0.0000      0.0000
 18      0.0000      0.1688      0.0000      0.0827      0.0000      0.0000      0.3825      0.0000      0.0000
 19      0.0000      0.0831      0.1850      0.0019      0.0000      0.0000      0.0000      0.0000      0.0000
 20      4.1351      1.4185      2.0700      1.9220      1.1376      2.2212      3.2680      0.0000      1.3398
 21     14.9254     25.6594     24.8505     31.2895     25.1364     26.3014     24.0263     27.5013     25.8416
 22      0.0013      0.2539      1.1556      0.8489      0.0000      0.0000      0.1602      0.0000      0.0000
 23      0.0000      0.2498      0.8215      0.0297      1.4682      0.0000      0.0000      0.0000      0.1714
 24      0.0000      0.3170      0.5037      0.0000      0.3223      0.8042      0.0000      0.0000      0.2691
 25      0.0069      0.4144      0.0000      0.4221      0.0000      0.0000      0.2755      0.0000      0.0000
 26      0.0000      1.7577      0.0000      0.0000      1.3785      0.0000      2.7721      2.0972      2.4519
 27      0.0000      0.3443      0.0000      0.0000      0.2883      0.3156      0.0000      0.0000      0.0000
 28      0.0000      0.0399      0.0000      0.0000      0.0000      0.0000      0.0000      0.0000      0.0000
 29      0.0000      0.0055      0.0000      0.0000      0.0000      0.0000      0.0000      0.0000      0.0000
 30      0.0000      0.0019      0.0000      0.0000      0.0000      0.0000      0.0000      0.0000      0.0000
 31      0.0000      0.0116      0.0000      0.0000      0.0000      0.0000      0.0000      0.0000      0.0000
 32      0.0000      0.0058      0.0000      0.0000      0.0000      0.0000      0.0000      0.0000      0.0000
 33      0.0000      0.0020      0.0000      0.0271      0.0000      0.0000      0.0000      0.0000      0.0000
 34      0.0000      0.0004      0.0000      0.0000      0.0000      0.0000      0.0000      0.0000      0.0000
 35      0.0000      0.1152      0.6065      0.3160      0.0000      0.0000      0.0761      0.0000      0.0000
 36      0.0000      0.1063      0.2821      0.0000      0.2225      0.0000      0.0000      0.0000      0.0000
 37      0.0000      0.8862      0.0000      0.0000      4.0147      1.1490      0.6853      0.8938      0.0000
 38      0.0000      0.0857      0.0478      0.0000      0.0000      0.0000      0.0000      0.0000      0.0000
 39      0.0000      0.1447      0.0000      0.0000      0.0000      0.0000      0.0000      0.0000      0.0000
 40      0.0000      0.1431      0.0000      0.0000      0.0000      0.0000      0.0000      0.0000      0.0000
 41      0.0000      0.2645      0.0000      0.0000      0.8290      0.0000      0.1465      0.0000      0.1517
 42      0.0000      0.8812      0.5887      0.0064      0.6878      0.4192      0.4775      0.0000      0.9961
 43      0.0000      1.0611      0.3722      0.0000      0.0000      0.0027      0.9896      0.3703      0.5350
 44      0.0000     10.1651      6.1295     11.4880      9.4049     13.1759     10.6089      8.9432     10.1271
 45      0.0000      0.0554      0.0869      0.2730      0.0000      0.0000      0.0370      0.0000      0.0068
 46      0.0000      0.0254      0.0000      0.0000      0.0000      0.0000      0.0000      0.0000      0.0000
 47      0.0000      0.0128      0.0000      0.0000      0.0000      0.0000      0.0000      0.0000      0.0000
 48      0.0000      0.0025      0.0000      0.0000      0.0000      0.0000      0.0000      0.0000      0.0000
 49      0.0000      0.0014      0.0000      0.0000      0.0000      0.0000      0.0000      0.0000      0.0000
 50      0.0000      0.0009      0.0000      0.0412      0.0000      0.0000      0.0000      0.0000      0.0000
 51      0.0000      0.0759      0.0000      0.3168      0.0000      0.0000      0.3571      0.0000      0.0000
 52      0.0000      0.4880      0.5048      0.4179      0.1661      0.9891      0.5103      1.5692      1.0156
 53      0.0000      0.1424      0.0000      0.0000      0.0000      0.9078      0.0000      0.0000      0.0000
 54      0.0000      0.0133      0.0000      0.0000      0.0000      0.0000      0.0000      0.0000      0.0000
 55      0.0000      0.0717      0.0000      0.0000      0.0000      0.0000      0.0000      0.0000      0.0000
 56      0.0000      0.0900      0.0000      0.0000      0.0835      0.0000      0.0000      0.0000      0.0189
 57      0.0000      0.0617      0.0000      0.0000      0.0000      0.0000      0.0000      0.0000      0.0000
 58      0.0000      0.3683      0.0000      0.0000      0.0000      0.0000      0.1285      0.4054      0.2595
 59      0.0000     20.4413     18.8534     19.7794     20.0604     18.1898     18.3121     20.0332     22.2348
 60     47.3022     18.6247     24.2608     23.5178     20.2129     19.2539     19.8951     20.5367     19.7355
 61      0.0000      0.1630      0.0000      0.1911      0.6242      0.0000      0.7119      0.1092      0.0000
 62      0.0000      0.0074      0.0000      0.0000      0.0000      0.0000      0.0000      0.0000      0.0000
 63      0.0000      0.0057      0.0000      0.0000      0.0000      0.0000      0.0000      0.0000      0.0000
 64      0.0000      0.0009      0.0000      0.0000      0.0000      0.0000      0.0000      0.0000      0.0000
 65      0.0000      0.0008      0.0000      0.0000      0.0000      0.0000      0.0000      0.0000      0.0000
 66      0.0000      0.0018      0.0000      0.0000      0.0000      0.0000      0.0531      0.0000      0.0000

# j      m_j: min, <> & last-chain-values for 1 ...  7 chains
  1  0.0000E+00  8.8998E-03  0.0000E+00  0.0000E+00  0.0000E+00  0.0000E+00  0.0000E+00  0.0000E+00  0.0000E+00
  2  1.3404E-01  1.4885E-02  0.0000E+00  3.0536E-02  0.0000E+00  4.1875E-03  0.0000E+00  4.1163E-02  0.0000E+00
  3  0.0000E+00  1.2471E-02  0.0000E+00  0.0000E+00  0.0000E+00  0.0000E+00  0.0000E+00  6.7031E-03  0.0000E+00
  4  1.3422E-01  3.1326E-02  4.9274E-02  2.0216E-02  0.0000E+00  4.3173E-02  8.5577E-02  3.9637E-03  3.8257E-02
  5  8.6773E-05  2.7595E-02  9.6609E-03  8.8562E-02  0.0000E+00  2.7817E-03  0.0000E+00  0.0000E+00  7.4460E-02
  6  9.4316E-02  5.5993E-02  1.2682E-01  9.0793E-02  0.0000E+00  0.0000E+00  0.0000E+00  1.4115E-01  1.2151E-01
  7  0.0000E+00  2.1276E-01  0.0000E+00  0.0000E+00  1.1917E-01  0.0000E+00  3.7159E-01  6.7108E-01  2.0896E-01
  8  0.0000E+00  4.0022E-01  3.2465E-01  0.0000E+00  1.6780E-01  0.0000E+00  1.7546E-01  0.0000E+00  1.8408E-01
  9  8.9022E-01  9.2013E-01  1.0504E+00  1.3839E+00  5.6773E-01  1.2145E+00  9.1409E-01  9.3750E-01  1.3110E+00
 10  1.0297E+01  6.2957E+00  8.6325E+00  3.3575E+00  7.8800E+00  8.3706E+00  6.3852E+00  7.3642E+00  6.1969E+00
 11  0.0000E+00  1.3449E-01  0.0000E+00  5.5851E-02  7.7585E-02  0.0000E+00  0.0000E+00  1.0266E-01  0.0000E+00
 12  0.0000E+00  3.4267E-01  0.0000E+00  3.5844E-01  2.9539E-01  0.0000E+00  1.9554E-01  9.2732E-02  0.0000E+00
 13  0.0000E+00  6.8682E-02  0.0000E+00  0.0000E+00  0.0000E+00  0.0000E+00  0.0000E+00  0.0000E+00  0.0000E+00
 14  0.0000E+00  5.2817E-02  0.0000E+00  0.0000E+00  0.0000E+00  0.0000E+00  0.0000E+00  0.0000E+00  0.0000E+00
 15  0.0000E+00  2.1135E-01  0.0000E+00  0.0000E+00  0.0000E+00  0.0000E+00  0.0000E+00  0.0000E+00  5.6067E-02
 16  0.0000E+00  3.5504E-01  0.0000E+00  0.0000E+00  0.0000E+00  0.0000E+00  0.0000E+00  0.0000E+00  0.0000E+00
 17  0.0000E+00  1.3858E-01  0.0000E+00  0.0000E+00  0.0000E+00  0.0000E+00  0.0000E+00  0.0000E+00  0.0000E+00
 18  0.0000E+00  1.8129E-02  0.0000E+00  8.0398E-03  0.0000E+00  0.0000E+00  3.7828E-02  0.0000E+00  0.0000E+00
 19  0.0000E+00  3.5805E-03  7.9783E-03  7.5671E-05  0.0000E+00  0.0000E+00  0.0000E+00  0.0000E+00  0.0000E+00
 20  1.6240E-01  6.6737E-02  9.7446E-02  8.1828E-02  5.3214E-02  1.0572E-01  1.4161E-01  0.0000E+00  6.3071E-02
 21  7.1154E-01  1.4654E+00  1.4201E+00  1.6171E+00  1.4273E+00  1.5196E+00  1.2638E+00  1.6100E+00  1.4766E+00
 22  1.0367E-04  2.4521E-02  1.1166E-01  7.4189E-02  0.0000E+00  0.0000E+00  1.4246E-02  0.0000E+00  0.0000E+00
 23  0.0000E+00  3.2574E-02  1.0720E-01  3.5072E-03  1.9037E-01  0.0000E+00  0.0000E+00  0.0000E+00  2.2364E-02
 24  0.0000E+00  6.1496E-02  9.7792E-02  0.0000E+00  6.2172E-02  1.5784E-01  0.0000E+00  0.0000E+00  5.2249E-02
 25  1.5464E-03  1.1086E-01  0.0000E+00  1.0218E-01  0.0000E+00  0.0000E+00  6.7889E-02  0.0000E+00  0.0000E+00
 26  0.0000E+00  7.8601E-01  0.0000E+00  0.0000E+00  6.1290E-01  0.0000E+00  1.1417E+00  9.6133E-01  1.0970E+00
 27  0.0000E+00  3.0815E-01  0.0000E+00  0.0000E+00  2.5660E-01  2.8575E-01  0.0000E+00  0.0000E+00  0.0000E+00
 28  0.0000E+00  1.0366E-01  0.0000E+00  0.0000E+00  0.0000E+00  0.0000E+00  0.0000E+00  0.0000E+00  0.0000E+00
 29  0.0000E+00  2.4739E-02  0.0000E+00  0.0000E+00  0.0000E+00  0.0000E+00  0.0000E+00  0.0000E+00  0.0000E+00
 30  0.0000E+00  1.8277E-02  0.0000E+00  0.0000E+00  0.0000E+00  0.0000E+00  0.0000E+00  0.0000E+00  0.0000E+00
 31  0.0000E+00  1.9355E-01  0.0000E+00  0.0000E+00  0.0000E+00  0.0000E+00  0.0000E+00  0.0000E+00  0.0000E+00
 32  0.0000E+00  1.2930E-01  0.0000E+00  0.0000E+00  0.0000E+00  0.0000E+00  0.0000E+00  0.0000E+00  0.0000E+00
 33  0.0000E+00  9.9207E-02  0.0000E+00  1.2170E+00  0.0000E+00  0.0000E+00  0.0000E+00  0.0000E+00  0.0000E+00
 34  0.0000E+00  2.5232E-02  0.0000E+00  0.0000E+00  0.0000E+00  0.0000E+00  0.0000E+00  0.0000E+00  0.0000E+00
 35  0.0000E+00  9.9199E-03  5.2248E-02  2.4619E-02  0.0000E+00  0.0000E+00  6.0321E-03  0.0000E+00  0.0000E+00
 36  0.0000E+00  3.7037E-03  9.8326E-03  0.0000E+00  7.7056E-03  0.0000E+00  0.0000E+00  0.0000E+00  0.0000E+00
 37  0.0000E+00  3.3390E-02  0.0000E+00  0.0000E+00  1.5039E-01  4.3793E-02  2.3779E-02  3.4520E-02  0.0000E+00
 38  0.0000E+00  8.7492E-03  4.8793E-03  0.0000E+00  0.0000E+00  0.0000E+00  0.0000E+00  0.0000E+00  0.0000E+00
 39  0.0000E+00  2.1269E-02  0.0000E+00  0.0000E+00  0.0000E+00  0.0000E+00  0.0000E+00  0.0000E+00  0.0000E+00
 40  0.0000E+00  3.4000E-02  0.0000E+00  0.0000E+00  0.0000E+00  0.0000E+00  0.0000E+00  0.0000E+00  0.0000E+00
 41  0.0000E+00  9.7703E-02  0.0000E+00  0.0000E+00  3.0448E-01  0.0000E+00  4.9850E-02  0.0000E+00  5.6089E-02
 42  0.0000E+00  5.9768E-01  3.9953E-01  3.9266E-03  4.6383E-01  2.8766E-01  2.9826E-01  0.0000E+00  6.7598E-01
 43  0.0000E+00  1.0507E+00  3.6881E-01  0.0000E+00  0.0000E+00  2.6630E-03  9.0256E-01  3.7591E-01  5.3008E-01
 44  0.0000E+00  1.7331E+01  1.0457E+01  1.7724E+01  1.5943E+01  2.2726E+01  1.6660E+01  1.5630E+01  1.7276E+01
 45  0.0000E+00  1.8737E-01  2.9406E-01  8.3587E-01  0.0000E+00  0.0000E+00  1.1534E-01  0.0000E+00  2.2996E-02
 46  0.0000E+00  1.5803E-01  0.0000E+00  0.0000E+00  0.0000E+00  0.0000E+00  0.0000E+00  0.0000E+00  0.0000E+00
 47  0.0000E+00  1.6136E-01  0.0000E+00  0.0000E+00  0.0000E+00  0.0000E+00  0.0000E+00  0.0000E+00  0.0000E+00
 48  0.0000E+00  5.5659E-02  0.0000E+00  0.0000E+00  0.0000E+00  0.0000E+00  0.0000E+00  0.0000E+00  0.0000E+00
 49  0.0000E+00  6.8657E-02  0.0000E+00  0.0000E+00  0.0000E+00  0.0000E+00  0.0000E+00  0.0000E+00  0.0000E+00
 50  0.0000E+00  8.4436E-02  0.0000E+00  3.4855E+00  0.0000E+00  0.0000E+00  0.0000E+00  0.0000E+00  0.0000E+00
 51  0.0000E+00  3.8904E-03  0.0000E+00  1.4699E-02  0.0000E+00  0.0000E+00  1.6864E-02  0.0000E+00  0.0000E+00
 52  0.0000E+00  1.2821E-02  1.3271E-02  9.9377E-03  4.3383E-03  2.6293E-02  1.2350E-02  4.2266E-02  2.6699E-02
 53  0.0000E+00  5.6355E-03  0.0000E+00  0.0000E+00  0.0000E+00  3.6349E-02  0.0000E+00  0.0000E+00  0.0000E+00
 54  0.0000E+00  1.0783E-03  0.0000E+00  0.0000E+00  0.0000E+00  0.0000E+00  0.0000E+00  0.0000E+00  0.0000E+00
 55  0.0000E+00  8.9495E-03  0.0000E+00  0.0000E+00  0.0000E+00  0.0000E+00  0.0000E+00  0.0000E+00  0.0000E+00
 56  0.0000E+00  2.2236E-02  0.0000E+00  0.0000E+00  2.0515E-02  0.0000E+00  0.0000E+00  0.0000E+00  4.6855E-03
 57  0.0000E+00  2.0243E-02  0.0000E+00  0.0000E+00  0.0000E+00  0.0000E+00  0.0000E+00  0.0000E+00  0.0000E+00
 58  0.0000E+00  2.0438E-01  0.0000E+00  0.0000E+00  0.0000E+00  0.0000E+00  6.5691E-02  2.3058E-01  1.4407E-01
 59  0.0000E+00  2.4408E+01  2.2526E+01  2.1373E+01  2.3816E+01  2.1973E+01  2.0140E+01  2.4521E+01  2.6565E+01
 60  8.7575E+01  4.1307E+01  5.3840E+01  4.7201E+01  4.4572E+01  4.3200E+01  4.0641E+01  4.6691E+01  4.3796E+01
 61  0.0000E+00  7.9008E-01  0.0000E+00  8.3798E-01  3.0073E+00  0.0000E+00  3.1775E+00  5.4239E-01  0.0000E+00
 62  0.0000E+00  6.5543E-02  0.0000E+00  0.0000E+00  0.0000E+00  0.0000E+00  0.0000E+00  0.0000E+00  0.0000E+00
 63  0.0000E+00  1.0085E-01  0.0000E+00  0.0000E+00  0.0000E+00  0.0000E+00  0.0000E+00  0.0000E+00  0.0000E+00
 64  0.0000E+00  4.2548E-02  0.0000E+00  0.0000E+00  0.0000E+00  0.0000E+00  0.0000E+00  0.0000E+00  0.0000E+00
 65  0.0000E+00  8.6597E-02  0.0000E+00  0.0000E+00  0.0000E+00  0.0000E+00  0.0000E+00  0.0000E+00  0.0000E+00
 66  0.0000E+00  2.6056E-01  0.0000E+00  0.0000E+00  0.0000E+00  0.0000E+00  7.0964E+00  0.0000E+00  0.0000E+00

# AV, chi2 & Mass for <> & i_chain = 1 ...  7 solutions
AV       0.3697      0.4084      0.4071      0.3490      0.4080      0.4091      0.4072      0.4030      0.3986
chi2 3.7097E-01  3.8932E-01  3.8405E-01  3.8286E-01  3.8601E-01  3.8652E-01  3.8648E-01  3.8526E-01  3.8658E-01
Mass 2.5325E-13  2.2268E-13  2.2218E-13  2.2723E-13  2.2387E-13  2.2033E-13  2.4140E-13  2.1568E-13  2.1966E-13
  88.90                                  [v0_min (km/s) before EX0s...]
 212.18                                  [vd_min (km/s) before EX0s...]


## Synthetic spectrum (Best Model) ##l_obs f_obs f_syn wei
 3478    [Nl_obs]
 3741.00    0.57040   0.67887    0.000
 3742.00    0.61317   0.69553    0.000
 3743.00    0.64347   0.70082    0.000
 3744.00    0.65272   0.69454    0.000
 3745.00    0.63764   0.67783   15.683
 3746.00    0.60173   0.65289   16.619
 3747.00    0.56293   0.62268   17.764
 3748.00    0.54581   0.59137   18.321
 3749.00    0.55661   0.56451   17.966
 3750.00    0.58152   0.54782   17.196
 3751.00    0.59844   0.54527   16.710
 3752.00    0.59229   0.55781   16.883
 3753.00    0.57990   0.58321   17.244
 3754.00    0.59199   0.61666   16.892
 3755.00    0.63008   0.65210   15.871
 3756.00    0.67329   0.68408   14.852
 3757.00    0.70446   0.70941   14.195
 3758.00    0.71834   0.72755   13.921
 3759.00    0.72637   0.73971   13.767
 3760.00    0.74152   0.74751   13.486
 3761.00    0.75708   0.75206   13.209
 3762.00    0.76151   0.75334   13.132
 3763.00    0.75976   0.75035   13.162
 3764.00    0.75629   0.74171   13.222
 3765.00    0.73445   0.72617   13.616
 3766.00    0.68514   0.70339   14.596
 3767.00    0.63605   0.67458   15.722
 3768.00    0.61422   0.64241   16.281
 3769.00    0.61001   0.61099   16.393
 3770.00    0.60531   0.58579   16.520
 3771.00    0.59952   0.57197   16.680
 3772.00    0.59579   0.57248   16.784
 3773.00    0.59041   0.58730   16.937
 3774.00    0.58738   0.61401   17.025
 3775.00    0.60548   0.64877   16.516
 3776.00    0.65145   0.68750   15.350
 3777.00    0.70672   0.72662   14.150
 3778.00    0.75619   0.76358   13.224
 3779.00    0.80237   0.79679   12.463
 3780.00    0.84587   0.82513   11.822
 3781.00    0.87707   0.84781   11.402
 3782.00    0.88990   0.86446   11.237
 3783.00    0.88714   0.87489   11.272
 3784.00    0.87310   0.87883   11.453
 3785.00    0.85036   0.87628   11.760
 3786.00    0.82087   0.86805   12.182
 3787.00    0.78812   0.85547   12.688
 3788.00    0.76306   0.83982   13.105
 3789.00    0.75962   0.82202   13.164
 3790.00    0.77360   0.80224   12.927
 3791.00    0.78318   0.77977   12.768
 3792.00    0.77112   0.75330   12.968
 3793.00    0.73223   0.72182   13.657
 3794.00    0.67498   0.68555   14.815
 3795.00    0.61849   0.64630   16.168
 3796.00    0.58445   0.60759   17.110
 3797.00    0.58464   0.57460   17.104
 3798.00    0.59960   0.55320   16.678
 3799.00    0.60002   0.54777   16.666
 3800.00    0.59673   0.55951   16.758
 3801.00    0.62111   0.58639   16.100
 3802.00    0.67261   0.62397   14.868
 3803.00    0.72757   0.66664   13.744
 3804.00    0.76902   0.70910   13.004
 3805.00    0.79148   0.74779   12.635
 3806.00    0.80044   0.78142   12.493
 3807.00    0.80645   0.81048   12.400
 3808.00    0.81718   0.83597   12.237
 3809.00    0.83532   0.85828   11.971
 3810.00    0.85747   0.87686   11.662
 3811.00    0.87693   0.89053   11.403
 3812.00    0.88726   0.89839   11.271
 3813.00    0.88579   0.90079   11.289
 3814.00    0.87643   0.89922   11.410
 3815.00    0.86602   0.89553   11.547
 3816.00    0.86025   0.89119   11.625
 3817.00    0.85948   0.88654   11.635
 3818.00    0.85669   0.88106   11.673
 3819.00    0.84660   0.87473   11.812
 3820.00    0.83265   0.86847   12.010
 3821.00    0.82659   0.86292   12.098
 3822.00    0.84380   0.85747   11.851
 3823.00    0.87828   0.85067   11.386
 3824.00    0.89447   0.84124   11.180
 3825.00    0.86873   0.82847   11.511
 3826.00    0.81061   0.81203   12.336
 3827.00    0.74856   0.79184   13.359
 3828.00    0.71398   0.76800   14.006
 3829.00    0.70554   0.74045   14.173
 3830.00    0.68715   0.70885   14.553
 3831.00    0.64721   0.67303   15.451
 3832.00    0.61059   0.63395   16.378
 3833.00    0.58825   0.59422   17.000
 3834.00    0.56891   0.55796   17.577
 3835.00    0.55738   0.53028   17.941
 3836.00    0.57279   0.51567   17.458
 3837.00    0.60262   0.51632   16.594
 3838.00    0.61014   0.53186   16.390
 3839.00    0.59468   0.55992   16.816
 3840.00    0.58884   0.59694   16.983
 3841.00    0.60808   0.63912   16.445
 3842.00    0.64508   0.68280   15.502
 3843.00    0.68698   0.72490   14.556
 3844.00    0.72454   0.76331   13.802
 3845.00    0.76179   0.79699   13.127
 3846.00    0.80526   0.82577   12.418
 3847.00    0.84102   0.84990    0.000
 3848.00    0.85081   0.86976    0.000
 3849.00    0.84590   0.88613    0.000
 3850.00    0.85256   0.90019    0.000
 3851.00    0.88088   0.91270    0.000
 3852.00    0.92156   0.92354    0.000
 3853.00    0.94998   0.93228    0.000
 3854.00    0.95002   0.93859    0.000
 3855.00    0.94103   0.94251    0.000
 3856.00    0.94385   0.94473    0.000
 3857.00    0.94097   0.94607    0.000
 3858.00    0.91480   0.94708    0.000
 3859.00    0.88900   0.94861    0.000
 3860.00    0.89111   0.95156    0.000
 3861.00    0.91487   0.95592    0.000
 3862.00    0.93886   0.96091    0.000
 3863.00    0.94721   0.96569    0.000
 3864.00    0.94300   0.96946    0.000
 3865.00    0.95256   0.97161    0.000
 3866.00    0.98869   0.97204    0.000
 3867.00    1.02928   0.97094    0.000
 3868.00    1.05362   0.96837    0.000
 3869.00    1.06368   0.96382    0.000
 3870.00    1.06281   0.95675    0.000
 3871.00    1.04535   0.94726    0.000
 3872.00    1.01274   0.93657    0.000
 3873.00    0.97856   0.92625    0.000
 3874.00    0.95012   0.91698    0.000
 3875.00    0.92312   0.90814    0.000
 3876.00    0.89824   0.89835    0.000
 3877.00    0.88414   0.88632    0.000
 3878.00    0.87961   0.87184    0.000
 3879.00    0.87131   0.85532    0.000
 3880.00    0.85130   0.83656    0.000
 3881.00    0.82199   0.81477   12.166
 3882.00    0.79087   0.78940   12.644
 3883.00    0.76502   0.75997   13.072
 3884.00    0.74104   0.72593   13.494
 3885.00    0.71030   0.68742   14.079
 3886.00    0.68017   0.64631   14.702
 3887.00    0.66812   0.60611   14.967
 3888.00    0.67431   0.57164   14.830
 3889.00    0.68377   0.54835   14.625
 3890.00    0.68556   0.54035   14.587
 3891.00    0.67875   0.54854   14.733
 3892.00    0.67488   0.57072   14.817
 3893.00    0.68548   0.60286   14.588
 3894.00    0.70001   0.64031   14.285
 3895.00    0.70233   0.67905   14.238
 3896.00    0.70228   0.71621   14.239
 3897.00    0.71751   0.74999   13.937
 3898.00    0.74062   0.77964   13.502
 3899.00    0.75641   0.80555   13.220
 3900.00    0.77027   0.82858   12.983
 3901.00    0.79687   0.84904   12.549
 3902.00    0.84149   0.86667   11.884
 3903.00    0.89297   0.88154   11.199
 3904.00    0.92138   0.89407   10.853
 3905.00    0.91160   0.90495   10.970
 3906.00    0.89280   0.91554   11.201
 3907.00    0.89594   0.92719   11.161
 3908.00    0.91556   0.94011   10.922
 3909.00    0.93561   0.95348   10.688
 3910.00    0.95250   0.96606   10.499
 3911.00    0.96754   0.97646   10.336
 3912.00    0.98012   0.98350   10.203
 3913.00    0.98850   0.98689   10.116
 3914.00    0.99083   0.98728   10.093
 3915.00    0.98626   0.98555   10.139
 3916.00    0.97611   0.98240   10.245
 3917.00    0.96707   0.97865   10.340
 3918.00    0.96880   0.97491   10.322
 3919.00    0.97376   0.97165   10.269
 3920.00    0.95781   0.96941   10.440
 3921.00    0.92891   0.96847   10.765
 3922.00    0.93028   0.96843   10.749
 3923.00    0.96071   0.96824   10.409
 3924.00    0.96686   0.96643   10.343
 3925.00    0.93985   0.96135   10.640
 3926.00    0.92552   0.95197   10.805
 3927.00    0.93472   0.93784   10.698
 3928.00    0.93241   0.91870   10.725
 3929.00    0.90026   0.89470   11.108
 3930.00    0.84959   0.86671   11.770
 3931.00    0.80152   0.83625   12.476
 3932.00    0.77378   0.80606   12.924
 3933.00    0.76319   0.78063   13.103
 3934.00    0.75512   0.76521   13.243
 3935.00    0.75412   0.76317   13.261
 3936.00    0.77471   0.77452   12.908
 3937.00    0.80850   0.79648   12.369
 3938.00    0.83380   0.82491   11.993
 3939.00    0.84592   0.85523   11.821
 3940.00    0.85392   0.88320   11.711
 3941.00    0.86531   0.90586   11.557
 3942.00    0.88060   0.92228   11.356
 3943.00    0.88992   0.93316   11.237
 3944.00    0.88660   0.94027   11.279
 3945.00    0.88547   0.94542   11.293
 3946.00    0.90223   0.94914   11.084
 3947.00    0.92601   0.95115   10.799
 3948.00    0.93913   0.95156   10.648
 3949.00    0.94234   0.95081   10.612
 3950.00    0.93980   0.94906   10.641
 3951.00    0.92284   0.94613   10.836
 3952.00    0.89419   0.94212   11.183
 3953.00    0.88706   0.93737   11.273
 3954.00    0.91437   0.93153   10.937
 3955.00    0.93196   0.92365   10.730
 3956.00    0.90903   0.91342   11.001
 3957.00    0.87702   0.90131   11.402
 3958.00    0.86520   0.88735   11.558
 3959.00    0.85844   0.87058   11.649
 3960.00    0.83949   0.84966    0.000
 3961.00    0.81429   0.82388    0.000
 3962.00    0.78848   0.79331    0.000
 3963.00    0.75650   0.75792    0.000
 3964.00    0.72127   0.71757    0.000
 3965.00    0.69808   0.67280    0.000
 3966.00    0.68183   0.62496    0.000
 3967.00    0.64493   0.57661    0.000
 3968.00    0.59656   0.53188    0.000
 3969.00    0.58551   0.49612    0.000
 3970.00    0.61004   0.47450    0.000
 3971.00    0.61080   0.47025    0.000
 3972.00    0.57319   0.48349    0.000
 3973.00    0.54198   0.51180    0.000
 3974.00    0.54840   0.55136    0.000
 3975.00    0.58984   0.59752    0.000
 3976.00    0.64248   0.64577    0.000
 3977.00    0.67834   0.69276    0.000
 3978.00    0.69842   0.73624    0.000
 3979.00    0.72435   0.77481    0.000
 3980.00    0.75828   0.80766    0.000
 3981.00    0.78674   0.83464   12.711
 3982.00    0.80964   0.85664   12.351
 3983.00    0.83614   0.87518   11.960
 3984.00    0.86465   0.89153   11.565
 3985.00    0.88708   0.90643   11.273
 3986.00    0.90310   0.92032   11.073
 3987.00    0.91748   0.93350   10.899
 3988.00    0.93177   0.94588   10.732
 3989.00    0.94593   0.95705   10.572
 3990.00    0.96234   0.96697   10.391
 3991.00    0.98152   0.97582   10.188
 3992.00    0.99639   0.98334   10.036
 3993.00    0.99902   0.98904   10.010
 3994.00    0.98959   0.99252   10.105
 3995.00    0.97447   0.99395   10.262
 3996.00    0.96247   0.99403   10.390
 3997.00    0.95943   0.99395   10.423
 3998.00    0.96381   0.99509   10.375
 3999.00    0.97285   0.99810   10.279
 4000.00    0.98747   1.00223   10.127
 4001.00    1.00366   1.00623    9.964
 4002.00    1.00741   1.00921    9.926
 4003.00    0.99266   1.01033   10.074
 4004.00    0.97228   1.00905   10.285
 4005.00    0.95972   1.00634   10.420
 4006.00    0.95701   1.00437   10.449
 4007.00    0.96150   1.00445   10.400
 4008.00    0.97045   1.00653   10.305
 4009.00    0.98114   1.01031   10.192
 4010.00    0.99058   1.01544   10.095
 4011.00    0.99423   1.02111   10.058
 4012.00    0.98817   1.02640   10.120
 4013.00    0.98118   1.03102   10.192
 4014.00    0.99251   1.03500   10.076
 4015.00    1.02045   1.03841    9.800
 4016.00    1.03948   1.04126    9.620
 4017.00    1.03767   1.04368    9.637
 4018.00    1.02539   1.04602    9.752
 4019.00    1.01607   1.04792    9.842
 4020.00    1.01751   1.04821    9.828
 4021.00    1.02669   1.04603    9.740
 4022.00    1.03301   1.04132    9.680
 4023.00    1.03137   1.03432    9.696
 4024.00    1.02352   1.02581    9.770
 4025.00    1.01232   1.01761    9.878
 4026.00    1.00192   1.01159    9.981
 4027.00    1.00107   1.00823    9.989
 4028.00    1.01388   1.00641    9.863
 4029.00    1.02061   1.00474    9.798
 4030.00    0.99902   1.00272   10.010
 4031.00    0.96917   1.00104   10.318
 4032.00    0.96686   1.00074   10.343
 4033.00    0.98657   1.00261   10.136
 4034.00    1.00106   1.00723    9.989
 4035.00    1.00497   1.01464    9.951
 4036.00    1.00663   1.02415    9.934
 4037.00    1.00787   1.03427    9.922
 4038.00    1.00765   1.04306    9.924
 4039.00    1.00946   1.04894    9.906
 4040.00    1.01623   1.05120    9.840
 4041.00    1.02370   1.05009    9.769
 4042.00    1.02501   1.04614    9.756
 4043.00    1.01638   1.03949    9.839
 4044.00    1.00000   1.03075   10.000
 4045.00    0.98518   1.02215   10.150
 4046.00    0.97793   1.01666   10.226
 4047.00    0.97356   1.01545   10.272
 4048.00    0.96961   1.01729   10.313
 4049.00    0.97397   1.02071   10.267
 4050.00    0.98691   1.02461   10.133
 4051.00    0.99231   1.02755   10.077
 4052.00    0.98567   1.02830   10.145
 4053.00    0.98580   1.02672   10.144
 4054.00    0.99552   1.02352   10.045
 4055.00    0.98751   1.01979   10.126
 4056.00    0.95378   1.01636   10.485
 4057.00    0.92291   1.01357   10.835
 4058.00    0.91535   1.01187   10.925
 4059.00    0.92570   1.01128   10.803
 4060.00    0.94145   1.01079   10.622
 4061.00    0.95368   1.00893   10.486
 4062.00    0.96453   1.00507   10.368
 4063.00    0.98296   1.00019   10.173
 4064.00    1.00086   0.99615    9.991
 4065.00    0.99605   0.99358   10.040
 4066.00    0.96888   0.99178   10.321
 4067.00    0.94442   0.99074   10.588
 4068.00    0.94488   0.99093   10.583
 4069.00    0.97619   0.99135   10.244
 4070.00    1.01606   0.99030    9.842
 4071.00    1.02773   0.98745    9.730
 4072.00    0.99923   0.98375   10.008
 4073.00    0.94878   0.97950   10.540
 4074.00    0.91492   0.97389   10.930
 4075.00    0.92712   0.96646   10.786
 4076.00    0.95588   0.95794   10.462
 4077.00    0.94958   0.95021   10.531
 4078.00    0.91416   0.94547   10.939
 4079.00    0.88881   0.94453   11.251
 4080.00    0.88574   0.94640   11.290
 4081.00    0.89497   0.94928   11.174
 4082.00    0.90567   0.95145   11.042
 4083.00    0.91451   0.95177   10.935
 4084.00    0.93114   0.94990   10.740
 4085.00    0.95793   0.94619   10.439
 4086.00    0.96797   0.94127   10.331
 4087.00    0.93958   0.93556   10.643
 4088.00    0.89335   0.92893   11.194
 4089.00    0.85975   0.92095   11.631
 4090.00    0.84437   0.91113   11.843
 4091.00    0.83664   0.89873   11.953
 4092.00    0.82226   0.88308    0.000
 4093.00    0.79850   0.86376    0.000
 4094.00    0.78217   0.84016    0.000
 4095.00    0.78133   0.81175    0.000
 4096.00    0.77798   0.77888    0.000
 4097.00    0.75678   0.74251    0.000
 4098.00    0.72390   0.70379    0.000
 4099.00    0.69894   0.66431    0.000
 4100.00    0.70401   0.62661    0.000
 4101.00    0.73530   0.59497    0.000
 4102.00    0.75720   0.57470    0.000
 4103.00    0.75056   0.56907    0.000
 4104.00    0.73032   0.57791    0.000
 4105.00    0.71386   0.59887    0.000
 4106.00    0.70603   0.62861    0.000
 4107.00    0.69949   0.66318    0.000
 4108.00    0.68393   0.69902    0.000
 4109.00    0.67757   0.73343    0.000
 4110.00    0.71642   0.76486    0.000
 4111.00    0.78146   0.79303    0.000
 4112.00    0.80953   0.81834    0.000
 4113.00    0.79851   0.84110   12.523
 4114.00    0.80302   0.86130   12.453
 4115.00    0.83534   0.87880   11.971
 4116.00    0.86235   0.89328   11.596
 4117.00    0.86632   0.90428   11.543
 4118.00    0.85458   0.91185   11.702
 4119.00    0.84575   0.91714   11.824
 4120.00    0.85620   0.92149   11.679
 4121.00    0.87991   0.92564   11.365
 4122.00    0.89620   0.92997   11.158
 4123.00    0.89161   0.93483   11.216
 4124.00    0.86773   0.94009   11.524
 4125.00    0.84618   0.94481   11.818
 4126.00    0.84748   0.94775   11.800
 4127.00    0.85961   0.94835   11.633
 4128.00    0.86183   0.94722   11.603
 4129.00    0.86204   0.94540   11.600
 4130.00    0.87518   0.94337   11.426
 4131.00    0.89175   0.94173   11.214
 4132.00    0.89850   0.94174   11.130
 4133.00    0.90443   0.94464   11.057
 4134.00    0.92166   0.95076   10.850
 4135.00    0.94423   0.95942   10.591
 4136.00    0.96077   0.96904   10.408
 4137.00    0.96764   0.97810   10.334
 4138.00    0.96338   0.98588   10.380
 4139.00    0.94431   0.99136   10.590
 4140.00    0.91513   0.99319   10.927
 4141.00    0.89448   0.99054   11.180
 4142.00    0.89366   0.98380   11.190
 4143.00    0.90378   0.97539   11.065
 4144.00    0.91161   0.96907   10.970
 4145.00    0.91045   0.96668   10.984
 4146.00    0.90155   0.96731   11.092
 4147.00    0.89362   0.96983   11.190
 4148.00    0.89796   0.97321   11.136
 4149.00    0.92188   0.97645   10.848
 4150.00    0.95040   0.97910   10.522
 4151.00    0.95014   0.98064   10.524
 4152.00    0.92120   0.98037   10.854
 4153.00    0.90292   0.97850   11.077
 4154.00    0.90986   0.97608   10.994
 4155.00    0.91960   0.97426   10.869
 4156.00    0.91897   0.97371   10.873
 4157.00    0.91451   0.97477   10.950
 4158.00    0.91258   0.97749   10.981
 4159.00    0.91440   0.98130   10.890
 4160.00    0.92071   0.98547   10.803
 4161.00    0.93183   0.98970   10.865
 4162.00    0.94452   0.99393   10.731
 4163.00    0.95657   0.99769   10.093
 4164.00    0.97891   1.00034    9.870
 4165.00    1.02078   1.00154   11.320
 4166.00    1.05410   1.00098   14.678
 4167.00    1.04411   0.99885   17.052
 4168.00    1.01993   0.99573   16.513
 4169.00    1.03251   0.99150   15.866
 4170.00    1.06081   0.98529   15.957
 4171.00    1.05370   0.97700   16.136
 4172.00    1.01930   0.96791   16.236
 4173.00    0.99415   0.96009   16.417
 4174.00    0.98037   0.95478   16.523
 4175.00    0.96643   0.95173   16.365
 4176.00    0.96355   0.95003   16.211
 4177.00    0.98030   0.94932   16.349
 4178.00    0.99071   0.95020   16.572
 4179.00    0.97694   0.95321   16.569
 4180.00    0.97323   0.95750   16.432
 4181.00    1.00441   0.96147   16.405
 4182.00    1.02948   0.96462   16.580
 4183.00    1.01715   0.96749   16.837
 4184.00    1.00812   0.97034   16.830
 4185.00    1.03498   0.97277   16.461
 4186.00    1.06243   0.97390   16.168
 4187.00    1.05510   0.97396   16.267
 4188.00    1.02532   0.97479   16.637
 4189.00    0.99553   0.97718   17.082
 4190.00    0.97353   0.98010   17.543
 4191.00    0.96693   0.98290   17.887
 4192.00    0.98806   0.98577   17.815
 4193.00    1.02816   0.98818   17.359
 4194.00    1.05222   0.98859   16.972
 4195.00    1.04393   0.98593   16.931
 4196.00    1.02077   0.98068   17.197
 4197.00    0.99981   0.97382   17.688
 4198.00    0.98483   0.96642   18.325
 4199.00    0.97857   0.96018   18.771
 4200.00    0.98416   0.95591   18.544
 4201.00    0.99144   0.95326   17.961
 4202.00    0.98297   0.95266   17.854
 4203.00    0.96963   0.95455   18.134
 4204.00    0.98315   0.95815   17.941
 4205.00    1.01902   0.96303   17.347
 4206.00    1.04067   0.96894   17.211
 4207.00    1.03692   0.97490   17.716
 4208.00    1.02413   0.98017   18.410
 4209.00    1.01235   0.98444   18.892
 4210.00    1.00225   0.98766   19.048
 4211.00    0.99714   0.99009   19.036
 4212.00    0.99906   0.99150   19.078
 4213.00    0.99618   0.99120   19.103
 4214.00    0.97742   0.98902   18.901
 4215.00    0.96219   0.98599   18.517
 4216.00    0.97745   0.98434   18.182
 4217.00    1.01245   0.98502   18.083
 4218.00    1.03922   0.98683   18.237
 4219.00    1.05340   0.98846   18.333
 4220.00    1.06047   0.98932   18.105
 4221.00    1.05039   0.98869   17.864
 4222.00    1.01753   0.98547   17.989
 4223.00    0.98684   0.97901   18.328
 4224.00    0.98026   0.96950   18.539
 4225.00    0.97893   0.95841   18.576
 4226.00    0.95899   0.94841   18.619
 4227.00    0.93019   0.94270   18.875
 4228.00    0.91459   0.94296   19.317
 4229.00    0.92335   0.94775   19.455
 4230.00    0.95495   0.95442   18.973
 4231.00    0.99624   0.96087   18.282
 4232.00    1.02922   0.96534   17.865
 4233.00    1.03809   0.96756   17.894
 4234.00    1.02283   0.96831   18.270
 4235.00    1.00441   0.96740   18.629
 4236.00    1.00037   0.96539   18.699
 4237.00    1.00937   0.96402   18.580
 4238.00    1.01367   0.96401   18.502
 4239.00    0.98935   0.96569   18.620
 4240.00    0.94872   0.96930   18.806
 4241.00    0.94415   0.97374   18.677
 4242.00    0.98507   0.97780   18.296
 4243.00    1.02007   0.98130   18.211
 4244.00    1.02866   0.98375   18.440
 4245.00    1.04091   0.98400   18.374
 4246.00    1.06035   0.98167   17.963
 4247.00    1.05309   0.97763   17.830
 4248.00    1.01474   0.97310   18.174
 4249.00    0.97755   0.96842   18.640
 4250.00    0.95827   0.96383   18.879
 4251.00    0.95076   0.96079   18.791
 4252.00    0.95276   0.95996   18.580
 4253.00    0.96753   0.96028   18.538
 4254.00    0.98811   0.96101   18.574
 4255.00    1.00138   0.96248   18.410
 4256.00    1.00681   0.96462   18.249
 4257.00    1.01086   0.96618   18.492
 4258.00    1.00687   0.96593   -2.000
 4259.00    0.98783   0.96441   -2.000
 4260.00    0.97712   0.96323   -2.000
 4261.00    1.00049   0.96391   -2.000
 4262.00    1.03009   0.96691   -2.000
 4263.00    1.02264   0.97128   -2.000
 4264.00    0.99206   0.97596   -2.000
 4265.00    0.98011   0.98010   -2.000
 4266.00    0.99893   0.98238   -2.000
 4267.00    1.03236   0.98161   -2.000
 4268.00    1.04983   0.97752   -2.000
 4269.00    1.03127   0.97029   -2.000
 4270.00    0.99212   0.96055   -2.000
 4271.00    0.95892   0.94997   -2.000
 4272.00    0.94094   0.94134   -2.000
 4273.00    0.93773   0.93631   19.148
 4274.00    0.94869   0.93450   18.791
 4275.00    0.96770   0.93590   18.493
 4276.00    0.97997   0.94066   18.565
 4277.00    0.98025   0.94752   19.015
 4278.00    0.98355   0.95442   19.397
 4279.00    0.99469   0.95959   19.434
 4280.00    0.99176   0.96253   19.485
 4281.00    0.96826   0.96361   19.730
 4282.00    0.95390   0.96282   19.720
 4283.00    0.96653   0.96029   19.263
 4284.00    0.98891   0.95649   18.828
 4285.00    1.00354   0.95168   18.682
 4286.00    1.00838   0.94641   18.663
 4287.00    0.99618   0.94077   18.842
 4288.00    0.95413   0.93436   19.646
 4289.00    0.90808   0.92758   20.850
 4290.00    0.91581   0.92225   21.177
 4291.00    0.96285   0.92016   20.468
 4292.00    0.96147   0.92048   20.098
 4293.00    0.89907   0.92078   20.471
 4294.00    0.85262   0.91999   20.859
 4295.00    0.85630   0.91851   20.866
 4296.00    0.88048   0.91600   20.772
 4297.00    0.90202   0.91107   20.688
 4298.00    0.91757   0.90287   20.480
 4299.00    0.92107   0.89235   20.236
 4300.00    0.90660   0.88237   20.158
 4301.00    0.88975   0.87457   20.079
 4302.00    0.89377   0.86852   19.722
 4303.00    0.90895   0.86445   19.442
 4304.00    0.90902   0.86273   19.746
 4305.00    0.90059   0.86265   20.222
 4306.00    0.90436   0.86325   20.075
 4307.00    0.90525   0.86355   19.739
 4308.00    0.88192   0.86384   20.035
 4309.00    0.86678   0.86552   20.495
 4310.00    0.90077   0.86886   20.162
 4311.00    0.95488   0.87324   19.422
 4312.00    0.97464   0.87798   19.110
 4313.00    0.95427   0.88295   19.259
 4314.00    0.92044   0.88883   19.544
 4315.00    0.89930   0.89619   19.808
 4316.00    0.90146   0.90426   20.030
 4317.00    0.91186   0.91096   20.207
 4318.00    0.91579   0.91510   20.293
 4319.00    0.92333   0.91652   20.168
 4320.00    0.94036   0.91502   19.870
 4321.00    0.94392   0.91043   19.727
 4322.00    0.91909   0.90262   19.949
 4323.00    0.88769   0.89147   20.337
 4324.00    0.87568   0.87777   20.440
 4325.00    0.88701   0.86349   19.893
 4326.00    0.90532   0.85145   19.352
 4327.00    0.90184   0.84309   20.337
 4328.00    0.86934   0.83674   21.938
 4329.00    0.83594   0.83017   18.943
 4330.00    0.82314   0.82266    0.000
 4331.00    0.82526   0.81421    0.000
 4332.00    0.83025   0.80358    0.000
 4333.00    0.83010   0.78835    0.000
 4334.00    0.81640   0.76743    0.000
 4335.00    0.78380   0.74109    0.000
 4336.00    0.75307   0.70987    0.000
 4337.00    0.76423   0.67501    0.000
 4338.00    0.81466   0.63923    0.000
 4339.00    0.85836   0.60581    0.000
 4340.00    0.88430   0.57870    0.000
 4341.00    0.92039   0.56270    0.000
 4342.00    0.96109   0.56013    0.000
 4343.00    0.96765   0.56978    0.000
 4344.00    0.93287   0.58954    0.000
 4345.00    0.88185   0.61714    0.000
 4346.00    0.82661   0.64943    0.000
 4347.00    0.76868   0.68255    0.000
 4348.00    0.73130   0.71320    0.000
 4349.00    0.74276   0.73960    0.000
 4350.00    0.78732   0.76077    0.000
 4351.00    0.82392   0.77705   21.145
 4352.00    0.84012   0.79118   20.947
 4353.00    0.84889   0.80567   21.003
 4354.00    0.86492   0.82012   21.116
 4355.00    0.89154   0.83385   21.111
 4356.00    0.90859   0.84752   21.144
 4357.00    0.89748   0.86129   21.413
 4358.00    0.87731   0.87423   21.706
 4359.00    0.87773   0.88569   21.714
 4360.00    0.89915   0.89633   21.563
 4361.00    0.92792   0.90644   21.469
 4362.00    0.95889   0.91522   21.290
 4363.00    0.98651   0.92254   20.950
 4364.00    0.99463   0.92915   20.837
 4365.00    0.97629   0.93468   21.206
 4366.00    0.95103   0.93763   21.690
 4367.00    0.94009   0.93766   21.844
 4368.00    0.94446   0.93624   21.754
 4369.00    0.95435   0.93459   21.669
 4370.00    0.95916   0.93266   21.643
 4371.00    0.95498   0.93063   21.640
 4372.00    0.94799   0.92886   21.641
 4373.00    0.94350   0.92718   21.682
 4374.00    0.93988   0.92552   21.854
 4375.00    0.93661   0.92503   22.150
 4376.00    0.93783   0.92693   22.398
 4377.00    0.94452   0.93014   22.485
 4378.00    0.95101   0.93221   22.477
 4379.00    0.94963   0.93223   22.518
 4380.00    0.93483   0.93074   22.725
 4381.00    0.91065   0.92734   22.996
 4382.00    0.89104   0.92001   23.036
 4383.00    0.88827   0.90879   22.868
 4384.00    0.90465   0.89757   22.844
 4385.00    0.92051   0.89002   22.942
 4386.00    0.90735   0.88632   22.767
 4387.00    0.88258   0.88497   22.365
 4388.00    0.89574   0.88643   22.181
 4389.00    0.93707   0.89163   22.269
 4390.00    0.94917   0.89897   22.342
 4391.00    0.92938   0.90649   22.385
 4392.00    0.92224   0.91341   22.549
 4393.00    0.93510   0.91907   22.481
 4394.00    0.94243   0.92297   21.737
 4395.00    0.93971   0.92593   20.911
 4396.00    0.93965   0.92955   20.792
 4397.00    0.94129   0.93321   20.991
 4398.00    0.93580   0.93475   20.728
 4399.00    0.92753   0.93387   20.581
 4400.00    0.92655   0.93231   21.518
 4401.00    0.93082   0.93167   23.009
 4402.00    0.93206   0.93120   23.562
 4403.00    0.92846   0.92886   23.227
 4404.00    0.92337   0.92523   23.060
 4405.00    0.92081   0.92344   23.271
 4406.00    0.92166   0.92467   23.530
 4407.00    0.92049   0.92671   23.531
 4408.00    0.91317   0.92826   23.187
 4409.00    0.90508   0.93084   22.728
 4410.00    0.90344   0.93507   22.434
 4411.00    0.90921   0.93917   22.410
 4412.00    0.92047   0.94144   22.562
 4413.00    0.93594   0.94139   22.600
 4414.00    0.95226   0.93909   22.353
 4415.00    0.96253   0.93566   22.010
 4416.00    0.96376   0.93275   21.815
 4417.00    0.96141   0.93090   21.847
 4418.00    0.96073   0.93052   22.017
 4419.00    0.96155   0.93221   22.093
 4420.00    0.96427   0.93549   21.973
 4421.00    0.97186   0.93882   21.817
 4422.00    0.97940   0.94129   21.799
 4423.00    0.97202   0.94368   21.980
 4424.00    0.94535   0.94594   22.341
 4425.00    0.91296   0.94673   22.801
 4426.00    0.89166   0.94598   23.239
 4427.00    0.89238   0.94507   23.520
 4428.00    0.91207   0.94471   23.567
 4429.00    0.93492   0.94373   23.396
 4430.00    0.94910   0.94133   23.061
 4431.00    0.95183   0.93889   22.670
 4432.00    0.94463   0.93701   22.520
 4433.00    0.93194   0.93474   22.901
 4434.00    0.92197   0.93210   23.370
 4435.00    0.92263   0.93067   23.031
 4436.00    0.92959   0.93172   22.342
 4437.00    0.93139   0.93437   22.497
 4438.00    0.93007   0.93703   23.264
 4439.00    0.93741   0.93917   23.342
 4440.00    0.95444   0.94030   22.719
 4441.00    0.97076   0.93976   22.427
 4442.00    0.97325   0.93744   22.722
 4443.00    0.95505   0.93454   23.219
 4444.00    0.92792   0.93299   23.518
 4445.00    0.91143   0.93333   23.441
 4446.00    0.91079   0.93454   23.224
 4447.00    0.91906   0.93629   23.195
 4448.00    0.92669   0.93911   23.296
 4449.00    0.92948   0.94185   23.327
 4450.00    0.93635   0.94250   23.359
 4451.00    0.95248   0.94118   23.515
 4452.00    0.95882   0.93877   23.620
 4453.00    0.94041   0.93471   23.512
 4454.00    0.91902   0.92852   23.423
 4455.00    0.91760   0.92202   23.576
 4456.00    0.92263   0.91721   23.773
 4457.00    0.91751   0.91334   23.787
 4458.00    0.91470   0.90938   23.767
 4459.00    0.92319   0.90629   23.926
 4460.00    0.92298   0.90507   24.254
 4461.00    0.90618   0.90498    0.000
 4462.00    0.90329   0.90564    0.000
 4463.00    0.92611   0.90738    0.000
 4464.00    0.93610   0.90910    0.000
 4465.00    0.91519   0.90978    0.000
 4466.00    0.90132   0.90964    0.000
 4467.00    0.91703   0.90905    0.000
 4468.00    0.93560   0.90756    0.000
 4469.00    0.93358   0.90529    0.000
 4470.00    0.91709   0.90364    0.000
 4471.00    0.90641   0.90388    0.000
 4472.00    0.92100   0.90698    0.000
 4473.00    0.95087   0.91280    0.000
 4474.00    0.95924   0.91974    0.000
 4475.00    0.94141   0.92617    0.000
 4476.00    0.93066   0.93162    0.000
 4477.00    0.93530   0.93571    0.000
 4478.00    0.93247   0.93674    0.000
 4479.00    0.92195   0.93344    0.000
 4480.00    0.92604   0.92691    0.000
 4481.00    0.93804   0.92047    0.000
 4482.00    0.92812   0.91714   24.580
 4483.00    0.89837   0.91706   24.782
 4484.00    0.87899   0.91862   24.547
 4485.00    0.88388   0.92168   24.117
 4486.00    0.90525   0.92655   24.077
 4487.00    0.92603   0.93157   24.437
 4488.00    0.93170   0.93419   24.765
 4489.00    0.92710   0.93419   24.783
 4490.00    0.92625   0.93327   24.548
 4491.00    0.92889   0.93246   24.434
 4492.00    0.92710   0.93175   24.714
 4493.00    0.92213   0.93101   24.978
 4494.00    0.91866   0.93074   24.738
 4495.00    0.91302   0.93182   24.503
 4496.00    0.90383   0.93406   24.836
 4497.00    0.90657   0.93668   25.091
 4498.00    0.93045   0.93958   24.547
 4499.00    0.95091   0.94280   23.993
 4500.00    0.94400   0.94588   24.260
 4501.00    0.92475   0.94894   24.868
 4502.00    0.91815   0.95313   25.027
 4503.00    0.92715   0.95807   24.860
 4504.00    0.94181   0.96191   24.843
 4505.00    0.95102   0.96444   25.112
 4506.00    0.94996   0.96649   25.470
 4507.00    0.94415   0.96779   25.473
 4508.00    0.94025   0.96763   25.003
 4509.00    0.93939   0.96654   24.565
 4510.00    0.94076   0.96502   24.461
 4511.00    0.94435   0.96269   24.422
 4512.00    0.95044   0.95960   24.241
 4513.00    0.95843   0.95640   24.093
 4514.00    0.96212   0.95305   24.204
 4515.00    0.95130   0.94951   24.643
 4516.00    0.93282   0.94640   25.139
 4517.00    0.93205   0.94367   25.127
 4518.00    0.95130   0.94096   24.642
 4519.00    0.96145   0.93871   24.435
 4520.00    0.94674   0.93702   24.877
 4521.00    0.91924   0.93490   25.699
 4522.00    0.90093   0.93126   26.258
 4523.00    0.90817   0.92695   25.928
 4524.00    0.92446   0.92277   25.154
 4525.00    0.91346   0.91794   24.987
 4526.00    0.88472   0.91231   25.378
 4527.00    0.88386   0.90692   25.381
 4528.00    0.91034   0.90240   24.934
 4529.00    0.92314   0.89865   24.797
 4530.00    0.91230   0.89612   25.132
 4531.00    0.89877   0.89518   25.523
 4532.00    0.89268   0.89552   25.688
 4533.00    0.89164   0.89638   25.635
 4534.00    0.89720   0.89817   25.555
 4535.00    0.91086   0.90199   25.640
 4536.00    0.92105   0.90771   25.819
 4537.00    0.91585   0.91375   25.908
 4538.00    0.90720   0.91881   25.936
 4539.00    0.91353   0.92301   26.033
 4540.00    0.92789   0.92644   26.143
 4541.00    0.93237   0.92885   26.102
 4542.00    0.92432   0.93008   25.813
 4543.00    0.91387   0.92975   25.360
 4544.00    0.91494   0.92746   25.062
 4545.00    0.93068   0.92436   25.157
 4546.00    0.94024   0.92183   25.527
 4547.00    0.92710   0.91896   25.926
 4548.00    0.90705   0.91403   26.253
 4549.00    0.89938   0.90792   26.438
 4550.00    0.89893   0.90367    0.000
 4551.00    0.89387   0.90164    0.000
 4552.00    0.88298   0.89950    0.000
 4553.00    0.87425   0.89711    0.000
 4554.00    0.88025   0.89642    0.000
 4555.00    0.90049   0.89812    0.000
 4556.00    0.91389   0.90143    0.000
 4557.00    0.91086   0.90559    0.000
 4558.00    0.90893   0.90977    0.000
 4559.00    0.92119   0.91405    0.000
 4560.00    0.93999   0.91897    0.000
 4561.00    0.95246   0.92349    0.000
 4562.00    0.95007   0.92581    0.000
 4563.00    0.93175   0.92582    0.000
 4564.00    0.90583   0.92523    0.000
 4565.00    0.89262   0.92530    0.000
 4566.00    0.91482   0.92581    0.000
 4567.00    0.95741   0.92628    0.000
 4568.00    0.97280   0.92706    0.000
 4569.00    0.95356   0.92859    0.000
 4570.00    0.93616   0.92990    0.000
 4571.00    0.92944   0.92983    0.000
 4572.00    0.91163   0.92948    0.000
 4573.00    0.88860   0.93003    0.000
 4574.00    0.88957   0.93004    0.000
 4575.00    0.91144   0.92851    0.000
 4576.00    0.92392   0.92708    0.000
 4577.00    0.91669   0.92648    0.000
 4578.00    0.90254   0.92460    0.000
 4579.00    0.89896   0.92035    0.000
 4580.00    0.91476   0.91541    0.000
 4581.00    0.93289   0.91119    0.000
 4582.00    0.92818   0.90724    0.000
 4583.00    0.90339   0.90322    0.000
 4584.00    0.88073   0.90071    0.000
 4585.00    0.87761   0.90074    0.000
 4586.00    0.89714   0.90212    0.000
 4587.00    0.92135   0.90377    0.000
 4588.00    0.92972   0.90596    0.000
 4589.00    0.92410   0.90865    0.000
 4590.00    0.91849   0.91054    0.000
 4591.00    0.92240   0.91100    0.000
 4592.00    0.93315   0.91074    0.000
 4593.00    0.93194   0.91077    0.000
 4594.00    0.91148   0.91076    0.000
 4595.00    0.89906   0.91018    0.000
 4596.00    0.91243   0.90982    0.000
 4597.00    0.92406   0.91053    0.000
 4598.00    0.91190   0.91170    0.000
 4599.00    0.89761   0.91241    0.000
 4600.00    0.90148   0.91265    0.000
 4601.00    0.91123   0.91327    0.000
 4602.00    0.91210   0.91451    0.000
 4603.00    0.90649   0.91582    0.000
 4604.00    0.89999   0.91695    0.000
 4605.00    0.89377   0.91856    0.000
 4606.00    0.89402   0.92120    0.000
 4607.00    0.91252   0.92442    0.000
 4608.00    0.94237   0.92760    0.000
 4609.00    0.95568   0.93026    0.000
 4610.00    0.94811   0.93214    0.000
 4611.00    0.94645   0.93321    0.000
 4612.00    0.95601   0.93346    0.000
 4613.00    0.95186   0.93274    0.000
 4614.00    0.92815   0.93116    0.000
 4615.00    0.90589   0.92907    0.000
 4616.00    0.89608   0.92684    0.000
 4617.00    0.89421   0.92510    0.000
 4618.00    0.90170   0.92359    0.000
 4619.00    0.92436   0.92214    0.000
 4620.00    0.94983   0.92166    0.000
 4621.00    0.95455   0.92252    0.000
 4622.00    0.93576   0.92346    0.000
 4623.00    0.91227   0.92422    0.000
 4624.00    0.90723   0.92532    0.000
 4625.00    0.93188   0.92593    0.000
 4626.00    0.96201   0.92578    0.000
 4627.00    0.96178   0.92541    0.000
 4628.00    0.93501   0.92408    0.000
 4629.00    0.91088   0.92165    0.000
 4630.00    0.90432   0.92011    0.000
 4631.00    0.91227   0.91974    0.000
 4632.00    0.91916   0.91832    0.000
 4633.00    0.91144   0.91563    0.000
 4634.00    0.89554   0.91386    0.000
 4635.00    0.88576   0.91318    0.000
 4636.00    0.88644   0.91182    0.000
 4637.00    0.89416   0.90960    0.000
 4638.00    0.90304   0.90812    0.000
 4639.00    0.90840   0.90774    0.000
 4640.00    0.90989   0.90754    0.000
 4641.00    0.90965   0.90716    0.000
 4642.00    0.91021   0.90647    0.000
 4643.00    0.91245   0.90513    0.000
 4644.00    0.91439   0.90314    0.000
 4645.00    0.91434   0.90059    0.000
 4646.00    0.91296   0.89714    0.000
 4647.00    0.91111   0.89362    0.000
 4648.00    0.90828   0.89149    0.000
 4649.00    0.90374   0.89085    0.000
 4650.00    0.89754   0.89107    0.000
 4651.00    0.89181   0.89234    0.000
 4652.00    0.89046   0.89486    0.000
 4653.00    0.89411   0.89772    0.000
 4654.00    0.89819   0.89987    0.000
 4655.00    0.89698   0.90159    0.000
 4656.00    0.88746   0.90350    0.000
 4657.00    0.87712   0.90558    0.000
 4658.00    0.88111   0.90773    0.000
 4659.00    0.89884   0.90985    0.000
 4660.00    0.91284   0.91125    0.000
 4661.00    0.91699   0.91118    0.000
 4662.00    0.92001   0.90928    0.000
 4663.00    0.92452   0.90536    0.000
 4664.00    0.92413   0.89994    0.000
 4665.00    0.91469   0.89333    0.000
 4666.00    0.89698   0.88564    0.000
 4667.00    0.87472   0.87860    0.000
 4668.00    0.85439   0.87457    0.000
 4669.00    0.84580   0.87327    0.000
 4670.00    0.85496   0.87349    0.000
 4671.00    0.86951   0.87579    0.000
 4672.00    0.87213   0.88039    0.000
 4673.00    0.87099   0.88571    0.000
 4674.00    0.88246   0.89055    0.000
 4675.00    0.89200   0.89479    0.000
 4676.00    0.87826   0.89793    0.000
 4677.00    0.85996   0.89928    0.000
 4678.00    0.86692   0.89909    0.000
 4679.00    0.88938   0.89846    0.000
 4680.00    0.90170   0.89762    0.000
 4681.00    0.90174   0.89616    0.000
 4682.00    0.89967   0.89481    0.000
 4683.00    0.89909   0.89460    0.000
 4684.00    0.89981   0.89493    0.000
 4685.00    0.90279   0.89513    0.000
 4686.00    0.90631   0.89566    0.000
 4687.00    0.90300   0.89644    0.000
 4688.00    0.89283   0.89684    0.000
 4689.00    0.89172   0.89692    0.000
 4690.00    0.90366   0.89701    0.000
 4691.00    0.90316   0.89709    0.000
 4692.00    0.87779   0.89745    0.000
 4693.00    0.85404   0.89793    0.000
 4694.00    0.85270   0.89803    0.000
 4695.00    0.86255   0.89786    0.000
 4696.00    0.87049   0.89752    0.000
 4697.00    0.87827   0.89599    0.000
 4698.00    0.88776   0.89282    0.000
 4699.00    0.89395   0.88925    0.000
 4700.00    0.89325   0.88603    0.000
 4701.00    0.88725   0.88238    0.000
 4702.00    0.88040   0.87817    0.000
 4703.00    0.87688   0.87506    0.000
 4704.00    0.87356   0.87398    0.000
 4705.00    0.86222   0.87365    0.000
 4706.00    0.84823   0.87303    0.000
 4707.00    0.84880   0.87291    0.000
 4708.00    0.86461   0.87379    0.000
 4709.00    0.87887   0.87479    0.000
 4710.00    0.88316   0.87560    0.000
 4711.00    0.88196   0.87674    0.000
 4712.00    0.88276   0.87783    0.000
 4713.00    0.89028   0.87876    0.000
 4714.00    0.89919   0.88032    0.000
 4715.00    0.89914   0.88310    0.000
 4716.00    0.88948   0.88642    0.000
 4717.00    0.87866   0.88980    0.000
 4718.00    0.87616   0.89348    0.000
 4719.00    0.88685   0.89791    0.000
 4720.00    0.90406   0.90223    0.000
 4721.00    0.91567   0.90516    0.000
 4722.00    0.91619   0.90656    0.000
 4723.00    0.90902   0.90707    0.000
 4724.00    0.90598   0.90666    0.000
 4725.00    0.91362   0.90476    0.000
 4726.00    0.91639   0.90112    0.000
 4727.00    0.89985   0.89629    0.000
 4728.00    0.88004   0.89151    0.000
 4729.00    0.87647   0.88723    0.000
 4730.00    0.88000   0.88308    0.000
 4731.00    0.87644   0.87963    0.000
 4732.00    0.87262   0.87812    0.000
 4733.00    0.87767   0.87833    0.000
 4734.00    0.88501   0.87947    0.000
 4735.00    0.88678   0.88109    0.000
 4736.00    0.88621   0.88258    0.000
 4737.00    0.88719   0.88427    0.000
 4738.00    0.88687   0.88677    0.000
 4739.00    0.88483   0.88878    0.000
 4740.00    0.88799   0.88953    0.000
 4741.00    0.89845   0.89063    0.000
 4742.00    0.90738   0.89279    0.000
 4743.00    0.90564   0.89441    0.000
 4744.00    0.89134   0.89486    0.000
 4745.00    0.87568   0.89548    0.000
 4746.00    0.87907   0.89684    0.000
 4747.00    0.90039   0.89755    0.000
 4748.00    0.91248   0.89706    0.000
 4749.00    0.90501   0.89658    0.000
 4750.00    0.89446   0.89628    0.000
 4751.00    0.89080   0.89488    0.000
 4752.00    0.88859   0.89248    0.000
 4753.00    0.88265   0.89029    0.000
 4754.00    0.87453   0.88826    0.000
 4755.00    0.87459   0.88598    0.000
 4756.00    0.89303   0.88394    0.000
 4757.00    0.91395   0.88261    0.000
 4758.00    0.90784   0.88160    0.000
 4759.00    0.88161   0.88060    0.000
 4760.00    0.86784   0.87935    0.000
 4761.00    0.86980   0.87728   30.329
 4762.00    0.86730   0.87442   29.942
 4763.00    0.85598   0.87161   29.674
 4764.00    0.84643   0.86888   30.076
 4765.00    0.84604   0.86624   30.735
 4766.00    0.85369   0.86476   30.822
 4767.00    0.85763   0.86494   30.608
 4768.00    0.84938   0.86628   30.797
 4769.00    0.84481   0.86868   31.061
 4770.00    0.86063   0.87181   30.795
 4771.00    0.87860   0.87475   30.510
 4772.00    0.87690   0.87758   30.813
 4773.00    0.87449   0.88088   31.011
 4774.00    0.89356   0.88387   30.329
 4775.00    0.91231   0.88568   29.525
 4776.00    0.90472   0.88712   29.470
 4777.00    0.88593   0.88899   29.900
 4778.00    0.88037   0.88995   30.232
 4779.00    0.88773   0.88911   30.396
 4780.00    0.89598   0.88798   30.513
 4781.00    0.89627   0.88707   30.519
 4782.00    0.88787   0.88482   30.415
 4783.00    0.87962   0.88161   30.435
 4784.00    0.87765   0.87942   30.630
 4785.00    0.87767   0.87752   30.656
 4786.00    0.87455   0.87479   30.467
 4787.00    0.86854   0.87303   30.620
 4788.00    0.86183   0.87291   31.225
 4789.00    0.85640   0.87291   31.505
 4790.00    0.85447   0.87356   31.151
 4791.00    0.85831   0.87579   30.903
 4792.00    0.86785   0.87851   31.122
 4793.00    0.87969   0.88120   31.351
 4794.00    0.88807   0.88414   31.262
 4795.00    0.88688   0.88641   31.030
 4796.00    0.87552   0.88737   30.892
 4797.00    0.86109   0.88750   30.953
 4798.00    0.85713   0.88675   31.172
 4799.00    0.87462   0.88491   31.398
 4800.00    0.89516   0.88267   31.557
 4801.00    0.88372   0.88077   31.713
 4802.00    0.85145   0.87922   32.051
 4803.00    0.84452   0.87760   32.685
 4804.00    0.86416   0.87582   33.092
 4805.00    0.87279   0.87432   32.562
 4806.00    0.86191   0.87329   31.786
 4807.00    0.85126   0.87199   31.992
 4808.00    0.84953   0.87047   32.868
 4809.00    0.85178   0.86976   33.145
 4810.00    0.85244   0.86982   32.915
 4811.00    0.84982   0.86996   33.148
 4812.00    0.84907   0.87044   33.739
 4813.00    0.85603   0.87166   33.887
 4814.00    0.86664   0.87316   33.421
 4815.00    0.87380   0.87458   32.761
 4816.00    0.87976   0.87593   32.372
 4817.00    0.88708   0.87709   32.470
 4818.00    0.88528   0.87759   32.797
 4819.00    0.86887   0.87688   32.963
 4820.00    0.85906   0.87501   32.931
 4821.00    0.87285   0.87251   32.763
 4822.00    0.88871   0.86901   32.299
 4823.00    0.88197   0.86410   31.698
 4824.00    0.86212   0.85951   31.795
 4825.00    0.84809   0.85644   32.908
 4826.00    0.84310   0.85370   33.772
 4827.00    0.84271   0.85099   33.306
 4828.00    0.84330   0.84932   32.532
 4829.00    0.84085   0.84864   32.566
 4830.00    0.83078   0.84800   33.331
 4831.00    0.81614   0.84659   34.153
 4832.00    0.81045   0.84486   34.211
 4833.00    0.81878   0.84373   33.507
 4834.00    0.82903   0.84249   33.099
 4835.00    0.83136   0.84011   33.449
 4836.00    0.82821   0.83739   33.888
 4837.00    0.82651   0.83518   33.806
 4838.00    0.83209   0.83228   33.309
 4839.00    0.84338   0.82805   32.813
 4840.00    0.85023   0.82393   32.710
 4841.00    0.84075   0.82045   33.131
 4842.00    0.80890   0.81639   33.890
 4843.00    0.77084   0.81155   34.553
 4844.00    0.75819   0.80708   34.606
 4845.00    0.77416   0.80276   34.065
 4846.00    0.79147   0.79735   33.491
 4847.00    0.79360   0.79058   33.375
 4848.00    0.78366   0.78286    0.000
 4849.00    0.77127   0.77457    0.000
 4850.00    0.76486   0.76508    0.000
 4851.00    0.76230   0.75332    0.000
 4852.00    0.75570   0.73999    0.000
 4853.00    0.74760   0.72568    0.000
 4854.00    0.74587   0.70867    0.000
 4855.00    0.74550   0.68843    0.000
 4856.00    0.73906   0.66679    0.000
 4857.00    0.74295   0.64394    0.000
 4858.00    0.78910   0.61970    0.000
 4859.00    0.90130   0.59620    0.000
 4860.00    1.07589   0.57498    0.000
 4861.00    1.26062   0.55772    0.000
 4862.00    1.39129   0.54806    0.000
 4863.00    1.44665   0.54653    0.000
 4864.00    1.43023   0.55132    0.000
 4865.00    1.33855   0.56353    0.000
 4866.00    1.17898   0.58240    0.000
 4867.00    0.99321   0.60324    0.000
 4868.00    0.83343   0.62409    0.000
 4869.00    0.73356   0.64518    0.000
 4870.00    0.70076   0.66411    0.000
 4871.00    0.71223   0.67945    0.000
 4872.00    0.73573   0.69362    0.000
 4873.00    0.74871   0.70732    0.000
 4874.00    0.74454   0.71910    0.000
 4875.00    0.73436   0.73016   32.498
 4876.00    0.73181   0.74201   32.274
 4877.00    0.74149   0.75328   31.747
 4878.00    0.75758   0.76304   31.396
 4879.00    0.76664   0.77250   31.830
 4880.00    0.76665   0.78076   32.788
 4881.00    0.77289   0.78642   32.750
 4882.00    0.78801   0.79076   31.512
 4883.00    0.79312   0.79418   30.877
 4884.00    0.78427   0.79554   31.498
 4885.00    0.78232   0.79567   32.257
 4886.00    0.79574   0.79594   32.239
 4887.00    0.80986   0.79602   31.701
 4888.00    0.81205   0.79617   31.248
 4889.00    0.80161   0.79732   31.316
 4890.00    0.78698   0.79909   31.893
 4891.00    0.78105   0.80175   32.527
 4892.00    0.78966   0.80687   32.714
 4893.00    0.80914   0.81338   32.237
 4894.00    0.83058   0.81990   31.514
 4895.00    0.84409   0.82717   31.244
 4896.00    0.84631   0.83439   31.590
 4897.00    0.84099   0.84003   32.212
 4898.00    0.83528   0.84395   32.652
 4899.00    0.83402   0.84584   32.629
 4900.00    0.83001   0.84614   32.491
 4901.00    0.81492   0.84632   32.727
 4902.00    0.80403   0.84578   32.913
 4903.00    0.81710   0.84422   32.409
 4904.00    0.83681   0.84363   31.999
 4905.00    0.83467   0.84419   32.678
 4906.00    0.82352   0.84389   33.561
 4907.00    0.82931   0.84279   33.180
 4908.00    0.83863   0.84216   32.435
 4909.00    0.82750   0.84114   32.817
 4910.00    0.80841   0.83894   33.933
 4911.00    0.80494   0.83712   34.498
 4912.00    0.81458   0.83637   34.161
 4913.00    0.82403   0.83536   33.429
 4914.00    0.83050   0.83396   32.950
 4915.00    0.83588   0.83272   33.076
 4916.00    0.83897   0.83032   33.640
 4917.00    0.83814   0.82564   34.177
 4918.00    0.83409   0.81948   34.190
 4919.00    0.82659   0.81261   33.772
 4920.00    0.81253   0.80530   33.864
 4921.00    0.79432   0.79896   34.815
 4922.00    0.78423   0.79558   35.504
 4923.00    0.78883   0.79472   35.172
 4924.00    0.79987   0.79635   34.784
 4925.00    0.80569   0.80181   35.115
 4926.00    0.80029   0.80974   35.772
 4927.00    0.79200   0.81754   36.048
 4928.00    0.80151   0.82550   35.584
 4929.00    0.82838   0.83325   34.824
 4930.00    0.84407   0.83825   34.741
 4931.00    0.83955   0.84084   35.418
 4932.00    0.83700   0.84174   35.811
 4933.00    0.84462   0.83972   35.425
 4934.00    0.84621   0.83623   34.892
 4935.00    0.83547   0.83330   34.744
 4936.00    0.82348   0.82991   35.030
 4937.00    0.81821   0.82639   35.457
 4938.00    0.81899   0.82470   35.577
 4939.00    0.82209   0.82490   35.353
 4940.00    0.82424   0.82657    0.000
 4941.00    0.82717   0.82938    0.000
 4942.00    0.83469   0.83288    0.000
 4943.00    0.84252   0.83754    0.000
 4944.00    0.84241   0.84249    0.000
 4945.00    0.83718   0.84581    0.000
 4946.00    0.83684   0.84843    0.000
 4947.00    0.84363   0.85130    0.000
 4948.00    0.85212   0.85293    0.000
 4949.00    0.85560   0.85305    0.000
 4950.00    0.85038   0.85302    0.000
 4951.00    0.84059   0.85270    0.000
 4952.00    0.83287   0.85087    0.000
 4953.00    0.82739   0.84765    0.000
 4954.00    0.82711   0.84419    0.000
 4955.00    0.85127   0.84079    0.000
 4956.00    0.91711   0.83662    0.000
 4957.00    1.01512   0.83185    0.000
 4958.00    1.12150   0.82953    0.000
 4959.00    1.21601   0.83008    0.000
 4960.00    1.28154   0.83043    0.000
 4961.00    1.30225   0.83143    0.000
 4962.00    1.27048   0.83476    0.000
 4963.00    1.19327   0.83803    0.000
 4964.00    1.08891   0.83915    0.000
 4965.00    0.98250   0.83917    0.000
 4966.00    0.89660   0.83919    0.000
 4967.00    0.84373   0.83852    0.000
 4968.00    0.82287   0.83696    0.000
 4969.00    0.81969   0.83597    0.000
 4970.00    0.82190   0.83601    0.000
 4971.00    0.82765   0.83667    0.000
 4972.00    0.83544   0.83782    0.000
 4973.00    0.83899   0.83921    0.000
 4974.00    0.83363   0.84050    0.000
 4975.00    0.82038   0.84096    0.000
 4976.00    0.80779   0.84017    0.000
 4977.00    0.80895   0.83805    0.000
 4978.00    0.82536   0.83407    0.000
 4979.00    0.84319   0.82860    0.000
 4980.00    0.84741   0.82260    0.000
 4981.00    0.83100   0.81584    0.000
 4982.00    0.80649   0.80875    0.000
 4983.00    0.79865   0.80339    0.000
 4984.00    0.80845   0.80029    0.000
 4985.00    0.81442   0.79855    0.000
 4986.00    0.81082   0.79903    0.000
 4987.00    0.80908   0.80210    0.000
 4988.00    0.81137   0.80594    0.000
 4989.00    0.81062   0.80977    0.000
 4990.00    0.80770   0.81356    0.000
 4991.00    0.80884   0.81668    0.000
 4992.00    0.81110   0.81915    0.000
 4993.00    0.80701   0.82048    0.000
 4994.00    0.79977   0.82097    0.000
 4995.00    0.79862   0.82163    0.000
 4996.00    0.80551   0.82126    0.000
 4997.00    0.81550   0.81968    0.000
 4998.00    0.82146   0.81780    0.000
 4999.00    0.81672   0.81484    0.000
 5000.00    0.79852   0.81091    0.000
 5001.00    0.77909   0.80671    0.000
 5002.00    0.79801   0.80224    0.000
 5003.00    0.89672   0.79827    0.000
 5004.00    1.08648   0.79519    0.000
 5005.00    1.35483   0.79243    0.000
 5006.00    1.67566   0.79055    0.000
 5007.00    1.99442   0.79038    0.000
 5008.00    2.21804   0.79069    0.000
 5009.00    2.27073   0.79038    0.000
 5010.00    2.14374   0.79026    0.000
 5011.00    1.87861   0.78990    0.000
 5012.00    1.54699   0.78799    0.000
 5013.00    1.22829   0.78515    0.000
 5014.00    0.98954   0.78180    0.000
 5015.00    0.85536   0.77819    0.000
 5016.00    0.79563   0.77554    0.000
 5017.00    0.77151   0.77335    0.000
 5018.00    0.76337   0.77166    0.000
 5019.00    0.76322   0.77239    0.000
 5020.00    0.76860   0.77477    0.000
 5021.00    0.77792   0.77701    0.000
 5022.00    0.78833   0.78027    0.000
 5023.00    0.79652   0.78512    0.000
 5024.00    0.79952   0.78948    0.000
 5025.00    0.79637   0.79304    0.000
 5026.00    0.78871   0.79684    0.000
 5027.00    0.78043   0.79991    0.000
 5028.00    0.77631   0.80235    0.000
 5029.00    0.77816   0.80514   38.127
 5030.00    0.78482   0.80713   38.321
 5031.00    0.79630   0.80842   38.645
 5032.00    0.81226   0.80984   38.266
 5033.00    0.82451   0.81053   37.432
 5034.00    0.82164   0.80959   37.132
 5035.00    0.80572   0.80700   37.460
 5036.00    0.78901   0.80363   37.774
 5037.00    0.77723   0.79975   37.749
 5038.00    0.77010   0.79449   37.516
 5039.00    0.77021   0.78940   37.329
 5040.00    0.77878   0.78577   37.387
 5041.00    0.78489   0.78295   37.683
 5042.00    0.77655   0.78246   38.018
 5043.00    0.76199   0.78437   38.085
 5044.00    0.75924   0.78662   37.704
 5045.00    0.77462   0.79033   37.126
 5046.00    0.80016   0.79505   36.774
 5047.00    0.81588   0.79780   36.889
 5048.00    0.80764   0.79898   37.394
 5049.00    0.78790   0.79994   37.765
 5050.00    0.77683   0.80003   37.626
 5051.00    0.77831   0.79906   37.484
 5052.00    0.78549   0.79858   37.808
 5053.00    0.79009   0.79956   38.113
 5054.00    0.78839   0.80120   37.917
 5055.00    0.78541   0.80305   37.711
 5056.00    0.78707   0.80576   38.029
 5057.00    0.79358   0.80923   38.674
 5058.00    0.80262   0.81226   39.129
 5059.00    0.81226   0.81441   38.994
 5060.00    0.82028   0.81626   38.387
 5061.00    0.82406   0.81722   37.971
 5062.00    0.82353   0.81666   38.046
 5063.00    0.82185   0.81515   38.203
 5064.00    0.81824   0.81232   38.242
 5065.00    0.80615   0.80869   38.559
 5066.00    0.78677   0.80563   39.141
 5067.00    0.77281   0.80227   39.224
 5068.00    0.77171   0.79859   38.617
 5069.00    0.77955   0.79655   38.073
 5070.00    0.79107   0.79565   37.931
 5071.00    0.80330   0.79395   37.832
 5072.00    0.81257   0.79228   37.549
 5073.00    0.81445   0.79203   37.225
 5074.00    0.80808   0.79124   37.048
 5075.00    0.79746   0.78881   37.091
 5076.00    0.79021   0.78680   37.160
 5077.00    0.79284   0.78527   36.978
 5078.00    0.79856   0.78244   36.859
 5079.00    0.79337   0.77887   37.394
 5080.00    0.78072   0.77659   38.200
 5081.00    0.77621   0.77546   38.240
 5082.00    0.77975   0.77432   37.768
 5083.00    0.77887   0.77422   37.836
 5084.00    0.77055   0.77634   38.244
 5085.00    0.76249   0.77952   37.972
 5086.00    0.76579   0.78257   36.941
 5087.00    0.78519   0.78592   35.903
 5088.00    0.80539   0.78990   35.569
 5089.00    0.80683   0.79348   36.184
 5090.00    0.79409   0.79598   37.010
 5091.00    0.78485   0.79804   37.096
 5092.00    0.78720   0.79978   36.893
 5093.00    0.79825   0.80022   37.299
 5094.00    0.80748   0.79927   38.125
 5095.00    0.80705   0.79742   38.652
 5096.00    0.80286   0.79454   38.637
 5097.00    0.80321   0.79087   38.322
 5098.00    0.80568   0.78692   38.143
 5099.00    0.80374   0.78324   38.344
 5100.00    0.79488   0.78070   38.705
 5101.00    0.78329   0.77937   38.933
 5102.00    0.77997   0.77885   39.030
 5103.00    0.78890   0.77930   39.059
 5104.00    0.79823   0.78030   38.926
 5105.00    0.79991   0.78133   38.559
 5106.00    0.80173   0.78185   38.057
 5107.00    0.80581   0.78165   37.649
 5108.00    0.79784   0.78184   37.630
 5109.00    0.77475   0.78211   38.076
 5110.00    0.75688   0.78189   38.732
 5111.00    0.75790   0.78297   39.332
 5112.00    0.77091   0.78504   39.759
 5113.00    0.78586   0.78673   39.793
 5114.00    0.79768   0.78928   39.163
 5115.00    0.80121   0.79211   38.345
 5116.00    0.79190   0.79394   38.359
 5117.00    0.77836   0.79544   39.201
 5118.00    0.77947   0.79600   39.679
 5119.00    0.79508   0.79503   39.377
 5120.00    0.80490   0.79302   39.111
 5121.00    0.80198   0.78992   39.287
 5122.00    0.79590   0.78582   39.606
 5123.00    0.78760   0.78104   39.738
 5124.00    0.76957   0.77627   39.567
 5125.00    0.74780   0.77220   39.232
 5126.00    0.73813   0.76854   38.977
 5127.00    0.74233   0.76580   38.795
 5128.00    0.74941   0.76454   38.602
 5129.00    0.75243   0.76405   38.751
 5130.00    0.75189   0.76425   39.593
 5131.00    0.75415   0.76549   40.292
 5132.00    0.76408   0.76692   39.691
 5133.00    0.77254   0.76794   38.726
 5134.00    0.76773   0.76927   38.924
 5135.00    0.75699   0.77039   39.845
 5136.00    0.75578   0.76982   40.068
 5137.00    0.76547   0.76904   39.471
 5138.00    0.77748   0.76852   38.833
 5139.00    0.78374   0.76617   38.572
 5140.00    0.77957   0.76429   38.751
 5141.00    0.76565   0.76356   39.239
 5142.00    0.74987   0.76120   39.672
 5143.00    0.74774   0.76004   39.447
 5144.00    0.76432   0.76063   38.569
 5145.00    0.77858   0.75944   38.213
 5146.00    0.77497   0.75868   39.023
 5147.00    0.77058   0.75943   39.864
 5148.00    0.77819   0.75912   39.709
 5149.00    0.77748   0.75877   39.527
 5150.00    0.75606   0.75896   40.184
 5151.00    0.73740   0.75884   40.954
 5152.00    0.73920   0.75934   41.183
 5153.00    0.74713   0.76003   41.497
 5154.00    0.74682   0.76071   42.137
 5155.00    0.74305   0.76250   42.042
 5156.00    0.74469   0.76460   40.894
 5157.00    0.75478   0.76660   39.922
 5158.00    0.76837   0.76881   39.786
 5159.00    0.77475   0.77021   40.016
 5160.00    0.77224   0.77060   40.145
 5161.00    0.77108   0.76939   40.159
 5162.00    0.77541   0.76559   40.132
 5163.00    0.77861   0.76033   40.073
 5164.00    0.77606   0.75319   39.990
 5165.00    0.76848   0.74355   39.925
 5166.00    0.75542   0.73364   39.961
 5167.00    0.73516   0.72398   40.210
 5168.00    0.71182   0.71431   40.735
 5169.00    0.69493   0.70668   41.462
 5170.00    0.69161   0.70217   41.975
 5171.00    0.70165   0.69994   41.786
 5172.00    0.71133   0.70031   41.275
 5173.00    0.70441   0.70460   41.260
 5174.00    0.69068   0.71132   41.620
 5175.00    0.69409   0.71803   41.586
 5176.00    0.71355   0.72558   41.033
 5177.00    0.73011   0.73405   40.430
 5178.00    0.73709   0.74033   40.120
 5179.00    0.73951   0.74314   40.160
 5180.00    0.74250   0.74384   40.243
 5181.00    0.74863   0.74284   40.082
 5182.00    0.75702   0.73941   40.014
 5183.00    0.76179   0.73433   40.486
 5184.00    0.75110   0.73075   41.216
 5185.00    0.72238   0.72893   41.617
 5186.00    0.70032   0.72750   41.603
 5187.00    0.70839   0.72854   41.315
 5188.00    0.73412   0.73159   40.649
 5189.00    0.75255   0.73462   39.710
 5190.00    0.75567   0.73806    0.000
 5191.00    0.74952   0.74002    0.000
 5192.00    0.74690   0.74091    0.000
 5193.00    0.75315   0.74295    0.000
 5194.00    0.75635   0.74346    0.000
 5195.00    0.74847   0.74284    0.000
 5196.00    0.74061   0.74470    0.000
 5197.00    0.74268   0.74683    0.000
 5198.00    0.74975   0.74770    0.000
 5199.00    0.75710   0.74964    0.000
 5200.00    0.76867   0.75164    0.000
 5201.00    0.78283   0.75178    0.000
 5202.00    0.78672   0.75097    0.000
 5203.00    0.77539   0.74969    0.000
 5204.00    0.75928   0.74684    0.000
 5205.00    0.74755   0.74274    0.000
 5206.00    0.74082   0.73978    0.000
 5207.00    0.73755   0.73751    0.000
 5208.00    0.73725   0.73507    0.000
 5209.00    0.74120   0.73526    0.000
 5210.00    0.75068   0.73777    0.000
 5211.00    0.76012   0.74003   39.519
 5212.00    0.75972   0.74353   39.845
 5213.00    0.75249   0.74822   40.867
 5214.00    0.75194   0.75180   41.208
 5215.00    0.75820   0.75474   40.757
 5216.00    0.75875   0.75768   40.717
 5217.00    0.75020   0.75996   41.338
 5218.00    0.74027   0.76162   41.853
 5219.00    0.73708   0.76307   41.765
 5220.00    0.74362   0.76399   41.204
 5221.00    0.75153   0.76410   40.712
 5222.00    0.74971   0.76303   40.728
 5223.00    0.74345   0.76022   40.833
 5224.00    0.74486   0.75625   40.383
 5225.00    0.74888   0.75189   39.895
 5226.00    0.74287   0.74651   40.214
 5227.00    0.72975   0.74155   40.970
 5228.00    0.72084   0.73920   41.201
 5229.00    0.71947   0.73738   40.840
 5230.00    0.72292   0.73638   40.407
 5231.00    0.72840   0.73860   40.144
 5232.00    0.73431   0.74078   39.912
 5233.00    0.74058   0.74231   39.254
 5234.00    0.74647   0.74565   38.295
 5235.00    0.74846   0.74868   38.329
 5236.00    0.74628   0.75121   39.390
 5237.00    0.74806   0.75481   38.204
 5238.00    0.75782   0.75852   35.535
 5239.00    0.76543   0.76205   39.264
 5240.00    0.76564   0.76549   49.840
 5241.00    0.77177   0.76858   33.876
 5242.00    0.78838   0.77093   17.061
 5243.00    0.79439   0.77196   12.187
 5244.00    0.77940   0.77233   12.074
 5245.00    0.76430   0.77209   13.273
 5246.00    0.76331   0.77027   13.434
 5247.00    0.76376   0.76788   12.986
 5248.00    0.75488   0.76602   13.021
 5249.00    0.74266   0.76344   13.618
 5250.00    0.73589   0.76054   14.019
 5251.00    0.73806   0.75918   13.160
 5252.00    0.74609   0.75836   12.416
 5253.00    0.75227   0.75756   14.926
 5254.00    0.75420   0.75793   26.293
 5255.00    0.75636   0.75891   49.974
 5256.00    0.75988   0.75991   46.233
 5257.00    0.76049   0.76059   37.493
 5258.00    0.75574   0.76041   38.576
 5259.00    0.74793   0.75922   41.729
 5260.00    0.74480   0.75625   41.652
 5261.00    0.75330   0.75136   40.596
 5262.00    0.76193   0.74486   40.365
 5263.00    0.75011   0.73694   40.494
 5264.00    0.72445   0.72881   40.628
 5265.00    0.71063   0.72072   40.860
 5266.00    0.71247   0.71282   41.157
 5267.00    0.71544   0.70737   41.320
 5268.00    0.71470   0.70398   41.214
 5269.00    0.71441   0.70088   40.864
 5270.00    0.71517   0.70067   40.494
 5271.00    0.71496   0.70348   40.411
 5272.00    0.71513   0.70560   40.815
 5273.00    0.71792   0.70913   41.604
 5274.00    0.72118   0.71549   42.065
 5275.00    0.72233   0.72057   41.647
 5276.00    0.72483   0.72531   41.186
 5277.00    0.73327   0.73167   41.612
 5278.00    0.74592   0.73644   42.354
 5279.00    0.75705   0.73996   42.365
 5280.00    0.76110   0.74372   41.756
 5281.00    0.75561   0.74614   41.260
 5282.00    0.74375   0.74795   41.357
 5283.00    0.73252   0.74990   41.977
 5284.00    0.73004   0.75169   42.299
 5285.00    0.73838   0.75455   41.821
 5286.00    0.74889   0.75801   41.285
 5287.00    0.75476   0.76147   41.344
 5288.00    0.76018   0.76571   41.666
 5289.00    0.77016   0.76967   41.629
 5290.00    0.78299   0.77242   40.962
 5291.00    0.79294   0.77424   40.167
 5292.00    0.79352   0.77475   40.338
 5293.00    0.78397   0.77370   41.479
 5294.00    0.77124   0.77128   41.866
 5295.00    0.75946   0.76788   41.098
 5296.00    0.74606   0.76403   41.206
 5297.00    0.73146   0.75986   42.700
 5298.00    0.72228   0.75602   43.388
 5299.00    0.72348   0.75348   42.406
 5300.00    0.73430   0.75193   41.645
 5301.00    0.74718   0.75138   41.859
 5302.00    0.75131   0.75259   42.039
 5303.00    0.74662   0.75481   41.716
 5304.00    0.74370   0.75730   41.462
 5305.00    0.74676   0.76033   41.535
 5306.00    0.75131   0.76347   41.673
 5307.00    0.75474   0.76599   41.725
 5308.00    0.75808   0.76810   41.755
 5309.00    0.76190   0.76975   41.766
 5310.00    0.76577   0.77037   41.681
 5311.00    0.76993   0.77041   41.466
 5312.00    0.77403   0.76993   41.210
 5313.00    0.77372   0.76819   41.182
 5314.00    0.76476   0.76621   41.617
 5315.00    0.75264   0.76426   42.262
 5316.00    0.74669   0.76135   42.594
 5317.00    0.74637   0.75890   42.495
 5318.00    0.74591   0.75726   42.214
 5319.00    0.74589   0.75508   41.995
 5320.00    0.74930   0.75312   41.968
 5321.00    0.75320   0.75134   42.102
 5322.00    0.75294   0.74876   42.298
 5323.00    0.74936   0.74557   42.537
 5324.00    0.74558   0.74140   42.828
 5325.00    0.74186   0.73661   43.134
 5326.00    0.73692   0.73229   43.459
 5327.00    0.73014   0.72779   43.955
 5328.00    0.72260   0.72385   44.608
 5329.00    0.71754   0.72253   44.924
 5330.00    0.71669   0.72271   44.582
 5331.00    0.71760   0.72383   44.036
 5332.00    0.72064   0.72723   43.728
 5333.00    0.73313   0.73148   43.517
 5334.00    0.75436   0.73527   43.169
 5335.00    0.76725   0.73901   42.721
 5336.00    0.76379   0.74174   42.255
 5337.00    0.75863   0.74297   -2.000
 5338.00    0.76035   0.74369   -2.000
 5339.00    0.75729   0.74353   -2.000
 5340.00    0.74419   0.74243   -2.000
 5341.00    0.73375   0.74216   -2.000
 5342.00    0.73381   0.74218   -2.000
 5343.00    0.73805   0.74189   -2.000
 5344.00    0.73974   0.74286   -2.000
 5345.00    0.73822   0.74402   -2.000
 5346.00    0.73758   0.74472   -2.000
 5347.00    0.74322   0.74628   -2.000
 5348.00    0.75185   0.74774   -2.000
 5349.00    0.75316   0.74889   -2.000
 5350.00    0.74870   0.75093   -2.000
 5351.00    0.75094   0.75342   -2.000
 5352.00    0.76007   0.75592   41.619
 5353.00    0.76456   0.75890   41.978
 5354.00    0.76396   0.76234   42.194
 5355.00    0.76744   0.76542   41.685
 5356.00    0.77337   0.76787   40.959
 5357.00    0.77192   0.76997   41.082
 5358.00    0.76332   0.77100   42.011
 5359.00    0.75581   0.77057   42.797
 5360.00    0.75238   0.76935   42.845
 5361.00    0.75033   0.76688   42.359
 5362.00    0.74609   0.76311   42.269
 5363.00    0.73847   0.75913   43.256
 5364.00    0.73232   0.75451   44.241
 5365.00    0.73272   0.74942   43.722
 5366.00    0.73515   0.74501   42.848
 5367.00    0.73217   0.74058   43.329
 5368.00    0.72465   0.73646   44.408
 5369.00    0.71737   0.73372   44.514
 5370.00    0.71160   0.73158   44.191
 5371.00    0.70724   0.73040   44.591
 5372.00    0.70618   0.73126   45.290
 5373.00    0.71026   0.73316   45.387
 5374.00    0.71861   0.73572   45.022
 5375.00    0.72850   0.73964   44.757
 5376.00    0.73649   0.74358   44.777
 5377.00    0.74070   0.74657   44.970
 5378.00    0.74242   0.74945   45.060
 5379.00    0.74462   0.75130   44.876
 5380.00    0.74991   0.75157   44.543
 5381.00    0.75574   0.75168   44.267
 5382.00    0.75306   0.75142   44.172
 5383.00    0.73989   0.75024   44.373
 5384.00    0.72781   0.74956   44.976
 5385.00    0.72558   0.74925   45.793
 5386.00    0.73072   0.74826   46.226
 5387.00    0.73921   0.74745   45.887
 5388.00    0.74957   0.74674   44.992
 5389.00    0.75587   0.74508   44.088
 5390.00    0.74807   0.74300   43.741
 5391.00    0.72868   0.74078   44.049
 5392.00    0.71462   0.73810   44.601
 5393.00    0.71452   0.73501   44.969
 5394.00    0.72242   0.73190   44.967
 5395.00    0.72904   0.72949   44.726
 5396.00    0.72756   0.72708   44.581
 5397.00    0.71819   0.72450   44.679
 5398.00    0.70719   0.72323   44.920
 5399.00    0.69973   0.72224   45.145
 5400.00    0.69788   0.72052   45.224
 5401.00    0.70121   0.71945   45.141
 5402.00    0.70785   0.71842   44.971
 5403.00    0.71663   0.71637   44.763
 5404.00    0.72608   0.71445   44.532
 5405.00    0.73126   0.71272   44.299
 5406.00    0.72699   0.71072   44.138
 5407.00    0.71544   0.70949   44.258
 5408.00    0.70359   0.70932   44.791
 5409.00    0.69606   0.70979   45.388
 5410.00    0.69495   0.71124   45.490
 5411.00    0.70170   0.71371   45.015
 5412.00    0.71547   0.71670   44.396
 5413.00    0.73059   0.72020   44.334
 5414.00    0.74088   0.72384   45.081
 5415.00    0.74566   0.72727   45.590
 5416.00    0.74642   0.73070   45.183
 5417.00    0.74200   0.73341   45.676
 5418.00    0.73336   0.73528   47.615
 5419.00    0.72859   0.73695   46.094
 5420.00    0.73275   0.73748   41.774
 5421.00    0.73830   0.73699   45.978
 5422.00    0.73830   0.73674   61.997
 5423.00    0.73793   0.73569   41.226
 5424.00    0.74221   0.73404   19.096
 5425.00    0.74603   0.73302   13.019
 5426.00    0.74341   0.73130   12.572
 5427.00    0.73486   0.72959   13.788
 5428.00    0.72495   0.72860   14.189
 5429.00    0.71945   0.72647   13.790
 5430.00    0.71976   0.72466   13.631
 5431.00    0.72110   0.72376   14.015
 5432.00    0.72169   0.72211   14.329
 5433.00    0.72594   0.72137   13.403
 5434.00    0.73369   0.72185   12.559
 5435.00    0.73749   0.72267   15.125
 5436.00    0.73621   0.72463   27.881
 5437.00    0.73766   0.72747   60.875
 5438.00    0.74253   0.73072   55.729
 5439.00    0.74222   0.73415   42.627
 5440.00    0.73672   0.73722   43.961
 5441.00    0.73590   0.73941   47.973
 5442.00    0.74020   0.74049   46.670
 5443.00    0.74022   0.74024   44.173
 5444.00    0.73645   0.73878   43.902
 5445.00    0.73812   0.73686   45.381
 5446.00    0.74284   0.73435   45.324
 5447.00    0.73986   0.73185   -2.000
 5448.00    0.73263   0.73049   -2.000
 5449.00    0.73432   0.72943   -2.000
 5450.00    0.74421   0.72891   -2.000
 5451.00    0.74779   0.72922   -2.000
 5452.00    0.72891   0.72903   -2.000
 5453.00    0.68132   0.72895   -2.000
 5454.00    0.62482   0.72896   -2.000
 5455.00    0.59403   0.72804   -2.000
 5456.00    0.61367   0.72748   -2.000
 5457.00    0.68711   0.72741   -2.000
 5458.00    0.78650   0.72710   -2.000
 5459.00    0.87169   0.72716   -2.000
 5460.00    0.91872   0.72730   -2.000
 5461.00    0.91861   0.72756   -2.000
 5462.00    0.87136   0.72773   -2.000
 5463.00    0.79465   0.72718   -2.000
 5464.00    0.73171   0.72715   -2.000
 5465.00    0.71405   0.72735   -2.000
 5466.00    0.72474   0.72692   -2.000
 5467.00    0.73627   0.72702   -2.000
 5468.00    0.74810   0.72742   -2.000
 5469.00    0.76442   0.72719   -2.000
 5470.00    0.77384   0.72646   39.871
 5471.00    0.76757   0.72553   18.604
 5472.00    0.75318   0.72400   12.796
 5473.00    0.74044   0.72111   12.466
 5474.00    0.73094   0.71821   13.974
 5475.00    0.72356   0.71573   14.629
 5476.00    0.71837   0.71245   13.549
 5477.00    0.71616   0.70987   12.750
 5478.00    0.71753   0.70869   15.247
 5479.00    0.72010   0.70801   27.270
 5480.00    0.71854   0.70831   59.330
 5481.00    0.71197   0.70950   58.175
 5482.00    0.70618   0.71146   44.209
 5483.00    0.70735   0.71382   44.269
 5484.00    0.71755   0.71592   47.238
 5485.00    0.72896   0.71825   46.241
 5486.00    0.72789   0.72029   45.814
 5487.00    0.71729   0.72143   47.708
 5488.00    0.71540   0.72261   48.073
 5489.00    0.72492   0.72354   46.213
 5490.00    0.73144   0.72365   45.574
 5491.00    0.72855   0.72395   46.733
 5492.00    0.72154   0.72433   47.510
 5493.00    0.71648   0.72411   47.117
 5494.00    0.71693   0.72388   46.597
 5495.00    0.72341   0.72392   46.208
 5496.00    0.73352   0.72368   45.571
 5497.00    0.74259   0.72294   45.214
 5498.00    0.74600   0.72229   45.816
 5499.00    0.74329   0.72177   46.283
 5500.00    0.73753   0.72068   45.254
 5501.00    0.73264   0.71946   44.562
 5502.00    0.73125   0.71833   45.901
 5503.00    0.73206   0.71679   45.438
 5504.00    0.73180   0.71556   41.464
 5505.00    0.72868   0.71447   43.525
 5506.00    0.72307   0.71291   58.589
 5507.00    0.71748   0.71202   47.348
 5508.00    0.71476   0.71155   21.995
 5509.00    0.71591   0.71060   14.048
 5510.00    0.71981   0.71026   12.930
 5511.00    0.72361   0.71031   13.835
 5512.00    0.72567   0.71024   14.011
 5513.00    0.72804   0.71085   13.737
 5514.00    0.73121   0.71181   13.945
 5515.00    0.73020   0.71319   13.599
 5516.00    0.72393   0.71506   12.791
 5517.00    0.72143   0.71701   14.392
 5518.00    0.72729   0.71924   23.550
 5519.00    0.73259   0.72125   50.836
 5520.00    0.73079   0.72271   59.948
 5521.00    0.72730   0.72371   46.002
 5522.00    0.72738   0.72379   44.690
 5523.00    0.72940   0.72320   48.372
 5524.00    0.73090   0.72187   48.507
 5525.00    0.73168   0.71960   46.941
 5526.00    0.73077   0.71745   46.811
 5527.00    0.72574   0.71522   47.464
 5528.00    0.71700   0.71269   47.941
 5529.00    0.70849   0.71116   48.293
 5530.00    0.70192   0.71030   48.478
 5531.00    0.69600   0.70963   48.053
 5532.00    0.69256   0.70968   46.967
 5533.00    0.69598   0.71033   45.745
 5534.00    0.70361   0.71108   45.082
 5535.00    0.70686   0.71189   45.466
 5536.00    0.70459   0.71313   46.376
 5537.00    0.70339   0.71437   46.540
 5538.00    0.70628   0.71546   45.878
 5539.00    0.71112   0.71675   45.454
 5540.00    0.71480   0.71775   45.790
 5541.00    0.71581   0.71867   46.622
 5542.00    0.71735   0.71945   47.038
 5543.00    0.72356   0.71961   46.273
 5544.00    0.73062   0.71997   45.330
 5545.00    0.73113   0.72042   45.643
 5546.00    0.72559   0.72048   46.667
 5547.00    0.71998   0.72100   46.870
 5548.00    0.71792   0.72173   46.405
 5549.00    0.71925   0.72229   46.379
 5550.00    0.72015   0.72296   46.876
 5551.00    0.71773   0.72337   47.278
 5552.00    0.71599   0.72348   47.089
 5553.00    0.71946   0.72339   46.378
 5554.00    0.72469   0.72277   45.994
 5555.00    0.72647   0.72195   46.521
 5556.00    0.72581   0.72121   47.264
 5557.00    0.72507   0.72008   47.332
 5558.00    0.72228   0.71892   47.016
 5559.00    0.71562   0.71786   46.903
 5560.00    0.70789   0.71651   46.922
 5561.00    0.70317   0.71526   46.785
 5562.00    0.70336   0.71376   46.435
 5563.00    0.70652   0.71199   45.964
 5564.00    0.70672   0.71060   45.508
 5565.00    0.70074   0.70904   45.223
 5566.00    0.69245   0.70732   45.236
 5567.00    0.68892   0.70612   45.457
 5568.00    0.69654   0.70527   45.516
 5569.00    0.71362   0.70420   45.177
 5570.00    0.72876   0.70359   44.581
 5571.00    0.73461   0.70383   44.119
 5572.00    0.73394   0.70368   44.231
 5573.00    0.73206   0.70377   44.861
 5574.00    0.73241   0.70486   45.356
 5575.00    0.73352   0.70557   45.354
 5576.00    0.73027   0.70639   45.150
 5577.00    0.72290   0.70769   45.244
 5578.00    0.71811   0.70836   45.958
 5579.00    0.71973   0.70898   46.750
 5580.00    0.72599   0.70947   46.473
 5581.00    0.73187   0.70880   45.491
 5582.00    0.73171   0.70771   45.339
 5583.00    0.72434   0.70603   46.182
 5584.00    0.71342   0.70331   46.892
 5585.00    0.70411   0.70025   46.939
 5586.00    0.69998   0.69669   46.720
 5587.00    0.69798   0.69304   46.722
 5588.00    0.69271   0.69002   47.168
 5589.00    0.68808   0.68744   47.772
 5590.00    0.69197   0.68584   48.012
 5591.00    0.70118   0.68518   47.900
 5592.00    0.70558   0.68535   47.870
 5593.00    0.70075   0.68651   48.253
 5594.00    0.68936   0.68766   49.102
 5595.00    0.67948   0.68903   50.016
 5596.00    0.67840   0.69091   50.399
 5597.00    0.68442   0.69195   50.055
 5598.00    0.69103   0.69244   49.254
 5599.00    0.69416   0.69309   48.561
 5600.00    0.69336   0.69342   48.468
 5601.00    0.69192   0.69389   49.090
 5602.00    0.69337   0.69462   50.081
 5603.00    0.69790   0.69573   50.546
 5604.00    0.70385   0.69801   49.968
 5605.00    0.70957   0.70070   49.125
 5606.00    0.71364   0.70343   48.880
 5607.00    0.71498   0.70649   49.230
 5608.00    0.71360   0.70930   49.745
 5609.00    0.71116   0.71145   49.939
 5610.00    0.70973   0.71266   49.542
 5611.00    0.71064   0.71279   48.702
 5612.00    0.71263   0.71177   47.875
 5613.00    0.71142   0.71008   47.627
 5614.00    0.70379   0.70768   48.222
 5615.00    0.69049   0.70437   49.423
 5616.00    0.67746   0.70162   50.527
 5617.00    0.67452   0.69955   50.529
 5618.00    0.68572   0.69764   49.212
 5619.00    0.70539   0.69647   47.469
 5620.00    0.72212   0.69574   46.246
 5621.00    0.72390   0.69550   46.085
 5622.00    0.71063   0.69580   46.857
 5623.00    0.69501   0.69592   47.825
 5624.00    0.68690   0.69583   48.509
 5625.00    0.68770   0.69618   48.965
 5626.00    0.69236   0.69707   49.221
 5627.00    0.69341   0.69784   49.165
 5628.00    0.69076   0.69888   48.909
 5629.00    0.69097   0.70039   48.753
 5630.00    0.69701   0.70180   48.788
 5631.00    0.70610   0.70321   48.905
 5632.00    0.71172   0.70419   49.058
 5633.00    0.70821   0.70445   49.294
 5634.00    0.69949   0.70436   49.654
 5635.00    0.69501   0.70369   50.081
 5636.00    0.69747   0.70252   50.267
 5637.00    0.70295   0.70103   49.956
 5638.00    0.70610   0.69947   49.520
 5639.00    0.70324   0.69825   49.540
 5640.00    0.69601   0.69723   50.000
 5641.00    0.68936   0.69632   50.412
 5642.00    0.68753   0.69605   50.195
 5643.00    0.69247   0.69619   49.101
 5644.00    0.70255   0.69654   47.620
 5645.00    0.71317   0.69726   46.474
 5646.00    0.71817   0.69786   46.105
 5647.00    0.71428   0.69861   46.588
 5648.00    0.70570   0.69943   47.532
 5649.00    0.69850   0.69965   48.455
 5650.00    0.69463   0.69965   49.243
 5651.00    0.69417   0.69942   49.769
 5652.00    0.69772   0.69862   49.529
 5653.00    0.70286   0.69750   48.614
 5654.00    0.70223   0.69568   48.248
 5655.00    0.69408   0.69324   48.927
 5656.00    0.68855   0.69119   49.376
 5657.00    0.69186   0.68891   48.714
 5658.00    0.69668   0.68608   47.972
 5659.00    0.69469   0.68402   48.166
 5660.00    0.68504   0.68281   49.258
 5661.00    0.67292   0.68213   50.363
 5662.00    0.66678   0.68191   50.073
 5663.00    0.66919   0.68216   48.386
 5664.00    0.67420   0.68341   46.975
 5665.00    0.67741   0.68524   46.552
 5666.00    0.67981   0.68691   46.467
 5667.00    0.68262   0.68849   46.329
 5668.00    0.68562   0.69038   46.415
 5669.00    0.69004   0.69243   46.777
 5670.00    0.69808   0.69422   47.085
 5671.00    0.70734   0.69583   47.395
 5672.00    0.71151   0.69745   48.144
 5673.00    0.70885   0.69904   49.137
 5674.00    0.70301   0.70031   49.607
 5675.00    0.69697   0.70106   49.679
 5676.00    0.69226   0.70154   50.247
 5677.00    0.69131   0.70166   51.299
 5678.00    0.69628   0.70112   51.923
 5679.00    0.70470   0.69993   51.635
 5680.00    0.71145   0.69844   50.753
 5681.00    0.71497   0.69675   50.071
 5682.00    0.71655   0.69463   50.132
 5683.00    0.71648   0.69248   50.211
 5684.00    0.71458   0.69062   49.369
 5685.00    0.71256   0.68909   48.571
 5686.00    0.71251   0.68795   49.073
 5687.00    0.71396   0.68712   49.819
 5688.00    0.71497   0.68689   49.137
 5689.00    0.71441   0.68749   48.049
 5690.00    0.71218   0.68847   48.155
 5691.00    0.70901   0.68954   48.847
 5692.00    0.70570   0.69092   48.885
 5693.00    0.70248   0.69225   48.651
 5694.00    0.70086   0.69328   48.854
 5695.00    0.70512   0.69395   48.906
 5696.00    0.71601   0.69413   48.244
 5697.00    0.72539   0.69380   47.632
 5698.00    0.72629   0.69276   47.702
 5699.00    0.72147   0.69144   47.836
 5700.00    0.71589   0.68979   47.480
 5701.00    0.71026   0.68780   47.138
 5702.00    0.70434   0.68578   47.255
 5703.00    0.69947   0.68359   47.488
 5704.00    0.69698   0.68151   47.432
 5705.00    0.69681   0.67943   47.154
 5706.00    0.69672   0.67702   47.096
 5707.00    0.69288   0.67505   47.822
 5708.00    0.68566   0.67340   49.123
 5709.00    0.68088   0.67185   49.704
 5710.00    0.67957   0.67129   49.257
 5711.00    0.67570   0.67119   49.122
 5712.00    0.66920   0.67179   49.679
 5713.00    0.66855   0.67371   49.780
 5714.00    0.67660   0.67584   49.188
 5715.00    0.68714   0.67859   49.042
 5716.00    0.69427   0.68188   49.653
 5717.00    0.69617   0.68484   50.194
 5718.00    0.69544   0.68794   50.247
 5719.00    0.69702   0.69090   50.173
 5720.00    0.70186   0.69319   50.325
 5721.00    0.70710   0.69523   50.759
 5722.00    0.71174   0.69690   51.128
 5723.00    0.71633   0.69790   50.881
 5724.00    0.71860   0.69857   49.904
 5725.00    0.71509   0.69889   48.664
 5726.00    0.70724   0.69867   48.063
 5727.00    0.69991   0.69811   48.713
 5728.00    0.69548   0.69752   49.665
 5729.00    0.69402   0.69685   49.396
 5730.00    0.69567   0.69627   48.614
 5731.00    0.70020   0.69560   48.815
 5732.00    0.70551   0.69509   49.309
 5733.00    0.70884   0.69509   48.681
 5734.00    0.70893   0.69518   47.718
 5735.00    0.70630   0.69536   47.546
 5736.00    0.70304   0.69541   46.981
 5737.00    0.70200   0.69549   44.811
 5738.00    0.70554   0.69569   42.478
 5739.00    0.71270   0.69564   41.283
 5740.00    0.71683   0.69548    0.000
 5741.00    0.71334   0.69521    0.000
 5742.00    0.70724   0.69484    0.000
 5743.00    0.70517   0.69436    0.000
 5744.00    0.70745   0.69390    0.000
 5745.00    0.71065   0.69340    0.000
 5746.00    0.71072   0.69279    0.000
 5747.00    0.70636   0.69197    0.000
 5748.00    0.70084   0.69081    0.000
 5749.00    0.69675   0.68983    0.000
 5750.00    0.69296   0.68882    0.000
 5751.00    0.68880   0.68764    0.000
 5752.00    0.68617   0.68640    0.000
 5753.00    0.68541   0.68516    0.000
 5754.00    0.68374   0.68435    0.000
 5755.00    0.68030   0.68405    0.000
 5756.00    0.67825   0.68392    0.000
 5757.00    0.68156   0.68377    0.000
 5758.00    0.69211   0.68379   -2.000
 5759.00    0.70421   0.68388   -2.000
 5760.00    0.70632   0.68403   -2.000
 5761.00    0.69662   0.68428   -2.000
 5762.00    0.68529   0.68428   -2.000
 5763.00    0.68103   0.68437   -2.000
 5764.00    0.68620   0.68500   -2.000
 5765.00    0.69743   0.68566   -2.000
 5766.00    0.70616   0.68646   -2.000
 5767.00    0.69994   0.68735   -2.000
 5768.00    0.66859   0.68814   -2.000
 5769.00    0.61890   0.68900   -2.000
 5770.00    0.57362   0.68950   -2.000
 5771.00    0.55959   0.68949   -2.000
 5772.00    0.58933   0.68906   -2.000
 5773.00    0.63026   0.68851   -2.000
 5774.00    0.63800   0.68757   -2.000
 5775.00    0.63083   0.68629   -2.000
 5776.00    0.65373   0.68493   -2.000
 5777.00    0.69262   0.68314   -2.000
 5778.00    0.70593   0.68116    0.000
 5779.00    0.69703   0.67896    0.000
 5780.00    0.69151   0.67633    0.000
 5781.00    0.68902   0.67371    0.000
 5782.00    0.67765   0.67139    0.000
 5783.00    0.66094   0.66937    0.000
 5784.00    0.64983   0.66785    0.000
 5785.00    0.64899   0.66674    0.000
 5786.00    0.65702   0.66638    0.000
 5787.00    0.66870   0.66702    0.000
 5788.00    0.67908   0.66810    0.000
 5789.00    0.68706   0.66958    0.000
 5790.00    0.69230   0.67101    0.000
 5791.00    0.69267   0.67255    0.000
 5792.00    0.68765   0.67443    0.000
 5793.00    0.68096   0.67587    0.000
 5794.00    0.67746   0.67721    0.000
 5795.00    0.68033   0.67841    0.000
 5796.00    0.68835   0.67926    0.000
 5797.00    0.69528   0.68016    0.000
 5798.00    0.69705   0.68088    0.000
 5799.00    0.69542   0.68159    0.000
 5800.00    0.69429   0.68231    0.000
 5801.00    0.69680   0.68267    0.000
 5802.00    0.70174   0.68289    0.000
 5803.00    0.70359   0.68291    0.000
 5804.00    0.70018   0.68282    0.000
 5805.00    0.69494   0.68272    0.000
 5806.00    0.69184   0.68236    0.000
 5807.00    0.69281   0.68212    0.000
 5808.00    0.69669   0.68194    0.000
 5809.00    0.69993   0.68169    0.000
 5810.00    0.70042   0.68168    0.000
 5811.00    0.69848   0.68179    0.000
 5812.00    0.69593   0.68193    0.000
 5813.00    0.69500   0.68206    0.000
 5814.00    0.69596   0.68212    0.000
 5815.00    0.69741   0.68223    0.000
 5816.00    0.69851   0.68235    0.000
 5817.00    0.69892   0.68266    0.000
 5818.00    0.69760   0.68318    0.000
 5819.00    0.69382   0.68376    0.000
 5820.00    0.68988   0.68447    0.000
 5821.00    0.68896   0.68513    0.000
 5822.00    0.69043   0.68584    0.000
 5823.00    0.69179   0.68660    0.000
 5824.00    0.69332   0.68707    0.000
 5825.00    0.69658   0.68746    0.000
 5826.00    0.70111   0.68765    0.000
 5827.00    0.70499   0.68767    0.000
 5828.00    0.70622   0.68765    0.000
 5829.00    0.70364   0.68752    0.000
 5830.00    0.69765   0.68734    0.000
 5831.00    0.68969   0.68702    0.000
 5832.00    0.68133   0.68663    0.000
 5833.00    0.67449   0.68618    0.000
 5834.00    0.67137   0.68574    0.000
 5835.00    0.67293   0.68526    0.000
 5836.00    0.67755   0.68494    0.000
 5837.00    0.68273   0.68472    0.000
 5838.00    0.68678   0.68449    0.000
 5839.00    0.69038   0.68441    0.000
 5840.00    0.69691   0.68439    0.000
 5841.00    0.70737   0.68445    0.000
 5842.00    0.71742   0.68440    0.000
 5843.00    0.72148   0.68411    0.000
 5844.00    0.71619   0.68361    0.000
 5845.00    0.70419   0.68296    0.000
 5846.00    0.69416   0.68205    0.000
 5847.00    0.69035   0.68078    0.000
 5848.00    0.68870   0.67933    0.000
 5849.00    0.68532   0.67770    0.000
 5850.00    0.68012   0.67590    0.000
 5851.00    0.67446   0.67401    0.000
 5852.00    0.66977   0.67179    0.000
 5853.00    0.66622   0.66950    0.000
 5854.00    0.66279   0.66739    0.000
 5855.00    0.65891   0.66549    0.000
 5856.00    0.65521   0.66381    0.000
 5857.00    0.65354   0.66208    0.000
 5858.00    0.65582   0.66094    0.000
 5859.00    0.66075   0.66056    0.000
 5860.00    0.66487   0.66076    0.000
 5861.00    0.66754   0.66147    0.000
 5862.00    0.67055   0.66208    0.000
 5863.00    0.67401   0.66323    0.000
 5864.00    0.67659   0.66482    0.000
 5865.00    0.67809   0.66635    0.000
 5866.00    0.67863   0.66778    0.000
 5867.00    0.67615   0.66881    0.000
 5868.00    0.66923   0.66988    0.000
 5869.00    0.66254   0.67080    0.000
 5870.00    0.66299   0.67134    0.000
 5871.00    0.67238   0.67151    0.000
 5872.00    0.68839   0.67118    0.000
 5873.00    0.70780   0.67084    0.000
 5874.00    0.72776   0.67003    0.000
 5875.00    0.74683   0.66896    0.000
 5876.00    0.76306   0.66780    0.000
 5877.00    0.77200   0.66645    0.000
 5878.00    0.77044   0.66543    0.000
 5879.00    0.76029   0.66396    0.000
 5880.00    0.74495   0.66254    0.000
 5881.00    0.72569   0.66092    0.000
 5882.00    0.70458   0.65901    0.000
 5883.00    0.68681   0.65661    0.000
 5884.00    0.67588   0.65294    0.000
 5885.00    0.66996   0.64849    0.000
 5886.00    0.66594   0.64333    0.000
 5887.00    0.66231   0.63733    0.000
 5888.00    0.65859   0.63073    0.000
 5889.00    0.65457   0.62326    0.000
 5890.00    0.64939   0.61577    0.000
 5891.00    0.64156   0.61002    0.000
 5892.00    0.63214   0.60546    0.000
 5893.00    0.62533   0.60225    0.000
 5894.00    0.62316   0.60055    0.000
 5895.00    0.62383   0.59967    0.000
 5896.00    0.62660   0.60104    0.000
 5897.00    0.63278   0.60477    0.000
 5898.00    0.64056   0.60930    0.000
 5899.00    0.64493   0.61480    0.000
 5900.00    0.64509   0.62055    0.000
 5901.00    0.64518   0.62642   49.598
 5902.00    0.64760   0.63297   50.493
 5903.00    0.65167   0.63907   51.394
 5904.00    0.65649   0.64426   51.610
 5905.00    0.66143   0.64862   51.307
 5906.00    0.66546   0.65208   50.966
 5907.00    0.66768   0.65480   50.991
 5908.00    0.66933   0.65686   51.308
 5909.00    0.67239   0.65805   51.577
 5910.00    0.67552   0.65874   51.873
 5911.00    0.67525   0.65898   52.489
 5912.00    0.67001   0.65893   53.169
 5913.00    0.66141   0.65857   53.401
 5914.00    0.65461   0.65789   53.334
 5915.00    0.65402   0.65744   53.459
 5916.00    0.65643   0.65704   53.788
 5917.00    0.65634   0.65697   54.074
 5918.00    0.65523   0.65707   54.342
 5919.00    0.65746   0.65725   54.619
 5920.00    0.66299   0.65784   54.496
 5921.00    0.66851   0.65848   53.870
 5922.00    0.67026   0.65908   53.771
 5923.00    0.66702   0.65967   54.871
 5924.00    0.66273   0.65998   55.908
 5925.00    0.66145   0.66010   55.570
 5926.00    0.66232   0.66017   54.855
 5927.00    0.66276   0.65983   54.960
 5928.00    0.66182   0.65944   55.397
 5929.00    0.65943   0.65885   55.302
 5930.00    0.65565   0.65813   54.636
 5931.00    0.65109   0.65788   53.789
 5932.00    0.64711   0.65756   53.131
 5933.00    0.64459   0.65743   52.897
 5934.00    0.64315   0.65735   53.132
 5935.00    0.64231   0.65730   53.585
 5936.00    0.64213   0.65767   53.718
 5937.00    0.64303   0.65798   53.399
 5938.00    0.64554   0.65823   53.160
 5939.00    0.64981   0.65841   53.388
 5940.00    0.65551   0.65839   53.972
 5941.00    0.66267   0.65831   54.462
 5942.00    0.67137   0.65817   54.311
 5943.00    0.67900   0.65787   53.589
 5944.00    0.68062   0.65756   53.053
 5945.00    0.67461   0.65723   53.340
 5946.00    0.66401   0.65677   54.628
 5947.00    0.65376   0.65624   56.091
 5948.00    0.64834   0.65553   56.257
 5949.00    0.64765   0.65488   55.639
 5950.00    0.64790   0.65444   56.231
 5951.00    0.64733   0.65392   57.879
 5952.00    0.64707   0.65336   58.427
 5953.00    0.64899   0.65282   57.406
 5954.00    0.65394   0.65260   56.275
 5955.00    0.65935   0.65265   55.899
 5956.00    0.66121   0.65272   56.241
 5957.00    0.65924   0.65297   56.647
 5958.00    0.65617   0.65330   56.344
 5959.00    0.65419   0.65398   55.418
 5960.00    0.65400   0.65478   54.507
 5961.00    0.65428   0.65558   53.966
 5962.00    0.65300   0.65650   53.865
 5963.00    0.64944   0.65730   54.127
 5964.00    0.64481   0.65813   54.511
 5965.00    0.64244   0.65881   54.563
 5966.00    0.64554   0.65933   54.025
 5967.00    0.65431   0.65989   53.307
 5968.00    0.66536   0.66022   52.875
 5969.00    0.67196   0.66052   52.588
 5970.00    0.66927   0.66061   52.248
 5971.00    0.65960   0.66046   52.151
 5972.00    0.64944   0.66018   52.581
 5973.00    0.64562   0.65959   53.317
 5974.00    0.65100   0.65880   53.909
 5975.00    0.66144   0.65775   54.009
 5976.00    0.67059   0.65644   53.603
 5977.00    0.67407   0.65509   53.094
 5978.00    0.67161   0.65369   52.918
 5979.00    0.66753   0.65232   53.273
 5980.00    0.66505   0.65126   54.007
 5981.00    0.66316   0.65016   54.588
 5982.00    0.66028   0.64920   54.702
 5983.00    0.65651   0.64828   54.600
 5984.00    0.65268   0.64734   54.671
 5985.00    0.64988   0.64686   55.124
 5986.00    0.64928   0.64644   55.640
 5987.00    0.65190   0.64624   55.475
 5988.00    0.65728   0.64634   54.828
 5989.00    0.66318   0.64649   54.861
 5990.00    0.66681   0.64693   55.628
 5991.00    0.66580   0.64731   55.852
 5992.00    0.66014   0.64771   55.218
 5993.00    0.65248   0.64823   54.715
 5994.00    0.64664   0.64849   54.682
 5995.00    0.64600   0.64863   54.619
 5996.00    0.65031   0.64849   54.293
 5997.00    0.65567   0.64802   53.949
 5998.00    0.65726   0.64751   53.967
 5999.00    0.65218   0.64697   54.561
 6000.00    0.64455   0.64639   55.269
 6001.00    0.64197   0.64576   55.336
 6002.00    0.64556   0.64492   55.000
 6003.00    0.65077   0.64397   55.008
 6004.00    0.65356   0.64335   55.109
 6005.00    0.65242   0.64271   54.667
 6006.00    0.64940   0.64207   54.215
 6007.00    0.64823   0.64142   54.599
 6008.00    0.65094   0.64057   55.314
 6009.00    0.65651   0.64021   55.397
 6010.00    0.66007   0.64001   55.241
 6011.00    0.65666   0.63978   55.681
 6012.00    0.64630   0.63961   56.430
 6013.00    0.63369   0.63921   56.773
 6014.00    0.62633   0.63896   56.756
 6015.00    0.62818   0.63871   56.765
 6016.00    0.63352   0.63829   56.873
 6017.00    0.63549   0.63789   57.013
 6018.00    0.63483   0.63743   57.190
 6019.00    0.63520   0.63683   57.246
 6020.00    0.63808   0.63637   56.701
 6021.00    0.64298   0.63612   55.482
 6022.00    0.64806   0.63601   54.330
 6023.00    0.65093   0.63627   53.801
 6024.00    0.64950   0.63661   53.751
 6025.00    0.64430   0.63743   53.856
 6026.00    0.63937   0.63844   53.932
 6027.00    0.63849   0.63953   53.961
 6028.00    0.64262   0.64099   54.045
 6029.00    0.64967   0.64240   54.192
 6030.00    0.65512   0.64387   54.285
 6031.00    0.65596   0.64523   54.583
 6032.00    0.65244   0.64644   55.702
 6033.00    0.64731   0.64757   57.161
 6034.00    0.64443   0.64839   57.129
 6035.00    0.64490   0.64900   55.533
 6036.00    0.64642   0.64945   54.394
 6037.00    0.64733   0.64961   54.333
 6038.00    0.64792   0.64967   54.348
 6039.00    0.64995   0.64954   54.149
 6040.00    0.65527   0.64927   54.409
 6041.00    0.66244   0.64903   55.094
 6042.00    0.66729   0.64870   55.428
 6043.00    0.66746   0.64861   55.394
 6044.00    0.66345   0.64853   55.719
 6045.00    0.65817   0.64850   56.609
 6046.00    0.65484   0.64854   57.670
 6047.00    0.65269   0.64852   58.474
 6048.00    0.64850   0.64851   58.749
 6049.00    0.64151   0.64833   58.437
 6050.00    0.63353   0.64810   57.735
 6051.00    0.62690   0.64762   57.091
 6052.00    0.62344   0.64697   56.847
 6053.00    0.62339   0.64614   56.746
 6054.00    0.62567   0.64530   56.294
 6055.00    0.62890   0.64446   55.421
 6056.00    0.63143   0.64359   54.457
 6057.00    0.63155   0.64294   53.909
 6058.00    0.62888   0.64233   54.041
 6059.00    0.62598   0.64192   54.465
 6060.00    0.62572   0.64142   54.758
 6061.00    0.62816   0.64107   55.212
 6062.00    0.63230   0.64074   55.985
 6063.00    0.63802   0.64035   56.166
 6064.00    0.64397   0.64009   55.441
 6065.00    0.64602   0.63974   55.490
 6066.00    0.64292   0.63977   57.190
 6067.00    0.64042   0.64015   58.414
 6068.00    0.64355   0.64068   57.265
 6069.00    0.65072   0.64152   55.283
 6070.00    0.65744   0.64236   54.315
 6071.00    0.65968   0.64321   54.659
 6072.00    0.65639   0.64397   55.732
 6073.00    0.65044   0.64445   56.438
 6074.00    0.64474   0.64470   56.488
 6075.00    0.64041   0.64453   56.932
 6076.00    0.63914   0.64378   57.916
 6077.00    0.64342   0.64274   57.901
 6078.00    0.65115   0.64130   56.575
 6079.00    0.65518   0.63977   55.611
 6080.00    0.65310   0.63832   55.605
 6081.00    0.64951   0.63676   55.587
 6082.00    0.64782   0.63541   55.169
 6083.00    0.64751   0.63422   54.974
 6084.00    0.64645   0.63327   55.101
 6085.00    0.64267   0.63250   54.939
 6086.00    0.63696   0.63202   54.340
 6087.00    0.63236   0.63178   53.764
 6088.00    0.62988   0.63167   53.601
 6089.00    0.62851   0.63156   53.961
 6090.00    0.62845   0.63153   54.604
 6091.00    0.63107   0.63163   55.140
 6092.00    0.63643   0.63174   55.638
 6093.00    0.64284   0.63190   56.486
 6094.00    0.64709   0.63208   57.654
 6095.00    0.64673   0.63229   58.654
 6096.00    0.64415   0.63220   58.925
 6097.00    0.64318   0.63192   58.038
 6098.00    0.64169   0.63140   55.894
 6099.00    0.63551   0.63081   52.935
 6100.00    0.62647   0.62995   50.129
 6101.00    0.62026   0.62887   48.136
 6102.00    0.62095   0.62763   46.754
 6103.00    0.62861   0.62641   45.805
 6104.00    0.63744   0.62592   45.958
 6105.00    0.64103   0.62568   47.776
 6106.00    0.63879   0.62600   50.444
 6107.00    0.63369   0.62654   52.382
 6108.00    0.62871   0.62726   52.933
 6109.00    0.62557   0.62824   52.565
 6110.00    0.62395   0.62918   52.241
 6111.00    0.62309   0.63030   52.589
 6112.00    0.62325   0.63114   53.411
 6113.00    0.62548   0.63161   54.200
 6114.00    0.63098   0.63173   54.639
 6115.00    0.63838   0.63152   54.778
 6116.00    0.64262   0.63097   55.047
 6117.00    0.64068   0.63014   55.670
 6118.00    0.63509   0.62903   56.305
 6119.00    0.63012   0.62769   56.423
 6120.00    0.62891   0.62630   55.642
 6121.00    0.63098   0.62484   53.913
 6122.00    0.63213   0.62329   51.570
 6123.00    0.63036   0.62219   49.295
 6124.00    0.62798   0.62156   47.868
 6125.00    0.62701   0.62126   47.748
 6126.00    0.62738   0.62132   49.039
 6127.00    0.62849   0.62144   51.269
 6128.00    0.62993   0.62170   53.221
 6129.00    0.63166   0.62193   53.984
 6130.00    0.63379   0.62210   53.670
 6131.00    0.63592   0.62217   53.012
 6132.00    0.63719   0.62161   52.801
 6133.00    0.63717   0.62071   53.224
 6134.00    0.63579   0.61936   53.970
 6135.00    0.63240   0.61761   54.947
 6136.00    0.62654   0.61558   56.176
 6137.00    0.62046   0.61351   56.895
 6138.00    0.61724   0.61213   56.148
 6139.00    0.61501   0.61130   54.815
 6140.00    0.60929   0.61106   54.540
 6141.00    0.60043   0.61124   55.358
 6142.00    0.59257   0.61181   56.219
 6143.00    0.58883   0.61296   56.623
 6144.00    0.58956   0.61429   56.728
 6145.00    0.59130   0.61594   56.839
 6146.00    0.59058   0.61756   57.111
 6147.00    0.58985   0.61866   57.276
 6148.00    0.59315   0.61934   56.905
 6149.00    0.59922   0.61976   55.877
 6150.00    0.60429   0.62007   54.310
 6151.00    0.60707   0.62026   52.384
 6152.00    0.60859   0.62008   50.471
 6153.00    0.61127   0.61976   49.207
 6154.00    0.61615   0.61900   49.047
 6155.00    0.62045   0.61794   49.987
 6156.00    0.62138   0.61663   51.858
 6157.00    0.61979   0.61495   54.500
 6158.00    0.61862   0.61303   57.197
 6159.00    0.62074   0.61084   58.056
 6160.00    0.62504   0.60842   -2.000
 6161.00    0.62458   0.60568   -2.000
 6162.00    0.61491   0.60311   -2.000
 6163.00    0.59988   0.60108   -2.000
 6164.00    0.58883   0.59961   -2.000
 6165.00    0.59268   0.59884   -2.000
 6166.00    0.61291   0.59857   -2.000
 6167.00    0.63748   0.59885   -2.000
 6168.00    0.65376   0.59933   -2.000
 6169.00    0.65563   0.59991   -2.000
 6170.00    0.64360   0.60101   -2.000
 6171.00    0.62369   0.60236   -2.000
 6172.00    0.60319   0.60389   47.452
 6173.00    0.58834   0.60536   46.878
 6174.00    0.58290   0.60692   48.862
 6175.00    0.58747   0.60842   52.628
 6176.00    0.59895   0.60977   56.105
 6177.00    0.61156   0.61120   57.699
 6178.00    0.62039   0.61271   57.572
 6179.00    0.62305   0.61404   57.376
 6180.00    0.62082   0.61507   57.994
 6181.00    0.61769   0.61597   59.096
 6182.00    0.61695   0.61659   59.460
 6183.00    0.61979   0.61690   57.951
 6184.00    0.62423   0.61685   55.605
 6185.00    0.62662   0.61654   54.273
 6186.00    0.62536   0.61575   54.121
 6187.00    0.62107   0.61472   54.324
 6188.00    0.61528   0.61353   54.594
 6189.00    0.60959   0.61228   54.951
 6190.00    0.60475   0.61111   54.822
 6191.00    0.60133   0.60988   53.581
 6192.00    0.60089   0.60917   51.626
 6193.00    0.60411   0.60892   49.821
 6194.00    0.60804   0.60900   48.688
 6195.00    0.60932   0.60960   48.559
 6196.00    0.60877   0.61033   49.824
 6197.00    0.60890   0.61125   52.516
 6198.00    0.61030   0.61212   55.391
 6199.00    0.61218   0.61290   56.904
 6200.00    0.61350   0.61377   57.447
 6201.00    0.61322   0.61454   58.165
 6202.00    0.61059   0.61530   59.077
 6203.00    0.60571   0.61599   59.776
 6204.00    0.60011   0.61658   60.294
 6205.00    0.59607   0.61702   60.713
 6206.00    0.59588   0.61724   60.787
 6207.00    0.60031   0.61724   60.311
 6208.00    0.60750   0.61698   59.397
 6209.00    0.61417   0.61634   58.239
 6210.00    0.61682   0.61535   56.973
 6211.00    0.61427   0.61390   55.868
 6212.00    0.60881   0.61225   55.320
 6213.00    0.60379   0.61018   55.384
 6214.00    0.60165   0.60817   55.633
 6215.00    0.60131   0.60619   55.681
 6216.00    0.59840   0.60446   55.429
 6217.00    0.59230   0.60315   54.927
 6218.00    0.58767   0.60213   54.240
 6219.00    0.58738   0.60146   53.299
 6220.00    0.59049   0.60106   52.116
 6221.00    0.59587   0.60103   51.630
 6222.00    0.60277   0.60121   52.899
 6223.00    0.60814   0.60156   53.428
 6224.00    0.60772   0.60182   48.530
 6225.00    0.60231   0.60205   40.797
 6226.00    0.59758   0.60198   35.082
 6227.00    0.59818   0.60172   32.174
 6228.00    0.60531   0.60129   31.571
 6229.00    0.61498   0.60061   33.024
 6230.00    0.62070   0.59975   36.607
 6231.00    0.62023   0.59888   42.466
 6232.00    0.61561   0.59830   50.125
 6233.00    0.60977   0.59779   57.303
 6234.00    0.60534   0.59779   60.455
 6235.00    0.60374   0.59780   59.962
 6236.00    0.60487   0.59784   59.287
 6237.00    0.60689   0.59775   59.471
 6238.00    0.60741   0.59743   59.800
 6239.00    0.60550   0.59701   59.874
 6240.00    0.60180   0.59626   59.615
 6241.00    0.59822   0.59560   58.839
 6242.00    0.59663   0.59475   57.618
 6243.00    0.59716   0.59372   56.641
 6244.00    0.59853   0.59290   56.420
 6245.00    0.59870   0.59206   56.587
 6246.00    0.59646   0.59139   56.618
 6247.00    0.59275   0.59101   56.599
 6248.00    0.58916   0.59080   56.712
 6249.00    0.58634   0.59067   56.740
 6250.00    0.58383   0.59045   56.635
 6251.00    0.58030   0.59015   56.946
 6252.00    0.57620   0.58946   58.037
 6253.00    0.57503   0.58880   59.496
 6254.00    0.57835   0.58796   60.622
 6255.00    0.58281   0.58728   60.947
 6256.00    0.58503   0.58668   60.589
 6257.00    0.58470   0.58630   60.254
 6258.00    0.58351   0.58621   60.356
 6259.00    0.58394   0.58641   60.641
 6260.00    0.58659   0.58727   60.632
 6261.00    0.58938   0.58827   60.021
 6262.00    0.59054   0.58974   59.314
 6263.00    0.58994   0.59132   59.600
 6264.00    0.58873   0.59286   60.735
 6265.00    0.58874   0.59429   61.128
 6266.00    0.59120   0.59559   60.426
 6267.00    0.59599   0.59679   59.981
 6268.00    0.60074   0.59773   60.170
 6269.00    0.60189   0.59860   60.205
 6270.00    0.59892   0.59921   60.229
 6271.00    0.59468   0.59974   61.186
 6272.00    0.59234   0.60017   62.421
 6273.00    0.59390   0.60054   62.037
 6274.00    0.59882   0.60080   60.444
 6275.00    0.60465   0.60095   59.646
 6276.00    0.60926   0.60105   59.814
 6277.00    0.61137   0.60094   59.838
 6278.00    0.61055   0.60075   59.581
 6279.00    0.60705   0.60052   59.667
 6280.00    0.60152   0.60020    0.000
 6281.00    0.59514   0.60004    0.000
 6282.00    0.59002   0.59997    0.000
 6283.00    0.58782   0.60003    0.000
 6284.00    0.58756   0.60036    0.000
 6285.00    0.58722   0.60065    0.000
 6286.00    0.58640   0.60113    0.000
 6287.00    0.58614   0.60155    0.000
 6288.00    0.58796   0.60192    0.000
 6289.00    0.59200   0.60215    0.000
 6290.00    0.59522   0.60212    0.000
 6291.00    0.59478   0.60184    0.000
 6292.00    0.59170   0.60135    0.000
 6293.00    0.58860   0.60054    0.000
 6294.00    0.58710   0.59963    0.000
 6295.00    0.58836   0.59852    0.000
 6296.00    0.59373   0.59728    0.000
 6297.00    0.60454   0.59600    0.000
 6298.00    0.62180   0.59466    0.000
 6299.00    0.64528   0.59352    0.000
 6300.00    0.67274   0.59249    0.000
 6301.00    0.69912   0.59174    0.000
 6302.00    0.71685   0.59124    0.000
 6303.00    0.72065   0.59111    0.000
 6304.00    0.71018   0.59136    0.000
 6305.00    0.68856   0.59178    0.000
 6306.00    0.66113   0.59247    0.000
 6307.00    0.63418   0.59318    0.000
 6308.00    0.61351   0.59386    0.000
 6309.00    0.60122   0.59430    0.000
 6310.00    0.59521   0.59440    0.000
 6311.00    0.59338   0.59411    0.000
 6312.00    0.59490   0.59347    0.000
 6313.00    0.59835   0.59262    0.000
 6314.00    0.60157   0.59139    0.000
 6315.00    0.60310   0.59002    0.000
 6316.00    0.60240   0.58877    0.000
 6317.00    0.59882   0.58762    0.000
 6318.00    0.59201   0.58670    0.000
 6319.00    0.58357   0.58627    0.000
 6320.00    0.57649   0.58625    0.000
 6321.00    0.57225   0.58669   59.385
 6322.00    0.57069   0.58755   58.834
 6323.00    0.57123   0.58859   58.445
 6324.00    0.57345   0.58987   56.697
 6325.00    0.57755   0.59110   54.383
 6326.00    0.58365   0.59238   53.183
 6327.00    0.59038   0.59325   53.059
 6328.00    0.59593   0.59393   53.133
 6329.00    0.60021   0.59434   53.255
 6330.00    0.60385   0.59425   53.635
 6331.00    0.60626   0.59396   53.949
 6332.00    0.60649   0.59323   53.907
 6333.00    0.60477   0.59240   54.209
 6334.00    0.60216   0.59131   55.577
 6335.00    0.59973   0.59003   57.403
 6336.00    0.59762   0.58877   58.673
 6337.00    0.59430   0.58754   59.549
 6338.00    0.58902   0.58666   60.272
 6339.00    0.58414   0.58578   59.739
 6340.00    0.58162   0.58531   57.622
 6341.00    0.57980   0.58484   55.887
 6342.00    0.57669   0.58452   55.980
 6343.00    0.57286   0.58426   57.398
 6344.00    0.57003   0.58393   58.882
 6345.00    0.56973   0.58387   59.367
 6346.00    0.57241   0.58372   59.017
 6347.00    0.57706   0.58390   59.449
 6348.00    0.58238   0.58410   61.164
 6349.00    0.58759   0.58450   62.301
 6350.00    0.59265   0.58493   61.962
 6351.00    0.59804   0.58533   61.967
 6352.00    0.60272   0.58561   63.029
 6353.00    0.60386   0.58560   63.400
 6354.00    0.60000   0.58537   62.360
 6355.00    0.59232   0.58472   61.289
 6356.00    0.58348   0.58386   60.180
 6357.00    0.57669   0.58271   57.446
 6358.00    0.57461   0.58139   53.579
 6359.00    0.57851   0.57997   50.701
 6360.00    0.58708   0.57860   49.701
 6361.00    0.59704   0.57736   50.402
 6362.00    0.60601   0.57642   52.187
 6363.00    0.61338   0.57583   54.078
 6364.00    0.61962   0.57565   55.336
 6365.00    0.62519   0.57590   55.795
 6366.00    0.62842   0.57650   55.755
 6367.00    0.62655   0.57739   55.823
 6368.00    0.61951   0.57842   56.732
 6369.00    0.60977   0.57961   58.879
 6370.00    0.60005   0.58074   61.122
 6371.00    0.59228   0.58189   61.488
 6372.00    0.58684   0.58303   60.337
 6373.00    0.58359   0.58413   59.564
 6374.00    0.58388   0.58516   59.918
 6375.00    0.58877   0.58599   61.113
 6376.00    0.59569   0.58671   62.338
 6377.00    0.60028   0.58716   62.844
 6378.00    0.59977   0.58747   62.876
 6379.00    0.59405   0.58757   62.937
 6380.00    0.58619   0.58757   62.628
 6381.00    0.57991   0.58745   61.521
 6382.00    0.57662   0.58739   60.250
 6383.00    0.57584   0.58724   59.558
 6384.00    0.57615   0.58714   59.432
 6385.00    0.57608   0.58705   59.723
 6386.00    0.57498   0.58698   60.671
 6387.00    0.57369   0.58690   62.021
 6388.00    0.57464   0.58674   62.231
 6389.00    0.57823   0.58651   60.458
 6390.00    0.58065   0.58607   57.997
 6391.00    0.57990   0.58551   55.696
 6392.00    0.57935   0.58479   52.977
 6393.00    0.58096   0.58386   50.341
 6394.00    0.58158   0.58302   49.756
 6395.00    0.57912   0.58220   52.037
 6396.00    0.57575   0.58153   55.979
 6397.00    0.57417   0.58103   59.649
 6398.00    0.57523   0.58059   61.686
 6399.00    0.57745   0.58022   61.968
 6400.00    0.57777   0.57986   61.505
 6401.00    0.57575   0.57984   60.717
 6402.00    0.57435   0.57984   59.185
 6403.00    0.57521   0.58005   57.488
 6404.00    0.57719   0.58032   57.057
 6405.00    0.57810   0.58042   58.110
 6406.00    0.57603   0.58043   59.549
 6407.00    0.57134   0.58028   60.598
 6408.00    0.56635   0.57995   61.210
 6409.00    0.56232   0.57965   61.071
 6410.00    0.55946   0.57924   59.488
 6411.00    0.55922   0.57881   56.105
 6412.00    0.56331   0.57846   51.695
 6413.00    0.56967   0.57810   48.533
 6414.00    0.57430   0.57782   48.453
 6415.00    0.57738   0.57760   51.037
 6416.00    0.58157   0.57748   54.291
 6417.00    0.58583   0.57733   56.640
 6418.00    0.58643   0.57738   57.470
 6419.00    0.58095   0.57742   56.490
 6420.00    0.57038   0.57762   54.093
 6421.00    0.56088   0.57795   51.732
 6422.00    0.55911   0.57844   50.626
 6423.00    0.56492   0.57919   50.791
 6424.00    0.57380   0.57998   51.813
 6425.00    0.58179   0.58084   53.657
 6426.00    0.58641   0.58147   56.225
 6427.00    0.58708   0.58195   58.509
 6428.00    0.58472   0.58217   59.423
 6429.00    0.58113   0.58209   59.418
 6430.00    0.57829   0.58170   59.616
 6431.00    0.57749   0.58106   60.499
 6432.00    0.57859   0.58038   61.488
 6433.00    0.57962   0.57968   60.784
 6434.00    0.57897   0.57913   57.799
 6435.00    0.57721   0.57867   54.517
 6436.00    0.57551   0.57830   52.433
 6437.00    0.57439   0.57808   51.494
 6438.00    0.57436   0.57794   51.560
 6439.00    0.57603   0.57791   52.985
 6440.00    0.57844   0.57815   55.531
 6441.00    0.57864   0.57846   57.587
 6442.00    0.57544   0.57902   58.194
 6443.00    0.57111   0.57953   58.538
 6444.00    0.56837   0.57991   59.590
 6445.00    0.56855   0.58004   60.949
 6446.00    0.57090   0.57990   62.052
 6447.00    0.57294   0.57942   62.776
 6448.00    0.57372   0.57860   63.060
 6449.00    0.57437   0.57744   62.828
 6450.00    0.57491   0.57607   62.489
 6451.00    0.57376   0.57477   62.718
 6452.00    0.57004   0.57354   63.186
 6453.00    0.56448   0.57260   62.706
 6454.00    0.55934   0.57184   61.253
 6455.00    0.55740   0.57120   60.018
 6456.00    0.55928   0.57074   59.944
 6457.00    0.56356   0.57052   61.233
 6458.00    0.56905   0.57044   62.611
 6459.00    0.57462   0.57056   62.025
 6460.00    0.57745   0.57070   59.739
 6461.00    0.57471   0.57085   57.584
 6462.00    0.56790   0.57089   56.176
 6463.00    0.56147   0.57102   55.378
 6464.00    0.55859   0.57126   55.516
 6465.00    0.56028   0.57154   56.960
 6466.00    0.56544   0.57214   59.008
 6467.00    0.57163   0.57261   60.381
 6468.00    0.57634   0.57323   60.929
 6469.00    0.57790   0.57366   61.327
 6470.00    0.57633   0.57414   61.840
 6471.00    0.57307   0.57440   62.394
 6472.00    0.57005   0.57463   62.938
 6473.00    0.56840   0.57483   63.407
 6474.00    0.56699   0.57487   63.651
 6475.00    0.56437   0.57494   63.781
 6476.00    0.56092   0.57484   64.463
 6477.00    0.55819   0.57464   65.774
 6478.00    0.55791   0.57432   66.138
 6479.00    0.56035   0.57391   64.713
 6480.00    0.56322   0.57338   63.340
 6481.00    0.56419   0.57269   63.222
 6482.00    0.56298   0.57197   63.065
 6483.00    0.56133   0.57121   61.636
 6484.00    0.56231   0.57046   59.540
 6485.00    0.56703   0.56971   57.979
 6486.00    0.57288   0.56888   57.832
 6487.00    0.57660   0.56786   58.962
 6488.00    0.57634   0.56651   59.961
 6489.00    0.57268   0.56478   59.849
 6490.00    0.56825   0.56254   59.101
 6491.00    0.56358   0.55989   58.462
 6492.00    0.55621   0.55682   58.333
 6493.00    0.54564   0.55359   58.925
 6494.00    0.53482   0.55027   60.283
 6495.00    0.52715   0.54737   61.959
 6496.00    0.52457   0.54498   63.062
 6497.00    0.52560   0.54347   63.486
 6498.00    0.52639   0.54309   64.023
 6499.00    0.52645   0.54353   64.743
 6500.00    0.52896   0.54507   64.861
 6501.00    0.53582   0.54720   64.240
 6502.00    0.54616   0.54990   63.500
 6503.00    0.55650   0.55288   62.983
 6504.00    0.56257   0.55582   62.663
 6505.00    0.56361   0.55863   62.547
 6506.00    0.56207   0.56104   62.586
 6507.00    0.56064   0.56307   62.305
 6508.00    0.56132   0.56456   61.326
 6509.00    0.56511   0.56561   60.448
 6510.00    0.57120   0.56614   60.617
 6511.00    0.57603   0.56631   61.095
 6512.00    0.57594   0.56608   60.625
 6513.00    0.57174   0.56560   59.912
 6514.00    0.56668   0.56487   60.236
 6515.00    0.56240   0.56401   61.088
 6516.00    0.55904   0.56308   61.297
 6517.00    0.55636   0.56222   61.075
 6518.00    0.55462   0.56144   61.156
 6519.00    0.55533   0.56090   61.369
 6520.00    0.55973   0.56057   61.242
 6521.00    0.56698   0.56038   60.840
 6522.00    0.57420   0.56035   60.538
 6523.00    0.57708   0.56036   60.654
 6524.00    0.57389   0.56032   61.151
 6525.00    0.56850   0.56023   61.431
 6526.00    0.56506   0.55996   61.090
 6527.00    0.56349   0.55964   60.522
 6528.00    0.56191   0.55911    0.000
 6529.00    0.55892   0.55853    0.000
 6530.00    0.55527   0.55788    0.000
 6531.00    0.55422   0.55721    0.000
 6532.00    0.55698   0.55648    0.000
 6533.00    0.56052   0.55574    0.000
 6534.00    0.56200   0.55503    0.000
 6535.00    0.56120   0.55431    0.000
 6536.00    0.55958   0.55363    0.000
 6537.00    0.55927   0.55286    0.000
 6538.00    0.56078   0.55202    0.000
 6539.00    0.56240   0.55096    0.000
 6540.00    0.56236   0.54973    0.000
 6541.00    0.56004   0.54823    0.000
 6542.00    0.55695   0.54645    0.000
 6543.00    0.55646   0.54435    0.000
 6544.00    0.56150   0.54196    0.000
 6545.00    0.57375   0.53933    0.000
 6546.00    0.59359   0.53645    0.000
 6547.00    0.61978   0.53343    0.000
 6548.00    0.64861   0.53016    0.000
 6549.00    0.67409   0.52676    0.000
 6550.00    0.68906   0.52307    0.000
 6551.00    0.68740   0.51898    0.000
 6552.00    0.66815   0.51437    0.000
 6553.00    0.63592   0.50912    0.000
 6554.00    0.59944   0.50313    0.000
 6555.00    0.56827   0.49635    0.000
 6556.00    0.54771   0.48873    0.000
 6557.00    0.54438   0.48040    0.000
 6558.00    0.57760   0.47147    0.000
 6559.00    0.68350   0.46230    0.000
 6560.00    0.91644   0.45321    0.000
 6561.00    1.31594   0.44470    0.000
 6562.00    1.85971   0.43731    0.000
 6563.00    2.45747   0.43165    0.000
 6564.00    2.95630   0.42841    0.000
 6565.00    3.20374   0.42773    0.000
 6566.00    3.12245   0.43007    0.000
 6567.00    2.73293   0.43473    0.000
 6568.00    2.16223   0.44112    0.000
 6569.00    1.57364   0.44882    0.000
 6570.00    1.09463   0.45727    0.000
 6571.00    0.78557   0.46595    0.000
 6572.00    0.62383   0.47444    0.000
 6573.00    0.55399   0.48247    0.000
 6574.00    0.53012   0.48983    0.000
 6575.00    0.52314   0.49646    0.000
 6576.00    0.52265   0.50246    0.000
 6577.00    0.52693   0.50782    0.000
 6578.00    0.53644   0.51269    0.000
 6579.00    0.55507   0.51699    0.000
 6580.00    0.59028   0.52081    0.000
 6581.00    0.64915   0.52411    0.000
 6582.00    0.73456   0.52702    0.000
 6583.00    0.83736   0.52951    0.000
 6584.00    0.93502   0.53163    0.000
 6585.00    1.00207   0.53345    0.000
 6586.00    1.01784   0.53484    0.000
 6587.00    0.97749   0.53599    0.000
 6588.00    0.89422   0.53680    0.000
 6589.00    0.79118   0.53734    0.000
 6590.00    0.69456   0.53774    0.000
 6591.00    0.62175   0.53783    0.000
 6592.00    0.57768   0.53789    0.000
 6593.00    0.55626   0.53779    0.000
 6594.00    0.54522   0.53783    0.000
 6595.00    0.53743   0.53797    0.000
 6596.00    0.53207   0.53841    0.000
 6597.00    0.52963   0.53917    0.000
 6598.00    0.53016   0.54000    0.000
 6599.00    0.53234   0.54104    0.000
 6600.00    0.53407   0.54208    0.000
 6601.00    0.53434   0.54319    0.000
 6602.00    0.53370   0.54417    0.000
 6603.00    0.53434   0.54501    0.000
 6604.00    0.53809   0.54559    0.000
 6605.00    0.54319   0.54596    0.000
 6606.00    0.54632   0.54616    0.000
 6607.00    0.54628   0.54621    0.000
 6608.00    0.54415   0.54625    0.000
 6609.00    0.54247   0.54628   62.617
 6610.00    0.54308   0.54644   62.397
 6611.00    0.54483   0.54671   62.294
 6612.00    0.54572   0.54717   62.575
 6613.00    0.54564   0.54782   62.565
 6614.00    0.54559   0.54849   61.771
 6615.00    0.54661   0.54927   60.973
 6616.00    0.54895   0.54996   61.003
 6617.00    0.55159   0.55075   61.726
 6618.00    0.55349   0.55129   62.058
 6619.00    0.55465   0.55177   60.457
 6620.00    0.55577   0.55198   58.257
 6621.00    0.55799   0.55209   59.823
 6622.00    0.56221   0.55194   63.540
 6623.00    0.56849   0.55163   56.834
 6624.00    0.57469   0.55113   44.060
 6625.00    0.57669   0.55049   38.164
 6626.00    0.57353   0.54978   38.787
 6627.00    0.56913   0.54896   40.518
 6628.00    0.56576   0.54820   40.860
 6629.00    0.56175   0.54736   44.268
 6630.00    0.55672   0.54656   53.886
 6631.00    0.55305   0.54576   63.860
 6632.00    0.55143   0.54504   65.083
 6633.00    0.54991   0.54440   62.816
 6634.00    0.54752   0.54392   62.238
 6635.00    0.54513   0.54359   62.209
 6636.00    0.54363   0.54345   61.694
 6637.00    0.54318   0.54353   61.189
 6638.00    0.54303   0.54374   60.893
 6639.00    0.54219   0.54400   60.434
 6640.00    0.54137   0.54427   59.621
 6641.00    0.54238   0.54454   58.670
 6642.00    0.54523   0.54476   58.182
 6643.00    0.54827   0.54495   58.715
 6644.00    0.55024   0.54513   59.901
 6645.00    0.55119   0.54523   60.708
 6646.00    0.55331   0.54541   60.692
 6647.00    0.55845   0.54567   60.230
 6648.00    0.56325   0.54597   60.144
 6649.00    0.56243   0.54628   61.016
 6650.00    0.55576   0.54659   62.248
 6651.00    0.54643   0.54693   62.872
 6652.00    0.53669   0.54716   63.306
 6653.00    0.52835   0.54736   64.257
 6654.00    0.52410   0.54736   64.656
 6655.00    0.52578   0.54732   63.273
 6656.00    0.53193   0.54705   61.214
 6657.00    0.53912   0.54669   60.025
 6658.00    0.54388   0.54615   59.810
 6659.00    0.54449   0.54546   59.937
 6660.00    0.54242   0.54471   59.721
 6661.00    0.53977   0.54383   59.032
 6662.00    0.53692   0.54298   58.657
 6663.00    0.53349   0.54209   59.050
 6664.00    0.52941   0.54141   59.478
 6665.00    0.52513   0.54076   59.483
 6666.00    0.52160   0.54041   59.910
 6667.00    0.51998   0.54026   61.012
 6668.00    0.52127   0.54026   61.290
 6669.00    0.52534   0.54038   60.254
 6670.00    0.53061   0.54055   59.806
 6671.00    0.53552   0.54073   60.952
 6672.00    0.53934   0.54080   62.504
 6673.00    0.54195   0.54068   63.449
 6674.00    0.54378   0.54038   64.124
 6675.00    0.54634   0.53987   64.008
 6676.00    0.55185   0.53928   61.599
 6677.00    0.56084   0.53854   58.675
 6678.00    0.57173   0.53793   58.264
 6679.00    0.58324   0.53736   55.478
 6680.00    0.59490   0.53712   43.897
 6681.00    0.60506   0.53724   33.041
 6682.00    0.61066   0.53776   28.336
 6683.00    0.60867   0.53847   27.363
 6684.00    0.59817   0.53934   27.159
 6685.00    0.58493   0.54034   27.731
 6686.00    0.57796   0.54133   31.410
 6687.00    0.57742   0.54224   38.508
 6688.00    0.57613   0.54298   43.273
 6689.00    0.57091   0.54353   43.063
 6690.00    0.56366   0.54384   44.046
 6691.00    0.55737   0.54395   48.217
 6692.00    0.55410   0.54384   52.653
 6693.00    0.55274   0.54355   54.879
 6694.00    0.55093   0.54311   55.186
 6695.00    0.54904   0.54257   54.842
 6696.00    0.54869   0.54198    0.000
 6697.00    0.54924   0.54137    0.000
 6698.00    0.54925   0.54077    0.000
 6699.00    0.54923   0.54029    0.000
 6700.00    0.55014   0.53989    0.000
 6701.00    0.55103   0.53959    0.000
 6702.00    0.55022   0.53934    0.000
 6703.00    0.54734   0.53917    0.000
 6704.00    0.54392   0.53894    0.000
 6705.00    0.54336   0.53877    0.000
 6706.00    0.54695   0.53849    0.000
 6707.00    0.55029   0.53830    0.000
 6708.00    0.54869   0.53797    0.000
 6709.00    0.54216   0.53765    0.000
 6710.00    0.53461   0.53713    0.000
 6711.00    0.53263   0.53663    0.000
 6712.00    0.54472   0.53594    0.000
 6713.00    0.58034   0.53525    0.000
 6714.00    0.64715   0.53448    0.000
 6715.00    0.74835   0.53372    0.000
 6716.00    0.87799   0.53302    0.000
 6717.00    1.01819   0.53245    0.000
 6718.00    1.13965   0.53203    0.000
 6719.00    1.20636   0.53184    0.000
 6720.00    1.19637   0.53186    0.000
 6721.00    1.11218   0.53224    0.000
 6722.00    0.97886   0.53268    0.000
 6723.00    0.83736   0.53329    0.000
 6724.00    0.72201   0.53385    0.000
 6725.00    0.65051   0.53457    0.000
 6726.00    0.62277   0.53512    0.000
 6727.00    0.62693   0.53570    0.000
 6728.00    0.66023   0.53605    0.000
 6729.00    0.72870   0.53644    0.000
 6730.00    0.82458   0.53664    0.000
 6731.00    0.92337   0.53680    0.000
 6732.00    0.99563   0.53681    0.000
 6733.00    1.01721   0.53675    0.000
 6734.00    0.98568   0.53656    0.000
 6735.00    0.91710   0.53626    0.000
 6736.00    0.82933   0.53592    0.000
 6737.00    0.73882   0.53547    0.000
 6738.00    0.66199   0.53500    0.000
 6739.00    0.61076   0.53443    0.000
 6740.00    0.58409   0.53385    0.000
 6741.00    0.57183   0.53322    0.000
 6742.00    0.56415   0.53269    0.000
 6743.00    0.55503   0.53211    0.000
 6744.00    0.54502   0.53158    0.000
 6745.00    0.53798   0.53105    0.000
 6746.00    0.53591   0.53060    0.000
 6747.00    0.53796   0.53024    0.000
 6748.00    0.54040   0.52986    0.000
 6749.00    0.54086   0.52963    0.000
 6750.00    0.54246   0.52941    0.000
 6751.00    0.54698   0.52938    0.000
 6752.00    0.54819   0.52940    0.000
 6753.00    0.54346   0.52963   45.605
 6754.00    0.54331   0.52997   45.702
 6755.00    0.55318   0.53038   46.404
 6756.00    0.55961   0.53096   47.977
 6757.00    0.55281   0.53152   50.587
 6758.00    0.54272   0.53213   53.795
 6759.00    0.54025   0.53266   56.457
 6760.00    0.54418   0.53314   56.979
 6761.00    0.54884   0.53346   54.825
 6762.00    0.54992   0.53362   51.260
 6763.00    0.54626   0.53359   47.828
 6764.00    0.54023   0.53336   45.482
 6765.00    0.53546   0.53298   44.634
 6766.00    0.53467   0.53251   45.409
 6767.00    0.53545   0.53193   47.603
 6768.00    0.53110   0.53140   50.459
 6769.00    0.52243   0.53085   52.908
 6770.00    0.51881   0.53053   53.858
 6771.00    0.52175   0.53032   52.485
 6772.00    0.52340   0.53037   48.858
 6773.00    0.52377   0.53048   44.336
 6774.00    0.53118   0.53085   40.542
 6775.00    0.54367   0.53124   38.531
 6776.00    0.54974   0.53175   38.908
 6777.00    0.54807   0.53212   41.554
 6778.00    0.54683   0.53246   45.603
 6779.00    0.54693   0.53257   50.010
 6780.00    0.54345   0.53254   53.770
 6781.00    0.53953   0.53231   56.104
 6782.00    0.54278   0.53190   56.882
 6783.00    0.55079   0.53138   56.696
 6784.00    0.55443   0.53076   56.387
 6785.00    0.55025   0.53015   56.342
 6786.00    0.54072   0.52956   56.275
 6787.00    0.52999   0.52912   55.125
 6788.00    0.52190   0.52876   52.243
 6789.00    0.51794   0.52853   48.792
 6790.00    0.51829   0.52839   46.107
 6791.00    0.52359   0.52831   44.377
 6792.00    0.53233   0.52824   43.620
 6793.00    0.53763   0.52820   44.545
 6794.00    0.53482   0.52815   47.599
 6795.00    0.53026   0.52808   51.167
 6796.00    0.53070   0.52801   52.265
 6797.00    0.53172   0.52796   50.117
 6798.00    0.52826   0.52792   46.292
 6799.00    0.52538   0.52791   42.495
 6800.00    0.52859   0.52790   39.786
 6801.00    0.53498   0.52789   38.752
 6802.00    0.53922   0.52786   39.671
 6803.00    0.53899   0.52782   42.583
 6804.00    0.53464   0.52771   47.072
 6805.00    0.52846   0.52758   51.450
 6806.00    0.52329   0.52736   53.681
 6807.00    0.52146   0.52716   53.768
 6808.00    0.52341   0.52689   53.153
 6809.00    0.52737   0.52661   53.146
 6810.00    0.53221   0.52637   53.762
 6811.00    0.53824   0.52611   53.663
 6812.00    0.54333   0.52591   52.748
 6813.00    0.54300   0.52573   52.701
 6814.00    0.53978   0.52562   53.710
 6815.00    0.54332   0.52555   53.806
 6816.00    0.55322   0.52554   52.385
 6817.00    0.55725   0.52556   50.993
 6818.00    0.55108   0.52565   50.257
 6819.00    0.54190   0.52579   49.563
 6820.00    0.53525   0.52593   48.695
 6821.00    0.53153   0.52609   48.132
 6822.00    0.52960   0.52622   48.534
 6823.00    0.52814   0.52635   50.317
 6824.00    0.52644   0.52643   52.469
 6825.00    0.52446   0.52647   52.667
 6826.00    0.52254   0.52645   50.267
 6827.00    0.52155   0.52635   46.785
 6828.00    0.52336   0.52620   43.788
 6829.00    0.52918   0.52599   42.085
 6830.00    0.53618   0.52574   41.683
 6831.00    0.53986   0.52545   42.368
 6832.00    0.53959   0.52514   44.288
 6833.00    0.53761   0.52474   47.584
 6834.00    0.53566   0.52429   51.152
 6835.00    0.53403   0.52367   53.052
 6836.00    0.53120   0.52300   53.321
 6837.00    0.52641   0.52214   53.411
 6838.00    0.52286   0.52127   53.726
 6839.00    0.52248   0.52025   54.010
 6840.00    0.51962   0.51935   54.294
 6841.00    0.51009   0.51844   54.671
 6842.00    0.50143   0.51779   54.914
 6843.00    0.50143   0.51728   54.855
 6844.00    0.50603   0.51710   54.789
 6845.00    0.50819   0.51713   54.873
 6846.00    0.50704   0.51745   54.642
 6847.00    0.50476   0.51789   53.941
 6848.00    0.50320   0.51846   53.544
 6849.00    0.50354   0.51897   53.718
 6850.00    0.50626   0.51942   53.392
 6851.00    0.51096   0.51969   51.908
 6852.00    0.51635   0.51981   50.092
 6853.00    0.52030   0.51970   48.955
 6854.00    0.52046   0.51943   48.999
 6855.00    0.51693   0.51902   49.954
 6856.00    0.51304   0.51850   50.699
 6857.00    0.51159   0.51796   50.626
 6858.00    0.51297   0.51743   50.264
 6859.00    0.51598   0.51702   49.788
 6860.00    0.51868   0.51667   48.672
 6861.00    0.52008   0.51651   47.174
 6862.00    0.52037   0.51639   46.378
 6863.00    0.51926   0.51641   46.815
 6864.00    0.51592   0.51643   48.282
 6865.00    0.51113   0.51652   50.197
 6866.00    0.50705   0.51658   51.755
 6867.00    0.50400   0.51664   52.634
 6868.00    0.50073   0.51664   53.117
 6869.00    0.49831   0.51659   53.210
 6870.00    0.49952   0.51650   52.700
 6871.00    0.50450   0.51640   52.086
 6872.00    0.51071   0.51632   52.132
 6873.00    0.51579   0.51626   52.475
 6874.00    0.51815   0.51622   52.159
 6875.00    0.51688   0.51620   51.463
 6876.00    0.51273   0.51619   51.375
 6877.00    0.50986   0.51616   51.976
 6878.00    0.51227   0.51617   52.636
 6879.00    0.51712   0.51609   52.826
 6880.00    0.51874   0.51607   52.467
 6881.00    0.51660   0.51595   52.157
 6882.00    0.51301   0.51593   52.472
 6883.00    0.50824   0.51585   53.057
 6884.00    0.50285   0.51592   53.205
 6885.00    0.50139   0.51602   52.827
 6886.00    0.50717   0.51626   52.160
 6887.00    0.51611   0.51660   51.214
 6888.00    0.52280   0.51702   49.922
 6889.00    0.52754   0.51750   48.368
 6890.00    0.53119   0.51796   46.974
 6891.00    0.53029   0.51841   46.509
 6892.00    0.52384   0.51878   47.118
 6893.00    0.51864   0.51908   47.644
 6894.00    0.51917   0.51926   47.241
 6895.00    0.52029   0.51935   46.715
 6896.00    0.51759   0.51935   46.698
 6897.00    0.51414   0.51929   46.566
 6898.00    0.51109   0.51922   46.082
 6899.00    0.50324   0.51912   46.204
 6900.00    0.49200   0.51903   47.349
 6901.00    0.48989   0.51898   48.556
 6902.00    0.50118   0.51894   48.984
 6903.00    0.51454   0.51892   48.900
 6904.00    0.52110   0.51886   48.801
 6905.00    0.52213   0.51885   48.874
 6906.00    0.52133   0.51874   48.994
 6907.00    0.52093   0.51866   48.841
 6908.00    0.52111   0.51841   48.315
 6909.00    0.52039   0.51820   47.647
 6910.00    0.51798   0.51778   47.148
 6911.00    0.51479   0.51742   47.001
 6912.00    0.51356   0.51689   46.873
 6913.00    0.51692   0.51642   46.192
 6914.00    0.52155   0.51588   45.312
 6915.00    0.52063   0.51545   45.164
 6916.00    0.51536   0.51504   45.786
 6917.00    0.51288   0.51477   46.486
 6918.00    0.51340   0.51458   47.111
 6919.00    0.51168   0.51449   47.973
 6920.00    0.50722   0.51451   48.764
 6921.00    0.50388   0.51452   48.829
 6922.00    0.50430   0.51458   48.455
 6923.00    0.50814   0.51459   48.387
 6924.00    0.51121   0.51456   48.507
 6925.00    0.50932   0.51452   48.275
 6926.00    0.50446   0.51439   47.816
 6927.00    0.50088   0.51429   47.502
 6928.00    0.49780   0.51414   47.136
 6929.00    0.49288   0.51407   46.487
 6930.00    0.48841   0.51400   46.046
 6931.00    0.48777   0.51400   46.257
 6932.00    0.49025   0.51403   46.606
 6933.00    0.49343   0.51406   46.418
 6934.00    0.49641   0.51414   45.904
 6935.00    0.49904   0.51417   45.593
 6936.00    0.50073   0.51425   45.665
 6937.00    0.50035   0.51423   46.073
 6938.00    0.49664   0.51425   46.683
 6939.00    0.49129   0.51413   47.290
 6940.00    0.49048   0.51403   47.644
 6941.00    0.49642   0.51375   47.730
 6942.00    0.50236   0.51349   47.907
 6943.00    0.50383   0.51304   48.339
 6944.00    0.50506   0.51266   48.660
 6945.00    0.50774   0.51211   48.568
 6946.00    0.50568   0.51171   48.219
 6947.00    0.49667   0.51118   47.996
 6948.00    0.48771   0.51087   48.165
 6949.00    0.48486   0.51044   47.865
 6950.00    0.48806   0.51027   45.493
 6951.00    0.49250   0.51001   42.333
 6952.00    0.49164   0.50999   41.396
 6953.00    0.48646   0.50990   42.696
 6954.00    0.48480   0.50998   43.398
 6955.00    0.48391   0.51003   43.433
 6956.00    0.47318   0.51020   45.991
 6957.00    0.46664   0.51039   48.698
 6958.00    0.48994   0.51062   44.287
 6959.00    0.50516   0.51091   40.835
 6960.00    0.44140   0.51115   -1.000
 6961.00    0.34640   0.51145   -1.000
 6962.00    0.34609   0.51165   -1.000
 6963.00    0.43082   0.51188   24.440
 6964.00    0.48340   0.51199   19.969
 6965.00    0.47388   0.51209   20.866
 6966.00    0.45458   0.51208   22.296
 6967.00    0.45139   0.51201   22.235
 6968.00    0.45683   0.51184   21.785
 6969.00    0.46228   0.51154   21.609
 6970.00    0.46380   0.51114   21.598
 6971.00    0.46109   0.51055   21.695
 6972.00    0.45612   0.50985   21.910
 6973.00    0.45132   0.50895   22.155
 6974.00    0.44852   0.50796   22.301
 6975.00    0.44785   0.50684   22.329
 6976.00    0.44852   0.50573   22.294
 6977.00    0.44984   0.50465   22.230
 6978.00    0.45082   0.50372   22.183
 6979.00    0.44968   0.50302   22.238
 6980.00    0.44622   0.50259   22.410
 6981.00    0.44385   0.50250   22.530
 6982.00    0.44511   0.50271   22.467
 6983.00    0.44741   0.50323   22.351
 6984.00    0.44800   0.50394   22.321
 6985.00    0.44814   0.50482   22.315
 6986.00    0.44950   0.50573   22.247
 6987.00    0.45121   0.50664   22.163
 6988.00    0.45178   0.50743   22.135
 6989.00    0.45091   0.50814   22.177
 6990.00    0.45045   0.50864   22.200
 6991.00    0.45400   0.50904   22.027
 6992.00    0.46109   0.50922   21.688
 6993.00    0.46547   0.50932   21.484
 6994.00    0.46473   0.50921   21.518
 6995.00    0.46384   0.50904   21.559
 6996.00    0.46633   0.50868   21.444
 6997.00    0.47049   0.50827   21.254
 6998.00    0.47322   0.50770   21.132
 6999.00    0.47222   0.50713   21.177
 7000.00    0.46735   0.50644   21.397
 7001.00    0.46058   0.50581   -2.000
 7002.00    0.45352   0.50513   -2.000
 7003.00    0.44694   0.50459   -2.000
 7004.00    0.44212   0.50404   -2.000
 7005.00    0.44065   0.50368   -2.000
 7006.00    0.44262   0.50332   -2.000
 7007.00    0.44653   0.50314   -2.000
 7008.00    0.45081   0.50293   -2.000
 7009.00    0.45429   0.50284   -2.000
 7010.00    0.45649   0.50268   -2.000
 7011.00    0.45757   0.50255   -2.000
 7012.00    0.45797   0.50233   -2.000
 7013.00    0.45819   0.50207   -2.000
 7014.00    0.45870   0.50175   -2.000
 7015.00    0.45958   0.50139   -2.000
 7016.00    0.46013   0.50104   -2.000
 7017.00    0.45987   0.50070   -2.000
 7018.00    0.46014   0.50046   -2.000
 7019.00    0.46232   0.50024   -2.000
 7020.00    0.46497   0.50016   -2.000
 7021.00    0.46652   0.50012   -2.000
 7022.00    0.46918   0.50020   -2.000
 7023.00    0.47473   0.50029   -2.000
 7024.00    0.47905   0.50046   -2.000
 7025.00    0.47779   0.50066   -2.000
 7026.00    0.47304   0.50089   -2.000
 7027.00    0.46846   0.50118   -2.000
 7028.00    0.46398   0.50144   -2.000
 7029.00    0.45883   0.50180   -2.000
 7030.00    0.45470   0.50207   -2.000
 7031.00    0.45404   0.50245   -2.000
 7032.00    0.45820   0.50267   -2.000
 7033.00    0.46560   0.50300   -2.000
 7034.00    0.47117   0.50318   -2.000
 7035.00    0.47196   0.50347   -2.000
 7036.00    0.47029   0.50367   -2.000
 7037.00    0.46902   0.50401   -2.000
 7038.00    0.46866   0.50435   -2.000
 7039.00    0.46909   0.50484   -2.000
 7040.00    0.47043   0.50539   -2.000
 7041.00    0.47187   0.50604   -2.000
 7042.00    0.47161   0.50675   -2.000
 7043.00    0.46908   0.50746   -2.000
 7044.00    0.46594   0.50814   -2.000
 7045.00    0.46556   0.50873   -2.000
 7046.00    0.47120   0.50918   -2.000
 7047.00    0.48026   0.50947   -2.000
 7048.00    0.48507   0.50953   -2.000
 7049.00    0.48310   0.50944   -2.000
 7050.00    0.47845   0.50908   -2.000
 7051.00    0.47497   0.50861   -2.000
 7052.00    0.47398   0.50793   -2.000
 7053.00    0.47400   0.50719   -2.000
 7054.00    0.47191   0.50634   -2.000
 7055.00    0.46581   0.50551   -2.000
 7056.00    0.45677   0.50468   -2.000
 7057.00    0.45071   0.50393   -2.000
 7058.00    0.45325   0.50325   -2.000
 7059.00    0.45850   0.50266   -2.000
 7060.00    0.45586   0.50216   -2.000
 7061.00    0.44717   0.50174   -2.000
 7062.00    0.44200   0.50137   -2.000
 7063.00    0.44416   0.50107   -2.000
 7064.00    0.45158   0.50078   -2.000
 7065.00    0.45988   0.50055   -2.000
 7066.00    0.46448   0.50031   -2.000
 7067.00    0.46283   0.50015   -2.000
 7068.00    0.45724   0.49999   -2.000
 7069.00    0.45716   0.49994   -2.000
 7070.00    0.46676   0.49992   -2.000
 7071.00    0.47172   0.50001   -2.000
 7072.00    0.46055   0.50015   -2.000
 7073.00    0.44665   0.50034   -2.000
 7074.00    0.44602   0.50056   -2.000
 7075.00    0.45487   0.50072   -2.000
 7076.00    0.46311   0.50083   -2.000
 7077.00    0.46754   0.50078   -2.000
 7078.00    0.46776   0.50057   -2.000
 7079.00    0.46274   0.50014   -2.000
 7080.00    0.45534   0.49947   -2.000
 7081.00    0.45417   0.49859   -2.000
 7082.00    0.46325   0.49745   -2.000
 7083.00    0.47653   0.49618   -2.000
 7084.00    0.48635   0.49472   -2.000
 7085.00    0.48893   0.49326   -2.000
 7086.00    0.48461   0.49173   -2.000
 7087.00    0.47724   0.49033   -2.000
 7088.00    0.47125   0.48898   -2.000
 7089.00    0.46938   0.48788   -2.000
 7090.00    0.46907   0.48691   -2.000
 7091.00    0.46350   0.48624   -2.000
 7092.00    0.45190   0.48571   -2.000
 7093.00    0.44088   0.48550   -2.000
 7094.00    0.43445   0.48539   -2.000
 7095.00    0.43186   0.48560   -2.000
 7096.00    0.43297   0.48585   -2.000
 7097.00    0.43859   0.48640   -2.000
 7098.00    0.44629   0.48687   -2.000
 7099.00    0.45101   0.48763   -2.000
 7100.00    0.45000   0.48818   -2.000
 7101.00    0.44373   0.48896   -2.000
 7102.00    0.43455   0.48944   -2.000
 7103.00    0.42611   0.49004   -2.000
 7104.00    0.42262   0.49031   -2.000
 7105.00    0.42605   0.49059   -2.000
 7106.00    0.43109   0.49059   -2.000
 7107.00    0.43050   0.49052   -2.000
 7108.00    0.42598   0.49026   -2.000
 7109.00    0.42391   0.48994   -2.000
 7110.00    0.42521   0.48953   -2.000
 7111.00    0.42714   0.48910   -2.000
 7112.00    0.42828   0.48868   -2.000
 7113.00    0.42813   0.48829   -2.000
 7114.00    0.42570   0.48796   -2.000
 7115.00    0.42220   0.48770   -2.000
 7116.00    0.42402   0.48749   -2.000
 7117.00    0.43438   0.48735   -2.000
 7118.00    0.44484   0.48721   -2.000
 7119.00    0.44663   0.48714   -2.000
 7120.00    0.44251   0.48701   -2.000
 7121.00    0.44012   0.48695   -2.000
 7122.00    0.44443   0.48680   -2.000
 7123.00    0.45398   0.48672   -2.000
 7124.00    0.45991   0.48656   -2.000
 7125.00    0.45854   0.48644   -2.000
 7126.00    0.45881   0.48630   -2.000
 7127.00    0.46632   0.48616   -2.000
 7128.00    0.47387   0.48608   -2.000
 7129.00    0.47355   0.48598   -2.000
 7130.00    0.46445   0.48602   -2.000
 7131.00    0.45070   0.48604   -2.000
 7132.00    0.43898   0.48626   -2.000
 7133.00    0.43293   0.48648   -2.000
 7134.00    0.43159   0.48688   -2.000
 7135.00    0.43522   0.48728   -2.000
 7136.00    0.44653   0.48778   -2.000
 7137.00    0.46432   0.48823   -2.000
 7138.00    0.48185   0.48867   -2.000
 7139.00    0.49148   0.48901   -2.000
 7140.00    0.48793   0.48922   -2.000
 7141.00    0.47311   0.48931   -2.000
 7142.00    0.45523   0.48922   -2.000
 7143.00    0.44111   0.48903   -2.000
 7144.00    0.43450   0.48867   -2.000
 7145.00    0.43844   0.48828   -2.000
 7146.00    0.45309   0.48781   -2.000
 7147.00    0.46909   0.48739   -2.000
 7148.00    0.47327   0.48700   -2.000
 7149.00    0.46535   0.48676   -2.000
 7150.00    0.45388   0.48664   -2.000
 7151.00    0.44016   0.48669   -2.000
 7152.00    0.42120   0.48690   -2.000
 7153.00    0.40185   0.48724   -2.000
 7154.00    0.39196   0.48767   -2.000
 7155.00    0.39767   0.48812   -2.000
 7156.00    0.41803   0.48855   -2.000
 7157.00    0.44260   0.48888   -2.000
 7158.00    0.46059   0.48910   -2.000
 7159.00    0.47350   0.48914   -2.000
 7160.00    0.48627   0.48906   -2.000
 7161.00    0.49432   0.48881   -2.000
 7162.00    0.49022   0.48849   -2.000
 7163.00    0.47341   0.48810   -2.000
 7164.00    0.44962   0.48776   -2.000
 7165.00    0.42848   0.48748   -2.000
 7166.00    0.41594   0.48738   -2.000
 7167.00    0.40829   0.48742   -2.000
 7168.00    0.40100   0.48768   -2.000
 7169.00    0.39646   0.48807   -2.000
 7170.00    0.39888   0.48860   -2.000
 7171.00    0.40965   0.48918   -2.000
 7172.00    0.42645   0.48976   -2.000
 7173.00    0.44345   0.49025   -2.000
 7174.00    0.45501   0.49059   -2.000
 7175.00    0.45806   0.49074   -2.000
 7176.00    0.45158   0.49070   -2.000
 7177.00    0.43632   0.49044   -2.000
 7178.00    0.41575   0.49002   -2.000
 7179.00    0.39628   0.48941   -2.000
 7180.00    0.38622   0.48874   -2.000
 7181.00    0.39277   0.48793   -2.000
 7182.00    0.41173   0.48717   -2.000
 7183.00    0.42787   0.48632   -2.000
 7184.00    0.43430   0.48560   -2.000
 7185.00    0.43618   0.48482   -2.000
 7186.00    0.43588   0.48421   -2.000
 7187.00    0.43039   0.48358   -2.000
 7188.00    0.42082   0.48312   -2.000
 7189.00    0.41221   0.48269   -2.000
 7190.00    0.40382   0.48245   -2.000
 7191.00    0.39162   0.48227   -2.000
 7192.00    0.38234   0.48228   -2.000
 7193.00    0.38771   0.48235   -2.000
 7194.00    0.40224   0.48260   -2.000
 7195.00    0.40935   0.48285   -2.000
 7196.00    0.40631   0.48326   -2.000
 7197.00    0.40197   0.48356   -2.000
 7198.00    0.40145   0.48397   -2.000
 7199.00    0.40316   0.48421   -2.000
 7200.00    0.39962   0.48450   -2.000
 7201.00    0.38743   0.48454   -2.000
 7202.00    0.38217   0.48462   -2.000
 7203.00    0.39788   0.48444   -2.000
 7204.00    0.41549   0.48431   -2.000
 7205.00    0.41057   0.48397   -2.000
 7206.00    0.39464   0.48372   -2.000
 7207.00    0.38890   0.48336   -2.000
 7208.00    0.38761   0.48313   -2.000
 7209.00    0.37912   0.48290   -2.000
 7210.00    0.37241   0.48280   -2.000
 7211.00    0.38023   0.48280   -2.000
 7212.00    0.40023   0.48291   -2.000
 7213.00    0.42202   0.48313   -2.000
 7214.00    0.43566   0.48340   -2.000
 7215.00    0.43534   0.48371   -2.000
 7216.00    0.42192   0.48403   -2.000
 7217.00    0.40309   0.48432   -2.000
 7218.00    0.39140   0.48460   -2.000
