###################################################################
## OUTPUT of StarlightChains_v04.for    [Cid@UFSC - 01/Apr/2007] ##
###################################################################

## Some input info
2007cm.txt                               [arq_obs]
Base.CB07.vall.4m                        [arq_base]
Masks.EmLines.NEW.gm                     [arq_masks]
StCv04.C11.config                        [arq_config]
   66                                    [N_base]
    0                                    [N_YAV_components = # of components with extra extinction!]
    0                                    [i_FitPowerLaw (1/0 = Yes/No)]
-9.99                                    [alpha_PowerLaw]
CCM                                      [red_law_option]
 1.458241                                [q_norm = A(l_norm)/A(V)]

## (Re)Sampling Parameters
 3741.00                                 [l_ini (A)]
 7218.00                                 [l_fin (A)]
    1.00                                 [dl    (A)]     (OBS: dl_cushion =    50.00 A)

## Normalization info
 4020.00                                 [l_norm (A) - for base]
 4010.00                                 [llow_norm (A) - window for f_obs]
 4060.00                                 [lupp_norm (A) - window for f_obs]
3.312310E-17                             [fobs_norm (in input units)]

## S/N
 3691.00                                 [llow_SN (A) - window for S/N]
 7268.00                                 [lupp_SN (A) - window for S/N]
   8.461                                 [S/N in S/N window]
   9.307                                 [S/N in norm. window]
   8.209                                 [S/N_err in S/N window]
   9.030                                 [S/N_err in norm. window]
  1.0000                                 [fscale_chi2]

## etc...
    -2007333                             [idum_orig]
  2383                                   [NOl_eff]
  2383                                   [Nl_eff]
     0    NSIGMA                         [Ntot_cliped & clip_method]
  1969730                                [Nglobal_steps]
   7                                     [N_chains]
  38                                     [NEX0s_base = N_base in EX0s-fits]
 0   0   1        3   2.0   1.369E+01    [Clip-Bug, RC-Crash & Burn-In warning-flags, n_censored_weights, wei_nsig_threshold & wei_limit]
    16     15.878     15.368      0.510  [idt_all, wdt_TotTime, wdt_UsrTime & wdt_SysTime (sec)]

## Synthesis Results - Best model ##

 3.46314E-01                             [chi2/Nl_eff]
     6.11304                             [adev (%)]

    96.78378                             [sum-of-x (%)]
 4.94482E-17                             [Flux_tot (units of input spectrum!)]
 1.10753E-12                             [Mini_tot (???)]
 5.74110E-13                             [Mcor_tot (???)]

-160.21                                  [v0_min  (km/s)]
 125.20                                  [vd_min  (km/s)]
 0.3227                                  [AV_min  (mag)]
 0.0000                                  [YAV_min (mag)]

# j     x_j(%)      Mini_j(%)     Mcor_j(%)     age_j(yr)     Z_j      (L/M)_j    YAV?  Mstars   component_j        a/Fe...       SSP_chi2r SSP_adev(%)   SSP_AV   SSP_x(%)
  1      2.5277     1.0659E-02    2.0562E-02    1.000000E+06  0.00400  1.094E-02    0   1.0000   age020_m42            0.0000     6.1265E-01     7.9355   3.1054    82.5786
  2      1.9977     2.2999E-03    4.4363E-03    3.160000E+06  0.00400  4.007E-02    0   0.9999   age045_m42            0.0000     5.4183E-01     7.4248   2.3985    87.4693
  3      1.4824     2.6933E-03    4.9297E-03    5.010000E+06  0.00400  2.539E-02    0   0.9488   age055_m42            0.0000     5.6241E-01     7.5291   2.7073    85.7694
  4      1.5762     2.7753E-03    4.9363E-03    6.610000E+06  0.00400  2.620E-02    0   0.9220   age061_m42            0.0000     5.2409E-01     7.3442   2.3186    87.9087
  5      0.0000     0.0000E+00    0.0000E+00    1.000000E+07  0.00400  1.322E-02    0   0.8862   age070_m42            0.0000     4.7026E-01     6.9985   1.9888    91.7449
  6      0.0000     0.0000E+00    0.0000E+00    1.445000E+07  0.00400  7.883E-03    0   0.8571   age078_m42            0.0000     4.9640E-01     7.1465   2.3172    89.3734
  7      0.0180     1.5799E-04    2.4913E-04    2.512000E+07  0.00400  5.251E-03    0   0.8174   age090_m42            0.0000     4.6763E-01     6.9882   1.8522    92.5397
  8      0.0000     0.0000E+00    0.0000E+00    4.000000E+07  0.00400  3.649E-03    0   0.7851   age104_m42            0.0000     4.5178E-01     6.8985   1.6320    92.9996
  9      0.0000     0.0000E+00    0.0000E+00    5.500000E+07  0.00400  3.098E-03    0   0.7629   age110_m42            0.0000     4.6666E-01     7.0401   1.8093    92.0007
 10      0.4800     9.9376E-03    1.3816E-02    1.015200E+08  0.00400  2.228E-03    0   0.7207   age116_m42            0.0000     4.7816E-01     7.1736   1.8463    91.4798
 11      0.0000     0.0000E+00    0.0000E+00    2.861200E+08  0.00400  1.093E-03    0   0.6648   age125_m42            0.0000     4.6382E-01     7.1186   1.2602    94.8736
 12      0.0000     0.0000E+00    0.0000E+00    5.088000E+08  0.00400  6.597E-04    0   0.6365   age130_m42            0.0000     4.5841E-01     7.1854   1.2762    94.5628
 13     15.7345     3.4045E+00    3.8080E+00    1.434000E+09  0.00400  2.132E-04    0   0.5798   age139_m42            0.0000     3.8754E-01     6.6839   0.3234    95.6634
 14      3.1743     2.4841E+00    2.5767E+00    4.250000E+09  0.00400  5.895E-05    0   0.5377   age158_m42            0.0000     4.2653E-01     6.9531  -0.0889    90.8353
 15      0.0000     0.0000E+00    0.0000E+00    7.500000E+09  0.00400  3.510E-05    0   0.5212   age171_m42            0.0000     4.5796E-01     7.2444  -0.2615    89.6178
 16      0.0000     0.0000E+00    0.0000E+00    1.300000E+10  0.00400  2.005E-05    0   0.5034   age193_m42            0.0000     4.9620E-01     7.5340  -0.4138    88.6237
 17      2.8758     8.6992E+00    8.3355E+00    1.800000E+10  0.00400  1.525E-05    0   0.4967   age213_m42            0.0000     4.8788E-01     7.4537  -0.4411    88.3948
 18      6.1117     2.2774E-02    4.3934E-02    1.000000E+06  0.00800  1.238E-02    0   1.0000   age020_m52            0.0000     6.1184E-01     7.9354   3.1018    82.7375
 19      2.5182     3.7791E-03    7.2655E-03    3.160000E+06  0.00800  3.074E-02    0   0.9966   age045_m52            0.0000     6.0734E-01     7.8852   3.0280    83.3680
 20      2.6917     4.6541E-03    8.4782E-03    5.010000E+06  0.00800  2.668E-02    0   0.9443   age055_m52            0.0000     5.6013E-01     7.5425   2.7849    85.1990
 21      0.0000     0.0000E+00    0.0000E+00    6.610000E+06  0.00800  2.136E-02    0   0.9177   age061_m52            0.0000     4.1389E-01     6.6097   1.4922    92.6780
 22      1.5172     5.7604E-03    9.8089E-03    1.000000E+07  0.00800  1.215E-02    0   0.8827   age070_m52            0.0000     4.7358E-01     7.0422   2.1514    92.2284
 23      0.0000     0.0000E+00    0.0000E+00    1.445000E+07  0.00800  8.717E-03    0   0.8552   age078_m52            0.0000     4.7955E-01     7.0422   2.2816    90.6537
 24      0.0040     3.3073E-05    5.2075E-05    2.512000E+07  0.00800  5.592E-03    0   0.8162   age090_m52            0.0000     4.5675E-01     6.9287   1.9134    93.7344
 25      0.0000     0.0000E+00    0.0000E+00    4.000000E+07  0.00800  3.896E-03    0   0.7841   age104_m52            0.0000     4.5512E-01     6.9286   1.8381    93.9203
 26      0.0000     0.0000E+00    0.0000E+00    1.015200E+08  0.00800  2.148E-03    0   0.7226   age116_m52            0.0000     4.5684E-01     6.9996   1.8019    92.7016
 27      0.0000     0.0000E+00    0.0000E+00    2.861200E+08  0.00800  9.925E-04    0   0.6683   age125_m52            0.0000     4.4374E-01     7.0883   1.3392    95.5237
 28      0.0243     3.5702E-03    4.2275E-03    9.047900E+08  0.00800  3.141E-04    0   0.6138   age135_m52            0.0000     4.3184E-01     7.1748   0.5804    97.7126
 29      0.0000     0.0000E+00    0.0000E+00    1.434000E+09  0.00800  1.719E-04    0   0.5853   age139_m52            0.0000     4.1117E-01     6.9036  -0.0004    95.7359
 30      0.0000     0.0000E+00    0.0000E+00    2.500000E+09  0.00800  7.872E-05    0   0.5600   age150_m52            0.0000     4.6673E-01     7.4004  -0.2313    91.6910
 31      0.0000     0.0000E+00    0.0000E+00    4.250000E+09  0.00800  4.336E-05    0   0.5426   age158_m52            0.0000     4.8180E-01     7.4981  -0.2440    90.7308
 32      0.0000     0.0000E+00    0.0000E+00    6.250000E+09  0.00800  3.159E-05    0   0.5319   age166_m52            0.0000     5.4160E-01     7.9905  -0.4238    89.8346
 33      0.0000     0.0000E+00    0.0000E+00    1.300000E+10  0.00800  1.361E-05    0   0.5073   age193_m52            0.0000     6.4075E-01     8.7589  -0.8622    88.0749
 34      0.0000     0.0000E+00    0.0000E+00    1.800000E+10  0.00800  9.886E-06    0   0.4990   age213_m52            0.0000     7.2943E-01     9.3840  -0.9435    86.6247
 35      4.8686     1.4546E-02    2.8061E-02    1.000000E+06  0.02000  1.544E-02    0   1.0000   age020_m62            0.0000     6.1387E-01     7.9608   3.0977    82.9334
 36      0.0000     0.0000E+00    0.0000E+00    3.160000E+06  0.02000  3.762E-02    0   0.9858   age045_m62            0.0000     6.1452E-01     7.9481   3.0374    83.6296
 37      1.6379     2.2925E-03    4.1314E-03    5.010000E+06  0.02000  3.296E-02    0   0.9342   age055_m62            0.0000     5.5179E-01     7.5090   2.6748    86.5303
 38      7.7276     3.0891E-02    5.2805E-02    8.710000E+06  0.02000  1.154E-02    0   0.8861   age067_m62            0.0000     6.0485E-01     8.4481   1.5092    98.9395
 39      2.8916     1.7407E-02    2.8450E-02    1.445000E+07  0.02000  7.663E-03    0   0.8472   age078_m62            0.0000     4.7528E-01     7.1758   1.7681    95.5847
 40      0.9212     9.3765E-03    1.4650E-02    2.512000E+07  0.02000  4.532E-03    0   0.8099   age090_m62            0.0000     4.9545E-01     7.3170   1.7562    95.4905
 41      0.0000     0.0000E+00    0.0000E+00    5.500000E+07  0.02000  2.733E-03    0   0.7595   age110_m62            0.0000     4.4370E-01     6.8721   1.8189    93.3267
 42      0.3566     1.2015E-02    1.6190E-02    1.609000E+08  0.02000  1.369E-03    0   0.6985   age120_m62            0.0000     4.5115E-01     7.0694   1.6904    94.4697
 43      0.0000     0.0000E+00    0.0000E+00    2.861200E+08  0.02000  9.013E-04    0   0.6714   age125_m62            0.0000     4.5125E-01     7.2007   1.4580    96.3841
 44      0.0000     0.0000E+00    0.0000E+00    5.088000E+08  0.02000  5.028E-04    0   0.6449   age130_m62            0.0000     4.6282E-01     7.4632   1.1187    97.2501
 45      0.0000     0.0000E+00    0.0000E+00    9.047900E+08  0.02000  2.428E-04    0   0.6179   age135_m62            0.0000     4.4433E-01     7.3101   0.5502    95.9248
 46      0.0000     0.0000E+00    0.0000E+00    1.434000E+09  0.02000  1.263E-04    0   0.5908   age139_m62            0.0000     4.5837E-01     7.3778   0.1148    94.1441
 47      0.0000     0.0000E+00    0.0000E+00    2.500000E+09  0.02000  5.985E-05    0   0.5673   age150_m62            0.0000     5.3572E-01     7.9661  -0.2217    91.6645
 48      5.1343     7.2410E+00    7.6381E+00    4.250000E+09  0.02000  3.271E-05    0   0.5468   age158_m62            0.0000     6.4619E-01     8.8113  -0.4908    89.4607
 49      0.0000     0.0000E+00    0.0000E+00    1.000000E+10  0.02000  1.360E-05    0   0.5167   age181_m62            0.0000     8.0994E-01     9.9272  -0.7965    87.4319
 50      2.3659     1.5320E+01    1.4816E+01    1.800000E+10  0.02000  7.124E-06    0   0.5013   age213_m62            0.0000     9.5133E-01    10.7982  -0.9725    85.4537
 51      0.0000     0.0000E+00    0.0000E+00    1.000000E+06  0.05000  2.592E-02    0   0.9998   age020_m72            0.0000     6.1883E-01     8.0406   3.0853    83.1049
 52      3.2733     3.1166E-03    5.7579E-03    3.160000E+06  0.05000  4.845E-02    0   0.9577   age045_m72            0.0000     6.0080E-01     7.8073   2.9306    84.3517
 53      0.0000     0.0000E+00    0.0000E+00    5.010000E+06  0.05000  3.072E-02    0   0.9147   age055_m72            0.0000     5.2005E-01     7.4246   2.3821    90.7988
 54      0.0000     0.0000E+00    0.0000E+00    6.610000E+06  0.05000  1.455E-02    0   0.8877   age061_m72            0.0000     1.0059E+00    10.7208   1.5114   101.7701
 55      0.0000     0.0000E+00    0.0000E+00    1.000000E+07  0.05000  9.074E-03    0   0.8524   age070_m72            0.0000     6.4859E-01     8.0855   2.5616    90.6586
 56      0.0000     0.0000E+00    0.0000E+00    2.512000E+07  0.05000  4.250E-03    0   0.7902   age090_m72            0.0000     5.5289E-01     7.5493   2.2669    92.1243
 57      0.0082     1.2233E-04    1.7978E-04    4.000000E+07  0.05000  3.087E-03    0   0.7618   age104_m72            0.0000     5.4743E-01     7.5481   2.0326    93.9096
 58      0.0000     0.0000E+00    0.0000E+00    1.015200E+08  0.05000  1.700E-03    0   0.7096   age116_m72            0.0000     4.6706E-01     7.1285   1.8161    94.7674
 59      0.0000     0.0000E+00    0.0000E+00    2.861200E+08  0.05000  7.384E-04    0   0.6633   age125_m72            0.0000     4.5604E-01     7.3459   1.3460    96.8099
 60      2.9925     3.6147E-01    4.4434E-01    5.088000E+08  0.05000  3.819E-04    0   0.6372   age130_m72            0.0000     4.5270E-01     7.4032   0.8870    96.9470
 61      0.0000     0.0000E+00    0.0000E+00    9.047900E+08  0.05000  1.676E-04    0   0.6110   age135_m72            0.0000     5.4147E-01     8.0945   0.2356    93.4121
 62      0.0000     0.0000E+00    0.0000E+00    1.434000E+09  0.05000  8.837E-05    0   0.5874   age139_m72            0.0000     5.6181E-01     8.1745  -0.2168    92.7622
 63     15.8967     1.7324E+01    1.8709E+01    2.500000E+09  0.05000  4.233E-05    0   0.5598   age150_m72            0.0000     6.9049E-01     9.1168  -0.4807    89.7969
 64      1.8723     6.0190E+00    6.0948E+00    6.250000E+09  0.05000  1.435E-05    0   0.5249   age166_m72            0.0000     8.6068E-01    10.2241  -0.8831    86.6663
 65      0.9103     6.4473E+00    6.2635E+00    1.300000E+10  0.05000  6.513E-06    0   0.5036   age193_m72            0.0000     1.0776E+00    11.5196  -1.0000    81.5759
 66      3.1933     3.2541E+01    3.1042E+01    1.800000E+10  0.05000  4.527E-06    0   0.4945   age213_m72            0.0000     1.3023E+00    12.6065  -1.0000    75.8862


## Synthesis Results - Average & Chains ##

# j      x_j: min, <> & last-chain-values for 1 ...  7 chains
  1      2.5277      0.9938      1.8259      1.6630      1.4047      3.2646      2.5269      0.7676      3.7323
  2      1.9977      0.5153      2.6536      0.0000      0.0000      1.1214      0.0000      0.5344      1.0886
  3      1.4824      0.6599      0.8565      1.1855      0.0000      0.7985      0.0000      1.9228      2.2031
  4      1.5762      0.5017      0.0000      0.0000      0.0000      0.0000      0.0000      1.9473      0.0000
  5      0.0000      0.8010      1.4666      3.2932      0.0000      0.0000      1.2352      0.0000      0.0000
  6      0.0000      0.8114      2.7891      1.9960      0.0000      0.8526      0.0000      0.2598      1.0927
  7      0.0180      0.5200      0.0000      0.8223      0.3032      0.0000      0.0000      0.9356      0.0000
  8      0.0000      0.8680      0.9715      2.7626      0.0000      0.6280      2.4656      0.0000      0.0000
  9      0.0000      0.8977      0.4362      1.0137      1.2269      3.0857      0.0000      0.0000      1.2103
 10      0.4800      0.8231      0.6697      0.0249      0.0000      2.1814      0.0000      0.4907      0.0000
 11      0.0000      0.7901      3.8726      0.6940      0.0000      0.5428      0.0000      0.8881      0.0000
 12      0.0000      0.7212      0.0000      0.0000      1.1197      5.5137      0.0000      0.0518      0.0000
 13     15.7345      4.2657      0.0000      5.6326      3.8280      1.8220      2.5915      4.1793      0.0000
 14      3.1743      3.4368      3.9274      5.3408      1.4355      4.3994      3.5776      0.4782      2.5349
 15      0.0000      1.9103      2.4338      4.7139      2.4042      3.1579      1.8109      0.0000      6.0136
 16      0.0000      0.4592      0.0000      0.0000      0.2344      0.0000      2.7363      0.4624      1.6489
 17      2.8758      3.1394      2.0117      4.4764      4.4169      1.5063      3.5721      2.8412      6.2560
 18      6.1117      1.1315      1.2217      0.8095      0.0000      5.5854      0.0000      4.6234      0.0000
 19      2.5182      2.2024      1.8047      2.7934      3.6742      1.9520      1.5252      2.0995      0.7841
 20      2.6917      0.5273      0.9689      1.9601      0.5647      0.7161      2.5801      1.0967      0.4944
 21      0.0000      1.0158      0.4767      1.0017      0.1551      0.0000      0.0000      0.0000      1.6948
 22      1.5172      1.1091      2.2024      1.9468      1.3901      0.8065      1.6445      1.5771      0.5040
 23      0.0000      1.1643      1.1126      1.1291      0.0000      2.1270      0.2336      0.0000      1.4829
 24      0.0040      0.7909      1.6892      0.0000      0.3639      0.0000      0.4996      0.5067      0.2284
 25      0.0000      1.6695      2.0600      0.0000      0.6182      3.7766      3.3846      1.8046      0.0000
 26      0.0000      1.0007      0.0000      3.0072      1.2977      1.1955      0.0000      2.3295      0.0000
 27      0.0000      1.1451      0.0000      0.0000      0.0000      0.4215      0.0000      0.1828      3.0817
 28      0.0243      2.0464      0.0000      1.3863      0.4159      0.1729      0.0000      1.6639      0.0000
 29      0.0000      1.4744      1.4523      0.0000      0.0000      0.0000      1.7077      0.0000      0.4901
 30      0.0000      0.5800      2.5919      0.0000      0.4074      0.3795      0.0058      0.0000      0.0000
 31      0.0000      4.1119      3.8503      0.0000      0.0000      3.7085      5.6621      4.1149      0.0000
 32      0.0000      0.7681      0.8835      0.0000      0.0000      0.0000      0.0000      1.9821      0.1375
 33      0.0000      0.1253      0.0000      0.0000      0.0000      0.6618      0.0000      0.0000      0.0000
 34      0.0000      0.1017      1.2055      0.3552      0.0000      0.0000      0.0000      0.0000      0.0000
 35      4.8686      2.6838      5.1806      3.3219      3.3652      0.6966      3.9973      0.9707      4.7347
 36      0.0000      0.6974      1.2558      0.0000      0.0000      0.0000      1.5119      0.0617      0.1600
 37      1.6379      0.6162      0.0000      2.4008      1.5787      0.0000      0.0000      1.9317      0.6780
 38      7.7276      6.9840      7.8940      3.9149      9.0737      3.9745      6.8826      9.4316     10.3050
 39      2.8916      2.0346      0.6720      2.0208      5.2928      0.0000      4.1428      2.5494      0.0000
 40      0.9212      1.6934      0.0000      0.4692      7.3797      0.0000      2.3413      0.8699      0.0000
 41      0.0000      0.7833      0.0000      1.3918      1.1193      0.5914      0.0000      0.2925      1.1676
 42      0.3566      0.5180      1.4903      0.0000      0.0000      0.3136      0.0000      2.2947      0.6663
 43      0.0000      0.7199      0.0000      0.0000      3.5183      0.4945      1.4275      0.0000      0.0000
 44      0.0000      1.0860      0.0000      0.0000      1.9692      1.6292      2.3231      0.3484      0.0000
 45      0.0000      2.7785      2.7102      0.0000      1.8141      0.4155      1.2325      0.0000     10.5954
 46      0.0000      6.7882      5.4403      8.3876      8.0358      3.3479      6.3346      6.7840      5.8088
 47      0.0000      1.8723      3.3171      0.0000      0.0000      4.4029      1.3166      0.0000      0.0000
 48      5.1343      1.7923      2.2809      2.3292      3.1393      0.0000      1.5560      4.5932      0.0000
 49      0.0000      0.9873      2.2269      2.3387      1.9846      1.1551      0.0262      0.0000      1.5941
 50      2.3659      1.3388      1.5729      1.0995      2.5784      2.8611      2.4512      2.7447      3.1917
 51      0.0000      0.5283      0.9966      0.0000      0.0000      0.0000      1.5722      0.0000      1.8777
 52      3.2733      2.5924      0.0000      1.0447      2.7287      7.8636      2.2158      3.6283      1.7688
 53      0.0000      0.6898      0.0000      0.0000      1.4613      0.0000      0.0000      0.0000      1.7193
 54      0.0000      0.7081      1.0641      1.7932      0.0000      1.7155      0.0998      0.0000      0.0000
 55      0.0000      0.3068      0.0000      2.6529      0.7512      0.0000      0.0000      0.0000      0.0000
 56      0.0000      0.3417      0.0000      0.0000      0.0000      0.0000      0.3448      1.4987      1.0979
 57      0.0082      0.5216      0.0000      0.0000      0.0000      0.0000      0.0000      2.7445      0.0000
 58      0.0000      1.0486      0.0000      1.8028      0.0000      0.0000      1.1439      0.0386      4.6770
 59      0.0000      1.3080      4.1821      1.0631      0.0000      1.9623      0.0000      0.0000      1.5096
 60      2.9925      1.5371      1.8277      1.2042      2.4264      0.1658      7.2791      4.4104      0.0000
 61      0.0000      2.2413      1.5525      0.4542      4.1629      0.2581      3.1973      2.1440      0.0000
 62      0.0000      1.1467      0.0000      1.8161      0.9840      0.3026      1.1283      0.0000      1.5290
 63     15.8967      4.5702      5.3734      5.2905      5.4738     10.8721      4.4341      6.9892      7.5266
 64      1.8723      0.9439      0.6792      0.7198      1.2112      1.3298      0.0000      2.8869      0.0000
 65      0.9103      0.2056      0.0000      0.2907      0.0215      0.0000      0.0000      0.5742      0.1627
 66      3.1933      1.4036      1.7890      2.6889      1.4988      1.6151      1.8811      1.3414      1.0813

# j      m_j: min, <> & last-chain-values for 1 ...  7 chains
  1  2.0562E-02  1.1600E-02  1.8703E-02  1.5511E-02  1.4542E-02  3.2937E-02  2.6344E-02  7.6193E-03  3.5912E-02
  2  4.4363E-03  1.6422E-03  7.4204E-03  0.0000E+00  0.0000E+00  3.0888E-03  0.0000E+00  1.4480E-03  2.8595E-03
  3  4.9297E-03  3.1491E-03  3.5868E-03  4.5205E-03  0.0000E+00  3.2935E-03  0.0000E+00  7.8026E-03  8.6663E-03
  4  4.9363E-03  2.2544E-03  0.0000E+00  0.0000E+00  0.0000E+00  0.0000E+00  0.0000E+00  7.4415E-03  0.0000E+00
  5  0.0000E+00  6.8571E-03  1.1017E-02  2.2526E-02  0.0000E+00  0.0000E+00  9.4437E-03  0.0000E+00  0.0000E+00
  6  0.0000E+00  1.1267E-02  3.3983E-02  2.2145E-02  0.0000E+00  1.0232E-02  0.0000E+00  3.0669E-03  1.2506E-02
  7  2.4913E-04  1.0336E-02  0.0000E+00  1.3062E-02  5.3457E-03  0.0000E+00  0.0000E+00  1.5815E-02  0.0000E+00
  8  0.0000E+00  2.3849E-02  2.3423E-02  6.0651E-02  0.0000E+00  1.4914E-02  6.0505E-02  0.0000E+00  0.0000E+00
  9  0.0000E+00  2.8231E-02  1.2036E-02  2.5472E-02  3.4220E-02  8.3870E-02  0.0000E+00  0.0000E+00  3.1374E-02
 10  1.3816E-02  3.3999E-02  2.4276E-02  8.2341E-04  0.0000E+00  7.7885E-02  0.0000E+00  1.7237E-02  0.0000E+00
 11  0.0000E+00  6.1367E-02  2.6395E-01  4.3072E-02  0.0000E+00  3.6443E-02  0.0000E+00  5.8657E-02  0.0000E+00
 12  0.0000E+00  8.8857E-02  0.0000E+00  0.0000E+00  1.2236E-01  5.8718E-01  0.0000E+00  5.4293E-03  0.0000E+00
 13  3.8080E+00  1.4814E+00  0.0000E+00  1.5630E+00  1.1790E+00  5.4691E-01  8.0382E-01  1.2342E+00  0.0000E+00
 14  2.5767E+00  4.0032E+00  4.0143E+00  4.9708E+00  1.4830E+00  4.4292E+00  3.7219E+00  4.7363E-01  2.4339E+00
 15  0.0000E+00  3.6223E+00  4.0497E+00  7.1423E+00  4.0433E+00  5.1757E+00  3.0670E+00  0.0000E+00  9.3997E+00
 16  0.0000E+00  1.4724E+00  0.0000E+00  0.0000E+00  6.6657E-01  0.0000E+00  7.8357E+00  1.2606E+00  4.3580E+00
 17  8.3355E+00  1.3058E+01  7.3425E+00  1.4877E+01  1.6294E+01  5.4152E+00  1.3270E+01  1.0049E+01  2.1449E+01
 18  4.3934E-02  1.1672E-02  1.1058E-02  6.6720E-03  0.0000E+00  4.9797E-02  0.0000E+00  4.0554E-02  0.0000E+00
 19  7.2655E-03  9.1180E-03  6.5565E-03  9.2411E-03  1.3491E-02  6.9849E-03  5.6397E-03  7.3914E-03  2.6758E-03
 20  8.4782E-03  2.3831E-03  3.8427E-03  7.0789E-03  2.2635E-03  2.7976E-03  1.0415E-02  4.2151E-03  1.8420E-03
 21  0.0000E+00  5.5733E-03  2.2951E-03  4.3912E-03  7.5467E-04  0.0000E+00  0.0000E+00  0.0000E+00  7.6650E-03
 22  9.8089E-03  1.0289E-02  1.7930E-02  1.4432E-02  1.1439E-02  6.4670E-03  1.3627E-02  1.2442E-02  3.8543E-03
 23  0.0000E+00  1.4587E-02  1.2232E-02  1.1303E-02  0.0000E+00  2.3033E-02  2.6136E-03  0.0000E+00  1.5314E-02
 24  5.2075E-05  1.4741E-02  2.7629E-02  0.0000E+00  6.0163E-03  0.0000E+00  8.3167E-03  8.0310E-03  3.5092E-03
 25  0.0000E+00  4.2907E-02  4.6460E-02  0.0000E+00  1.4092E-02  8.3893E-02  7.7693E-02  3.9438E-02  0.0000E+00
 26  0.0000E+00  4.2991E-02  0.0000E+00  1.0323E-01  4.9444E-02  4.4389E-02  0.0000E+00  8.5097E-02  0.0000E+00
 27  0.0000E+00  9.8467E-02  0.0000E+00  0.0000E+00  0.0000E+00  3.1327E-02  0.0000E+00  1.3363E-02  2.1843E-01
 28  4.2275E-03  5.1069E-01  0.0000E+00  2.7643E-01  9.2061E-02  3.7300E-02  0.0000E+00  3.5309E-01  0.0000E+00
 29  0.0000E+00  6.4109E-01  5.5413E-01  0.0000E+00  0.0000E+00  0.0000E+00  6.6317E-01  0.0000E+00  1.7566E-01
 30  0.0000E+00  5.2688E-01  2.0662E+00  0.0000E+00  3.2821E-01  2.9800E-01  4.6755E-03  0.0000E+00  0.0000E+00
 31  0.0000E+00  6.5709E+00  5.3992E+00  0.0000E+00  0.0000E+00  5.1222E+00  8.0814E+00  5.5917E+00  0.0000E+00
 32  0.0000E+00  1.6515E+00  1.6670E+00  0.0000E+00  0.0000E+00  0.0000E+00  0.0000E+00  3.6241E+00  2.4372E-01
 33  0.0000E+00  5.9626E-01  0.0000E+00  0.0000E+00  0.0000E+00  2.7227E+00  0.0000E+00  0.0000E+00  0.0000E+00
 34  0.0000E+00  6.5578E-01  6.8188E+00  1.8296E+00  0.0000E+00  0.0000E+00  0.0000E+00  0.0000E+00  0.0000E+00
 35  2.8061E-02  2.2197E-02  3.7600E-02  2.1953E-02  2.4685E-02  4.9795E-03  2.9528E-02  6.8271E-03  3.2280E-02
 36  0.0000E+00  2.3337E-03  3.6875E-03  0.0000E+00  0.0000E+00  0.0000E+00  4.5187E-03  1.7548E-04  4.4142E-04
 37  4.1314E-03  2.2303E-03  0.0000E+00  6.9435E-03  5.0678E-03  0.0000E+00  0.0000E+00  5.9455E-03  2.0228E-03
 38  5.2805E-02  6.8482E-02  6.7924E-02  3.0674E-02  7.8911E-02  3.3684E-02  6.0276E-02  7.8643E-02  8.3293E-02
 39  2.8450E-02  2.8726E-02  8.3252E-03  2.2797E-02  6.6274E-02  0.0000E+00  5.2240E-02  3.0607E-02  0.0000E+00
 40  1.4650E-02  3.8645E-02  0.0000E+00  8.5560E-03  1.4937E-01  0.0000E+00  4.7722E-02  1.6882E-02  0.0000E+00
 41  0.0000E+00  2.7797E-02  0.0000E+00  3.9466E-02  3.5230E-02  1.8139E-02  0.0000E+00  8.8255E-03  3.4156E-02
 42  1.6190E-02  3.3751E-02  8.5208E-02  0.0000E+00  0.0000E+00  1.7660E-02  0.0000E+00  1.2714E-01  3.5786E-02
 43  0.0000E+00  6.8479E-02  0.0000E+00  0.0000E+00  2.9683E-01  4.0656E-02  1.2129E-01  0.0000E+00  0.0000E+00
 44  0.0000E+00  1.7788E-01  0.0000E+00  0.0000E+00  2.8606E-01  2.3065E-01  3.3985E-01  4.8520E-02  0.0000E+00
 45  0.0000E+00  9.0297E-01  7.7289E-01  0.0000E+00  5.2288E-01  1.1670E-01  3.5775E-01  0.0000E+00  2.8384E+00
 46  0.0000E+00  4.0550E+00  2.8518E+00  4.0035E+00  4.2573E+00  1.7286E+00  3.3797E+00  3.4460E+00  2.8603E+00
 47  0.0000E+00  2.2663E+00  3.5234E+00  0.0000E+00  0.0000E+00  4.6064E+00  1.4234E+00  0.0000E+00  0.0000E+00
 48  7.6381E+00  3.8261E+00  4.2726E+00  3.9730E+00  5.9437E+00  0.0000E+00  2.9668E+00  8.3380E+00  0.0000E+00
 49  0.0000E+00  4.7900E+00  9.4811E+00  9.0665E+00  8.5398E+00  4.8438E+00  1.1352E-01  0.0000E+00  6.3753E+00
 50  1.4816E+01  1.2030E+01  1.2403E+01  7.8949E+00  2.0549E+01  2.2222E+01  1.9673E+01  2.0973E+01  2.3642E+01
 51  0.0000E+00  2.6025E-03  4.3076E-03  0.0000E+00  0.0000E+00  0.0000E+00  6.9167E-03  0.0000E+00  7.6242E-03
 52  5.7579E-03  6.5439E-03  0.0000E+00  2.1071E-03  6.1089E-03  1.7157E-02  4.9957E-03  7.7882E-03  3.6804E-03
 53  0.0000E+00  2.6229E-03  0.0000E+00  0.0000E+00  4.9280E-03  0.0000E+00  0.0000E+00  0.0000E+00  5.3887E-03
 54  0.0000E+00  5.5166E-03  7.2752E-03  1.1163E-02  0.0000E+00  1.1553E-02  6.9413E-04  0.0000E+00  0.0000E+00
 55  0.0000E+00  3.6808E-03  0.0000E+00  2.5429E-02  7.9918E-03  0.0000E+00  0.0000E+00  0.0000E+00  0.0000E+00
 56  0.0000E+00  8.1140E-03  0.0000E+00  0.0000E+00  0.0000E+00  0.0000E+00  7.3122E-03  3.0259E-02  2.1489E-02
 57  1.7978E-04  1.6437E-02  0.0000E+00  0.0000E+00  0.0000E+00  0.0000E+00  0.0000E+00  7.3547E-02  0.0000E+00
 58  0.0000E+00  5.5897E-02  0.0000E+00  7.6784E-02  0.0000E+00  0.0000E+00  5.4459E-02  1.7512E-03  2.0550E-01
 59  0.0000E+00  1.5004E-01  4.2098E-01  9.7443E-02  0.0000E+00  1.9456E-01  0.0000E+00  0.0000E+00  1.4274E-01
 60  4.4434E-01  3.2750E-01  3.4172E-01  2.0502E-01  4.5853E-01  3.0536E-02  1.3852E+00  7.9909E-01  0.0000E+00
 61  0.0000E+00  1.0434E+00  6.3422E-01  1.6896E-01  1.7188E+00  1.0384E-01  1.3295E+00  8.4875E-01  0.0000E+00
 62  0.0000E+00  9.7339E-01  0.0000E+00  1.2318E+00  7.4082E-01  2.2202E-01  8.5544E-01  0.0000E+00  1.0698E+00
 63  1.8709E+01  7.7182E+00  7.9631E+00  7.1391E+00  8.1987E+00  1.5870E+01  6.6882E+00  1.0037E+01  1.0478E+01
 64  6.0948E+00  4.4091E+00  2.7840E+00  2.6866E+00  5.0179E+00  5.3690E+00  0.0000E+00  1.1467E+01  0.0000E+00
 65  6.2635E+00  2.0302E+00  0.0000E+00  2.2938E+00  1.8872E-01  0.0000E+00  0.0000E+00  4.8213E+00  1.3239E+00
 66  3.1042E+01  1.9580E+01  2.1899E+01  2.9970E+01  1.8543E+01  1.9473E+01  2.3436E+01  1.5911E+01  1.2434E+01

# AV, chi2 & Mass for <> & i_chain = 1 ...  7 solutions
AV       0.3227      0.4736      0.4285      0.4379      0.4828      0.4664      0.4626      0.4543      0.4589
chi2 3.4631E-01  3.5353E-01  3.5189E-01  3.5174E-01  3.5191E-01  3.5156E-01  3.5287E-01  3.5114E-01  3.5200E-01
Mass 5.7411E-13  4.8999E-13  5.2557E-13  5.8448E-13  5.5931E-13  5.6144E-13  5.4053E-13  5.6145E-13  5.8279E-13
-160.21                                  [v0_min (km/s) before EX0s...]
 125.20                                  [vd_min (km/s) before EX0s...]


## Synthetic spectrum (Best Model) ##l_obs f_obs f_syn wei
 3478    [Nl_obs]
 3741.00    0.64470   0.70752    0.000
 3742.00    0.67409   0.68308    0.000
 3743.00    0.71126   0.65504    0.000
 3744.00    0.75910   0.62446    0.000
 3745.00    0.80417   0.59244    3.267
 3746.00    0.82727   0.56251    3.348
 3747.00    0.82281   0.54459    3.513
 3748.00    0.79722   0.54938    3.598
 3749.00    0.76145   0.57858    3.525
 3750.00    0.72595   0.62320    3.372
 3751.00    0.69550   0.67035    3.299
 3752.00    0.67082   0.70945    3.382
 3753.00    0.65150   0.73259    3.472
 3754.00    0.63331   0.73669    3.407
 3755.00    0.60591   0.72638    3.351
 3756.00    0.57110   0.71356    3.487
 3757.00    0.56018   0.70907    3.698
 3758.00    0.59155   0.71440    3.746
 3759.00    0.62867   0.72336    3.646
 3760.00    0.62525   0.72898    3.564
 3761.00    0.57230   0.72790    3.611
 3762.00    0.48734   0.72033    3.793
 3763.00    0.39917   0.70684    3.936
 3764.00    0.33333   0.68699    3.874
 3765.00    0.30132   0.66300    3.699
 3766.00    0.30417   0.63935    3.549
 3767.00    0.33749   0.62027    3.450
 3768.00    0.40267   0.61130    3.390
 3769.00    0.51093   0.61869    3.370
 3770.00    0.65563   0.64241    3.396
 3771.00    0.79942   0.67442    3.482
 3772.00    0.91276   0.70601    3.596
 3773.00    0.99477   0.73316    3.647
 3774.00    1.04865   0.75622    3.639
 3775.00    1.06858   0.77701    3.729
 3776.00    1.05152   0.79656    3.934
 3777.00    1.00417   0.81504    3.994
 3778.00    0.94387   0.83107    3.859
 3779.00    0.89429   0.84253    3.848
 3780.00    0.86502   0.84867    4.009
 3781.00    0.84510   0.84879    3.994
 3782.00    0.81672   0.84113    3.752
 3783.00    0.76560   0.82448    3.657
 3784.00    0.69683   0.80161    3.831
 3785.00    0.63555   0.77912    4.107
 3786.00    0.60630   0.76138    4.278
 3787.00    0.61998   0.74913    4.274
 3788.00    0.65748   0.74016    4.172
 3789.00    0.68146   0.73013    4.100
 3790.00    0.68983   0.71375    4.107
 3791.00    0.70944   0.68816    4.154
 3792.00    0.72828   0.65455    4.171
 3793.00    0.70437   0.61679    4.122
 3794.00    0.64360   0.58063    4.139
 3795.00    0.59595   0.55404    4.398
 3796.00    0.59161   0.54701    4.709
 3797.00    0.62686   0.56548    4.578
 3798.00    0.67066   0.60519    4.242
 3799.00    0.68927   0.65423    4.240
 3800.00    0.69390   0.70070    4.524
 3801.00    0.71973   0.73726    4.668
 3802.00    0.76422   0.76042    4.588
 3803.00    0.79885   0.77156    4.556
 3804.00    0.81389   0.77677    4.636
 3805.00    0.81753   0.78391    4.733
 3806.00    0.81951   0.79710    4.824
 3807.00    0.82620   0.81304    4.921
 3808.00    0.83792   0.82419    4.941
 3809.00    0.85419   0.82468    4.817
 3810.00    0.88163   0.81379    4.698
 3811.00    0.92271   0.79579    4.725
 3812.00    0.95951   0.77779    4.790
 3813.00    0.96634   0.76486    4.755
 3814.00    0.92972   0.75704    4.773
 3815.00    0.86078   0.74963    5.004
 3816.00    0.80342   0.73745    5.242
 3817.00    0.78663   0.72200    5.185
 3818.00    0.77601   0.71202    5.001
 3819.00    0.73682   0.71333    4.958
 3820.00    0.69836   0.72064    5.053
 3821.00    0.69084   0.72316    5.186
 3822.00    0.68511   0.71536    5.299
 3823.00    0.65435   0.70089    5.364
 3824.00    0.62805   0.68634    5.356
 3825.00    0.63790   0.67473    5.283
 3826.00    0.67220   0.66455    5.190
 3827.00    0.70116   0.65175    5.101
 3828.00    0.70098   0.63213    4.984
 3829.00    0.66713   0.60336    4.890
 3830.00    0.61936   0.56721    4.983
 3831.00    0.57879   0.53103    5.274
 3832.00    0.55421   0.50388    5.423
 3833.00    0.55512   0.49241    5.259
 3834.00    0.59503   0.49816    5.134
 3835.00    0.66171   0.51724    5.233
 3836.00    0.70961   0.54415    5.359
 3837.00    0.71247   0.57595    5.352
 3838.00    0.68662   0.61156    5.313
 3839.00    0.66472   0.64959    5.297
 3840.00    0.67677   0.68708    5.212
 3841.00    0.72748   0.71911    5.061
 3842.00    0.79180   0.74292    4.969
 3843.00    0.83958   0.75920    4.931
 3844.00    0.85021   0.76994    4.817
 3845.00    0.82669   0.77645    4.684
 3846.00    0.79219   0.77895    4.738
 3847.00    0.75817   0.77909    0.000
 3848.00    0.72182   0.78033    0.000
 3849.00    0.69678   0.78471    0.000
 3850.00    0.71120   0.78978    0.000
 3851.00    0.76904   0.79105    0.000
 3852.00    0.84599   0.78694    0.000
 3853.00    0.91328   0.77945    0.000
 3854.00    0.94947   0.77085    0.000
 3855.00    0.95209   0.76252    0.000
 3856.00    0.93577   0.75509    0.000
 3857.00    0.91963   0.75128    0.000
 3858.00    0.91822   0.75543    0.000
 3859.00    0.92885   0.76839    0.000
 3860.00    0.93756   0.78498    0.000
 3861.00    0.93770   0.79771    0.000
 3862.00    0.92974   0.80258    0.000
 3863.00    0.91286   0.80075    0.000
 3864.00    0.88367   0.79606    0.000
 3865.00    0.83730   0.79094    0.000
 3866.00    0.77576   0.78490    0.000
 3867.00    0.72077   0.77617    0.000
 3868.00    0.69680   0.76423    0.000
 3869.00    0.70177   0.75310    0.000
 3870.00    0.72005   0.74856    0.000
 3871.00    0.74772   0.75322    0.000
 3872.00    0.78591   0.76265    0.000
 3873.00    0.82698   0.76807    0.000
 3874.00    0.85679   0.76352    0.000
 3875.00    0.86061   0.75088    0.000
 3876.00    0.83130   0.73658    0.000
 3877.00    0.77742   0.72556    0.000
 3878.00    0.71466   0.71734    0.000
 3879.00    0.65546   0.70845    0.000
 3880.00    0.60958   0.69721    0.000
 3881.00    0.58509   0.68217    5.505
 3882.00    0.58253   0.66019    5.526
 3883.00    0.59029   0.62842    5.643
 3884.00    0.59466   0.58989    5.775
 3885.00    0.58886   0.55436    5.802
 3886.00    0.57068   0.53358    5.731
 3887.00    0.54096   0.53580    5.786
 3888.00    0.51154   0.56213    6.074
 3889.00    0.50796   0.60386    6.336
 3890.00    0.54515   0.64773    6.317
 3891.00    0.61229   0.68372    6.169
 3892.00    0.68862   0.70965    6.101
 3893.00    0.75512   0.72882    6.147
 3894.00    0.79719   0.74460    6.217
 3895.00    0.80732   0.75773    6.161
 3896.00    0.79200   0.76756    5.998
 3897.00    0.77154   0.77559    5.963
 3898.00    0.75898   0.78360    6.161
 3899.00    0.75190   0.79121    6.472
 3900.00    0.74750   0.79581    6.697
 3901.00    0.74883   0.79591    6.702
 3902.00    0.75845   0.79391    6.569
 3903.00    0.77598   0.79407    6.536
 3904.00    0.80090   0.80071    6.667
 3905.00    0.83354   0.81503    6.796
 3906.00    0.87448   0.83306    6.753
 3907.00    0.92295   0.84932    6.511
 3908.00    0.97203   0.86036    6.221
 3909.00    1.00917   0.86596    6.073
 3910.00    1.02378   0.86741    6.066
 3911.00    1.01121   0.86593    6.061
 3912.00    0.97701   0.86233    6.009
 3913.00    0.93495   0.85705    5.980
 3914.00    0.89772   0.84919    6.024
 3915.00    0.87256   0.83803    6.130
 3916.00    0.85718   0.82353    6.190
 3917.00    0.84250   0.80767    6.089
 3918.00    0.82189   0.79437    5.943
 3919.00    0.79489   0.78687    5.972
 3920.00    0.77007   0.78528    6.193
 3921.00    0.75694   0.78556    6.435
 3922.00    0.74810   0.78260    6.480
 3923.00    0.72674   0.77284    6.262
 3924.00    0.68814   0.75599    6.053
 3925.00    0.63886   0.73448    6.143
 3926.00    0.58754   0.71076    6.459
 3927.00    0.54292   0.68602    6.690
 3928.00    0.51330   0.66011    6.695
 3929.00    0.50304   0.63333    6.575
 3930.00    0.50741   0.60895    6.482
 3931.00    0.51521   0.59339    6.494
 3932.00    0.51437   0.59313    6.521
 3933.00    0.50475   0.60989    6.445
 3934.00    0.51222   0.63918    6.321
 3935.00    0.56206   0.67349    6.253
 3936.00    0.64497   0.70614    6.231
 3937.00    0.73522   0.73283    6.225
 3938.00    0.81649   0.75140    6.295
 3939.00    0.88042   0.76151    6.449
 3940.00    0.92211   0.76564    6.487
 3941.00    0.94214   0.76869    6.272
 3942.00    0.94845   0.77559    6.024
 3943.00    0.94981   0.78778    5.943
 3944.00    0.94987   0.80184    5.990
 3945.00    0.94925   0.81345    6.044
 3946.00    0.94766   0.82184    6.029
 3947.00    0.94254   0.82870    5.966
 3948.00    0.92879   0.83410    5.979
 3949.00    0.90730   0.83662    6.131
 3950.00    0.88889   0.83599    6.316
 3951.00    0.87708   0.83366    6.375
 3952.00    0.85892   0.83009    6.242
 3953.00    0.82507   0.82406    6.030
 3954.00    0.78094   0.81563    5.970
 3955.00    0.73168   0.80621    6.171
 3956.00    0.67541   0.79475    6.532
 3957.00    0.61786   0.77684    6.766
 3958.00    0.57617   0.74931    6.548
 3959.00    0.55514   0.71432    6.132
 3960.00    0.53933   0.67758    0.000
 3961.00    0.51535   0.64209    0.000
 3962.00    0.48152   0.60574    0.000
 3963.00    0.44142   0.56495    0.000
 3964.00    0.39992   0.51906    0.000
 3965.00    0.35984   0.47252    0.000
 3966.00    0.32211   0.43428    0.000
 3967.00    0.29180   0.41459    0.000
 3968.00    0.27725   0.42018    0.000
 3969.00    0.27930   0.45046    0.000
 3970.00    0.29249   0.49791    0.000
 3971.00    0.32088   0.55265    0.000
 3972.00    0.37602   0.60693    0.000
 3973.00    0.45525   0.65654    0.000
 3974.00    0.54167   0.70016    0.000
 3975.00    0.62318   0.73824    0.000
 3976.00    0.69545   0.77102    0.000
 3977.00    0.75542   0.79726    0.000
 3978.00    0.80011   0.81537    0.000
 3979.00    0.82786   0.82551    0.000
 3980.00    0.84010   0.83099    0.000
 3981.00    0.84430   0.83635    3.250
 3982.00    0.85254   0.84422    3.578
 3983.00    0.87671   0.85465    5.038
 3984.00    0.91740   0.86606    6.671
 3985.00    0.94609   0.87674    6.494
 3986.00    0.93417   0.88531    5.664
 3987.00    0.90832   0.89119    5.271
 3988.00    0.91351   0.89574    5.425
 3989.00    0.93812   0.90040    5.859
 3990.00    0.94900   0.90436    6.081
 3991.00    0.96154   0.90530    6.037
 3992.00    1.00157   0.90168    6.019
 3993.00    1.03888   0.89501    6.080
 3994.00    1.03139   0.88917    6.153
 3995.00    0.99325   0.88854    6.313
 3996.00    0.95984   0.89543    6.569
 3997.00    0.93516   0.90813    6.532
 3998.00    0.90909   0.92143    6.041
 3999.00    0.88356   0.92992    5.721
 4000.00    0.86598   0.93001    5.959
 4001.00    0.85948   0.92053    6.434
 4002.00    0.86595   0.90440    6.575
 4003.00    0.88931   0.88913    6.463
 4004.00    0.92708   0.88259    6.425
 4005.00    0.96405   0.88671    6.444
 4006.00    0.98678   0.89714    6.454
 4007.00    0.99583   0.90851    6.579
 4008.00    0.99983   0.91837    6.751
 4009.00    1.00925   0.92665    6.446
 4010.00    1.02965   0.93375    5.731
 4011.00    1.05766   0.93985    5.371
 4012.00    1.08566   0.94458    5.612
 4013.00    1.10605   0.94752    6.122
 4014.00    1.11618   0.94862    6.435
 4015.00    1.12003   0.94920    6.488
 4016.00    1.11981   0.95074    6.442
 4017.00    1.11176   0.95234    6.403
 4018.00    1.09063   0.95109    6.426
 4019.00    1.05368   0.94479    6.543
 4020.00    1.00707   0.93339    6.739
 4021.00    0.96691   0.91902    6.927
 4022.00    0.94930   0.90597    6.981
 4023.00    0.96305   0.89972    6.813
 4024.00    1.00000   0.90298    6.576
 4025.00    1.03658   0.91189    6.553
 4026.00    1.05684   0.91747    6.777
 4027.00    1.05941   0.91243    6.974
 4028.00    1.04756   0.89754    6.921
 4029.00    1.02545   0.88064    6.667
 4030.00    0.99855   0.87019    6.440
 4031.00    0.97299   0.87104    6.447
 4032.00    0.95288   0.88390    6.633
 4033.00    0.94008   0.90597    6.712
 4034.00    0.93614   0.93158    6.597
 4035.00    0.94258   0.95317    6.469
 4036.00    0.95997   0.96493    6.436
 4037.00    0.98563   0.96598    6.492
 4038.00    1.00881   0.95958    6.584
 4039.00    1.01602   0.94883    6.637
 4040.00    1.00627   0.93284    6.598
 4041.00    0.98789   0.90950    6.487
 4042.00    0.96371   0.88255    6.443
 4043.00    0.93433   0.86314    6.610
 4044.00    0.91110   0.86216    6.918
 4045.00    0.90955   0.88037    7.119
 4046.00    0.93242   0.90777    7.089
 4047.00    0.97290   0.93233    6.903
 4048.00    1.02584   0.94673    6.704
 4049.00    1.08227   0.94959    6.616
 4050.00    1.11837   0.94349    6.718
 4051.00    1.11150   0.93246    7.000
 4052.00    1.06645   0.92037    7.260
 4053.00    1.00532   0.91005    7.228
 4054.00    0.94761   0.90275    6.937
 4055.00    0.90524   0.89927    6.645
 4056.00    0.88002   0.90036    6.598
 4057.00    0.86891   0.90402    6.856
 4058.00    0.87061   0.90452    7.075
 4059.00    0.88277   0.89655    6.908
 4060.00    0.89834   0.88109    6.670
 4061.00    0.91044   0.86663    6.711
 4062.00    0.91746   0.86202    6.897
 4063.00    0.92044   0.86848    6.994
 4064.00    0.91997   0.88059    7.081
 4065.00    0.91690   0.89237    7.234
 4066.00    0.91307   0.89962    7.200
 4067.00    0.91056   0.89978    6.883
 4068.00    0.91042   0.89338    6.664
 4069.00    0.90936   0.88572    6.765
 4070.00    0.89860   0.88302    6.986
 4071.00    0.87490   0.88473    7.094
 4072.00    0.84765   0.88370    7.153
 4073.00    0.83160   0.87481    7.246
 4074.00    0.83986   0.86153    7.268
 4075.00    0.87388   0.85403    7.191
 4076.00    0.91912   0.86014    7.182
 4077.00    0.95561   0.87868    7.315
 4078.00    0.96708   0.90075    7.446
 4079.00    0.95479   0.91592    7.413
 4080.00    0.93945   0.91926    7.200
 4081.00    0.93446   0.91384    6.966
 4082.00    0.93611   0.90727    6.924
 4083.00    0.94223   0.90608    7.039
 4084.00    0.95642   0.91182    7.000
 4085.00    0.96801   0.92082    6.752
 4086.00    0.95344   0.92732    6.584
 4087.00    0.91584   0.92746    6.621
 4088.00    0.88536   0.92093    6.762
 4089.00    0.86210   0.90967    6.883
 4090.00    0.81562   0.89552    6.903
 4091.00    0.75593   0.87830    6.751
 4092.00    0.73213   0.85585    0.000
 4093.00    0.75084   0.82761    0.000
 4094.00    0.77182   0.79555    0.000
 4095.00    0.77243   0.76124    0.000
 4096.00    0.75756   0.72417    0.000
 4097.00    0.73350   0.68404    0.000
 4098.00    0.70343   0.64579    0.000
 4099.00    0.67476   0.62121    0.000
 4100.00    0.65680   0.62147    0.000
 4101.00    0.65118   0.64791    0.000
 4102.00    0.65434   0.69153    0.000
 4103.00    0.66756   0.73904    0.000
 4104.00    0.69394   0.77943    0.000
 4105.00    0.72833   0.80782    0.000
 4106.00    0.76063   0.82480    0.000
 4107.00    0.78569   0.83431    0.000
 4108.00    0.80418   0.84171    0.000
 4109.00    0.82044   0.85106    0.000
 4110.00    0.83817   0.86370    0.000
 4111.00    0.85438   0.87810    0.000
 4112.00    0.86410   0.89092    0.000
 4113.00    0.86845   0.89911    6.949
 4114.00    0.86856   0.90091    7.067
 4115.00    0.85612   0.89633    7.333
 4116.00    0.82504   0.88824    7.432
 4117.00    0.78697   0.88151    7.486
 4118.00    0.75984   0.87949    7.705
 4119.00    0.75197   0.88295    7.805
 4120.00    0.76316   0.89056    7.502
 4121.00    0.78828   0.89994    7.178
 4122.00    0.82058   0.90820    7.194
 4123.00    0.85462   0.91199    7.445
 4124.00    0.88571   0.90983    7.658
 4125.00    0.90927   0.90288    7.703
 4126.00    0.92242   0.89378    7.602
 4127.00    0.92544   0.88402    7.459
 4128.00    0.92058   0.87390    7.401
 4129.00    0.91097   0.86440    7.534
 4130.00    0.89997   0.85937    7.824
 4131.00    0.89043   0.86259    7.988
 4132.00    0.88221   0.87475    7.849
 4133.00    0.87144   0.89262    7.637
 4134.00    0.85676   0.91012    7.568
 4135.00    0.84293   0.92322    7.642
 4136.00    0.83638   0.92985    7.780
 4137.00    0.84215   0.92782    7.887
 4138.00    0.86250   0.91511    7.861
 4139.00    0.89618   0.89201    7.638
 4140.00    0.93828   0.86491    7.352
 4141.00    0.98059   0.84572    7.268
 4142.00    1.01389   0.84363    7.447
 4143.00    1.02967   0.85720    7.683
 4144.00    1.02273   0.87664    7.809
 4145.00    0.99274   0.89171    7.846
 4146.00    0.94554   0.89775    7.809
 4147.00    0.89320   0.89670    7.649
 4148.00    0.85221   0.89299    7.467
 4149.00    0.83570   0.88885    7.461
 4150.00    0.82924   0.88480    7.633
 4151.00    0.80007   0.88069    7.755
 4152.00    0.75678   0.87767    7.665
 4153.00    0.74686   0.87761    7.405
 4154.00    0.78637   0.88184    7.153
 4155.00    0.84959   0.89062    7.103
 4156.00    0.90507   0.90201    7.343
 4157.00    0.93229   0.91333    7.860
 4158.00    0.93606   0.92247    8.429
 4159.00    0.93798   0.92886    8.607
 4160.00    0.94610   0.93231    8.295
 4161.00    0.95483   0.93187    7.833
 4162.00    0.96235   0.92735    7.520
 4163.00    0.97001   0.91985    7.490
 4164.00    0.97255   0.91156    7.693
 4165.00    0.96235   0.90538    7.964
 4166.00    0.94164   0.90194    8.171
 4167.00    0.91860   0.89812    8.246
 4168.00    0.89598   0.88993    8.177
 4169.00    0.87216   0.87646    8.012
 4170.00    0.84659   0.86240    7.837
 4171.00    0.82144   0.85417    7.754
 4172.00    0.80244   0.85401    7.859
 4173.00    0.79667   0.85926    8.171
 4174.00    0.80896   0.86560    8.483
 4175.00    0.83697   0.87102    8.444
 4176.00    0.86631   0.87622    7.927
 4177.00    0.88452   0.88141    7.249
 4178.00    0.89830   0.88539    6.955
 4179.00    0.91635   0.88782    7.303
 4180.00    0.92823   0.89021    7.967
 4181.00    0.92258   0.89338    8.283
 4182.00    0.90826   0.89608    8.130
 4183.00    0.89841   0.89542    7.844
 4184.00    0.89271   0.89055    7.631
 4185.00    0.88544   0.88581    7.551
 4186.00    0.87479   0.88557    7.590
 4187.00    0.86395   0.89059    7.716
 4188.00    0.86034   0.89877    7.906
 4189.00    0.86759   0.90752    8.104
 4190.00    0.87968   0.91433    8.191
 4191.00    0.88703   0.91543    8.100
 4192.00    0.88225   0.90795    7.915
 4193.00    0.86543   0.89269    7.803
 4194.00    0.84621   0.87397    7.916
 4195.00    0.83411   0.85682    8.114
 4196.00    0.83225   0.84526    7.840
 4197.00    0.83969   0.84065    7.089
 4198.00    0.85308   0.84144    6.525
 4199.00    0.86733   0.84642    6.440
 4200.00    0.87763   0.85560    6.778
 4201.00    0.88828   0.86807    7.363
 4202.00    0.91296   0.88257    7.845
 4203.00    0.95410   0.89759    8.023
 4204.00    0.99677   0.91062    8.127
 4205.00    1.02728   0.91993    8.237
 4206.00    1.04050   0.92456    8.094
 4207.00    1.03369   0.92520    7.773
 4208.00    1.00521   0.92426    7.689
 4209.00    0.95982   0.92240    7.906
 4210.00    0.91006   0.91776    8.107
 4211.00    0.87344   0.90913    8.212
 4212.00    0.86469   0.89843    8.462
 4213.00    0.87450   0.89235    8.626
 4214.00    0.87775   0.89701    8.092
 4215.00    0.87938   0.91110    7.274
 4216.00    0.90913   0.92815    6.945
 4217.00    0.96636   0.94076    7.109
 4218.00    1.02183   0.94342    7.341
 4219.00    1.06404   0.93332    7.456
 4220.00    1.09578   0.91042    7.598
 4221.00    1.09613   0.87681    7.775
 4222.00    1.03914   0.83783    7.841
 4223.00    0.95576   0.80313    7.812
 4224.00    0.90811   0.78503    7.846
 4225.00    0.90724   0.79226    8.012
 4226.00    0.92246   0.82100    8.257
 4227.00    0.93375   0.85797    8.412
 4228.00    0.93557   0.88893    8.334
 4229.00    0.92501   0.90442    8.182
 4230.00    0.90171   0.90472    8.194
 4231.00    0.87129   0.89731    8.312
 4232.00    0.84385   0.88823    8.361
 4233.00    0.83023   0.88097    8.406
 4234.00    0.83539   0.87855    8.585
 4235.00    0.85030   0.88085    8.759
 4236.00    0.86340   0.88692    8.696
 4237.00    0.87694   0.89637    8.468
 4238.00    0.90050   0.90817    8.277
 4239.00    0.93967   0.92050    8.193
 4240.00    0.99023   0.93227    8.195
 4241.00    1.03433   0.94241    8.225
 4242.00    1.05677   0.94706    8.231
 4243.00    1.06189   0.94289    8.203
 4244.00    1.06030   0.92999    8.131
 4245.00    1.05444   0.91190    7.972
 4246.00    1.04455   0.89393    7.759
 4247.00    1.03475   0.88019    7.645
 4248.00    1.02658   0.87382    7.717
 4249.00    1.01370   0.87417    7.877
 4250.00    0.98865   0.87636    8.045
 4251.00    0.94908   0.87802    8.330
 4252.00    0.90088   0.88096    8.733
 4253.00    0.85834   0.88721    8.875
 4254.00    0.83053   0.89442    8.542
 4255.00    0.81385   0.89605    8.100
 4256.00    0.80551   0.88930    7.925
 4257.00    0.81081   0.87862    8.174
 4258.00    0.83179   0.87377    8.711
 4259.00    0.86137   0.88255    8.945
 4260.00    0.89116   0.90288    8.692
 4261.00    0.91631   0.92586    8.603
 4262.00    0.93695   0.94276    8.830
 4263.00    0.95638   0.94808    8.703
 4264.00    0.96949   0.94067    8.163
 4265.00    0.96261   0.92381    7.987
 4266.00    0.93682   0.90068    8.386
 4267.00    0.91052   0.87332    8.836
 4268.00    0.88678   0.84534    8.906
 4269.00    0.85004   0.82356    8.760
 4270.00    0.80509   0.81365    8.607
 4271.00    0.77881   0.81571    8.469
 4272.00    0.77362   0.82897    8.352
 4273.00    0.76487   0.85124    8.278
 4274.00    0.74690   0.87663    8.226
 4275.00    0.73699   0.89854    8.144
 4276.00    0.74057   0.91082    8.063
 4277.00    0.74903   0.91159    8.070
 4278.00    0.76379   0.90619    8.167
 4279.00    0.79572   0.89998    8.258
 4280.00    0.84581   0.89572   -2.000
 4281.00    0.90496   0.89305   -2.000
 4282.00    0.96571   0.88864   -2.000
 4283.00    1.02165   0.88166   -2.000
 4284.00    1.05959   0.87210   -2.000
 4285.00    1.06036   0.85897   -2.000
 4286.00    1.00464   0.84356   -2.000
 4287.00    0.88752   0.83146   -2.000
 4288.00    0.74277   0.82896   -2.000
 4289.00    0.62512   0.83738   -2.000
 4290.00    0.57035   0.85123   -2.000
 4291.00    0.58363   0.86191   -2.000
 4292.00    0.63378   0.86520   -2.000
 4293.00    0.67750   0.85972   -2.000
 4294.00    0.69736   0.84542   -2.000
 4295.00    0.69616   0.82425   -2.000
 4296.00    0.68043   0.79899    7.585
 4297.00    0.65898   0.77631    7.405
 4298.00    0.64331   0.76243    7.556
 4299.00    0.63738   0.75757    7.938
 4300.00    0.62651   0.75940    8.349
 4301.00    0.59796   0.76380    8.594
 4302.00    0.56424   0.76529    8.721
 4303.00    0.54298   0.76154    8.821
 4304.00    0.53429   0.75298    8.729
 4305.00    0.53700   0.74354    8.371
 4306.00    0.56482   0.74037    8.044
 4307.00    0.62472   0.74764    7.974
 4308.00    0.69799   0.76486    8.087
 4309.00    0.76226   0.78862    8.273
 4310.00    0.81079   0.81551    8.583
 4311.00    0.84383   0.84445    9.005
 4312.00    0.86131   0.87693    9.246
 4313.00    0.86745   0.91218    9.096
 4314.00    0.87275   0.94360    8.789
 4315.00    0.88015   0.96450    8.596
 4316.00    0.87878   0.97170    8.592
 4317.00    0.86576   0.96557    8.746
 4318.00    0.85584   0.94913    8.964
 4319.00    0.85318   0.92484    9.115
 4320.00    0.83997   0.89261    9.098
 4321.00    0.80813   0.85629    8.985
 4322.00    0.77340   0.82500    9.001
 4323.00    0.75508   0.81042    9.130
 4324.00    0.76377   0.81952    9.039
 4325.00    0.79562   0.84657    8.711
 4326.00    0.83362   0.87770    8.536
 4327.00    0.86445   0.90042    8.606
 4328.00    0.88323   0.91098    8.638
 4329.00    0.88242   0.91273    8.556
 4330.00    0.85321   0.90956    0.000
 4331.00    0.80748   0.90209    0.000
 4332.00    0.77542   0.88635    0.000
 4333.00    0.76881   0.85597    0.000
 4334.00    0.77596   0.80869    0.000
 4335.00    0.78751   0.75121    0.000
 4336.00    0.80196   0.69542    0.000
 4337.00    0.81685   0.65497    0.000
 4338.00    0.82795   0.64241    0.000
 4339.00    0.83480   0.65962    0.000
 4340.00    0.83994   0.69703    0.000
 4341.00    0.84293   0.74284    0.000
 4342.00    0.84216   0.78754    0.000
 4343.00    0.84255   0.82505    0.000
 4344.00    0.85215   0.85469    0.000
 4345.00    0.87092   0.87700    0.000
 4346.00    0.89154   0.88959    0.000
 4347.00    0.90623   0.88919    0.000
 4348.00    0.90965   0.87719    0.000
 4349.00    0.90184   0.86295    0.000
 4350.00    0.88944   0.85751    0.000
 4351.00    0.88637   0.86523    8.726
 4352.00    0.90327   0.88313    8.576
 4353.00    0.93065   0.90404    8.291
 4354.00    0.95002   0.92038    8.260
 4355.00    0.95439   0.92899    8.555
 4356.00    0.94656   0.93250    9.019
 4357.00    0.93239   0.93648    9.349
 4358.00    0.91980   0.94453    9.293
 4359.00    0.91838   0.95627    9.004
 4360.00    0.93358   0.96879    8.762
 4361.00    0.96010   0.97888    8.624
 4362.00    0.98729   0.98329    8.583
 4363.00    1.00639   0.97971    8.717
 4364.00    1.01415   0.96916    9.016
 4365.00    1.01521   0.95622    9.161
 4366.00    1.01446   0.94579    8.955
 4367.00    1.01015   0.93978    8.770
 4368.00    1.00074   0.93663    8.902
 4369.00    0.99102   0.93202    9.112
 4370.00    0.98538   0.92272    9.095
 4371.00    0.98212   0.91046    8.933
 4372.00    0.97782   0.90155    8.827
 4373.00    0.97095   0.90224    8.852
 4374.00    0.96139   0.91325    9.028
 4375.00    0.94932   0.92826    9.367
 4376.00    0.93214   0.93766    9.692
 4377.00    0.90363   0.93390    9.573
 4378.00    0.86179   0.91422    9.097
 4379.00    0.81310   0.88063    8.981
 4380.00    0.76720   0.84172    9.401
 4381.00    0.73311   0.81162    9.651
 4382.00    0.71583   0.80143    9.366
 4383.00    0.71524   0.81181    9.203
 4384.00    0.72961   0.83344    9.501
 4385.00    0.75701   0.85543    9.902
 4386.00    0.79366   0.87173   10.054
 4387.00    0.83384   0.88257   10.017
 4388.00    0.87295   0.89183    9.888
 4389.00    0.90826   0.90119    9.648
 4390.00    0.93668   0.90931    9.368
 4391.00    0.95401   0.91563    9.212
 4392.00    0.95577   0.92224    9.256
 4393.00    0.94004   0.93191    9.459
 4394.00    0.91542   0.94323    9.677
 4395.00    0.89778   0.95116    9.737
 4396.00    0.89155   0.95144    9.712
 4397.00    0.88825   0.94371    9.845
 4398.00    0.87998   0.93259   10.022
 4399.00    0.86481   0.92128    9.856
 4400.00    0.84958   0.90753    9.468
 4401.00    0.84496   0.89068    9.309
 4402.00    0.85121   0.87569    9.427
 4403.00    0.85939   0.86847    9.580
 4404.00    0.86252   0.87162    9.685
 4405.00    0.86033   0.88484    9.834
 4406.00    0.86312   0.90544   10.038
 4407.00    0.88388   0.92894   10.176
 4408.00    0.92106   0.95040   10.074
 4409.00    0.96004   0.96427    9.686
 4410.00    0.98284   0.96473    9.307
 4411.00    0.97736   0.95118    9.230
 4412.00    0.94982   0.93221    9.374
 4413.00    0.91803   0.91935    9.506
 4414.00    0.89725   0.91945    9.649
 4415.00    0.89469   0.93276    9.900
 4416.00    0.90549   0.95190   10.017
 4417.00    0.91951   0.96646    9.750
 4418.00    0.93134   0.97073    9.428
 4419.00    0.93495   0.96581    9.363
 4420.00    0.91650   0.95763    9.253
 4421.00    0.87235   0.95160    8.792
 4422.00    0.82946   0.94961    8.312
 4423.00    0.81838   0.95068    8.169
 4424.00    0.84140   0.95265    8.352
 4425.00    0.88064   0.95407    8.713
 4426.00    0.91152   0.95365    9.116
 4427.00    0.91977   0.95130    9.460
 4428.00    0.91464   0.94824    9.715
 4429.00    0.91035   0.94348    9.851
 4430.00    0.90945   0.93569    9.764
 4431.00    0.91264   0.92597    9.504
 4432.00    0.92679   0.91844    9.358
 4433.00    0.95509   0.91949    9.381
 4434.00    0.99047   0.93200    9.181
 4435.00    1.02565   0.95168    8.653
 4436.00    1.05954   0.96898    8.269
 4437.00    1.08776   0.97477    8.253
 4438.00    1.09803   0.96733    8.383
 4439.00    1.08259   0.95309    8.412
 4440.00    1.04550   0.94213    8.328
 4441.00    0.99908   0.94227    8.239
 4442.00    0.95975   0.95365    8.254
 4443.00    0.93906   0.96955    8.379
 4444.00    0.93952   0.98313    8.485
 4445.00    0.95820   0.99096    8.481
 4446.00    0.98823   0.99216    8.411
 4447.00    1.01744   0.98874    8.378
 4448.00    1.03119   0.98264    8.479
 4449.00    1.02710   0.97268    8.685
 4450.00    1.01658   0.95781    8.830
 4451.00    1.00621   0.93922    8.846
 4452.00    0.99323   0.92070    8.840
 4453.00    0.97668   0.90701    8.904
 4454.00    0.96014   0.89982    9.036
 4455.00    0.94708   0.89752    9.099
 4456.00    0.93950   0.89726    8.917
 4457.00    0.93881   0.89691    8.621
 4458.00    0.94627   0.89755    8.517
 4459.00    0.96328   0.90304    8.622
 4460.00    0.98879   0.91429    8.730
 4461.00    1.01269   0.92767    0.000
 4462.00    1.02090   0.93929    0.000
 4463.00    1.01207   0.94565    0.000
 4464.00    0.99536   0.94510    0.000
 4465.00    0.97581   0.93944    0.000
 4466.00    0.95463   0.93246    0.000
 4467.00    0.93695   0.92839    0.000
 4468.00    0.92951   0.93098    0.000
 4469.00    0.93283   0.94244    0.000
 4470.00    0.94224   0.96075    0.000
 4471.00    0.95259   0.98076    0.000
 4472.00    0.96120   0.99830    0.000
 4473.00    0.97092   1.01110    0.000
 4474.00    0.98289   1.01703    0.000
 4475.00    0.98508   1.01373    0.000
 4476.00    0.96647   1.00011    0.000
 4477.00    0.93952   0.97907    0.000
 4478.00    0.92597   0.95882    0.000
 4479.00    0.93336   0.94937    0.000
 4480.00    0.95738   0.95562    0.000
 4481.00    0.98911   0.97408    0.000
 4482.00    1.01896   0.99569    9.483
 4483.00    1.04028   1.01051    9.677
 4484.00    1.04945   1.01260    9.647
 4485.00    1.04544   1.00309    9.633
 4486.00    1.02875   0.98867    9.904
 4487.00    1.00061   0.97712   10.167
 4488.00    0.96618   0.97265   10.072
 4489.00    0.93669   0.97334    9.849
 4490.00    0.92073   0.97363    9.800
 4491.00    0.91716   0.97042    9.870
 4492.00    0.92170   0.96578    9.875
 4493.00    0.93262   0.96447    9.706
 4494.00    0.94852   0.97023    9.484
 4495.00    0.96670   0.98197    9.540
 4496.00    0.98523   0.99461    9.981
 4497.00    1.00423   1.00402   10.410
 4498.00    1.02388   1.01099   10.468
 4499.00    1.04311   1.01969   10.364
 4500.00    1.06065   1.03170   10.313
 4501.00    1.07549   1.04478   10.209
 4502.00    1.08644   1.05476    9.964
 4503.00    1.09225   1.05785    9.668
 4504.00    1.09415   1.05466    9.408
 4505.00    1.09545   1.04946    9.211
 4506.00    1.09379   1.04561    9.122
 4507.00    1.08074   1.04308    9.218
 4508.00    1.05717   1.03927    9.500
 4509.00    1.03538   1.03223    9.863
 4510.00    1.01856   1.02225   10.216
 4511.00    0.99747   1.01189   10.524
 4512.00    0.97085   1.00452   10.609
 4513.00    0.94950   1.00109   10.255
 4514.00    0.94159   1.00083    9.789
 4515.00    0.94748   1.00360    9.773
 4516.00    0.96089   1.00853   10.097
 4517.00    0.97230   1.01375   10.076
 4518.00    0.97750   1.01643    9.729
 4519.00    0.97856   1.01367    9.716
 4520.00    0.97892   1.00512   10.057
 4521.00    0.98226   0.99133   10.228
 4522.00    0.99320   0.97364   10.293
 4523.00    1.01157   0.95449   10.716
 4524.00    1.01868   0.93565   10.777
 4525.00    0.99150   0.92007    9.438
 4526.00    0.94119   0.91139    8.065
 4527.00    0.90161   0.91066    7.786
 4528.00    0.88699   0.91596    8.223
 4529.00    0.89213   0.92258    8.392
 4530.00    0.91026   0.92627    8.115
 4531.00    0.93225   0.92789    7.944
 4532.00    0.93931   0.93235    7.991
 4533.00    0.91780   0.94420    8.072
 4534.00    0.88531   0.96218    8.108
 4535.00    0.87387   0.97983    8.108
 4536.00    0.89718   0.99062    8.031
 4537.00    0.94725   0.99196    7.857
 4538.00    0.99782   0.98793    7.700
 4539.00    1.01944   0.98431    7.696
 4540.00    0.99928   0.98267    7.881
 4541.00    0.94829   0.98198    8.170
 4542.00    0.90425   0.98101    8.321
 4543.00    0.89785   0.97847    8.184
 4544.00    0.91558   0.97411    8.010
 4545.00    0.93209   0.96863    8.053
 4546.00    0.94764   0.96379    8.214
 4547.00    0.96635   0.96112    8.265
 4548.00    0.97259   0.95988    8.129
 4549.00    0.95281   0.95949    7.920
 4550.00    0.91652   0.95935    0.000
 4551.00    0.88262   0.95919    0.000
 4552.00    0.86507   0.96229    0.000
 4553.00    0.86637   0.97199    0.000
 4554.00    0.87586   0.98721    0.000
 4555.00    0.89076   1.00424    0.000
 4556.00    0.92713   1.01873    0.000
 4557.00    0.98379   1.02734    0.000
 4558.00    1.02418   1.02894    0.000
 4559.00    1.02674   1.02336    0.000
 4560.00    1.01232   1.01250    0.000
 4561.00    1.00623   1.00077    0.000
 4562.00    1.01437   0.99334    0.000
 4563.00    1.02493   0.99407    0.000
 4564.00    1.01654   1.00206    0.000
 4565.00    0.99154   1.01220    0.000
 4566.00    0.98216   1.01853    0.000
 4567.00    0.99836   1.01727    0.000
 4568.00    1.01408   1.01168    0.000
 4569.00    1.01996   1.00843    0.000
 4570.00    1.03566   1.00944    0.000
 4571.00    1.06190   1.01394    0.000
 4572.00    1.07193   1.01971    0.000
 4573.00    1.05606   1.02207    0.000
 4574.00    1.03025   1.01827    0.000
 4575.00    1.00527   1.00886    0.000
 4576.00    0.97983   0.99587    0.000
 4577.00    0.95532   0.98281    0.000
 4578.00    0.93844   0.97338    0.000
 4579.00    0.93408   0.96886    0.000
 4580.00    0.94184   0.96858    0.000
 4581.00    0.95291   0.97088    0.000
 4582.00    0.95458   0.97431    0.000
 4583.00    0.94400   0.97993    0.000
 4584.00    0.93021   0.98880    0.000
 4585.00    0.92992   0.99910    0.000
 4586.00    0.95739   1.00715    0.000
 4587.00    1.00511   1.00933    0.000
 4588.00    1.04843   1.00486    0.000
 4589.00    1.06434   0.99639    0.000
 4590.00    1.04318   0.98727    0.000
 4591.00    1.00212   0.98006    0.000
 4592.00    0.96955   0.97632    0.000
 4593.00    0.95308   0.97562    0.000
 4594.00    0.94250   0.97694    0.000
 4595.00    0.92454   0.97956    0.000
 4596.00    0.89211   0.98144    0.000
 4597.00    0.85396   0.98205    0.000
 4598.00    0.82615   0.98242    0.000
 4599.00    0.81758   0.98264    0.000
 4600.00    0.82838   0.98351    0.000
 4601.00    0.85102   0.98580    0.000
 4602.00    0.87822   0.99017    0.000
 4603.00    0.91157   0.99799    0.000
 4604.00    0.94750   1.00990    0.000
 4605.00    0.96316   1.02397    0.000
 4606.00    0.95164   1.03576    0.000
 4607.00    0.95559   1.04166    0.000
 4608.00    1.00636   1.04095    0.000
 4609.00    1.06652   1.03560    0.000
 4610.00    1.09300   1.03033    0.000
 4611.00    1.09474   1.02845    0.000
 4612.00    1.08405   1.02928    0.000
 4613.00    1.03696   1.03174    0.000
 4614.00    0.94676   1.03356    0.000
 4615.00    0.86203   1.03278    0.000
 4616.00    0.83136   1.03170    0.000
 4617.00    0.86148   1.03221    0.000
 4618.00    0.92700   1.03356    0.000
 4619.00    0.98449   1.03587    0.000
 4620.00    1.00810   1.03810    0.000
 4621.00    1.00705   1.03778    0.000
 4622.00    0.99569   1.03537    0.000
 4623.00    0.97748   1.03284    0.000
 4624.00    0.95863   1.03019    0.000
 4625.00    0.95256   1.02745    0.000
 4626.00    0.96236   1.02608    0.000
 4627.00    0.97532   1.02623    0.000
 4628.00    0.98095   1.02576    0.000
 4629.00    0.97919   1.02358    0.000
 4630.00    0.97798   1.01991    0.000
 4631.00    0.98777   1.01435    0.000
 4632.00    1.00500   1.00724    0.000
 4633.00    1.01095   0.99973    0.000
 4634.00    0.99243   0.99238    0.000
 4635.00    0.94940   0.98552    0.000
 4636.00    0.89296   0.98037    0.000
 4637.00    0.84151   0.97924    0.000
 4638.00    0.81102   0.98195    0.000
 4639.00    0.80867   0.98523    0.000
 4640.00    0.82401   0.98584    0.000
 4641.00    0.83445   0.98062    0.000
 4642.00    0.82718   0.96857    0.000
 4643.00    0.80412   0.95386    0.000
 4644.00    0.77817   0.94242    0.000
 4645.00    0.76630   0.93834    0.000
 4646.00    0.77600   0.94337    0.000
 4647.00    0.80302   0.95557    0.000
 4648.00    0.83400   0.97016    0.000
 4649.00    0.85350   0.98193    0.000
 4650.00    0.85681   0.98726    0.000
 4651.00    0.85089   0.98687    0.000
 4652.00    0.85068   0.98467    0.000
 4653.00    0.86799   0.98529    0.000
 4654.00    0.89407   0.99287    0.000
 4655.00    0.91062   1.00699    0.000
 4656.00    0.91224   1.02229    0.000
 4657.00    0.90431   1.03231    0.000
 4658.00    0.89394   1.03280    0.000
 4659.00    0.88554   1.02368    0.000
 4660.00    0.87669   1.00823    0.000
 4661.00    0.86097   0.98959    0.000
 4662.00    0.83256   0.96886    0.000
 4663.00    0.79107   0.94799    0.000
 4664.00    0.74623   0.93140    0.000
 4665.00    0.71449   0.92363    0.000
 4666.00    0.71330   0.92744    0.000
 4667.00    0.74714   0.94167    0.000
 4668.00    0.79564   0.96009    0.000
 4669.00    0.83713   0.97565    0.000
 4670.00    0.87077   0.98564    0.000
 4671.00    0.89707   0.99141    0.000
 4672.00    0.90099   0.99540    0.000
 4673.00    0.87579   0.99807    0.000
 4674.00    0.84137   0.99787    0.000
 4675.00    0.81918   0.99366    0.000
 4676.00    0.81234   0.98566    0.000
 4677.00    0.81368   0.97642    0.000
 4678.00    0.81389   0.97005    0.000
 4679.00    0.81046   0.96872    0.000
 4680.00    0.81140   0.97109    0.000
 4681.00    0.82259   0.97478    0.000
 4682.00    0.84065   0.97808    0.000
 4683.00    0.85954   0.97964    0.000
 4684.00    0.87573   0.97977    0.000
 4685.00    0.89383   0.97993    0.000
 4686.00    0.92509   0.98024    0.000
 4687.00    0.96554   0.98051    0.000
 4688.00    0.99137   0.98151    0.000
 4689.00    0.98870   0.98387    0.000
 4690.00    0.96539   0.98806    0.000
 4691.00    0.94007   0.99412    0.000
 4692.00    0.93057   0.99969    0.000
 4693.00    0.92902   1.00096    0.000
 4694.00    0.90445   0.99602    0.000
 4695.00    0.84867   0.98616    0.000
 4696.00    0.78408   0.97429    0.000
 4697.00    0.73120   0.96311    0.000
 4698.00    0.70004   0.95493    0.000
 4699.00    0.69926   0.95085    0.000
 4700.00    0.73416   0.95041    0.000
 4701.00    0.79211   0.95236    0.000
 4702.00    0.84611   0.95525    0.000
 4703.00    0.87626   0.95762    0.000
 4704.00    0.87705   0.95825    0.000
 4705.00    0.85991   0.95770    0.000
 4706.00    0.84464   0.95873    0.000
 4707.00    0.83829   0.96296    0.000
 4708.00    0.83539   0.96848    0.000
 4709.00    0.82924   0.97252    0.000
 4710.00    0.81424   0.97412    0.000
 4711.00    0.78543   0.97486    0.000
 4712.00    0.74122   0.97828    0.000
 4713.00    0.68855   0.98674    0.000
 4714.00    0.64285   0.99989    0.000
 4715.00    0.62557   1.01479    0.000
 4716.00    0.65055   1.02717    0.000
 4717.00    0.70374   1.03457    0.000
 4718.00    0.75698   1.03753    0.000
 4719.00    0.79349   1.03783    0.000
 4720.00    0.81218   1.03687    0.000
 4721.00    0.82733   1.03441    0.000
 4722.00    0.85216   1.02846    0.000
 4723.00    0.87873   1.01692    0.000
 4724.00    0.88994   1.00011    0.000
 4725.00    0.87738   0.98153    0.000
 4726.00    0.84732   0.96625    0.000
 4727.00    0.82312   0.95888    0.000
 4728.00    0.82267   0.96046    0.000
 4729.00    0.83633   0.96789    0.000
 4730.00    0.84479   0.97727    0.000
 4731.00    0.83867   0.98549    0.000
 4732.00    0.82299   0.99059    0.000
 4733.00    0.81720   0.99361    0.000
 4734.00    0.83372   0.99669    0.000
 4735.00    0.86192   0.99989    0.000
 4736.00    0.88279   1.00316    0.000
 4737.00    0.88300   1.00666    0.000
 4738.00    0.86631   1.00931    0.000
 4739.00    0.85696   1.01083    0.000
 4740.00    0.87060   1.01251    0.000
 4741.00    0.89707   1.01543    0.000
 4742.00    0.91640   1.01934    0.000
 4743.00    0.91277   1.02300    0.000
 4744.00    0.89294   1.02595    0.000
 4745.00    0.88800   1.02841    0.000
 4746.00    0.90775   1.02929    0.000
 4747.00    0.92513   1.02723    0.000
 4748.00    0.92181   1.02242    0.000
 4749.00    0.90547   1.01566    0.000
 4750.00    0.88243   1.00777    0.000
 4751.00    0.84809   1.00034    0.000
 4752.00    0.80190   0.99523    0.000
 4753.00    0.75344   0.99328    0.000
 4754.00    0.72044   0.99430    0.000
 4755.00    0.72056   0.99698    0.000
 4756.00    0.74625   0.99888    0.000
 4757.00    0.76887   0.99738    0.000
 4758.00    0.78272   0.99141    0.000
 4759.00    0.80697   0.98159    0.000
 4760.00    0.84476   0.96944    0.000
 4761.00    0.87960   0.95800    9.478
 4762.00    0.90305   0.95092    9.506
 4763.00    0.91839   0.94999    9.330
 4764.00    0.92831   0.95512    9.098
 4765.00    0.93334   0.96507    9.126
 4766.00    0.93637   0.97666    9.320
 4767.00    0.94026   0.98618    9.318
 4768.00    0.94006   0.99250    9.181
 4769.00    0.92913   0.99701    9.246
 4770.00    0.91557   1.00144    9.466
 4771.00    0.91673   1.00717    9.519
 4772.00    0.94146   1.01426    9.353
 4773.00    0.98547   1.02070    9.174
 4774.00    1.03023   1.02396    9.134
 4775.00    1.05678   1.02367    9.270
 4776.00    1.06843   1.02103    9.489
 4777.00    1.07764   1.01602    9.619
 4778.00    1.07960   1.00854    9.569
 4779.00    1.06316   1.00034    9.374
 4780.00    1.03211   0.99308    9.170
 4781.00    0.99563   0.98666    9.083
 4782.00    0.95197   0.98161    9.140
 4783.00    0.90168   0.97902    9.296
 4784.00    0.86545   0.97796    9.473
 4785.00    0.86186   0.97764    9.573
 4786.00    0.87982   0.97951    9.520
 4787.00    0.89436   0.98439    9.356
 4788.00    0.88798   0.99221    9.294
 4789.00    0.85786   1.00344    9.425
 4790.00    0.81975   1.01677    9.485
 4791.00    0.79540   1.02884    9.321
 4792.00    0.79943   1.03642    9.300
 4793.00    0.83228   1.03722    9.624
 4794.00    0.87618   1.03100    9.796
 4795.00    0.90664   1.02090    9.470
 4796.00    0.90457   1.01201    9.213
 4797.00    0.87446   1.00808    9.387
 4798.00    0.85187   1.00963    9.593
 4799.00    0.86094   1.01421    9.440
 4800.00    0.88837   1.01787    9.161
 4801.00    0.91494   1.01762    9.053
 4802.00    0.93662   1.01263    9.144
 4803.00    0.95837   1.00490    9.255
 4804.00    0.98615   0.99820    9.082
 4805.00    1.00739   0.99517    8.730
 4806.00    0.98982   0.99565    8.724
 4807.00    0.93219   0.99852    9.176
 4808.00    0.87960   1.00265    9.513
 4809.00    0.86606   1.00664    9.374
 4810.00    0.89026   1.00992    9.158
 4811.00    0.93679   1.01329    9.120
 4812.00    0.98692   1.01770    9.118
 4813.00    1.02050   1.02327    9.050
 4814.00    1.02149   1.02925    8.997
 4815.00    0.99535   1.03417    9.046
 4816.00    0.96748   1.03631    9.224
 4817.00    0.95368   1.03399    9.437
 4818.00    0.95283   1.02630    9.497
 4819.00    0.95924   1.01488    9.349
 4820.00    0.96645   1.00360    9.127
 4821.00    0.96593   0.99566    9.032
 4822.00    0.95255   0.99231    9.201
 4823.00    0.94071   0.99332    9.476
 4824.00    0.95622   0.99622    9.468
 4825.00    1.00315   0.99750    9.140
 4826.00    1.05971   0.99543    8.800
 4827.00    1.09093   0.99120    8.630
 4828.00    1.06871   0.98765    8.666
 4829.00    1.00848   0.98647    8.899
 4830.00    0.95452   0.98740    9.248
 4831.00    0.93180   0.99011    9.448
 4832.00    0.93869   0.99398    9.261
 4833.00    0.95399   0.99622    8.992
 4834.00    0.95584   0.99430    9.065
 4835.00    0.95219   0.98869    9.354
 4836.00    0.96523   0.98171    9.430
 4837.00    0.99643   0.97499    9.248
 4838.00    1.03113   0.96978    9.069
 4839.00    1.05508   0.96793    9.043
 4840.00    1.06000   0.96990    9.178
 4841.00    1.04746   0.97372    9.350
 4842.00    1.02508   0.97701    9.408
 4843.00    1.00038   0.97827    9.349
 4844.00    0.97666   0.97662    9.281
 4845.00    0.94961   0.97219    9.311
 4846.00    0.91721   0.96630    9.470
 4847.00    0.89054   0.96068    9.636
 4848.00    0.87925   0.95561    0.000
 4849.00    0.87601   0.94833    0.000
 4850.00    0.87196   0.93548    0.000
 4851.00    0.87265   0.91760    0.000
 4852.00    0.88453   0.89728    0.000
 4853.00    0.90291   0.87506    0.000
 4854.00    0.92993   0.84998    0.000
 4855.00    0.98693   0.82053    0.000
 4856.00    1.07918   0.78625    0.000
 4857.00    1.17112   0.75184    0.000
 4858.00    1.22252   0.72670    0.000
 4859.00    1.21707   0.71935    0.000
 4860.00    1.16100   0.73342    0.000
 4861.00    1.07841   0.76520    0.000
 4862.00    0.99486   0.80388    0.000
 4863.00    0.92693   0.83877    0.000
 4864.00    0.88272   0.86523    0.000
 4865.00    0.86291   0.88145    0.000
 4866.00    0.86312   0.88716    0.000
 4867.00    0.87550   0.88587    0.000
 4868.00    0.89043   0.88305    0.000
 4869.00    0.89956   0.88285    0.000
 4870.00    0.90597   0.88819    0.000
 4871.00    0.92403   0.90054    0.000
 4872.00    0.95773   0.91714    0.000
 4873.00    0.99387   0.93350    0.000
 4874.00    1.01512   0.94804    0.000
 4875.00    1.00916   0.96047    9.702
 4876.00    0.98175   0.96938   10.183
 4877.00    0.95523   0.97390   10.417
 4878.00    0.94612   0.97438   10.212
 4879.00    0.95691   0.97049   10.012
 4880.00    0.97620   0.96304    9.982
 4881.00    0.98388   0.95480    9.940
 4882.00    0.96584   0.94722    9.865
 4883.00    0.92114   0.94005    9.899
 4884.00    0.86852   0.93358    9.957
 4885.00    0.83587   0.92818    9.807
 4886.00    0.82890   0.92400    9.585
 4887.00    0.83438   0.92257    9.613
 4888.00    0.84744   0.92679    9.812
 4889.00    0.87166   0.93942    9.833
 4890.00    0.90437   0.96109    9.696
 4891.00    0.93770   0.98854    9.676
 4892.00    0.96780   1.01416    9.731
 4893.00    0.99202   1.03120    9.623
 4894.00    1.00021   1.03771    9.363
 4895.00    0.98092   1.03536    9.150
 4896.00    0.93537   1.02786    9.131
 4897.00    0.88066   1.01850    9.329
 4898.00    0.84970   1.00955    9.549
 4899.00    0.86883   1.00357    9.520
 4900.00    0.92465   1.00221    9.261
 4901.00    0.97939   1.00432    8.990
 4902.00    1.00083   1.00777    8.876
 4903.00    0.97732   1.01050    8.967
 4904.00    0.93017   1.00943    9.126
 4905.00    0.88940   1.00249    9.200
 4906.00    0.86285   0.99145    9.272
 4907.00    0.84900   0.98131    9.430
 4908.00    0.85473   0.97662    9.465
 4909.00    0.88313   0.97921    9.266
 4910.00    0.91945   0.98772    9.226
 4911.00    0.94314   0.99726    9.617
 4912.00    0.94179   1.00138   10.039
 4913.00    0.91714   0.99540    9.997
 4914.00    0.88753   0.97798    9.771
 4915.00    0.86991   0.95169    9.751
 4916.00    0.86496   0.92336    9.880
 4917.00    0.86354   0.90158   10.020
 4918.00    0.85467   0.89232   10.223
 4919.00    0.83967   0.89653   10.451
 4920.00    0.83803   0.91107   10.389
 4921.00    0.85774   0.93099   10.053
 4922.00    0.87990   0.95182    9.999
 4923.00    0.89439   0.97219   10.370
 4924.00    0.91790   0.99230   10.496
 4925.00    0.96063   1.01051   10.060
 4926.00    1.00863   1.02336    9.715
 4927.00    1.03982   1.02857    9.807
 4928.00    1.03692   1.02590   10.057
 4929.00    1.00401   1.01675   10.167
 4930.00    0.96736   1.00445   10.131
 4931.00    0.94010   0.99176   10.042
 4932.00    0.91286   0.97982    9.969
 4933.00    0.88709   0.96958    9.964
 4934.00    0.88170   0.96131   10.050
 4935.00    0.89947   0.95518   10.144
 4936.00    0.92067   0.95385   10.087
 4937.00    0.93130   0.96065    9.881
 4938.00    0.93229   0.97565    9.702
 4939.00    0.93286   0.99429    9.653
 4940.00    0.94357   1.01026    0.000
 4941.00    0.96266   1.02022    0.000
 4942.00    0.97878   1.02541    0.000
 4943.00    0.99197   1.02809    0.000
 4944.00    1.01247   1.03013    0.000
 4945.00    1.03973   1.03336    0.000
 4946.00    1.06130   1.03770    0.000
 4947.00    1.06521   1.04077    0.000
 4948.00    1.04660   1.04062    0.000
 4949.00    1.01508   1.03650    0.000
 4950.00    0.98798   1.02736    0.000
 4951.00    0.97189   1.01180    0.000
 4952.00    0.96475   0.99103    0.000
 4953.00    0.96818   0.96962    0.000
 4954.00    0.98382   0.95309    0.000
 4955.00    1.00213   0.94612    0.000
 4956.00    1.01241   0.95124    0.000
 4957.00    1.02311   0.96732    0.000
 4958.00    1.04627   0.98677    0.000
 4959.00    1.06737   0.99980    0.000
 4960.00    1.06215   1.00279    0.000
 4961.00    1.02897   0.99808    0.000
 4962.00    0.98424   0.98939    0.000
 4963.00    0.94851   0.97989    0.000
 4964.00    0.93567   0.97268    0.000
 4965.00    0.94216   0.97044    0.000
 4966.00    0.95601   0.97349    0.000
 4967.00    0.96997   0.98020    0.000
 4968.00    0.98543   0.98917    0.000
 4969.00    1.01375   0.99871    0.000
 4970.00    1.05959   1.00699    0.000
 4971.00    1.10479   1.01214    0.000
 4972.00    1.12519   1.01243    0.000
 4973.00    1.10938   1.00751    0.000
 4974.00    1.06485   0.99798    0.000
 4975.00    1.01916   0.98472    0.000
 4976.00    0.99302   0.96859    0.000
 4977.00    0.97999   0.95051    0.000
 4978.00    0.96807   0.93253    0.000
 4979.00    0.95680   0.91709    0.000
 4980.00    0.94948   0.90699    0.000
 4981.00    0.94615   0.90554    0.000
 4982.00    0.94089   0.91422    0.000
 4983.00    0.92305   0.93016    0.000
 4984.00    0.89472   0.94747    0.000
 4985.00    0.87760   0.96135    0.000
 4986.00    0.88818   0.96980    0.000
 4987.00    0.92411   0.97267    0.000
 4988.00    0.97168   0.97225    0.000
 4989.00    1.01243   0.97174    0.000
 4990.00    1.03332   0.97270    0.000
 4991.00    1.03178   0.97512    0.000
 4992.00    1.01514   0.97719    0.000
 4993.00    0.99683   0.97712    0.000
 4994.00    0.98215   0.97400    0.000
 4995.00    0.96581   0.96662    0.000
 4996.00    0.94718   0.95557    0.000
 4997.00    0.93471   0.94345    0.000
 4998.00    0.93943   0.93250    0.000
 4999.00    0.96865   0.92397    0.000
 5000.00    1.01400   0.91750    0.000
 5001.00    1.05445   0.91216    0.000
 5002.00    1.07882   0.90835    0.000
 5003.00    1.08981   0.90751    0.000
 5004.00    1.09433   0.91100    0.000
 5005.00    1.09771   0.91858    0.000
 5006.00    1.09645   0.92679    0.000
 5007.00    1.08086   0.93003    0.000
 5008.00    1.04643   0.92470    0.000
 5009.00    0.99621   0.91260    0.000
 5010.00    0.93937   0.89883    0.000
 5011.00    0.88924   0.88794    0.000
 5012.00    0.85999   0.88293    0.000
 5013.00    0.85800   0.88412    0.000
 5014.00    0.86715   0.88964    0.000
 5015.00    0.86375   0.89672    0.000
 5016.00    0.84911   0.90316    0.000
 5017.00    0.84160   0.90905    0.000
 5018.00    0.85216   0.91506    0.000
 5019.00    0.87881   0.92088    0.000
 5020.00    0.90546   0.92616    0.000
 5021.00    0.91418   0.93101    0.000
 5022.00    0.90339   0.93557    0.000
 5023.00    0.88460   0.93913    0.000
 5024.00    0.87354   0.94158    0.000
 5025.00    0.87906   0.94493    0.000
 5026.00    0.89160   0.95120    0.000
 5027.00    0.89725   0.96110    0.000
 5028.00    0.89593   0.97238    0.000
 5029.00    0.89714   0.98053   10.806
 5030.00    0.91193   0.98277   10.627
 5031.00    0.94253   0.97835   10.418
 5032.00    0.97378   0.96749   10.248
 5033.00    0.98699   0.95168   10.190
 5034.00    0.97437   0.93331   10.264
 5035.00    0.94172   0.91505   10.421
 5036.00    0.90794   0.89902   10.547
 5037.00    0.88944   0.88692   10.582
 5038.00    0.88796   0.88266   10.623
 5039.00    0.89691   0.89042   10.736
 5040.00    0.90803   0.91013   10.812
 5041.00    0.91840   0.93620   10.745
 5042.00    0.93354   0.95912   10.565
 5043.00    0.95572   0.97137   10.362
 5044.00    0.97694   0.97159   10.210
 5045.00    0.98543   0.96257   10.151
 5046.00    0.97187   0.94946   10.194
 5047.00    0.94057   0.93865   10.312
 5048.00    0.91175   0.93479   10.431
 5049.00    0.90022   0.93860   10.467
 5050.00    0.90510   0.94774   10.365
 5051.00    0.91618   0.95942   10.213
 5052.00    0.92130   0.97128   10.199
 5053.00    0.92377   0.98131   10.296
 5054.00    0.94165   0.98890   10.240
 5055.00    0.97206   0.99480   10.048
 5056.00    0.98663   0.99963   10.054
 5057.00    0.97396   1.00258   10.277
 5058.00    0.94954   1.00163   10.347
 5059.00    0.92897   0.99554   10.208
 5060.00    0.91818   0.98431   10.205
 5061.00    0.91491   0.96957   10.406
 5062.00    0.91311   0.95486   10.537
 5063.00    0.91452   0.94416   10.461
 5064.00    0.92650   0.93982   10.295
 5065.00    0.94551   0.94077   10.145
 5066.00    0.95876   0.94350   10.047
 5067.00    0.96163   0.94594   10.015
 5068.00    0.95864   0.94775   10.033
 5069.00    0.95405   0.94858   10.015
 5070.00    0.94793   0.94836    9.886
 5071.00    0.93320   0.94789    9.772
 5072.00    0.90349   0.94716    9.875
 5073.00    0.87053   0.94383   10.164
 5074.00    0.85600   0.93597   10.445
 5075.00    0.86799   0.92435   10.667
 5076.00    0.89994   0.91131   10.878
 5077.00    0.93757   0.89997   10.952
 5078.00    0.96473   0.89411   10.764
 5079.00    0.97131   0.89649   10.578
 5080.00    0.95584   0.90572   10.726
 5081.00    0.92744   0.91775   11.149
 5082.00    0.90037   0.92976   11.519
 5083.00    0.88575   0.94071   11.595
 5084.00    0.88746   0.94981   11.393
 5085.00    0.89895   0.95669   11.203
 5086.00    0.90987   0.96222   11.268
 5087.00    0.91525   0.96755   11.487
 5088.00    0.91687   0.97285   11.631
 5089.00    0.92271   0.97711   11.655
 5090.00    0.93674   0.97877   11.615
 5091.00    0.94890   0.97609   11.529
 5092.00    0.94907   0.96767   11.438
 5093.00    0.94157   0.95410   11.461
 5094.00    0.93712   0.93856   11.620
 5095.00    0.94327   0.92547   11.682
 5096.00    0.95840   0.91842   11.513
 5097.00    0.96905   0.91879   11.363
 5098.00    0.96631   0.92524   11.409
 5099.00    0.95757   0.93398   11.458
 5100.00    0.95141   0.94011   11.324
 5101.00    0.94672   0.94085   11.116
 5102.00    0.94318   0.93684   10.947
 5103.00    0.94725   0.93033   10.779
 5104.00    0.95947   0.92368   10.631
 5105.00    0.96805   0.91871   10.659
 5106.00    0.96382   0.91691   10.895
 5107.00    0.94848   0.91946   11.112
 5108.00    0.92819   0.92603   11.071
 5109.00    0.90935   0.93528   10.708
 5110.00    0.89704   0.94602   10.019
 5111.00    0.89440   0.95658    9.067
 5112.00    0.90317   0.96571    8.179
 5113.00    0.92280   0.97310    7.702
 5114.00    0.94536   0.97788    7.646
 5115.00    0.95633   0.97874    7.801
 5116.00    0.94710   0.97446    8.075
 5117.00    0.92045   0.96446    8.569
 5118.00    0.89072   0.94987    9.295
 5119.00    0.87764   0.93321   10.020
 5120.00    0.88513   0.91743   10.558
 5121.00    0.89951   0.90496   10.951
 5122.00    0.90925   0.89706   11.124
 5123.00    0.91056   0.89399   10.881
 5124.00    0.90367   0.89469   10.471
 5125.00    0.89198   0.89752   10.370
 5126.00    0.88331   0.90188   10.623
 5127.00    0.88719   0.90805   10.903
 5128.00    0.90703   0.91598   10.965
 5129.00    0.93858   0.92476   10.795
 5130.00    0.97144   0.93276   10.517
 5131.00    0.99140   0.93809   10.303
 5132.00    0.98506   0.93948   10.318
 5133.00    0.95012   0.93672   10.618
 5134.00    0.91359   0.93029   10.890
 5135.00    0.91114   0.92161   10.678
 5136.00    0.94041   0.91359   10.181
 5137.00    0.97187   0.90836    9.893
 5138.00    0.98509   0.90589    9.924
 5139.00    0.97539   0.90521   10.131
 5140.00    0.95316   0.90465   10.319
 5141.00    0.93453   0.90362   10.347
 5142.00    0.92726   0.90311   10.324
 5143.00    0.93194   0.90283   10.406
 5144.00    0.94702   0.90202   10.496
 5145.00    0.96746   0.90130   10.432
 5146.00    0.98266   0.90111   10.319
 5147.00    0.98489   0.90081   10.334
 5148.00    0.97966   0.89986   10.468
 5149.00    0.97842   0.89887   10.603
 5150.00    0.98823   0.89997   10.647
 5151.00    1.00774   0.90517   10.576
 5152.00    1.02504   0.91470   10.454
 5153.00    1.02934   0.92718   10.373
 5154.00    1.02222   0.94012   10.395
 5155.00    1.01057   0.95047   10.531
 5156.00    0.99857   0.95599   10.717
 5157.00    0.98417   0.95551   10.893
 5158.00    0.95814   0.94869   11.071
 5159.00    0.91729   0.93525   11.271
 5160.00    0.87304   0.91433   11.457
 5161.00    0.83437   0.88604   11.584
 5162.00    0.79658   0.85268   11.640
 5163.00    0.75724   0.81832   11.632
 5164.00    0.72540   0.78849   11.576
 5165.00    0.70572   0.76816   11.545
 5166.00    0.69041   0.75864   11.659
 5167.00    0.67617   0.75701   11.847
 5168.00    0.67238   0.75903   11.770
 5169.00    0.68815   0.76354   11.406
 5170.00    0.72499   0.77390   11.184
 5171.00    0.77810   0.79451   11.223
 5172.00    0.83700   0.82478   11.188
 5173.00    0.88465   0.85690   10.990
 5174.00    0.90180   0.88119   10.971
 5175.00    0.88809   0.89224   11.277
 5176.00    0.86445   0.88907   11.686
 5177.00    0.84468   0.87280   11.921
 5178.00    0.82745   0.84687   11.873
 5179.00    0.81241   0.81835   11.740
 5180.00    0.80483   0.79669   11.863
 5181.00    0.80955   0.79037   12.172
 5182.00    0.82831   0.80318   12.183
 5183.00    0.85838   0.83146   11.807
 5184.00    0.89289   0.86435   11.434
 5185.00    0.92317   0.89040   11.244
 5186.00    0.94278   0.90415   11.165
 5187.00    0.95640   0.90627   11.110
 5188.00    0.97369   0.90079   11.027
 5189.00    0.98773   0.89237   10.890
 5190.00    0.98099   0.88575    0.000
 5191.00    0.95313   0.88527    0.000
 5192.00    0.91988   0.89181    0.000
 5193.00    0.89542   0.90254    0.000
 5194.00    0.88830   0.91463    0.000
 5195.00    0.90143   0.92639    0.000
 5196.00    0.93050   0.93553    0.000
 5197.00    0.96114   0.93962    0.000
 5198.00    0.97799   0.93713    0.000
 5199.00    0.98115   0.92748    0.000
 5200.00    0.97835   0.91146    0.000
 5201.00    0.96733   0.89155    0.000
 5202.00    0.94230   0.87114    0.000
 5203.00    0.90801   0.85405    0.000
 5204.00    0.87692   0.84416    0.000
 5205.00    0.86162   0.84382    0.000
 5206.00    0.86687   0.85277    0.000
 5207.00    0.88133   0.86932    0.000
 5208.00    0.88993   0.89064    0.000
 5209.00    0.89033   0.91182    0.000
 5210.00    0.89070   0.92784    0.000
 5211.00    0.90384   0.93643   11.069
 5212.00    0.93310   0.93881   10.623
 5213.00    0.96012   0.93894   10.320
 5214.00    0.96770   0.94123   10.339
 5215.00    0.96197   0.94775   10.512
 5216.00    0.95556   0.95677   10.629
 5217.00    0.95080   0.96398   10.735
 5218.00    0.94665   0.96501   10.913
 5219.00    0.94527   0.95743   11.074
 5220.00    0.94697   0.94132   11.117
 5221.00    0.94658   0.91939   11.083
 5222.00    0.93941   0.89709   11.054
 5223.00    0.92608   0.88114   11.065
 5224.00    0.91353   0.87668   11.130
 5225.00    0.91308   0.88469   11.254
 5226.00    0.92436   0.90133   11.377
 5227.00    0.92951   0.91916   11.373
 5228.00    0.91969   0.93121   11.268
 5229.00    0.90805   0.93583   11.295
 5230.00    0.91246   0.93628   11.483
 5231.00    0.94305   0.93737   11.518
 5232.00    0.99049   0.94299   11.259
 5233.00    1.02636   0.95352   10.951
 5234.00    1.03204   0.96597   10.837
 5235.00    1.01045   0.97681   11.005
 5236.00    0.97583   0.98393   11.351
 5237.00    0.94675   0.98736   11.589
 5238.00    0.93720   0.98843   11.604
 5239.00    0.95224   0.98826   11.570
 5240.00    0.98513   0.98669   11.529
 5241.00    1.01996   0.98268   11.346
 5242.00    1.04388   0.97538   11.078
 5243.00    1.05101   0.96477   10.953
 5244.00    1.04115   0.95196   10.995
 5245.00    1.01866   0.93982   11.036
 5246.00    0.99099   0.93159   11.028
 5247.00    0.96710   0.92821   11.066
 5248.00    0.95467   0.92845   11.169
 5249.00    0.95789   0.93146   11.254
 5250.00    0.97378   0.93693   11.218
 5251.00    0.99400   0.94418   11.029
 5252.00    1.01129   0.95289   10.818
 5253.00    1.02320   0.96311   10.739
 5254.00    1.03639   0.97369   10.680
 5255.00    1.05660   0.98092   10.417
 5256.00    1.06726   0.97985   10.018
 5257.00    1.04380   0.96772    9.685
 5258.00    0.98850   0.94551    9.423
 5259.00    0.92181   0.91710    9.146
 5260.00    0.85578   0.88773    8.863
 5261.00    0.79482   0.86238    8.642
 5262.00    0.74459   0.84410    8.540
 5263.00    0.71070   0.83303    8.549
 5264.00    0.69468   0.82732    8.531
 5265.00    0.69393   0.82530    8.369
 5266.00    0.70299   0.82647    8.174
 5267.00    0.71919   0.83190    8.090
 5268.00    0.74898   0.84421    8.063
 5269.00    0.79547   0.86364    7.999
 5270.00    0.84378   0.88565    7.955
 5271.00    0.87836   0.90535    8.025
 5272.00    0.90342   0.92208    8.208
 5273.00    0.92933   0.93742    8.453
 5274.00    0.95649   0.95177    8.721
 5275.00    0.98041   0.96329    8.952
 5276.00    0.99808   0.96865    9.051
 5277.00    1.00791   0.96624    9.011
 5278.00    1.00900   0.95855    9.014
 5279.00    1.00019   0.95089    9.153
 5280.00    0.97989   0.94844    9.251
 5281.00    0.95090   0.95386    9.201
 5282.00    0.92321   0.96661    9.230
 5283.00    0.90528   0.98346    9.446
 5284.00    0.89861   0.99972    9.546
 5285.00    0.90489   1.01154    9.328
 5286.00    0.92943   1.01810    9.038
 5287.00    0.97104   1.02061    8.933
 5288.00    1.01619   1.01990    9.064
 5289.00    1.04362   1.01552    9.296
 5290.00    1.03200   1.00671    9.337
 5291.00    0.98427   0.99339    9.198
 5292.00    0.93378   0.97652    9.299
 5293.00    0.90804   0.95821    9.745
 5294.00    0.91112   0.94176   10.060
 5295.00    0.92890   0.93115    9.951
 5296.00    0.93800   0.92932    9.742
 5297.00    0.93149   0.93630    9.705
 5298.00    0.92354   0.94899    9.838
 5299.00    0.92337   0.96389   10.050
 5300.00    0.92749   0.97917   10.220
 5301.00    0.93091   0.99362   10.261
 5302.00    0.93243   1.00539   10.175
 5303.00    0.93799   1.01309   10.121
 5304.00    0.95779   1.01710   10.309
 5305.00    0.99433   1.01914   10.622
 5306.00    1.03915   1.02077   10.660
 5307.00    1.07519   1.02199   10.444
 5308.00    1.08446   1.02156   10.375
 5309.00    1.06625   1.01861   10.518
 5310.00    1.03673   1.01339   10.625
 5311.00    1.01492   1.00692   10.581
 5312.00    1.01372   1.00044   10.475
 5313.00    1.02799   0.99496   10.402
 5314.00    1.04108   0.99100   10.410
 5315.00    1.04471   0.98870   10.474
 5316.00    1.04106   0.98728   10.531
 5317.00    1.03755   0.98482   10.556
 5318.00    1.03880   0.97960   10.560
 5319.00    1.03427   0.97093   10.544
 5320.00    1.00708   0.95877   10.508
 5321.00    0.95319   0.94342   10.490
 5322.00    0.88224   0.92569   10.540
 5323.00    0.81319   0.90752   10.671
 5324.00    0.76735   0.89173   10.822
 5325.00    0.75881   0.88198   10.808
 5326.00    0.78899   0.88265   10.524
 5327.00    0.84201   0.89595   10.193
 5328.00    0.89780   0.91820   10.065
 5329.00    0.94925   0.94187   10.138
 5330.00    0.99378   0.96143   10.275
 5331.00    1.02189   0.97531   10.336
 5332.00    1.03052   0.98367   10.253
 5333.00    1.03737   0.98611   10.091
 5334.00    1.05669   0.98232    9.942
 5335.00    1.07483   0.97372    9.827
 5336.00    1.07203   0.96338    9.801
 5337.00    1.04588   0.95470   10.036
 5338.00    1.01302   0.95060   10.534
 5339.00    1.00492   0.95247   10.813
 5340.00    1.03389   0.95850   10.576
 5341.00    1.07013   0.96439   10.369
 5342.00    1.08408   0.96710   10.532
 5343.00    1.07810   0.96649   10.624
 5344.00    1.06725   0.96457   10.335
 5345.00    1.06289   0.96398   10.096
 5346.00    1.06648   0.96643   10.202
 5347.00    1.06840   0.97295   10.416
 5348.00    1.06186   0.98371   10.474
 5349.00    1.05072   0.99712   10.411
 5350.00    1.04313   1.01061   10.342
 5351.00    1.04631   1.02248   10.308
 5352.00    1.05973   1.03220   10.324
 5353.00    1.07391   1.03922   10.402
 5354.00    1.08233   1.04267   10.538
 5355.00    1.08594   1.04222   10.708
 5356.00    1.08655   1.03802   10.835
 5357.00    1.08451   1.03045   10.815
 5358.00    1.08248   1.02034   10.658
 5359.00    1.08555   1.00893   10.497
 5360.00    1.09525   0.99776   10.412
 5361.00    1.10717   0.98790   10.392
 5362.00    1.11105   0.97916   10.380
 5363.00    1.09373   0.97055   10.331
 5364.00    1.04833   0.96110   10.334
 5365.00    0.97775   0.95020   -2.000
 5366.00    0.89509   0.93880   -2.000
 5367.00    0.82355   0.92997   -2.000
 5368.00    0.79532   0.92777   -2.000
 5369.00    0.83203   0.93510   -2.000
 5370.00    0.89560   0.95126   -2.000
 5371.00    0.91470   0.97126   -2.000
 5372.00    0.88148   0.98887   -2.000
 5373.00    0.84517   1.00055   -2.000
 5374.00    0.84088   1.00604   -2.000
 5375.00    0.87323   1.00691   -2.000
 5376.00    0.91884   1.00506   -2.000
 5377.00    0.94767   1.00158   -2.000
 5378.00    0.96267   0.99731   -2.000
 5379.00    0.98508   0.99362   -2.000
 5380.00    1.01350   0.99169    9.650
 5381.00    1.03075   0.99166    9.810
 5382.00    1.02872   0.99273    9.830
 5383.00    1.00992   0.99308    9.954
 5384.00    0.98291   0.99068   10.127
 5385.00    0.95853   0.98498   10.168
 5386.00    0.94516   0.97686   10.181
 5387.00    0.94784   0.96781   10.332
 5388.00    0.96766   0.95938   10.462
 5389.00    0.99780   0.95232   10.341
 5390.00    1.01948   0.94617   10.101
 5391.00    1.01409   0.94010   10.008
 5392.00    0.97815   0.93406   10.183
 5393.00    0.92527   0.92917   10.553
 5394.00    0.88411   0.92708   10.769
 5395.00    0.87298   0.92928   10.626
 5396.00    0.87667   0.93563   10.549
 5397.00    0.87373   0.94247   10.869
 5398.00    0.86359   0.94501   11.231
 5399.00    0.85809   0.94104   11.194
 5400.00    0.87044   0.93104   10.970
 5401.00    0.90262   0.91749   10.891
 5402.00    0.93808   0.90471   10.956
 5403.00    0.96084   0.89720   11.030
 5404.00    0.96962   0.89674   11.008
 5405.00    0.97091   0.90192   10.929
 5406.00    0.97238   0.90993   10.987
 5407.00    0.97631   0.91932   11.193
 5408.00    0.97704   0.93058   11.232
 5409.00    0.97070   0.94408   11.057
 5410.00    0.96042   0.95813   11.117
 5411.00    0.95150   0.97055   11.506
 5412.00    0.94813   0.98045   11.624
 5413.00    0.95175   0.98795   11.270
 5414.00    0.96087   0.99295   11.080
 5415.00    0.97390   0.99471   11.296
 5416.00    0.98958   0.99304   11.489
 5417.00    1.00266   0.98906   11.400
 5418.00    1.00547   0.98438   11.279
 5419.00    1.00285   0.98048   11.279
 5420.00    1.01140   0.97807   11.292
 5421.00    1.03271   0.97696   11.232
 5422.00    1.04951   0.97680   11.130
 5423.00    1.04956   0.97673   11.042
 5424.00    1.03310   0.97425   11.014
 5425.00    1.00780   0.96748   11.081
 5426.00    0.98469   0.95717   11.239
 5427.00    0.97137   0.94644   11.369
 5428.00    0.96861   0.93875   11.302
 5429.00    0.96728   0.93457   11.123
 5430.00    0.95613   0.93210   11.062
 5431.00    0.94391   0.93174   11.070
 5432.00    0.95138   0.93586   10.922
 5433.00    0.97799   0.94599   10.716
 5434.00    1.00537   0.96152   10.730
 5435.00    1.02405   0.97971   10.942
 5436.00    1.03645   0.99684   11.094
 5437.00    1.04983   1.00937   11.056
 5438.00    1.06877   1.01502   10.904
 5439.00    1.08398   1.01291   10.832
 5440.00    1.08087   1.00336   10.971
 5441.00    1.05865   0.98804   11.160
 5442.00    1.02720   0.97036   11.164
 5443.00    0.99611   0.95524   11.199
 5444.00    0.97501   0.94730   11.527
 5445.00    0.97633   0.94859   11.693
 5446.00    1.00371   0.95671   11.163
 5447.00    1.03575   0.96552   10.537
 5448.00    1.04344   0.96960   10.481
 5449.00    1.01697   0.96697   10.818
 5450.00    0.96766   0.95902   11.057
 5451.00    0.92464   0.94948   11.071
 5452.00    0.91453   0.94279   10.989
 5453.00    0.93879   0.94236   10.857
 5454.00    0.97875   0.94882   10.698
 5455.00    1.00551   0.95871   10.602
 5456.00    1.00004   0.96643   10.651
 5457.00    0.97079   0.96861   10.855
 5458.00    0.93735   0.96569   11.165
 5459.00    0.91343   0.96067   11.493
 5460.00    0.90673   0.95688   11.719
 5461.00    0.91994   0.95649   11.744
 5462.00    0.95061   0.95979   11.585
 5463.00    0.99086   0.96465   11.407
 5464.00    1.02711   0.96854   11.342
 5465.00    1.04146   0.97033   11.391
 5466.00    1.02350   0.96961   11.528
 5467.00    0.97829   0.96619   11.737
 5468.00    0.92464   0.96054   11.906
 5469.00    0.88961   0.95333   11.785
 5470.00    0.88352   0.94473   11.360
 5471.00    0.88939   0.93518   10.943
 5472.00    0.88754   0.92643   10.725
 5473.00    0.87037   0.92031   10.660
 5474.00    0.84463   0.91809   10.654
 5475.00    0.82862   0.92052   -2.000
 5476.00    0.83502   0.92625   -2.000
 5477.00    0.86256   0.93224   -2.000
 5478.00    0.89693   0.93721   -2.000
 5479.00    0.91192   0.94251   -2.000
 5480.00    0.87207   0.94946   -2.000
 5481.00    0.76286   0.95704   -2.000
 5482.00    0.69648   0.96286   -2.000
 5483.00    0.84946   0.96528   -2.000
 5484.00    1.10914   0.96449   -2.000
 5485.00    1.11185   0.96265   -2.000
 5486.00    0.77357   0.96211   -2.000
 5487.00    0.34839   0.96336   -2.000
 5488.00    0.06581   0.96528   -2.000
 5489.00    0.02190   0.96683   -2.000
 5490.00    0.19917   0.96735   -2.000
 5491.00    0.49639   0.96680   -2.000
 5492.00    0.78915   0.96599   -2.000
 5493.00    0.97537   0.96548   -2.000
 5494.00    1.04255   0.96519   -2.000
 5495.00    1.04768   0.96510   -2.000
 5496.00    1.03650   0.96494   -2.000
 5497.00    1.02981   0.96355   -2.000
 5498.00    1.03427   0.96003   -2.000
 5499.00    1.04701   0.95524   10.602
 5500.00    1.05999   0.95080   10.743
 5501.00    1.06199   0.94748   10.678
 5502.00    1.04118   0.94531   10.619
 5503.00    0.99354   0.94431   10.873
 5504.00    0.93537   0.94464   11.296
 5505.00    0.89225   0.94590   11.466
 5506.00    0.87883   0.94630   11.270
 5507.00    0.89551   0.94405   10.962
 5508.00    0.92879   0.93938   10.910
 5509.00    0.96181   0.93422   11.267
 5510.00    0.98797   0.93130   11.583
 5511.00    1.00759   0.93280   11.340
 5512.00    1.02158   0.93914   10.896
 5513.00    1.03026   0.94908   10.747
 5514.00    1.03281   0.96056   10.800
 5515.00    1.02716   0.97146   10.810
 5516.00    1.01043   0.97997   10.815
 5517.00    0.98404   0.98496   10.944
 5518.00    0.95780   0.98641   11.200
 5519.00    0.94035   0.98489   11.470
 5520.00    0.93073   0.98076   11.563
 5521.00    0.92521   0.97408   11.426
 5522.00    0.92372   0.96520   11.277
 5523.00    0.92879   0.95546   11.235
 5524.00    0.94349   0.94719   11.113
 5525.00    0.96402   0.94284   10.871
 5526.00    0.97680   0.94378   10.825
 5527.00    0.97539   0.94909   11.058
 5528.00    0.96950   0.95562   11.129
 5529.00    0.96588   0.96038   10.805
 5530.00    0.95887   0.96244   10.482
 5531.00    0.94936   0.96265   10.403
 5532.00    0.95246   0.96257   10.400
 5533.00    0.97511   0.96373   10.371
 5534.00    1.00687   0.96677   10.450
 5535.00    1.03728   0.97116   10.653
 5536.00    1.06322   0.97590   10.743
 5537.00    1.08003   0.97984   10.643
 5538.00    1.07953   0.98180   10.568
 5539.00    1.06060   0.98135   10.660
 5540.00    1.03292   0.97936   10.875
 5541.00    1.01282   0.97760   11.143
 5542.00    1.01667   0.97765   11.400
 5543.00    1.04369   0.98004   11.465
 5544.00    1.07491   0.98450   11.151
 5545.00    1.09216   0.98994   10.727
 5546.00    1.08750   0.99456   10.677
 5547.00    1.07095   0.99670   10.958
 5548.00    1.06260   0.99578   11.064
 5549.00    1.06268   0.99225   10.908
 5550.00    1.05334   0.98731   10.864
 5551.00    1.02856   0.98253   10.987
 5552.00    0.99848   0.97911   11.024
 5553.00    0.97830   0.97729   10.948
 5554.00    0.97869   0.97639   10.952
 5555.00    0.99082   0.97558   11.065
 5556.00    0.99424   0.97428   11.169
 5557.00    0.98187   0.97199   11.221
 5558.00    0.96079   0.96854   11.273
 5559.00    0.94213   0.96426   11.401
 5560.00    0.93507   0.95982   11.618
 5561.00    0.93965   0.95589   11.750
 5562.00    0.95049   0.95268   11.604
 5563.00    0.96551   0.95020   11.337
 5564.00    0.98348   0.94871   11.218
 5565.00    0.99797   0.94824   11.231
 5566.00    1.00365   0.94845   11.214
 5567.00    1.00674   0.94921   11.104
 5568.00    1.01541   0.95044   10.948
 5569.00    1.02464   0.95188   10.844
 5570.00    1.02339   0.95390   10.836
 5571.00    1.00666   0.95726   10.814
 5572.00    0.97719   0.96144   10.687
 5573.00    0.94500   0.96544   10.577
 5574.00    0.92046   0.96883   10.586
 5575.00    0.90682   0.97121   10.554
 5576.00    0.90362   0.97221   10.332
 5577.00    0.91084   0.97166   10.072
 5578.00    0.92499   0.96912    9.944
 5579.00    0.93580   0.96413    9.919
 5580.00    0.93504   0.95643    9.931
 5581.00    0.92434   0.94575   10.002
 5582.00    0.91032   0.93249   10.139
 5583.00    0.89939   0.91839   10.245
 5584.00    0.89308   0.90636   10.248
 5585.00    0.88570   0.89922   10.199
 5586.00    0.87240   0.89818   10.123
 5587.00    0.85510   0.90246    9.931
 5588.00    0.84158   0.90988    9.605
 5589.00    0.84315   0.91818    9.269
 5590.00    0.86547   0.92615    8.978
 5591.00    0.90256   0.93335    8.669
 5592.00    0.93534   0.93937    8.359
 5593.00    0.93592   0.94300    8.178
 5594.00    0.89376   0.94259    8.141
 5595.00    0.82642   0.93810    8.117
 5596.00    0.76167   0.93165    8.089
 5597.00    0.72530   0.92585    8.215
 5598.00    0.72880   0.92305    8.488
 5599.00    0.76653   0.92528    8.649
 5600.00    0.82755   0.93342    8.701
 5601.00    0.90009   0.94644    9.020
 5602.00    0.96825   0.96140    9.586
 5603.00    1.01345   0.97501    9.765
 5604.00    1.02466   0.98512    9.537
 5605.00    1.00290   0.99112    9.675
 5606.00    0.96294   0.99343   10.324
 5607.00    0.92745   0.99246   10.787
 5608.00    0.90738   0.98805   10.730
 5609.00    0.89971   0.97957   10.606
 5610.00    0.89958   0.96708   10.621
 5611.00    0.90384   0.95231   10.618
 5612.00    0.91061   0.93905   10.574
 5613.00    0.91819   0.93151   10.630
 5614.00    0.92288   0.93087   10.806
 5615.00    0.92353   0.93484   10.972
 5616.00    0.93274   0.94040   10.970
 5617.00    0.96616   0.94513   10.737
 5618.00    1.01431   0.94734   10.452
 5619.00    1.05207   0.94620   10.346
 5620.00    1.06965   0.94227   10.401
 5621.00    1.07002   0.93789   10.452
 5622.00    1.05241   0.93629   10.440
 5623.00    1.01590   0.93934   10.419
 5624.00    0.97042   0.94646   10.479
 5625.00    0.93086   0.95575   10.673
 5626.00    0.90446   0.96499   10.907
 5627.00    0.89199   0.97205   11.020
 5628.00    0.89254   0.97559   10.971
 5629.00    0.90342   0.97531   10.837
 5630.00    0.91933   0.97176   10.726
 5631.00    0.93362   0.96601   10.706
 5632.00    0.94017   0.95942   10.741
 5633.00    0.93461   0.95321   10.782
 5634.00    0.91561   0.94832   10.876
 5635.00    0.88861   0.94517   11.060
 5636.00    0.86876   0.94346   11.231
 5637.00    0.86997   0.94260   11.268
 5638.00    0.89334   0.94254   11.203
 5639.00    0.92800   0.94363   11.144
 5640.00    0.95465   0.94594   11.175
 5641.00    0.96059   0.94909   11.275
 5642.00    0.95169   0.95259   11.277
 5643.00    0.94084   0.95589   11.156
 5644.00    0.93728   0.95857   11.211
 5645.00    0.94422   0.96059   11.541
 5646.00    0.95772   0.96219   11.699
 5647.00    0.96741   0.96366   11.436
 5648.00    0.95949   0.96472   11.230
 5649.00    0.93360   0.96439   11.363
 5650.00    0.91026   0.96161   11.506
 5651.00    0.90735   0.95606   11.390
 5652.00    0.92598   0.94830   11.207
 5653.00    0.95610   0.93923   11.094
 5654.00    0.98214   0.92999   10.926
 5655.00    0.99299   0.92264   10.713
 5656.00    0.98754   0.91926   10.686
 5657.00    0.97535   0.92000   10.832
 5658.00    0.97303   0.92359   10.798
 5659.00    0.98717   0.92891   10.509
 5660.00    1.00826   0.93520   10.319
 5661.00    1.01893   0.94136   10.413
 5662.00    1.00273   0.94616   10.675
 5663.00    0.96342   0.94900   10.824
 5664.00    0.92516   0.95039   10.593
 5665.00    0.90569   0.95164   10.195
 5666.00    0.90801   0.95405   10.116
 5667.00    0.92627   0.95829   10.358
 5668.00    0.95135   0.96419   10.461
 5669.00    0.98090   0.97078   10.274
 5670.00    1.01801   0.97665   10.035
 5671.00    1.05844   0.98075    9.698
 5672.00    1.08772   0.98290    9.067
 5673.00    1.08428   0.98326    8.378
 5674.00    1.03382   0.98180    7.996
 5675.00    0.96137   0.97852    7.961
 5676.00    0.91403   0.97371    8.133
 5677.00    0.90368   0.96774    8.389
 5678.00    0.91026   0.96123    8.653
 5679.00    0.91753   0.95523    8.957
 5680.00    0.92042   0.95067    9.385
 5681.00    0.92357   0.94760    9.889
 5682.00    0.93551   0.94549   10.283
 5683.00    0.95855   0.94418   10.428
 5684.00    0.98674   0.94427   10.349
 5685.00    1.00615   0.94668   10.265
 5686.00    1.00508   0.95174   10.387
 5687.00    0.98941   0.95872   10.654
 5688.00    0.97281   0.96618   10.844
 5689.00    0.95927   0.97241   10.811
 5690.00    0.94934   0.97613   10.524
 5691.00    0.95140   0.97694   10.006
 5692.00    0.97110   0.97508    9.369
 5693.00    0.99669   0.97088    8.802
 5694.00    1.00714   0.96480    8.417
 5695.00    0.98478   0.95773    8.179
 5696.00    0.92759   0.95058    8.040
 5697.00    0.85959   0.94421    8.031
 5698.00    0.81212   0.93955    8.212
 5699.00    0.80341   0.93686    8.623
 5700.00    0.83414   0.93519    9.190
 5701.00    0.88620   0.93287    9.570
 5702.00    0.93271   0.92855    9.571
 5703.00    0.94937   0.92209    9.619
 5704.00    0.93472   0.91454   10.018
 5705.00    0.92090   0.90787   10.362
 5706.00    0.93108   0.90428   10.267
 5707.00    0.95106   0.90504   10.108
 5708.00    0.96380   0.91049   10.199
 5709.00    0.97265   0.92006   10.308
 5710.00    0.98137   0.93198   10.233
 5711.00    0.98250   0.94418   10.168
 5712.00    0.97278   0.95510   10.264
 5713.00    0.96072   0.96393   10.414
 5714.00    0.95270   0.97076   10.504
 5715.00    0.94710   0.97633   10.555
 5716.00    0.94636   0.98126   10.559
 5717.00    0.95954   0.98583   10.428
 5718.00    0.98327   0.98979   10.186
 5719.00    0.99801   0.99242   10.003
 5720.00    0.99440   0.99302   10.013
 5721.00    0.98162   0.99130   10.250
 5722.00    0.97142   0.98763   10.580
 5723.00    0.97044   0.98314   10.705
 5724.00    0.97804   0.97917   10.568
 5725.00    0.98779   0.97635   10.434
 5726.00    0.99522   0.97455   10.458
 5727.00    0.99955   0.97367   10.596
 5728.00    0.99959   0.97393   10.694
 5729.00    0.99466   0.97551   10.585
 5730.00    0.99160   0.97809   10.291
 5731.00    1.00087   0.98090    9.997
 5732.00    1.01981   0.98302    9.848
 5733.00    1.03401   0.98389    9.896
 5734.00    1.03387   0.98356   10.049
 5735.00    1.02025   0.98249   10.120
 5736.00    1.00700   0.98121   10.037
 5737.00    1.01177   0.98014    9.865
 5738.00    1.03461   0.97954    9.681
 5739.00    1.06097   0.97965    9.544
 5740.00    1.07847   0.98041    0.000
 5741.00    1.07933   0.98124    0.000
 5742.00    1.05812   0.98126    0.000
 5743.00    1.01703   0.98001    0.000
 5744.00    0.97553   0.97786    0.000
 5745.00    0.95944   0.97545    0.000
 5746.00    0.97969   0.97288    0.000
 5747.00    1.02673   0.96969    0.000
 5748.00    1.06898   0.96555    0.000
 5749.00    1.07880   0.96118    0.000
 5750.00    1.06861   0.95830    0.000
 5751.00    1.06591   0.95857    0.000
 5752.00    1.07354   0.96220    0.000
 5753.00    1.08134   0.96763    0.000
 5754.00    1.08685   0.97213    0.000
 5755.00    1.09164   0.97332    0.000
 5756.00    1.09400   0.97054    0.000
 5757.00    1.08902   0.96520    0.000
 5758.00    1.07049   0.96016    0.000
 5759.00    1.04214   0.95828    0.000
 5760.00    1.02611   0.96088    0.000
 5761.00    1.03593   0.96732    0.000
 5762.00    1.05334   0.97554    0.000
 5763.00    1.05531   0.98311    0.000
 5764.00    1.03847   0.98823    0.000
 5765.00    1.01090   0.99028    0.000
 5766.00    0.98324   0.98958    0.000
 5767.00    0.96305   0.98701    0.000
 5768.00    0.95192   0.98363    0.000
 5769.00    0.95129   0.98033    0.000
 5770.00    0.96545   0.97778    0.000
 5771.00    0.99330   0.97618    0.000
 5772.00    1.02378   0.97504    0.000
 5773.00    1.04198   0.97321    0.000
 5774.00    1.03509   0.96922    0.000
 5775.00    1.00372   0.96201    0.000
 5776.00    0.96463   0.95172    0.000
 5777.00    0.93270   0.93987    0.000
 5778.00    0.91256   0.92865    0.000
 5779.00    0.90482   0.92011    0.000
 5780.00    0.90865   0.91562    0.000
 5781.00    0.91910   0.91568    0.000
 5782.00    0.92843   0.91984    0.000
 5783.00    0.93638   0.92700    0.000
 5784.00    0.95049   0.93553    0.000
 5785.00    0.97094   0.94370    0.000
 5786.00    0.98626   0.95047    0.000
 5787.00    0.97956   0.95575    0.000
 5788.00    0.93981   0.96024   -2.000
 5789.00    0.89027   0.96467   -2.000
 5790.00    0.87910   0.96905   -2.000
 5791.00    0.92358   0.97266   -2.000
 5792.00    0.99412   0.97492   -2.000
 5793.00    1.01989   0.97605   -2.000
 5794.00    0.93549   0.97710   -2.000
 5795.00    0.79316   0.97924   -2.000
 5796.00    0.72292   0.98284   -2.000
 5797.00    0.76767   0.98694   -2.000
 5798.00    0.87166   0.98982   -2.000
 5799.00    0.94806   0.99016   -2.000
 5800.00    0.93416   0.98782   -2.000
 5801.00    0.86936   0.98392   -2.000
 5802.00    0.84545   0.98017   -2.000
 5803.00    0.88157   0.97794   -2.000
 5804.00    0.93666   0.97775   -2.000
 5805.00    0.97538   0.97922   -2.000
 5806.00    0.98337   0.98143   -2.000
 5807.00    0.97164   0.98331   -2.000
 5808.00    0.96114   0.98398    0.000
 5809.00    0.95839   0.98297    0.000
 5810.00    0.95978   0.98050    0.000
 5811.00    0.96290   0.97755    0.000
 5812.00    0.96647   0.97553    0.000
 5813.00    0.96829   0.97573    0.000
 5814.00    0.96735   0.97858    0.000
 5815.00    0.96647   0.98337    0.000
 5816.00    0.96773   0.98863    0.000
 5817.00    0.96760   0.99288    0.000
 5818.00    0.96469   0.99539    0.000
 5819.00    0.96734   0.99628    0.000
 5820.00    0.97915   0.99625    0.000
 5821.00    0.98566   0.99606    0.000
 5822.00    0.97325   0.99613    0.000
 5823.00    0.94670   0.99652    0.000
 5824.00    0.92048   0.99706    0.000
 5825.00    0.90916   0.99750    0.000
 5826.00    0.92019   0.99757    0.000
 5827.00    0.94912   0.99701    0.000
 5828.00    0.98295   0.99572    0.000
 5829.00    1.00483   0.99383    0.000
 5830.00    1.00795   0.99163    0.000
 5831.00    1.00213   0.98960    0.000
 5832.00    0.99608   0.98815    0.000
 5833.00    0.98813   0.98758    0.000
 5834.00    0.98098   0.98804    0.000
 5835.00    0.98742   0.98956    0.000
 5836.00    1.01111   0.99198    0.000
 5837.00    1.03964   0.99479    0.000
 5838.00    1.06400   0.99715    0.000
 5839.00    1.08515   0.99811    0.000
 5840.00    1.09627   0.99706    0.000
 5841.00    1.08072   0.99398    0.000
 5842.00    1.03988   0.98947    0.000
 5843.00    0.99706   0.98445    0.000
 5844.00    0.96260   0.97974    0.000
 5845.00    0.92792   0.97560    0.000
 5846.00    0.89757   0.97176    0.000
 5847.00    0.89230   0.96761    0.000
 5848.00    0.91733   0.96273    0.000
 5849.00    0.95801   0.95716    0.000
 5850.00    1.00259   0.95123    0.000
 5851.00    1.04639   0.94534    0.000
 5852.00    1.08192   0.93987    0.000
 5853.00    1.09690   0.93537    0.000
 5854.00    1.07778   0.93269    0.000
 5855.00    1.01946   0.93262    0.000
 5856.00    0.94670   0.93529    0.000
 5857.00    0.90014   0.93990    0.000
 5858.00    0.89095   0.94510    0.000
 5859.00    0.90268   0.94966    0.000
 5860.00    0.91969   0.95296    0.000
 5861.00    0.93370   0.95510    0.000
 5862.00    0.94384   0.95669    0.000
 5863.00    0.95357   0.95848    0.000
 5864.00    0.96486   0.96102    0.000
 5865.00    0.97768   0.96427    0.000
 5866.00    0.99102   0.96759    0.000
 5867.00    1.00268   0.96999    0.000
 5868.00    1.00888   0.97070    0.000
 5869.00    1.00868   0.96954    0.000
 5870.00    1.01000   0.96693    0.000
 5871.00    1.01996   0.96350    0.000
 5872.00    1.03047   0.95982    0.000
 5873.00    1.02797   0.95617    0.000
 5874.00    1.00863   0.95263    0.000
 5875.00    0.97827   0.94926    0.000
 5876.00    0.94930   0.94618    0.000
 5877.00    0.93232   0.94350    0.000
 5878.00    0.92767   0.94108    0.000
 5879.00    0.93188   0.93821    0.000
 5880.00    0.94473   0.93348    0.000
 5881.00    0.96287   0.92480    0.000
 5882.00    0.97396   0.90988    0.000
 5883.00    0.96904   0.88731    0.000
 5884.00    0.95304   0.85803    0.000
 5885.00    0.93417   0.82621    0.000
 5886.00    0.91428   0.79819    0.000
 5887.00    0.89018   0.77959    0.000
 5888.00    0.85663   0.77226    0.000
 5889.00    0.81697   0.77347    0.000
 5890.00    0.78847   0.77841    0.000
 5891.00    0.78670   0.78383    0.000
 5892.00    0.81471   0.79009    0.000
 5893.00    0.86434   0.80005    0.000
 5894.00    0.91927   0.81615    0.000
 5895.00    0.96569   0.83808    0.000
 5896.00    0.99826   0.86284    0.000
 5897.00    1.01820   0.88651    0.000
 5898.00    1.03108   0.90610    0.000
 5899.00    1.04216   0.92043    0.000
 5900.00    1.05293   0.92990    0.000
 5901.00    1.05656   0.93575   10.022
 5902.00    1.04112   0.93948   10.138
 5903.00    1.01198   0.94230   10.109
 5904.00    0.99326   0.94485    9.939
 5905.00    0.99493   0.94717    9.732
 5906.00    1.00552   0.94879    9.609
 5907.00    1.01491   0.94900    9.626
 5908.00    1.02104   0.94732    9.751
 5909.00    1.02279   0.94381    9.881
 5910.00    1.01690   0.93931    9.901
 5911.00    0.99654   0.93524    9.905
 5912.00    0.95754   0.93303   10.110
 5913.00    0.91678   0.93341   10.427
 5914.00    0.90401   0.93614   10.462
 5915.00    0.92526   0.94016   10.113
 5916.00    0.96102   0.94423    9.676
 5917.00    0.98769   0.94751    9.470
 5918.00    0.98936   0.94977    9.656
 5919.00    0.97157   0.95128    9.994
 5920.00    0.95150   0.95240   10.009
 5921.00    0.93054   0.95318    9.812
 5922.00    0.90234   0.95334    9.863
 5923.00    0.88046   0.95249   10.152
 5924.00    0.88701   0.95062   10.336
 5925.00    0.92144   0.94821   10.328
 5926.00    0.96361   0.94612   10.294
 5927.00    0.98995   0.94499   10.330
 5928.00    0.98655   0.94491   10.437
 5929.00    0.96467   0.94546   10.547
 5930.00    0.94594   0.94623   10.591
 5931.00    0.93710   0.94716   10.594
 5932.00    0.93321   0.94844   10.610
 5933.00    0.92773   0.95011   10.601
 5934.00    0.91852   0.95174   10.524
 5935.00    0.91296   0.95262   10.451
 5936.00    0.91853   0.95232   10.462
 5937.00    0.93139   0.95113   10.525
 5938.00    0.94419   0.94992   10.594
 5939.00    0.95621   0.94961   10.717
 5940.00    0.97256   0.95049   10.877
 5941.00    1.00103   0.95203   10.827
 5942.00    1.03904   0.95313   10.493
 5943.00    1.06373   0.95290   10.265
 5944.00    1.05478   0.95112   10.388
 5945.00    1.01482   0.94836   10.588
 5946.00    0.96148   0.94551   10.563
 5947.00    0.91777   0.94323   10.438
 5948.00    0.89951   0.94171   10.401
 5949.00    0.90672   0.94082   10.425
 5950.00    0.92883   0.94037   10.443
 5951.00    0.95032   0.94022   10.474
 5952.00    0.96016   0.94042   10.551
 5953.00    0.95772   0.94124   10.660
 5954.00    0.95089   0.94308   10.706
 5955.00    0.95235   0.94622   10.548
 5956.00    0.96584   0.95048   10.291
 5957.00    0.98132   0.95515   10.292
 5958.00    0.99125   0.95922   10.613
 5959.00    0.99712   0.96189   10.852
 5960.00    0.99748   0.96297   10.801
 5961.00    0.98505   0.96293   10.765
 5962.00    0.96143   0.96265   10.891
 5963.00    0.94060   0.96300   10.967
 5964.00    0.93447   0.96438   10.900
 5965.00    0.94586   0.96660   10.857
 5966.00    0.96634   0.96900   10.907
 5967.00    0.98009   0.97072   10.947
 5968.00    0.98015   0.97093   10.921
 5969.00    0.97086   0.96911   10.872
 5970.00    0.95585   0.96522   10.842
 5971.00    0.93596   0.95977   10.845
 5972.00    0.91613   0.95385   10.882
 5973.00    0.90534   0.94878   10.938
 5974.00    0.91043   0.94557   10.947
 5975.00    0.93217   0.94445   10.835
 5976.00    0.96062   0.94462   10.649
 5977.00    0.98025   0.94473   10.516
 5978.00    0.98572   0.94359   10.473
 5979.00    0.98166   0.94097   10.479
 5980.00    0.97304   0.93775   10.487
 5981.00    0.96487   0.93541   10.477
 5982.00    0.96618   0.93514   10.488
 5983.00    0.98293   0.93719   10.565
 5984.00    1.00282   0.94089   10.643
 5985.00    1.00561   0.94516   10.627
 5986.00    0.98712   0.94910   10.589
 5987.00    0.95835   0.95235   10.652
 5988.00    0.93578   0.95496   10.735
 5989.00    0.93037   0.95695   10.693
 5990.00    0.93387   0.95808   10.610
 5991.00    0.93220   0.95794   10.661
 5992.00    0.92792   0.95627   10.846
 5993.00    0.93368   0.95344   11.037
 5994.00    0.95824   0.95027   11.100
 5995.00    0.99820   0.94764   10.996
 5996.00    1.03139   0.94596   10.879
 5997.00    1.03754   0.94505   10.898
 5998.00    1.02256   0.94436   11.001
 5999.00    1.00344   0.94335   11.057
 6000.00    0.98897   0.94171   11.012
 6001.00    0.98306   0.93938   10.885
 6002.00    0.98945   0.93658   10.726
 6003.00    1.00533   0.93387   10.575
 6004.00    1.01633   0.93210   10.436
 6005.00    1.01163   0.93188   10.306
 6006.00    0.99621   0.93316   10.198
 6007.00    0.97853   0.93510   10.119
 6008.00    0.96047   0.93657   10.049
 6009.00    0.94428   0.93688    9.918
 6010.00    0.93750   0.93606    9.627
 6011.00    0.94545   0.93464    9.230
 6012.00    0.96510   0.93314    8.956
 6013.00    0.98190   0.93177    8.938
 6014.00    0.97183   0.93049    9.130
 6015.00    0.92535   0.92928    9.406
 6016.00    0.85993   0.92831    9.600
 6017.00    0.80670   0.92800    9.661
 6018.00    0.79721   0.92878    9.722
 6019.00    0.83672   0.93091    9.862
 6020.00    0.89696   0.93434   10.009
 6021.00    0.94889   0.93871   10.118
 6022.00    0.97866   0.94358   10.255
 6023.00    0.98468   0.94852   10.449
 6024.00    0.97465   0.95325   10.647
 6025.00    0.95989   0.95758   10.804
 6026.00    0.95074   0.96142   10.924
 6027.00    0.94856   0.96473   11.010
 6028.00    0.94614   0.96751   11.042
 6029.00    0.94044   0.96977   10.990
 6030.00    0.93532   0.97148   10.861
 6031.00    0.93543   0.97258   10.806
 6032.00    0.94361   0.97297   11.005
 6033.00    0.95983   0.97264   11.244
 6034.00    0.98158   0.97163   11.013
 6035.00    1.00589   0.97018   10.450
 6036.00    1.02849   0.96872   10.110
 6037.00    1.04031   0.96778   10.058
 6038.00    1.03150   0.96782   10.025
 6039.00    1.00325   0.96899    9.911
 6040.00    0.96787   0.97110    9.805
 6041.00    0.94214   0.97361    9.738
 6042.00    0.94001   0.97597    9.682
 6043.00    0.96107   0.97773    9.632
 6044.00    0.99215   0.97870    9.621
 6045.00    1.01558   0.97886    9.695
 6046.00    1.02001   0.97818    9.865
 6047.00    1.01610   0.97657   10.010
 6048.00    1.02290   0.97397    9.981
 6049.00    1.04078   0.97044    9.836
 6050.00    1.05780   0.96640    9.744
 6051.00    1.06680   0.96252    9.783
 6052.00    1.07006   0.95956    9.925
 6053.00    1.08100   0.95808   10.046
 6054.00    1.10712   0.95815   10.029
 6055.00    1.12845   0.95922    9.931
 6056.00    1.12041   0.96027    9.889
 6057.00    1.08522   0.96021    9.973
 6058.00    1.04170   0.95839   10.146
 6059.00    1.00813   0.95505   10.225
 6060.00    0.99177   0.95134   10.101
 6061.00    0.98129   0.94895    9.968
 6062.00    0.96437   0.94937   10.055
 6063.00    0.94505   0.95311   10.391
 6064.00    0.93159   0.95952   10.838
 6065.00    0.92424   0.96706   11.099
 6066.00    0.92250   0.97411   10.932
 6067.00    0.93098   0.97954   10.424
 6068.00    0.94810   0.98289    9.871
 6069.00    0.95906   0.98414    9.554
 6070.00    0.95511   0.98338    9.526
 6071.00    0.94631   0.98074    9.575
 6072.00    0.94547   0.97636    9.573
 6073.00    0.95648   0.97065    9.682
 6074.00    0.97649   0.96427    9.960
 6075.00    0.99830   0.95800   10.136
 6076.00    1.01376   0.95252   10.088
 6077.00    1.01661   0.94826   10.116
 6078.00    1.00677   0.94536   10.378
 6079.00    0.99159   0.94378   10.647
 6080.00    0.97996   0.94334   10.751
 6081.00    0.97807   0.94374   10.818
 6082.00    0.98455   0.94454   10.945
 6083.00    0.99059   0.94524   11.055
 6084.00    0.99063   0.94535   11.063
 6085.00    0.98568   0.94470   10.977
 6086.00    0.97695   0.94352   10.882
 6087.00    0.96507   0.94248   10.890
 6088.00    0.95755   0.94236   10.968
 6089.00    0.96644   0.94366   10.946
 6090.00    0.99020   0.94630   10.779
 6091.00    1.01248   0.94966   10.598
 6092.00    1.01977   0.95282   10.555
 6093.00    1.00777   0.95485   10.726
 6094.00    0.98269   0.95500   10.928
 6095.00    0.95702   0.95274   10.831
 6096.00    0.93730   0.94791   10.588
 6097.00    0.92362   0.94106   10.618
 6098.00    0.91742   0.93372   10.770
 6099.00    0.92311   0.92800   10.512
 6100.00    0.94668   0.92577    9.954
 6101.00    0.98840   0.92764    9.593
 6102.00    1.02830   0.93267    9.521
 6103.00    1.04041   0.93905    9.582
 6104.00    1.02816   0.94507    9.729
 6105.00    1.01569   0.94984   10.000
 6106.00    1.01683   0.95327   10.346
 6107.00    1.03040   0.95575   10.635
 6108.00    1.04321   0.95766   10.763
 6109.00    1.04092   0.95916   10.724
 6110.00    1.02465   0.96009   10.628
 6111.00    1.00721   0.96006   10.612
 6112.00    1.00251   0.95861   10.715
 6113.00    1.01485   0.95539   10.883
 6114.00    1.02713   0.95026   10.984
 6115.00    1.01996   0.94343   10.955
 6116.00    0.99824   0.93564   10.982
 6117.00    0.97936   0.92823   11.167
 6118.00    0.97405   0.92281   11.128
 6119.00    0.98045   0.92065   10.618
 6120.00    0.98163   0.92192   10.192
 6121.00    0.96666   0.92564   10.309
 6122.00    0.95136   0.93030   10.779
 6123.00    0.95501   0.93469   11.172
 6124.00    0.97617   0.93840   11.312
 6125.00    1.00239   0.94161   11.268
 6126.00    1.02168   0.94443   11.190
 6127.00    1.02664   0.94627   11.135
 6128.00    1.01702   0.94588   10.986
 6129.00    0.99854   0.94189   10.614
 6130.00    0.98079   0.93371   10.021
 6131.00    0.96980   0.92228    9.264
 6132.00    0.96235   0.91018    8.419
 6133.00    0.94414   0.90077    7.694
 6134.00    0.89415   0.89681    7.348
 6135.00    0.81919   0.89911    7.458
 6136.00    0.76623   0.90644    7.921
 6137.00    0.76441   0.91632    8.532
 6138.00    0.79674   0.92643    8.997
 6139.00    0.83912   0.93539    9.187
 6140.00    0.88098   0.94260    9.344
 6141.00    0.91436   0.94773    9.636
 6142.00    0.93035   0.95045    9.944
 6143.00    0.93072   0.95061   10.203
 6144.00    0.92925   0.94860   10.557
 6145.00    0.93314   0.94537   11.016
 6146.00    0.93756   0.94210   11.313
 6147.00    0.93754   0.93964   11.350
 6148.00    0.93338   0.93817   11.357
 6149.00    0.93199   0.93728   11.502
 6150.00    0.94426   0.93626   11.697
 6151.00    0.97486   0.93442   11.486
 6152.00    1.01800   0.93120   10.467
 6153.00    1.05587   0.92597    9.256
 6154.00    1.06609   0.91806    8.571
 6155.00    1.04440   0.90700    8.285
 6156.00    1.00417   0.89326    7.974
 6157.00    0.95626   0.87859    7.758
 6158.00    0.90731   0.86588    8.057
 6159.00    0.86990   0.85793    8.842
 6160.00    0.85594   0.85615    9.512
 6161.00    0.85506   0.85977    9.669
 6162.00    0.84604   0.86622    9.544
 6163.00    0.83235   0.87256    9.424
 6164.00    0.83377   0.87694    9.444
 6165.00    0.85326   0.87931    9.620
 6166.00    0.87786   0.88102    9.908
 6167.00    0.89357   0.88373   10.304
 6168.00    0.89314   0.88825   10.814
 6169.00    0.88405   0.89422   11.325
 6170.00    0.88113   0.90051   11.619
 6171.00    0.89218   0.90613   11.527
 6172.00    0.91400   0.91064   11.114
 6173.00    0.93066   0.91426   10.729
 6174.00    0.92616   0.91742   10.644
 6175.00    0.90215   0.92044   10.777
 6176.00    0.87307   0.92337   10.937
 6177.00    0.85590   0.92597   11.164
 6178.00    0.86017   0.92781   11.553
 6179.00    0.87826   0.92835   11.938
 6180.00    0.89647   0.92714   11.903
 6181.00    0.90855   0.92388   11.079
 6182.00    0.91194   0.91863    9.795
 6183.00    0.90281   0.91178    8.858
 6184.00    0.88070   0.90403    8.532
 6185.00    0.85303   0.89631    8.515
 6186.00    0.82873   0.88977    8.569
 6187.00    0.81260   0.88570    8.889
 6188.00    0.80955   0.88514    9.584
 6189.00    0.82508   0.88844   10.082
 6190.00    0.83599   0.89478   10.064
 6191.00    0.78124   0.90241   10.409
 6192.00    0.66641   0.90920   -2.000
 6193.00    0.63149   0.91357   -2.000
 6194.00    0.88273   0.91510   -2.000
 6195.00    1.58659   0.91464   -2.000
 6196.00    2.51605   0.91371   -2.000
 6197.00    2.96696   0.91379   -2.000
 6198.00    2.56288   0.91560   -2.000
 6199.00    1.64561   0.91891   -2.000
 6200.00    0.78263   0.92282   -2.000
 6201.00    0.42155   0.92632   -2.000
 6202.00    0.58617   0.92868   -2.000
 6203.00    0.85420   0.92952   -2.000
 6204.00    0.93689   0.92864    6.274
 6205.00    0.89082   0.92581    8.004
 6206.00    0.83495   0.92082    8.778
 6207.00    0.82250   0.91365    9.179
 6208.00    0.84724   0.90472    9.947
 6209.00    0.86526   0.89500   10.826
 6210.00    0.85832   0.88588   11.346
 6211.00    0.84593   0.87870   11.464
 6212.00    0.84467   0.87429   11.400
 6213.00    0.85691   0.87260   11.360
 6214.00    0.88132   0.87290   11.264
 6215.00    0.91394   0.87429   10.876
 6216.00    0.94131   0.87616   10.350
 6217.00    0.94435   0.87836   10.039
 6218.00    0.91463   0.88094    9.952
 6219.00    0.85993   0.88379    9.918
 6220.00    0.80633   0.88650   10.086
 6221.00    0.78513   0.88839   10.732
 6222.00    0.80187   0.88869   11.357
 6223.00    0.83864   0.88684   10.881
 6224.00    0.87537   0.88274    9.765
 6225.00    0.89888   0.87704    9.061
 6226.00    0.91109   0.87127    8.863
 6227.00    0.92036   0.86740    8.921
 6228.00    0.92274   0.86707    9.178
 6229.00    0.90883   0.87075    9.721
 6230.00    0.88139   0.87737   10.584
 6231.00    0.85228   0.88471   11.636
 6232.00    0.83232   0.89032   12.434
 6233.00    0.82611   0.89252   12.533
 6234.00    0.82734   0.89094   12.286
 6235.00    0.82736   0.88640   12.251
 6236.00    0.82772   0.88034   12.309
 6237.00    0.83379   0.87418   12.115
 6238.00    0.84472   0.86901   11.790
 6239.00    0.85610   0.86548   11.603
 6240.00    0.86496   0.86404   11.577
 6241.00    0.87271   0.86490   11.550
 6242.00    0.88688   0.86794   11.282
 6243.00    0.91053   0.87248   10.774
 6244.00    0.93228   0.87726   10.418
 6245.00    0.93853   0.88072   10.436
 6246.00    0.92619   0.88151   10.566
 6247.00    0.90217   0.87907   10.578
 6248.00    0.88095   0.87378   10.712
 6249.00    0.87729   0.86681   11.025
 6250.00    0.89863   0.85954   10.861
 6251.00    0.93310   0.85310   10.039
 6252.00    0.94503   0.84829    9.426
 6253.00    0.90801   0.84571    9.436
 6254.00    0.83134   0.84589    9.716
 6255.00    0.77435   0.84924    9.600
 6256.00    0.84014   0.85562    8.545
 6257.00    1.08352   0.86416    6.583
 6258.00    1.44976   0.87335    4.555
 6259.00    1.75666   0.88157    3.284
 6260.00    1.74450   0.88770    2.779
 6261.00    1.38262   0.89144    2.768
 6262.00    0.96036   0.89328    3.057
 6263.00    0.72044   0.89404    3.624
 6264.00    0.69176   0.89451    4.770
 6265.00    0.78610   0.89518    7.116
 6266.00    0.87415   0.89628   10.430
 6267.00    0.89813   0.89783   11.937
 6268.00    0.89445   0.89969   11.639
 6269.00    0.89464   0.90160   11.435
 6270.00    0.89500   0.90319   11.528
 6271.00    0.89398   0.90408   11.638
 6272.00    0.90062   0.90397   11.525
 6273.00    0.91488   0.90277   11.218
 6274.00    0.92491   0.90064   10.956
 6275.00    0.92018   0.89804   10.855
 6276.00    0.89849   0.89572   10.884
 6277.00    0.87327   0.89451   10.941
 6278.00    0.86496   0.89504   10.934
 6279.00    0.87299   0.89745   10.934
 6280.00    0.87979   0.90141    0.000
 6281.00    0.87961   0.90622    0.000
 6282.00    0.88060   0.91109    0.000
 6283.00    0.89251   0.91529    0.000
 6284.00    0.91851   0.91821    0.000
 6285.00    0.94477   0.91945    0.000
 6286.00    0.95168   0.91887    0.000
 6287.00    0.93997   0.91669    0.000
 6288.00    0.92339   0.91341    0.000
 6289.00    0.90601   0.90953    0.000
 6290.00    0.88513   0.90543    0.000
 6291.00    0.86358   0.90124    0.000
 6292.00    0.84915   0.89708    0.000
 6293.00    0.85031   0.89310    0.000
 6294.00    0.87120   0.88957    0.000
 6295.00    0.90557   0.88677    0.000
 6296.00    0.94056   0.88492    0.000
 6297.00    0.96327   0.88419    0.000
 6298.00    0.96481   0.88480    0.000
 6299.00    0.94442   0.88698    0.000
 6300.00    0.91139   0.89078    0.000
 6301.00    0.88552   0.89591    0.000
 6302.00    0.88067   0.90163    0.000
 6303.00    0.88812   0.90696    0.000
 6304.00    0.89236   0.91088    0.000
 6305.00    0.88910   0.91269    0.000
 6306.00    0.88615   0.91215    0.000
 6307.00    0.90020   0.90951    0.000
 6308.00    0.93389   0.90537    0.000
 6309.00    0.95991   0.90040    0.000
 6310.00    0.95736   0.89517    0.000
 6311.00    0.93960   0.89014    0.000
 6312.00    0.92841   0.88576    0.000
 6313.00    0.93182   0.88256    0.000
 6314.00    0.93934   0.88109    0.000
 6315.00    0.92477   0.88177    0.000
 6316.00    0.88167   0.88465    0.000
 6317.00    0.84033   0.88935    0.000
 6318.00    0.82737   0.89518    0.000
 6319.00    0.84313   0.90130    0.000
 6320.00    0.87936   0.90699    0.000
 6321.00    0.92900   0.91177   11.988
 6322.00    0.98085   0.91540   11.751
 6323.00    1.01914   0.91790   11.472
 6324.00    1.03667   0.91941   11.372
 6325.00    1.03864   0.92013   11.594
 6326.00    1.03050   0.92014   12.001
 6327.00    1.01301   0.91932   12.155
 6328.00    0.98552   0.91735   12.063
 6329.00    0.94946   0.91395   12.247
 6330.00    0.91577   0.90924   12.589
 6331.00    0.90207   0.90390   12.218
 6332.00    0.91224   0.89911   11.244
 6333.00    0.93249   0.89605   10.598
 6334.00    0.94291   0.89534   10.537
 6335.00    0.92805   0.89667   10.823
 6336.00    0.89584   0.89895   11.192
 6337.00    0.87103   0.90089   11.453
 6338.00    0.86041   0.90165   11.601
 6339.00    0.85385   0.90124   11.747
 6340.00    0.85361   0.90044   11.752
 6341.00    0.87066   0.90026   11.404
 6342.00    0.89672   0.90147   11.067
 6343.00    0.91075   0.90423   11.274
 6344.00    0.90914   0.90801   11.885
 6345.00    0.90395   0.91190   12.203
 6346.00    0.90460   0.91490   12.017
 6347.00    0.91285   0.91623   11.706
 6348.00    0.92127   0.91547   11.527
 6349.00    0.92148   0.91261   11.532
 6350.00    0.91897   0.90800   11.655
 6351.00    0.92375   0.90216   11.775
 6352.00    0.93077   0.89559   11.812
 6353.00    0.92804   0.88869   11.733
 6354.00    0.91418   0.88182   11.543
 6355.00    0.89368   0.87535   11.263
 6356.00    0.86645   0.86986   10.919
 6357.00    0.83239   0.86602   10.521
 6358.00    0.79926   0.86454   10.067
 6359.00    0.77761   0.86585    9.618
 6360.00    0.77303   0.86997    9.343
 6361.00    0.78381   0.87641    9.324
 6362.00    0.80031   0.88432    9.407
 6363.00    0.81728   0.89263    9.400
 6364.00    0.84523   0.90041    9.306
 6365.00    0.88890   0.90710    9.256
 6366.00    0.92681   0.91257    9.386
 6367.00    0.93791   0.91701    9.748
 6368.00    0.92690   0.92064   10.218
 6369.00    0.91082   0.92355   10.584
 6370.00    0.90430   0.92555   10.724
 6371.00    0.91035   0.92636   10.698
 6372.00    0.91623   0.92580   10.746
 6373.00    0.91271   0.92397   11.002
 6374.00    0.90665   0.92131   11.324
 6375.00    0.90488   0.91847   11.554
 6376.00    0.90376   0.91609   11.735
 6377.00    0.89907   0.91462   11.916
 6378.00    0.89185   0.91424   12.011
 6379.00    0.88234   0.91483   12.050
 6380.00    0.86745   0.91610   12.269
 6381.00    0.84787   0.91773   12.696
 6382.00    0.83095   0.91939   12.945
 6383.00    0.82416   0.92065   12.779
 6384.00    0.83079   0.92102   12.448
 6385.00    0.84686   0.92002   12.309
 6386.00    0.86245   0.91737   12.562
 6387.00    0.87360   0.91333   12.850
 6388.00    0.88456   0.90873   12.281
 6389.00    0.89462   0.90475   10.917
 6390.00    0.89642   0.90240    9.640
 6391.00    0.89056   0.90196    8.736
 6392.00    0.88568   0.90278    8.117
 6393.00    0.87891   0.90373    7.815
 6394.00    0.85818   0.90393    7.954
 6395.00    0.83259   0.90340    8.475
 6396.00    0.82885   0.90303    9.064
 6397.00    0.85092   0.90398    9.508
 6398.00    0.87795   0.90673    9.865
 6399.00    0.89416   0.91073   10.132
 6400.00    0.89552   0.91462   10.233
 6401.00    0.88451   0.91701   10.417
 6402.00    0.86965   0.91722   11.101
 6403.00    0.86748   0.91550   12.066
 6404.00    0.89023   0.91275   12.407
 6405.00    0.91835   0.90993   12.122
 6406.00    0.91751   0.90776   12.031
 6407.00    0.88603   0.90659   12.207
 6408.00    0.85039   0.90646   12.233
 6409.00    0.83722   0.90720   12.160
 6410.00    0.85974   0.90849   12.303
 6411.00    0.90439   0.90981   12.526
 6412.00    0.94399   0.91051   12.423
 6413.00    0.96321   0.91007   11.945
 6414.00    0.96055   0.90843   11.336
 6415.00    0.94436   0.90618   10.813
 6416.00    0.92560   0.90442   10.511
 6417.00    0.90869   0.90430   10.529
 6418.00    0.89355   0.90649   10.883
 6419.00    0.88015   0.91084   11.383
 6420.00    0.86900   0.91635   11.744
 6421.00    0.86101   0.92160   11.895
 6422.00    0.85590   0.92516   11.772
 6423.00    0.85031   0.92614   11.061
 6424.00    0.83541   0.92438    9.911
 6425.00    0.79664   0.92053    9.061
 6426.00    0.73570   0.91589    8.817
 6427.00    0.68866   0.91196    8.903
 6428.00    0.68780   0.90991    9.069
 6429.00    0.72710   0.91005    9.505
 6430.00    0.78471   0.91168   10.460
 6431.00    0.84495   0.91355   11.730
 6432.00    0.90001   0.91450   12.527
 6433.00    0.94870   0.91423   12.021
 6434.00    0.98653   0.91340   10.720
 6435.00    1.00057   0.91328    9.921
 6436.00    0.98518   0.91499   10.006
 6437.00    0.95159   0.91889   10.545
 6438.00    0.91746   0.92435   10.986
 6439.00    0.89794   0.92994   11.101
 6440.00    0.89499   0.93394   11.065
 6441.00    0.89534   0.93491   11.245
 6442.00    0.89367   0.93207   11.464
 6443.00    0.89976   0.92557   10.842
 6444.00    0.90952   0.91661    9.536
 6445.00    0.89830   0.90722    8.570
 6446.00    0.86068   0.89967    8.169
 6447.00    0.82243   0.89562    8.060
 6448.00    0.80784   0.89556    8.158
 6449.00    0.82443   0.89871    8.655
 6450.00    0.86214   0.90364    9.613
 6451.00    0.89948   0.90894   10.653
 6452.00    0.92679   0.91376   11.087
 6453.00    0.94828   0.91767   10.553
 6454.00    0.95875   0.92028    9.582
 6455.00    0.94394   0.92109    8.912
 6456.00    0.90820   0.91980    8.782
 6457.00    0.87482   0.91668    9.167
 6458.00    0.85991   0.91283    9.876
 6459.00    0.86586   0.90982   10.481
 6460.00    0.88608   0.90899   10.704
 6461.00    0.90945   0.91075   10.664
 6462.00    0.92807   0.91440   10.594
 6463.00    0.93879   0.91851   10.679
 6464.00    0.94201   0.92167   11.026
 6465.00    0.94364   0.92313   11.540
 6466.00    0.95948   0.92298   11.534
 6467.00    1.00123   0.92188   10.452
 6468.00    1.04711   0.92065    9.212
 6469.00    1.06086   0.91990    8.646
 6470.00    1.03804   0.91984    8.613
 6471.00    0.99764   0.92029    8.730
 6472.00    0.95178   0.92083    9.004
 6473.00    0.90696   0.92094    9.676
 6474.00    0.87474   0.92008   10.737
 6475.00    0.86711   0.91792   11.819
 6476.00    0.88668   0.91454   12.429
 6477.00    0.92132   0.91052   12.406
 6478.00    0.94050   0.90688   12.251
 6479.00    0.92353   0.90462   12.451
 6480.00    0.89442   0.90430   12.773
 6481.00    0.88687   0.90576   12.776
 6482.00    0.89791   0.90810   12.638
 6483.00    0.90855   0.90997   12.687
 6484.00    0.91286   0.90992   12.775
 6485.00    0.91234   0.90684   12.602
 6486.00    0.90697   0.90004   12.145
 6487.00    0.89740   0.88947   11.596
 6488.00    0.88736   0.87583   11.187
 6489.00    0.87737   0.86066   11.069
 6490.00    0.86042   0.84612   11.271
 6491.00    0.83636   0.83456   11.641
 6492.00    0.82165   0.82791   11.742
 6493.00    0.82693   0.82715   11.316
 6494.00    0.84067   0.83204   10.677
 6495.00    0.84522   0.84133   10.184
 6496.00    0.83136   0.85325    9.970
 6497.00    0.81154   0.86607   10.029
 6498.00    0.82085   0.87834   10.267
 6499.00    0.86984   0.88907   10.625
 6500.00    0.92314   0.89774   11.141
 6501.00    0.95117   0.90414   11.835
 6502.00    0.95752   0.90842   12.583
 6503.00    0.95670   0.91096   13.114
 6504.00    0.95878   0.91230   13.142
 6505.00    0.95784   0.91298   12.858
 6506.00    0.93429   0.91333   12.864
 6507.00    0.89045   0.91342   13.212
 6508.00    0.85751   0.91303   13.245
 6509.00    0.85302   0.91184   12.803
 6510.00    0.86763   0.90970   12.499
 6511.00    0.88792   0.90678   12.505
 6512.00    0.90632   0.90364   12.436
 6513.00    0.92170   0.90103   12.150
 6514.00    0.93603   0.89972   11.896
 6515.00    0.94255   0.90012   11.813
 6516.00    0.92895   0.90213   11.855
 6517.00    0.90010   0.90517   11.937
 6518.00    0.87739   0.90838   11.978
 6519.00    0.87534   0.91093   11.903
 6520.00    0.89406   0.91228   11.702
 6521.00    0.91868   0.91235   11.544
 6522.00    0.92718   0.91145   11.633
 6523.00    0.90987   0.91007   11.853
 6524.00    0.87264   0.90866   11.870
 6525.00    0.83219   0.90750   11.710
 6526.00    0.80839   0.90664   11.673
 6527.00    0.81047   0.90606   11.876
 6528.00    0.83389   0.90579    0.000
 6529.00    0.86107   0.90600    0.000
 6530.00    0.87465   0.90685    0.000
 6531.00    0.88109   0.90834    0.000
 6532.00    0.89826   0.91029    0.000
 6533.00    0.92675   0.91233    0.000
 6534.00    0.95472   0.91399    0.000
 6535.00    0.97392   0.91476    0.000
 6536.00    0.98306   0.91418    0.000
 6537.00    0.98843   0.91195    0.000
 6538.00    0.99587   0.90803    0.000
 6539.00    1.00037   0.90273    0.000
 6540.00    0.99761   0.89671    0.000
 6541.00    0.99951   0.89084    0.000
 6542.00    1.01830   0.88591    0.000
 6543.00    1.04597   0.88239    0.000
 6544.00    1.06363   0.88019    0.000
 6545.00    1.05556   0.87868    0.000
 6546.00    1.01977   0.87692    0.000
 6547.00    0.97583   0.87407    0.000
 6548.00    0.94749   0.86971    0.000
 6549.00    0.94464   0.86387    0.000
 6550.00    0.95786   0.85692    0.000
 6551.00    0.95922   0.84916    0.000
 6552.00    0.93822   0.84034    0.000
 6553.00    0.92844   0.82940    0.000
 6554.00    0.97828   0.81507    0.000
 6555.00    1.12372   0.79674    0.000
 6556.00    1.36631   0.77521    0.000
 6557.00    1.66085   0.75326    0.000
 6558.00    1.93151   0.73536    0.000
 6559.00    2.09098   0.72600    0.000
 6560.00    2.08800   0.72788    0.000
 6561.00    1.93367   0.74080    0.000
 6562.00    1.68344   0.76159    0.000
 6563.00    1.41740   0.78535    0.000
 6564.00    1.19608   0.80735    0.000
 6565.00    1.03979   0.82453    0.000
 6566.00    0.94332   0.83598    0.000
 6567.00    0.88751   0.84249    0.000
 6568.00    0.85591   0.84592    0.000
 6569.00    0.84055   0.84837    0.000
 6570.00    0.83452   0.85134    0.000
 6571.00    0.83014   0.85557    0.000
 6572.00    0.82511   0.86105    0.000
 6573.00    0.82494   0.86714    0.000
 6574.00    0.84241   0.87294    0.000
 6575.00    0.89474   0.87772    0.000
 6576.00    0.99484   0.88117    0.000
 6577.00    1.14236   0.88342    0.000
 6578.00    1.30621   0.88499    0.000
 6579.00    1.43348   0.88643    0.000
 6580.00    1.49045   0.88810    0.000
 6581.00    1.47106   0.89009    0.000
 6582.00    1.38616   0.89213    0.000
 6583.00    1.26037   0.89366    0.000
 6584.00    1.13126   0.89394    0.000
 6585.00    1.03619   0.89235    0.000
 6586.00    0.98311   0.88872    0.000
 6587.00    0.95521   0.88349    0.000
 6588.00    0.93544   0.87767    0.000
 6589.00    0.91387   0.87263    0.000
 6590.00    0.89126   0.86959    0.000
 6591.00    0.87528   0.86921    0.000
 6592.00    0.87231   0.87142    0.000
 6593.00    0.88282   0.87556    0.000
 6594.00    0.89661   0.88064    0.000
 6595.00    0.90004   0.88580    0.000
 6596.00    0.88858   0.89030    0.000
 6597.00    0.86558   0.89357    0.000
 6598.00    0.83753   0.89520    0.000
 6599.00    0.81414   0.89501    0.000
 6600.00    0.80878   0.89302    0.000
 6601.00    0.82998   0.88961    0.000
 6602.00    0.87104   0.88562    0.000
 6603.00    0.91644   0.88200    0.000
 6604.00    0.95133   0.87965    0.000
 6605.00    0.96596   0.87913    0.000
 6606.00    0.95930   0.88059    0.000
 6607.00    0.93958   0.88372    0.000
 6608.00    0.92345   0.88785    0.000
 6609.00    0.92583   0.89222   11.809
 6610.00    0.95014   0.89622   11.691
 6611.00    0.98619   0.89955   11.359
 6612.00    1.01112   0.90213   11.222
 6613.00    1.00685   0.90401   11.548
 6614.00    0.97440   0.90517   12.073
 6615.00    0.93195   0.90552   12.412
 6616.00    0.90873   0.90485   12.518
 6617.00    0.91691   0.90306   12.542
 6618.00    0.93600   0.90025   12.620
 6619.00    0.94216   0.89680   12.775
 6620.00    0.92810   0.89328   12.896
 6621.00    0.90172   0.89026   12.913
 6622.00    0.88163   0.88804   12.896
 6623.00    0.88089   0.88655   12.906
 6624.00    0.89873   0.88532   12.907
 6625.00    0.92658   0.88375   12.781
 6626.00    0.95227   0.88146   12.417
 6627.00    0.96434   0.87857   11.990
 6628.00    0.95646   0.87565   11.869
 6629.00    0.93789   0.87342   12.015
 6630.00    0.93032   0.87256   11.948
 6631.00    0.93556   0.87334   11.582
 6632.00    0.93218   0.87550   11.364
 6633.00    0.91507   0.87845   11.476
 6634.00    0.90309   0.88131   11.735
 6635.00    0.91007   0.88324   11.941
 6636.00    0.93306   0.88395   12.023
 6637.00    0.95037   0.88360   12.065
 6638.00    0.93379   0.88256   12.224
 6639.00    0.88689   0.88136   12.481
 6640.00    0.84113   0.88055   12.662
 6641.00    0.81130   0.88048   12.803
 6642.00    0.79169   0.88118   13.126
 6643.00    0.78076   0.88239   13.579
 6644.00    0.78446   0.88376   13.686
 6645.00    0.80748   0.88494   13.686
 6646.00    0.84813   0.88575   13.433
 6647.00    0.89202   0.88611   13.119
 6648.00    0.91920   0.88605   12.902
 6649.00    0.92173   0.88574   12.790
 6650.00    0.90586   0.88537   12.712
 6651.00    0.88825   0.88496   12.541
 6652.00    0.88493   0.88438   12.228
 6653.00    0.89322   0.88347   11.972
 6654.00    0.90113   0.88194   11.960
 6655.00    0.90812   0.87954   11.998
 6656.00    0.91611   0.87630   11.839
 6657.00    0.91104   0.87254   11.752
 6658.00    0.88240   0.86876   12.084
 6659.00    0.85378   0.86552   12.561
 6660.00    0.85609   0.86341   12.668
 6661.00    0.88668   0.86283   12.552
 6662.00    0.92366   0.86393   12.620
 6663.00    0.95063   0.86652   12.837
 6664.00    0.95830   0.87013   12.998
 6665.00    0.94317   0.87419   13.146
 6666.00    0.91114   0.87812   13.364
 6667.00    0.88031   0.88129   13.477
 6668.00    0.86680   0.88309   13.325
 6669.00    0.87099   0.88290   13.071
 6670.00    0.88676   0.88042   12.880
 6671.00    0.91049   0.87598   12.670
 6672.00    0.93331   0.87053   12.363
 6673.00    0.93604   0.86519   12.073
 6674.00    0.91010   0.86111   11.935
 6675.00    0.87228   0.85922   11.990
 6676.00    0.84470   0.85980   12.132
 6677.00    0.83835   0.86252   12.096
 6678.00    0.85089   0.86653   11.877
 6679.00    0.86828   0.87083   11.894
 6680.00    0.88179   0.87464   12.280
 6681.00    0.89552   0.87751   12.542
 6682.00    0.90533   0.87936   12.428
 6683.00    0.89180   0.88041   12.439
 6684.00    0.85415   0.88096   12.850
 6685.00    0.82222   0.88119   13.287
 6686.00    0.81820   0.88110   13.456
 6687.00    0.83855   0.88052   13.565
 6688.00    0.86644   0.87920   13.686
 6689.00    0.88274   0.87702   13.578
 6690.00    0.88595   0.87422   13.198
 6691.00    0.89346   0.87127   12.919
 6692.00    0.91069   0.86879   12.918
 6693.00    0.92360   0.86734   13.076
 6694.00    0.91946   0.86713   13.121
 6695.00    0.89646   0.86794   12.812
 6696.00    0.86772   0.86922    0.000
 6697.00    0.85513   0.87040    0.000
 6698.00    0.86536   0.87115    0.000
 6699.00    0.88637   0.87140    0.000
 6700.00    0.90132   0.87127    0.000
 6701.00    0.89837   0.87103    0.000
 6702.00    0.88526   0.87088    0.000
 6703.00    0.88123   0.87079    0.000
 6704.00    0.88630   0.87062    0.000
 6705.00    0.88651   0.87008    0.000
 6706.00    0.88582   0.86879    0.000
 6707.00    0.90153   0.86654    0.000
 6708.00    0.93658   0.86323    0.000
 6709.00    0.98309   0.85894    0.000
 6710.00    1.04222   0.85407    0.000
 6711.00    1.11541   0.84941    0.000
 6712.00    1.18032   0.84585    0.000
 6713.00    1.20424   0.84395    0.000
 6714.00    1.17588   0.84392    0.000
 6715.00    1.10261   0.84573    0.000
 6716.00    0.99627   0.84900    0.000
 6717.00    0.87552   0.85298    0.000
 6718.00    0.77214   0.85677    0.000
 6719.00    0.71695   0.85983    0.000
 6720.00    0.71844   0.86205    0.000
 6721.00    0.76300   0.86356    0.000
 6722.00    0.82079   0.86462    0.000
 6723.00    0.86813   0.86560    0.000
 6724.00    0.91239   0.86668    0.000
 6725.00    0.96783   0.86776    0.000
 6726.00    1.02545   0.86865    0.000
 6727.00    1.06552   0.86926    0.000
 6728.00    1.07470   0.86952    0.000
 6729.00    1.04918   0.86936    0.000
 6730.00    0.99593   0.86866    0.000
 6731.00    0.93077   0.86738    0.000
 6732.00    0.87520   0.86567    0.000
 6733.00    0.84514   0.86380    0.000
 6734.00    0.84149   0.86193    0.000
 6735.00    0.84965   0.86008    0.000
 6736.00    0.84375   0.85839    0.000
 6737.00    0.81616   0.85708    0.000
 6738.00    0.79386   0.85619    0.000
 6739.00    0.79945   0.85554    0.000
 6740.00    0.82597   0.85500    0.000
 6741.00    0.85417   0.85439    0.000
 6742.00    0.86632   0.85355    0.000
 6743.00    0.85554   0.85246    0.000
 6744.00    0.82944   0.85132    0.000
 6745.00    0.80169   0.85029    0.000
 6746.00    0.78508   0.84952    0.000
 6747.00    0.78097   0.84941    0.000
 6748.00    0.77574   0.85021    0.000
 6749.00    0.74929   0.85200    0.000
 6750.00    0.68538   0.85480    0.000
 6751.00    0.59768   0.85838    0.000
 6752.00    0.53295   0.86241    0.000
 6753.00    0.53742   0.86646    6.138
 6754.00    0.63232   0.87004    6.496
 6755.00    0.77724   0.87276    6.986
 6756.00    0.88457   0.87448    7.567
 6757.00    0.91571   0.87511    8.061
 6758.00    0.89853   0.87461    8.142
 6759.00    0.87250   0.87298    7.927
 6760.00    0.86565   0.87036    7.899
 6761.00    0.88231   0.86718    8.260
 6762.00    0.90671   0.86397    8.890
 6763.00    0.92279   0.86104    9.453
 6764.00    0.92111   0.85870    9.550
 6765.00    0.90182   0.85741    9.395
 6766.00    0.87327   0.85748    9.512
 6767.00    0.84697   0.85898    9.708
 6768.00    0.83067   0.86172    9.406
 6769.00    0.81660   0.86531    9.014
 6770.00    0.79188   0.86922    9.313
 6771.00    0.76424   0.87296   10.272
 6772.00    0.75233   0.87610   11.083
 6773.00    0.75759   0.87824   11.105
 6774.00    0.76893   0.87894   10.519
 6775.00    0.78053   0.87785    9.845
 6776.00    0.79300   0.87489    9.411
 6777.00    0.80995   0.87038    9.196
 6778.00    0.83374   0.86508    9.114
 6779.00    0.86027   0.85993    9.288
 6780.00    0.88281   0.85583    9.828
 6781.00    0.89825   0.85343   10.363
 6782.00    0.90557   0.85287   10.377
 6783.00    0.90271   0.85384   10.165
 6784.00    0.88926   0.85583   10.125
 6785.00    0.86952   0.85808    9.841
 6786.00    0.84501   0.85982    9.027
 6787.00    0.80742   0.86067    8.304
 6788.00    0.75983   0.86067    8.108
 6789.00    0.73583   0.86013    8.308
 6790.00    0.75538   0.85946    8.692
 6791.00    0.78501   0.85907    9.273
 6792.00    0.78944   0.85919   10.129
 6793.00    0.77856   0.85992   11.108
 6794.00    0.77567   0.86116   11.838
 6795.00    0.78795   0.86270   11.970
 6796.00    0.81169   0.86421   11.395
 6797.00    0.83834   0.86535   10.330
 6798.00    0.85599   0.86604    9.282
 6799.00    0.85194   0.86626    8.728
 6800.00    0.82535   0.86599    8.747
 6801.00    0.79364   0.86542    9.072
 6802.00    0.77818   0.86473    9.489
 6803.00    0.79157   0.86395   10.071
 6804.00    0.81834   0.86322   10.829
 6805.00    0.81498   0.86271   11.344
 6806.00    0.76978   0.86238   10.914
 6807.00    0.72253   0.86205    9.392
 6808.00    0.69816   0.86167    7.784
 6809.00    0.68276   0.86150    6.886
 6810.00    0.67215   0.86175    6.639
 6811.00    0.68663   0.86236    6.713
 6812.00    0.73298   0.86311    7.020
 6813.00    0.79340   0.86386    7.792
 6814.00    0.84981   0.86463    9.135
 6815.00    0.89258   0.86559   10.518
 6816.00    0.91549   0.86682   11.360
 6817.00    0.91608   0.86821   11.999
 6818.00    0.90371   0.86956   12.616
 6819.00    0.89595   0.87062   12.702
 6820.00    0.89868   0.87112   12.307
 6821.00    0.90418   0.87080   12.024
 6822.00    0.90483   0.86972   11.655
 6823.00    0.89670   0.86836   10.640
 6824.00    0.87820   0.86719    9.480
 6825.00    0.85176   0.86646    8.866
 6826.00    0.82904   0.86626    8.688
 6827.00    0.82452   0.86664    8.575
 6828.00    0.83794   0.86745    8.641
 6829.00    0.85674   0.86825    9.276
 6830.00    0.87020   0.86845   10.358
 6831.00    0.87325   0.86757   10.930
 6832.00    0.86720   0.86530   10.213
 6833.00    0.85333   0.86163    8.725
 6834.00    0.82127   0.85690    7.458
 6835.00    0.76110   0.85180    6.808
 6836.00    0.68728   0.84729    6.710
 6837.00    0.62956   0.84433    7.065
 6838.00    0.61123   0.84351    7.853
 6839.00    0.63802   0.84483    9.050
 6840.00    0.68832   0.84778   10.438
 6841.00    0.73626   0.85170   11.511
 6842.00    0.78413   0.85583   11.939
 6843.00    0.83963   0.85942   11.892
 6844.00    0.88247   0.86200   11.750
 6845.00    0.88709   0.86339   11.777
 6846.00    0.85454   0.86358   11.952
 6847.00    0.80777   0.86256   12.079
 6848.00    0.78015   0.86031   11.938
 6849.00    0.78948   0.85718   11.563
 6850.00    0.81529   0.85386   11.368
 6851.00    0.83034   0.85082   11.494
 6852.00    0.83141   0.84833   11.377
 6853.00    0.82217   0.84656   10.720
 6854.00    0.79738   0.84538   10.175
 6855.00    0.76099   0.84474   10.093
 6856.00    0.73876   0.84498   10.055
 6857.00    0.74806   0.84631    9.825
 6858.00    0.77678   0.84831    9.892
 6859.00    0.80783   0.85023   10.477
 6860.00    0.83622   0.85157   10.857
 6861.00    0.85797   0.85203   10.357
 6862.00    0.86414   0.85170    9.449
 6863.00    0.85503   0.85107    8.695
 6864.00    0.84571   0.85034    8.238
 6865.00    0.84634   0.84941    8.109
 6866.00    0.85345   0.84850    8.351
 6867.00    0.86671   0.84815    8.940
 6868.00    0.89364   0.84850    9.692
 6869.00    0.92727   0.84939   10.390
 6870.00    0.94239   0.85076   10.963
 6871.00    0.93021   0.85259   11.413
 6872.00    0.90817   0.85457   11.731
 6873.00    0.89248   0.85630   11.931
 6874.00    0.88748   0.85739   12.055
 6875.00    0.89193   0.85749   12.131
 6876.00    0.90161   0.85659   12.176
 6877.00    0.90917   0.85533   12.221
 6878.00    0.90751   0.85443   12.299
 6879.00    0.90124   0.85415   12.360
 6880.00    0.90421   0.85462   12.290
 6881.00    0.91990   0.85619   12.100
 6882.00    0.93770   0.85881   11.922
 6883.00    0.94060   0.86204   11.850
 6884.00    0.91547   0.86543   11.887
 6885.00    0.87328   0.86854   11.905
 6886.00    0.84146   0.87087   11.721
 6887.00    0.83151   0.87225   11.341
 6888.00    0.83658   0.87281   10.931
 6889.00    0.84510   0.87261   10.640
 6890.00    0.84912   0.87191   10.551
 6891.00    0.85431   0.87118   10.662
 6892.00    0.86945   0.87065   10.879
 6893.00    0.88205   0.87025   10.996
 6894.00    0.86932   0.87000   10.812
 6895.00    0.82702   0.87014   10.394
 6896.00    0.77189   0.87074    9.984
 6897.00    0.73542   0.87151    9.798
 6898.00    0.74281   0.87227    9.951
 6899.00    0.78274   0.87304   10.381
 6900.00    0.82563   0.87393   10.941
 6901.00    0.85725   0.87499   11.578
 6902.00    0.87877   0.87600   12.246
 6903.00    0.89913   0.87677   12.656
 6904.00    0.92276   0.87702   12.568
 6905.00    0.93677   0.87648   12.307
 6906.00    0.92967   0.87509   12.250
 6907.00    0.91363   0.87283   12.282
 6908.00    0.90186   0.86996   12.201
 6909.00    0.88335   0.86718   12.164
 6910.00    0.84934   0.86498   12.345
 6911.00    0.82047   0.86357   12.567
 6912.00    0.81762   0.86331   12.570
 6913.00    0.83386   0.86425   12.344
 6914.00    0.85335   0.86599   12.086
 6915.00    0.86980   0.86799   12.061
 6916.00    0.88178   0.86958   12.327
 6917.00    0.88762   0.87007   12.565
 6918.00    0.88605   0.86910   12.529
 6919.00    0.87727   0.86710   12.436
 6920.00    0.86556   0.86489   12.506
 6921.00    0.85960   0.86323   12.652
 6922.00    0.86215   0.86247   12.668
 6923.00    0.86466   0.86258   12.419
 6924.00    0.85661   0.86340   12.013
 6925.00    0.83346   0.86454   11.751
 6926.00    0.80821   0.86552   11.645
 6927.00    0.81000   0.86607   11.360
 6928.00    0.84409   0.86646   10.911
 6929.00    0.87967   0.86697   10.727
 6930.00    0.89482   0.86757   10.807
 6931.00    0.89423   0.86829   10.607
 6932.00    0.88656   0.86925   10.093
 6933.00    0.87618   0.87046    9.836
 6934.00    0.87395   0.87172    9.972
 6935.00    0.89386   0.87262   10.141
 6936.00    0.92254   0.87262   10.264
 6937.00    0.92279   0.87147   10.698
 6938.00    0.88819   0.86931   11.471
 6939.00    0.84980   0.86666   12.013
 6940.00    0.83145   0.86446   12.012
 6941.00    0.83549   0.86334   11.830
 6942.00    0.84690   0.86326   11.813
 6943.00    0.84397   0.86389   12.052
 6944.00    0.82371   0.86476   12.348
 6945.00    0.80208   0.86529   12.320
 6946.00    0.79476   0.86532   11.904
 6947.00    0.80880   0.86498   11.380
 6948.00    0.83542   0.86440   11.003
 6949.00    0.85593   0.86400   10.884
 6950.00    0.85870   0.86433   10.930
 6951.00    0.84298   0.86549   10.973
 6952.00    0.81808   0.86725   11.056
 6953.00    0.79872   0.86936   11.307
 6954.00    0.79651   0.87156   11.550
 6955.00    0.81463   0.87363   11.504
 6956.00    0.84193   0.87545   11.407
 6957.00    0.86170   0.87690   11.659
 6958.00    0.86809   0.87796   12.094
 6959.00    0.86485   0.87859   12.238
 6960.00    0.85889   0.87892   12.122
 6961.00    0.85521   0.87935   12.060
 6962.00    0.85149   0.88010   12.064
 6963.00    0.84470   0.88089   11.987
 6964.00    0.84036   0.88130   11.812
 6965.00    0.84399   0.88118   11.617
 6966.00    0.84953   0.88064   11.464
 6967.00    0.84737   0.87969   11.362
 6968.00    0.83547   0.87782   11.246
 6969.00    0.81971   0.87446   11.064
 6970.00    0.81193   0.86960   10.868
 6971.00    0.81699   0.86359   10.755
 6972.00    0.82206   0.85696   10.805
 6973.00    0.81856   0.85100   11.009
 6974.00    0.82062   0.84746   11.189
 6975.00    0.83726   0.84721   11.245
 6976.00    0.85034   0.85001   11.373
 6977.00    0.84692   0.85519   11.718
 6978.00    0.84310   0.86167   12.092
 6979.00    0.85295   0.86823   12.280
 6980.00    0.86673   0.87392   12.359
 6981.00    0.87238   0.87807   12.455
 6982.00    0.87047   0.88027   12.541
 6983.00    0.86623   0.88069   12.560
 6984.00    0.86394   0.88014   12.515
 6985.00    0.86831   0.87956   12.412
 6986.00    0.88434   0.87941   12.227
 6987.00    0.91124   0.87962   11.937
 6988.00    0.94001   0.87983   11.562
 6989.00    0.95937   0.87989   11.241
 6990.00    0.96056   0.87979   11.184
 6991.00    0.94462   0.87937   11.429
 6992.00    0.92256   0.87827   11.779
 6993.00    0.90045   0.87619   12.006
 6994.00    0.87517   0.87338   12.007
 6995.00    0.84477   0.87068   11.921
 6996.00    0.81329   0.86873   12.024
 6997.00    0.79193   0.86734   12.304
 6998.00    0.79403   0.86602   12.410
 6999.00    0.81664   0.86476   12.205
 7000.00    0.84072   0.86397   11.912
 7001.00    0.85325   0.86390   -2.000
 7002.00    0.85226   0.86452   -2.000
 7003.00    0.83921   0.86562   -2.000
 7004.00    0.81791   0.86682   -2.000
 7005.00    0.79803   0.86771   -2.000
 7006.00    0.79237   0.86810   -2.000
 7007.00    0.80704   0.86795   -2.000
 7008.00    0.83761   0.86697   -2.000
 7009.00    0.86648   0.86475   -2.000
 7010.00    0.87319   0.86141   -2.000
 7011.00    0.85810   0.85823   -2.000
 7012.00    0.83793   0.85693   -2.000
 7013.00    0.82525   0.85796   -2.000
 7014.00    0.82317   0.86043   -2.000
 7015.00    0.82384   0.86332   -2.000
 7016.00    0.81891   0.86579   -2.000
 7017.00    0.81763   0.86709   -2.000
 7018.00    0.83253   0.86706   -2.000
 7019.00    0.85153   0.86629   -2.000
 7020.00    0.85700   0.86555   -2.000
 7021.00    0.86065   0.86536   -2.000
 7022.00    0.88046   0.86589   -2.000
 7023.00    0.90174   0.86727   -2.000
 7024.00    0.90140   0.86939   -2.000
 7025.00    0.88607   0.87187   -2.000
 7026.00    0.87382   0.87410   -2.000
 7027.00    0.86627   0.87565   -2.000
 7028.00    0.85918   0.87645   -2.000
 7029.00    0.85763   0.87671   -2.000
 7030.00    0.86490   0.87674   -2.000
 7031.00    0.87051   0.87658   -2.000
 7032.00    0.86867   0.87602   -2.000
 7033.00    0.87503   0.87571   -2.000
 7034.00    0.89987   0.87714   -2.000
 7035.00    0.92512   0.88080   -2.000
 7036.00    0.93471   0.88571   -2.000
 7037.00    0.93838   0.89078   -2.000
 7038.00    0.93821   0.89521   -2.000
 7039.00    0.90704   0.89858   -2.000
 7040.00    0.84088   0.90111   -2.000
 7041.00    0.78956   0.90313   -2.000
 7042.00    0.78953   0.90444   -2.000
 7043.00    0.82178   0.90470   -2.000
 7044.00    0.85273   0.90360   -2.000
 7045.00    0.86299   0.90082   -2.000
 7046.00    0.85089   0.89610   -2.000
 7047.00    0.83094   0.88940   -2.000
 7048.00    0.81778   0.88142   -2.000
 7049.00    0.81749   0.87339   -2.000
 7050.00    0.82917   0.86628   -2.000
 7051.00    0.84532   0.86068   -2.000
 7052.00    0.84909   0.85651   -2.000
 7053.00    0.82158   0.85314   -2.000
 7054.00    0.77862   0.85015   -2.000
 7055.00    0.76996   0.84767   -2.000
 7056.00    0.81126   0.84598   -2.000
 7057.00    0.86882   0.84492   -2.000
 7058.00    0.90916   0.84418   -2.000
 7059.00    0.91826   0.84360   -2.000
 7060.00    0.90056   0.84279   -2.000
 7061.00    0.87367   0.84147   -2.000
 7062.00    0.85349   0.83991   -2.000
 7063.00    0.84819   0.83871   -2.000
 7064.00    0.85528   0.83881   -2.000
 7065.00    0.86506   0.84069   -2.000
 7066.00    0.87214   0.84380   -2.000
 7067.00    0.87920   0.84743   -2.000
 7068.00    0.89758   0.85131   -2.000
 7069.00    0.93719   0.85508   -2.000
 7070.00    0.98314   0.85825   -2.000
 7071.00    1.00534   0.86061   -2.000
 7072.00    0.99177   0.86215   -2.000
 7073.00    0.95237   0.86290   -2.000
 7074.00    0.91079   0.86284   -2.000
 7075.00    0.88890   0.86183   -2.000
 7076.00    0.88153   0.85948   -2.000
 7077.00    0.87068   0.85524   -2.000
 7078.00    0.85814   0.84899   -2.000
 7079.00    0.85656   0.84139   -2.000
 7080.00    0.86580   0.83381   -2.000
 7081.00    0.87713   0.82719   -2.000
 7082.00    0.88550   0.82134   -2.000
 7083.00    0.89044   0.81617   -2.000
 7084.00    0.89428   0.81203   -2.000
 7085.00    0.89672   0.80902   -2.000
 7086.00    0.88894   0.80720   -2.000
 7087.00    0.86646   0.80636   -2.000
 7088.00    0.84439   0.80599   -2.000
 7089.00    0.84054   0.80623   -2.000
 7090.00    0.85425   0.80716   -2.000
 7091.00    0.86650   0.80868   -2.000
 7092.00    0.84549   0.81080   -2.000
 7093.00    0.78048   0.81343   -2.000
 7094.00    0.71019   0.81647   -2.000
 7095.00    0.68166   0.81923   -2.000
 7096.00    0.70969   0.82133   -2.000
 7097.00    0.77136   0.82275   -2.000
 7098.00    0.81183   0.82386   -2.000
 7099.00    0.80621   0.82493   -2.000
 7100.00    0.79842   0.82571   -2.000
 7101.00    0.82699   0.82559   -2.000
 7102.00    0.87437   0.82470   -2.000
 7103.00    0.90863   0.82365   -2.000
 7104.00    0.91512   0.82257   -2.000
 7105.00    0.90128   0.82115   -2.000
 7106.00    0.89207   0.81964   -2.000
 7107.00    0.89227   0.81885   -2.000
 7108.00    0.87384   0.81925   -2.000
 7109.00    0.82768   0.82053   -2.000
 7110.00    0.78348   0.82217   -2.000
 7111.00    0.76403   0.82388   -2.000
 7112.00    0.76665   0.82536   -2.000
 7113.00    0.78834   0.82636   -2.000
 7114.00    0.83293   0.82670   -2.000
 7115.00    0.88900   0.82631   -2.000
 7116.00    0.92942   0.82521   -2.000
 7117.00    0.94821   0.82360   -2.000
 7118.00    0.96302   0.82201   -2.000
 7119.00    0.96941   0.82032   -2.000
 7120.00    0.93295   0.81784   -2.000
 7121.00    0.82236   0.81464   -2.000
 7122.00    0.64286   0.81138   -2.000
 7123.00    0.50046   0.80838   -2.000
 7124.00    0.53779   0.80542   -2.000
 7125.00    0.69193   0.80246   -2.000
 7126.00    0.74518   0.80044   -2.000
 7127.00    0.65567   0.80041   -2.000
 7128.00    0.55409   0.80219   -2.000
 7129.00    0.50274   0.80513   -2.000
 7130.00    0.47924   0.80847   -2.000
 7131.00    0.48502   0.81178   -2.000
 7132.00    0.54142   0.81499   -2.000
 7133.00    0.62561   0.81739   -2.000
 7134.00    0.68811   0.81863   -2.000
 7135.00    0.71591   0.81941   -2.000
 7136.00    0.72605   0.82021   -2.000
 7137.00    0.72945   0.82057   -2.000
 7138.00    0.73012   0.82034   -2.000
 7139.00    0.73552   0.81962   -2.000
 7140.00    0.75405   0.81844   -2.000
 7141.00    0.78787   0.81688   -2.000
 7142.00    0.82953   0.81474   -2.000
 7143.00    0.85953   0.81231   -2.000
 7144.00    0.85985   0.81107   -2.000
 7145.00    0.83274   0.81169   -2.000
 7146.00    0.79494   0.81373   -2.000
 7147.00    0.76631   0.81695   -2.000
 7148.00    0.76222   0.82084   -2.000
 7149.00    0.78551   0.82450   -2.000
 7150.00    0.81670   0.82748   -2.000
 7151.00    0.81030   0.83001   -2.000
 7152.00    0.76559   0.83206   -2.000
 7153.00    0.78716   0.83282   -2.000
 7154.00    0.94327   0.83199   -2.000
 7155.00    1.13468   0.83008   -2.000
 7156.00    1.20706   0.82785   -2.000
 7157.00    1.07033   0.82552   -2.000
 7158.00    0.76595   0.82255   -2.000
 7159.00    0.49035   0.81889   -2.000
 7160.00    0.39358   0.81593   -2.000
 7161.00    0.43889   0.81535   -2.000
 7162.00    0.53949   0.81727   -2.000
 7163.00    0.65896   0.82055   -2.000
 7164.00    0.77014   0.82414   -2.000
 7165.00    0.83133   0.82777   -2.000
 7166.00    0.83631   0.83153   -2.000
 7167.00    0.83203   0.83507   -2.000
 7168.00    0.83481   0.83751   -2.000
 7169.00    0.80019   0.83825   -2.000
 7170.00    0.72673   0.83735   -2.000
 7171.00    0.68998   0.83542   -2.000
 7172.00    0.72835   0.83343   -2.000
 7173.00    0.80240   0.83163   -2.000
 7174.00    0.87652   0.82934   -2.000
 7175.00    0.94383   0.82635   -2.000
 7176.00    0.96658   0.82362   -2.000
 7177.00    0.88258   0.82228   -2.000
 7178.00    0.73076   0.82241   -2.000
 7179.00    0.65152   0.82274   -2.000
 7180.00    0.70599   0.82213   -2.000
 7181.00    0.82941   0.82040   -2.000
 7182.00    0.90502   0.81783   -2.000
 7183.00    0.83709   0.81517   -2.000
 7184.00    0.69027   0.81328   -2.000
 7185.00    0.64064   0.81250   -2.000
 7186.00    0.71132   0.81284   -2.000
 7187.00    0.77683   0.81383   -2.000
 7188.00    0.78402   0.81519   -2.000
 7189.00    0.77184   0.81725   -2.000
 7190.00    0.76780   0.81982   -2.000
 7191.00    0.77607   0.82194   -2.000
 7192.00    0.81118   0.82318   -2.000
 7193.00    0.88383   0.82415   -2.000
 7194.00    0.95496   0.82537   -2.000
 7195.00    0.95377   0.82650   -2.000
 7196.00    0.83441   0.82700   -2.000
 7197.00    0.62055   0.82680   -2.000
 7198.00    0.45952   0.82650   -2.000
 7199.00    0.49533   0.82628   -2.000
 7200.00    0.64373   0.82531   -2.000
 7201.00    0.72106   0.82284   -2.000
 7202.00    0.70498   0.81939   -2.000
 7203.00    0.67808   0.81672   -2.000
 7204.00    0.68394   0.81608   -2.000
 7205.00    0.71940   0.81731   -2.000
 7206.00    0.75474   0.81970   -2.000
 7207.00    0.76151   0.82233   -2.000
 7208.00    0.74292   0.82471   -2.000
 7209.00    0.71364   0.82699   -2.000
 7210.00    0.67277   0.82919   -2.000
 7211.00    0.61960   0.83120   -2.000
 7212.00    0.57290   0.83318   -2.000
 7213.00    0.55436   0.83499   -2.000
 7214.00    0.57034   0.83631   -2.000
 7215.00    0.61945   0.83716   -2.000
 7216.00    0.70028   0.83779   -2.000
 7217.00    0.80011   0.83838   -2.000
 7218.00    0.88694   0.83904   -2.000
